Data from Circ_1990_H10_HRD10591_00058.txt Node
Date: Wed Jan 03 11:55:15 EST 2024
User: Yrep
Spectrometer: HR+D1059
Trigger mode: 1
Integration Time (sec): 1.000000E-1
Scans to average: 1
Electric dark correction enabled: true
Nonlinearity correction enabled: false
Boxcar width: 0
XAxis mode: Wavelengths
Number of Pixels in Spectrum: 2048
>>>>>Begin Spectral Data<<<<<
223.165	-23.81
223.4	-23.81
223.635	-23.81
223.869	-22.81
224.104	-29.81
224.338	-19.81
224.573	-13.81
224.808	-9.81
225.042	-6.81
225.277	2.19
225.511	-2.81
225.746	8.19
225.98	-2.81
226.215	13.19
226.449	15.19
226.683	27.19
226.918	26.19
227.152	40.19
227.387	39.19
227.621	38.19
227.856	57.19
228.09	46.19
228.324	56.19
228.559	56.19
228.793	59.19
229.027	62.19
229.262	66.19
229.496	95.19
229.73	81.19
229.964	85.19
230.199	71.19
230.433	63.19
230.667	78.19
230.901	86.19
231.136	69.19
231.37	80.19
231.604	73.19
231.838	85.19
232.072	75.19
232.306	72.19
232.541	93.19
232.775	81.19
233.009	93.19
233.243	91.19
233.477	92.19
233.711	73.19
233.945	88.19
234.179	82.19
234.413	79.19
234.647	76.19
234.881	81.19
235.115	73.19
235.349	76.19
235.583	75.19
235.817	77.19
236.051	70.19
236.285	76.19
236.519	83.19
236.753	96.19
236.987	91.19
237.221	92.19
237.455	89.19
237.689	89.19
237.922	79.19
238.156	80.19
238.39	87.19
238.624	81.19
238.858	72.19
239.091	82.19
239.325	80.19
239.559	97.19
239.793	85.19
240.027	82.19
240.26	71.19
240.494	81.19
240.728	79.19
240.961	84.19
241.195	87.19
241.429	69.19
241.662	88.19
241.896	69.19
242.13	83.19
242.363	61.19
242.597	75.19
242.83	100.19
243.064	77.19
243.298	70.19
243.531	81.19
243.765	81.19
243.998	89.19
244.232	95.19
244.465	62.19
244.699	77.19
244.932	78.19
245.166	72.19
245.399	77.19
245.633	69.19
245.866	77.19
246.099	82.19
246.333	83.19
246.566	78.19
246.8	88.19
247.033	88.19
247.266	76.19
247.5	78.19
247.733	80.19
247.966	88.19
248.2	82.19
248.433	91.19
248.666	69.19
248.899	81.19
249.133	76.19
249.366	95.19
249.599	99.19
249.832	87.19
250.066	88.19
250.299	82.19
250.532	93.19
250.765	83.19
250.998	75.19
251.231	70.19
251.465	79.19
251.698	77.19
251.931	74.19
252.164	86.19
252.397	82.19
252.63	80.19
252.863	85.19
253.096	76.19
253.329	89.19
253.562	75.19
253.795	85.19
254.028	82.19
254.261	101.19
254.494	75.19
254.727	83.19
254.96	80.19
255.193	75.19
255.426	82.19
255.659	91.19
255.892	92.19
256.124	104.19
256.357	86.19
256.59	73.19
256.823	91.19
257.056	81.19
257.289	84.19
257.521	102.19
257.754	90.19
257.987	77.19
258.22	77.19
258.452	95.19
258.685	89.19
258.918	81.19
259.151	98.19
259.383	74.19
259.616	99.19
259.849	95.19
260.081	72.19
260.314	87.19
260.547	93.19
260.779	90.19
261.012	84.19
261.244	90.19
261.477	70.19
261.71	101.19
261.942	118.19
262.175	125.19
262.407	91.19
262.64	91.19
262.872	77.19
263.105	82.19
263.337	89.19
263.57	87.19
263.802	92.19
264.035	93.19
264.267	98.19
264.499	89.19
264.732	89.19
264.964	88.19
265.197	81.19
265.429	88.19
265.661	92.19
265.894	78.19
266.126	80.19
266.358	90.19
266.591	93.19
266.823	88.19
267.055	67.19
267.287	86.19
267.52	92.19
267.752	94.19
267.984	96.19
268.216	88.19
268.448	75.19
268.681	93.19
268.913	91.19
269.145	87.19
269.377	88.19
269.609	72.19
269.841	96.19
270.073	77.19
270.306	88.19
270.538	85.19
270.77	88.19
271.002	81.19
271.234	79.19
271.466	87.19
271.698	97.19
271.93	90.19
272.162	101.19
272.394	102.19
272.626	99.19
272.858	80.19
273.09	92.19
273.322	86.19
273.553	94.19
273.785	87.19
274.017	93.19
274.249	80.19
274.481	86.19
274.713	100.19
274.945	95.19
275.176	87.19
275.408	95.19
275.64	108.19
275.872	100.19
276.104	96.19
276.335	91.19
276.567	104.19
276.799	118.19
277.031	123.19
277.262	127.19
277.494	108.19
277.726	83.19
277.957	85.19
278.189	84.19
278.421	82.19
278.652	104.19
278.884	103.19
279.115	107.19
279.347	85.19
279.579	101.19
279.81	98.19
280.042	120.19
280.273	158.19
280.505	117.19
280.736	89.19
280.968	89.19
281.199	85.19
281.431	103.19
281.662	84.19
281.894	103.19
282.125	103.19
282.356	131.19
282.588	139.19
282.819	122.19
283.051	91.19
283.282	95.19
283.513	84.19
283.745	89.19
283.976	106.19
284.207	81.19
284.439	95.19
284.67	75.19
284.901	91.19
285.132	95.19
285.364	86.19
285.595	91.19
285.826	80.19
286.057	79.19
286.288	99.19
286.52	86.19
286.751	75.19
286.982	84.19
287.213	98.19
287.444	83.19
287.675	91.19
287.906	96.19
288.138	92.19
288.369	93.19
288.6	105.19
288.831	96.19
289.062	97.19
289.293	94.19
289.524	79.19
289.755	92.19
289.986	82.19
290.217	88.19
290.448	89.19
290.679	94.19
290.91	96.19
291.141	101.19
291.371	85.19
291.602	92.19
291.833	83.19
292.064	88.19
292.295	86.19
292.526	99.19
292.757	91.19
292.987	84.19
293.218	91.19
293.449	107.19
293.68	100.19
293.91	89.19
294.141	98.19
294.372	93.19
294.603	99.19
294.833	94.19
295.064	88.19
295.295	70.19
295.525	83.19
295.756	111.19
295.987	118.19
296.217	148.19
296.448	109.19
296.679	99.19
296.909	100.19
297.14	77.19
297.37	91.19
297.601	95.19
297.831	84.19
298.062	87.19
298.292	108.19
298.523	86.19
298.753	93.19
298.984	65.19
299.214	92.19
299.445	93.19
299.675	95.19
299.905	98.19
300.136	100.19
300.366	80.19
300.597	84.19
300.827	92.19
301.057	106.19
301.288	105.19
301.518	98.19
301.748	88.19
301.979	105.19
302.209	88.19
302.439	98.19
302.669	93.19
302.9	99.19
303.13	100.19
303.36	91.19
303.59	96.19
303.82	114.19
304.051	84.19
304.281	98.19
304.511	101.19
304.741	85.19
304.971	93.19
305.201	96.19
305.431	97.19
305.661	95.19
305.891	92.19
306.121	87.19
306.352	99.19
306.582	104.19
306.812	91.19
307.042	124.19
307.272	110.19
307.502	126.19
307.731	124.19
307.961	96.19
308.191	99.19
308.421	105.19
308.651	105.19
308.881	93.19
309.111	88.19
309.341	92.19
309.571	83.19
309.8	98.19
310.03	111.19
310.26	103.19
310.49	97.19
310.72	95.19
310.949	118.19
311.179	109.19
311.409	95.19
311.639	107.19
311.868	111.19
312.098	91.19
312.328	102.19
312.557	119.19
312.787	128.19
313.017	119.19
313.246	86.19
313.476	83.19
313.706	105.19
313.935	92.19
314.165	106.19
314.394	91.19
314.624	107.19
314.853	104.19
315.083	87.19
315.312	93.19
315.542	91.19
315.771	82.19
316.001	93.19
316.23	97.19
316.46	81.19
316.689	85.19
316.919	88.19
317.148	100.19
317.377	106.19
317.607	90.19
317.836	97.19
318.065	90.19
318.295	85.19
318.524	102.19
318.753	93.19
318.983	99.19
319.212	104.19
319.441	102.19
319.67	107.19
319.9	103.19
320.129	102.19
320.358	104.19
320.587	105.19
320.816	110.19
321.046	119.19
321.275	99.19
321.504	72.19
321.733	108.19
321.962	104.19
322.191	105.19
322.42	106.19
322.649	111.19
322.878	120.19
323.108	115.19
323.337	119.19
323.566	121.19
323.795	167.19
324.024	212.19
324.253	400.19
324.482	869.19
324.71	1817.19
324.939	2436.19
325.168	879.19
325.397	261.19
325.626	160.19
325.855	138.19
326.084	118.19
326.313	135.19
326.542	165.19
326.77	236.19
326.999	476.19
327.228	1017.19
327.457	1795.19
327.686	1462.19
327.914	436.19
328.143	333.19
328.372	335.19
328.6	224.19
328.829	157.19
329.058	144.19
329.287	167.19
329.515	140.19
329.744	149.19
329.972	251.19
330.201	473.19
330.43	629.19
330.658	323.19
330.887	209.19
331.115	140.19
331.344	113.19
331.572	107.19
331.801	102.19
332.03	110.19
332.258	105.19
332.486	111.19
332.715	105.19
332.943	106.19
333.172	91.19
333.4	106.19
333.629	127.19
333.857	161.19
334.085	258.19
334.314	449.19
334.542	817.19
334.771	730.19
334.999	237.19
335.227	111.19
335.455	112.19
335.684	94.19
335.912	109.19
336.14	111.19
336.369	95.19
336.597	99.19
336.825	117.19
337.053	105.19
337.281	102.19
337.51	94.19
337.738	102.19
337.966	90.19
338.194	108.19
338.422	90.19
338.65	99.19
338.878	96.19
339.106	77.19
339.334	83.19
339.562	94.19
339.79	85.19
340.018	98.19
340.246	87.19
340.474	98.19
340.702	103.19
340.93	89.19
341.158	90.19
341.386	89.19
341.614	113.19
341.842	102.19
342.07	99.19
342.298	114.19
342.526	106.19
342.754	102.19
342.981	107.19
343.209	111.19
343.437	97.19
343.665	92.19
343.893	82.19
344.12	92.19
344.348	99.19
344.576	101.19
344.804	104.19
345.031	90.19
345.259	92.19
345.487	117.19
345.714	96.19
345.942	105.19
346.17	85.19
346.397	109.19
346.625	99.19
346.853	88.19
347.08	104.19
347.308	95.19
347.535	110.19
347.763	111.19
347.99	95.19
348.218	90.19
348.445	120.19
348.673	99.19
348.9	97.19
349.128	102.19
349.355	100.19
349.583	96.19
349.81	96.19
350.037	91.19
350.265	100.19
350.492	97.19
350.72	85.19
350.947	93.19
351.174	110.19
351.402	103.19
351.629	102.19
351.856	109.19
352.083	96.19
352.311	100.19
352.538	113.19
352.765	119.19
352.992	118.19
353.22	118.19
353.447	106.19
353.674	95.19
353.901	91.19
354.128	87.19
354.355	102.19
354.583	91.19
354.81	89.19
355.037	92.19
355.264	93.19
355.491	85.19
355.718	84.19
355.945	95.19
356.172	88.19
356.399	108.19
356.626	98.19
356.853	96.19
357.08	96.19
357.307	92.19
357.534	87.19
357.761	97.19
357.988	101.19
358.215	100.19
358.441	96.19
358.668	93.19
358.895	95.19
359.122	97.19
359.349	103.19
359.576	97.19
359.802	103.19
360.029	120.19
360.256	111.19
360.483	99.19
360.709	88.19
360.936	97.19
361.163	96.19
361.39	96.19
361.616	89.19
361.843	92.19
362.07	93.19
362.296	115.19
362.523	85.19
362.749	101.19
362.976	112.19
363.203	84.19
363.429	84.19
363.656	89.19
363.882	98.19
364.109	78.19
364.335	97.19
364.562	95.19
364.788	98.19
365.015	99.19
365.241	108.19
365.468	112.19
365.694	105.19
365.92	92.19
366.147	91.19
366.373	99.19
366.599	97.19
366.826	83.19
367.052	93.19
367.278	99.19
367.505	85.19
367.731	97.19
367.957	96.19
368.184	94.19
368.41	101.19
368.636	123.19
368.862	116.19
369.089	120.19
369.315	109.19
369.541	86.19
369.767	93.19
369.993	97.19
370.219	100.19
370.445	85.19
370.672	87.19
370.898	92.19
371.124	89.19
371.35	88.19
371.576	98.19
371.802	85.19
372.028	96.19
372.254	79.19
372.48	105.19
372.706	81.19
372.932	99.19
373.158	85.19
373.384	96.19
373.61	90.19
373.835	91.19
374.061	99.19
374.287	97.19
374.513	89.19
374.739	95.19
374.965	101.19
375.191	92.19
375.416	94.19
375.642	97.19
375.868	96.19
376.094	88.19
376.319	83.19
376.545	97.19
376.771	80.19
376.997	101.19
377.222	100.19
377.448	101.19
377.674	90.19
377.899	97.19
378.125	92.19
378.35	91.19
378.576	96.19
378.802	79.19
379.027	92.19
379.253	99.19
379.478	85.19
379.704	108.19
379.929	94.19
380.155	107.19
380.38	104.19
380.606	95.19
380.831	101.19
381.057	100.19
381.282	98.19
381.507	110.19
381.733	97.19
381.958	105.19
382.184	107.19
382.409	104.19
382.634	107.19
382.86	120.19
383.085	83.19
383.31	110.19
383.535	105.19
383.761	115.19
383.986	95.19
384.211	99.19
384.436	102.19
384.662	103.19
384.887	114.19
385.112	111.19
385.337	110.19
385.562	97.19
385.787	117.19
386.013	116.19
386.238	132.19
386.463	120.19
386.688	125.19
386.913	121.19
387.138	111.19
387.363	122.19
387.588	104.19
387.813	111.19
388.038	104.19
388.263	111.19
388.488	109.19
388.713	105.19
388.938	92.19
389.163	93.19
389.387	93.19
389.612	96.19
389.837	83.19
390.062	79.19
390.287	83.19
390.512	86.19
390.736	103.19
390.961	91.19
391.186	102.19
391.411	99.19
391.636	79.19
391.86	96.19
392.085	83.19
392.31	85.19
392.534	109.19
392.759	83.19
392.984	87.19
393.208	76.19
393.433	104.19
393.658	83.19
393.882	89.19
394.107	89.19
394.331	75.19
394.556	86.19
394.78	83.19
395.005	92.19
395.229	93.19
395.454	99.19
395.678	84.19
395.903	96.19
396.127	84.19
396.352	87.19
396.576	91.19
396.801	85.19
397.025	81.19
397.249	88.19
397.474	83.19
397.698	89.19
397.922	105.19
398.147	114.19
398.371	95.19
398.595	84.19
398.82	69.19
399.044	87.19
399.268	88.19
399.492	94.19
399.717	88.19
399.941	91.19
400.165	96.19
400.389	102.19
400.613	82.19
400.837	84.19
401.062	92.19
401.286	101.19
401.51	95.19
401.734	101.19
401.958	116.19
402.182	132.19
402.406	162.19
402.63	135.19
402.854	94.19
403.078	90.19
403.302	90.19
403.526	86.19
403.75	90.19
403.974	105.19
404.198	104.19
404.422	88.19
404.645	100.19
404.869	103.19
405.093	107.19
405.317	115.19
405.541	128.19
405.765	113.19
405.988	129.19
406.212	172.19
406.436	251.19
406.66	170.19
406.883	94.19
407.107	109.19
407.331	100.19
407.555	105.19
407.778	97.19
408.002	97.19
408.226	92.19
408.449	79.19
408.673	86.19
408.896	93.19
409.12	100.19
409.344	76.19
409.567	105.19
409.791	91.19
410.014	100.19
410.238	94.19
410.461	99.19
410.685	92.19
410.908	97.19
411.132	98.19
411.355	92.19
411.578	83.19
411.802	94.19
412.025	91.19
412.249	100.19
412.472	127.19
412.695	135.19
412.919	111.19
413.142	85.19
413.365	99.19
413.589	95.19
413.812	100.19
414.035	84.19
414.258	99.19
414.482	102.19
414.705	94.19
414.928	95.19
415.151	96.19
415.374	85.19
415.597	89.19
415.821	102.19
416.044	91.19
416.267	77.19
416.49	84.19
416.713	89.19
416.936	96.19
417.159	87.19
417.382	87.19
417.605	71.19
417.828	110.19
418.051	99.19
418.274	87.19
418.497	96.19
418.72	84.19
418.943	82.19
419.166	83.19
419.389	89.19
419.611	110.19
419.834	83.19
420.057	93.19
420.28	104.19
420.503	70.19
420.726	82.19
420.948	96.19
421.171	81.19
421.394	91.19
421.617	98.19
421.839	83.19
422.062	105.19
422.285	94.19
422.507	104.19
422.73	112.19
422.953	103.19
423.175	101.19
423.398	96.19
423.621	100.19
423.843	100.19
424.066	101.19
424.288	95.19
424.511	86.19
424.733	106.19
424.956	128.19
425.178	101.19
425.401	115.19
425.623	100.19
425.846	85.19
426.068	87.19
426.291	96.19
426.513	77.19
426.735	98.19
426.958	89.19
427.18	120.19
427.402	157.19
427.625	205.19
427.847	188.19
428.069	179.19
428.292	107.19
428.514	99.19
428.736	83.19
428.958	89.19
429.181	94.19
429.403	94.19
429.625	101.19
429.847	98.19
430.069	99.19
430.292	101.19
430.514	93.19
430.736	79.19
430.958	89.19
431.18	86.19
431.402	89.19
431.624	91.19
431.846	98.19
432.068	80.19
432.29	101.19
432.512	96.19
432.734	93.19
432.956	86.19
433.178	88.19
433.4	96.19
433.622	101.19
433.844	93.19
434.066	89.19
434.287	89.19
434.509	102.19
434.731	88.19
434.953	83.19
435.175	99.19
435.397	106.19
435.618	97.19
435.84	120.19
436.062	140.19
436.284	113.19
436.505	100.19
436.727	102.19
436.949	91.19
437.17	106.19
437.392	91.19
437.614	97.19
437.835	102.19
438.057	138.19
438.278	115.19
438.5	114.19
438.721	124.19
438.943	97.19
439.165	84.19
439.386	86.19
439.608	87.19
439.829	110.19
440.05	126.19
440.272	147.19
440.493	105.19
440.715	115.19
440.936	95.19
441.158	101.19
441.379	98.19
441.6	101.19
441.822	97.19
442.043	111.19
442.264	118.19
442.486	102.19
442.707	95.19
442.928	111.19
443.149	151.19
443.371	136.19
443.592	118.19
443.813	129.19
444.034	111.19
444.255	93.19
444.476	99.19
444.698	88.19
444.919	89.19
445.14	128.19
445.361	131.19
445.582	130.19
445.803	148.19
446.024	153.19
446.245	139.19
446.466	124.19
446.687	95.19
446.908	91.19
447.129	90.19
447.35	93.19
447.571	90.19
447.792	103.19
448.013	100.19
448.234	104.19
448.455	112.19
448.675	112.19
448.896	143.19
449.117	99.19
449.338	97.19
449.559	140.19
449.779	146.19
450	99.19
450.221	88.19
450.442	98.19
450.662	107.19
450.883	105.19
451.104	118.19
451.324	98.19
451.545	79.19
451.766	79.19
451.986	88.19
452.207	85.19
452.428	107.19
452.648	105.19
452.869	112.19
453.089	108.19
453.31	113.19
453.53	94.19
453.751	94.19
453.971	115.19
454.192	110.19
454.412	100.19
454.633	84.19
454.853	93.19
455.073	77.19
455.294	101.19
455.514	125.19
455.734	85.19
455.955	84.19
456.175	82.19
456.395	94.19
456.616	62.19
456.836	92.19
457.056	69.19
457.276	83.19
457.497	80.19
457.717	71.19
457.937	92.19
458.157	85.19
458.377	104.19
458.598	106.19
458.818	174.19
459.038	181.19
459.258	122.19
459.478	99.19
459.698	92.19
459.918	79.19
460.138	85.19
460.358	98.19
460.578	95.19
460.798	93.19
461.018	96.19
461.238	75.19
461.458	90.19
461.678	83.19
461.898	94.19
462.118	81.19
462.338	101.19
462.558	85.19
462.777	81.19
462.997	93.19
463.217	87.19
463.437	97.19
463.657	94.19
463.876	90.19
464.096	87.19
464.316	97.19
464.536	90.19
464.755	94.19
464.975	94.19
465.195	187.19
465.414	171.19
465.634	89.19
465.854	94.19
466.073	91.19
466.293	82.19
466.512	83.19
466.732	91.19
466.951	96.19
467.171	92.19
467.391	102.19
467.61	116.19
467.829	158.19
468.049	285.19
468.268	371.19
468.488	145.19
468.707	96.19
468.927	73.19
469.146	95.19
469.365	87.19
469.585	91.19
469.804	88.19
470.023	88.19
470.243	88.19
470.462	94.19
470.681	105.19
470.901	92.19
471.12	104.19
471.339	94.19
471.558	94.19
471.777	112.19
471.997	168.19
472.216	503.19
472.435	988.19
472.654	273.19
472.873	101.19
473.092	89.19
473.311	103.19
473.53	85.19
473.749	92.19
473.968	110.19
474.187	105.19
474.406	98.19
474.625	79.19
474.844	92.19
475.063	81.19
475.282	90.19
475.501	79.19
475.72	80.19
475.939	94.19
476.158	94.19
476.377	99.19
476.596	93.19
476.814	98.19
477.033	93.19
477.252	94.19
477.471	96.19
477.69	91.19
477.908	107.19
478.127	80.19
478.346	88.19
478.564	102.19
478.783	92.19
479.002	103.19
479.22	118.19
479.439	112.19
479.658	119.19
479.876	100.19
480.095	100.19
480.313	109.19
480.532	117.19
480.751	172.19
480.969	483.19
481.188	1771.19
481.406	1028.19
481.624	195.19
481.843	112.19
482.061	105.19
482.28	96.19
482.498	86.19
482.717	87.19
482.935	84.19
483.153	98.19
483.372	80.19
483.59	109.19
483.808	107.19
484.027	97.19
484.245	95.19
484.463	83.19
484.681	91.19
484.9	95.19
485.118	96.19
485.336	95.19
485.554	101.19
485.772	112.19
485.99	118.19
486.209	114.19
486.427	107.19
486.645	115.19
486.863	110.19
487.081	100.19
487.299	101.19
487.517	102.19
487.735	82.19
487.953	103.19
488.171	97.19
488.389	95.19
488.607	110.19
488.825	83.19
489.043	93.19
489.261	88.19
489.479	79.19
489.696	86.19
489.914	85.19
490.132	93.19
490.35	91.19
490.568	96.19
490.786	79.19
491.003	92.19
491.221	93.19
491.439	94.19
491.657	82.19
491.874	103.19
492.092	104.19
492.31	95.19
492.527	83.19
492.745	104.19
492.963	105.19
493.18	96.19
493.398	97.19
493.615	99.19
493.833	88.19
494.05	81.19
494.268	95.19
494.485	93.19
494.703	87.19
494.92	88.19
495.138	94.19
495.355	95.19
495.573	77.19
495.79	97.19
496.008	95.19
496.225	89.19
496.442	102.19
496.66	101.19
496.877	97.19
497.094	96.19
497.312	104.19
497.529	99.19
497.746	89.19
497.963	91.19
498.181	104.19
498.398	86.19
498.615	92.19
498.832	107.19
499.049	87.19
499.267	95.19
499.484	101.19
499.701	98.19
499.918	98.19
500.135	92.19
500.352	109.19
500.569	92.19
500.786	97.19
501.003	101.19
501.22	96.19
501.437	94.19
501.654	98.19
501.871	110.19
502.088	93.19
502.305	95.19
502.522	86.19
502.739	73.19
502.956	92.19
503.172	92.19
503.389	95.19
503.606	97.19
503.823	108.19
504.04	76.19
504.256	101.19
504.473	96.19
504.69	95.19
504.907	88.19
505.123	110.19
505.34	94.19
505.557	82.19
505.773	102.19
505.99	105.19
506.207	95.19
506.423	95.19
506.64	92.19
506.856	92.19
507.073	95.19
507.289	93.19
507.506	95.19
507.722	115.19
507.939	109.19
508.155	92.19
508.372	77.19
508.588	87.19
508.805	84.19
509.021	90.19
509.238	96.19
509.454	105.19
509.67	118.19
509.887	109.19
510.103	134.19
510.319	215.19
510.536	743.19
510.752	2401.19
510.968	651.19
511.184	157.19
511.401	104.19
511.617	99.19
511.833	93.19
512.049	85.19
512.265	103.19
512.481	93.19
512.698	92.19
512.914	104.19
513.13	88.19
513.346	91.19
513.562	97.19
513.778	96.19
