Data from Circ_1990_H10_HRD10591_00084.txt Node
Date: Wed Jan 03 11:55:20 EST 2024
User: Yrep
Spectrometer: HR+D1059
Trigger mode: 1
Integration Time (sec): 1.000000E-1
Scans to average: 1
Electric dark correction enabled: true
Nonlinearity correction enabled: false
Boxcar width: 0
XAxis mode: Wavelengths
Number of Pixels in Spectrum: 2048
>>>>>Begin Spectral Data<<<<<
223.165	-18.56
223.4	-18.56
223.635	-18.56
223.869	-23.56
224.104	-9.56
224.338	-27.56
224.573	-20.56
224.808	-4.56
225.042	-9.56
225.277	-0.56
225.511	5.44
225.746	2.44
225.98	4.44
226.215	-0.56
226.449	19.44
226.683	31.44
226.918	25.44
227.152	26.44
227.387	51.44
227.621	39.44
227.856	46.44
228.09	53.44
228.324	48.44
228.559	56.44
228.793	58.44
229.027	49.44
229.262	59.44
229.496	74.44
229.73	77.44
229.964	93.44
230.199	80.44
230.433	77.44
230.667	77.44
230.901	71.44
231.136	80.44
231.37	79.44
231.604	67.44
231.838	80.44
232.072	84.44
232.306	70.44
232.541	85.44
232.775	78.44
233.009	75.44
233.243	73.44
233.477	82.44
233.711	76.44
233.945	76.44
234.179	83.44
234.413	68.44
234.647	58.44
234.881	88.44
235.115	85.44
235.349	86.44
235.583	92.44
235.817	84.44
236.051	67.44
236.285	68.44
236.519	73.44
236.753	78.44
236.987	74.44
237.221	96.44
237.455	98.44
237.689	78.44
237.922	65.44
238.156	78.44
238.39	82.44
238.624	79.44
238.858	68.44
239.091	80.44
239.325	81.44
239.559	78.44
239.793	86.44
240.027	83.44
240.26	64.44
240.494	77.44
240.728	71.44
240.961	84.44
241.195	81.44
241.429	79.44
241.662	86.44
241.896	83.44
242.13	64.44
242.363	68.44
242.597	77.44
242.83	82.44
243.064	80.44
243.298	78.44
243.531	75.44
243.765	83.44
243.998	90.44
244.232	91.44
244.465	74.44
244.699	88.44
244.932	90.44
245.166	70.44
245.399	63.44
245.633	78.44
245.866	88.44
246.099	85.44
246.333	71.44
246.566	81.44
246.8	71.44
247.033	68.44
247.266	72.44
247.5	78.44
247.733	94.44
247.966	91.44
248.2	102.44
248.433	84.44
248.666	78.44
248.899	82.44
249.133	87.44
249.366	116.44
249.599	129.44
249.832	82.44
250.066	82.44
250.299	83.44
250.532	91.44
250.765	84.44
250.998	73.44
251.231	74.44
251.465	69.44
251.698	86.44
251.931	74.44
252.164	80.44
252.397	76.44
252.63	86.44
252.863	91.44
253.096	74.44
253.329	85.44
253.562	65.44
253.795	72.44
254.028	80.44
254.261	83.44
254.494	82.44
254.727	88.44
254.96	75.44
255.193	76.44
255.426	84.44
255.659	85.44
255.892	93.44
256.124	71.44
256.357	78.44
256.59	80.44
256.823	87.44
257.056	87.44
257.289	83.44
257.521	87.44
257.754	75.44
257.987	77.44
258.22	87.44
258.452	90.44
258.685	82.44
258.918	78.44
259.151	105.44
259.383	86.44
259.616	82.44
259.849	86.44
260.081	80.44
260.314	78.44
260.547	88.44
260.779	87.44
261.012	89.44
261.244	101.44
261.477	93.44
261.71	102.44
261.942	118.44
262.175	118.44
262.407	92.44
262.64	82.44
262.872	84.44
263.105	75.44
263.337	76.44
263.57	89.44
263.802	91.44
264.035	84.44
264.267	81.44
264.499	84.44
264.732	84.44
264.964	77.44
265.197	70.44
265.429	85.44
265.661	83.44
265.894	93.44
266.126	91.44
266.358	95.44
266.591	87.44
266.823	95.44
267.055	84.44
267.287	83.44
267.52	87.44
267.752	88.44
267.984	91.44
268.216	85.44
268.448	80.44
268.681	91.44
268.913	76.44
269.145	79.44
269.377	91.44
269.609	74.44
269.841	99.44
270.073	93.44
270.306	79.44
270.538	72.44
270.77	88.44
271.002	87.44
271.234	90.44
271.466	85.44
271.698	84.44
271.93	81.44
272.162	97.44
272.394	94.44
272.626	82.44
272.858	71.44
273.09	77.44
273.322	82.44
273.553	98.44
273.785	81.44
274.017	80.44
274.249	87.44
274.481	76.44
274.713	87.44
274.945	90.44
275.176	92.44
275.408	82.44
275.64	92.44
275.872	97.44
276.104	103.44
276.335	92.44
276.567	95.44
276.799	117.44
277.031	106.44
277.262	125.44
277.494	110.44
277.726	98.44
277.957	97.44
278.189	77.44
278.421	85.44
278.652	84.44
278.884	96.44
279.115	82.44
279.347	88.44
279.579	104.44
279.81	101.44
280.042	128.44
280.273	158.44
280.505	127.44
280.736	102.44
280.968	93.44
281.199	93.44
281.431	80.44
281.662	82.44
281.894	84.44
282.125	106.44
282.356	132.44
282.588	154.44
282.819	110.44
283.051	96.44
283.282	99.44
283.513	90.44
283.745	80.44
283.976	85.44
284.207	97.44
284.439	94.44
284.67	80.44
284.901	69.44
285.132	92.44
285.364	89.44
285.595	84.44
285.826	82.44
286.057	74.44
286.288	83.44
286.52	82.44
286.751	98.44
286.982	93.44
287.213	94.44
287.444	89.44
287.675	85.44
287.906	91.44
288.138	82.44
288.369	86.44
288.6	96.44
288.831	90.44
289.062	99.44
289.293	92.44
289.524	92.44
289.755	85.44
289.986	98.44
290.217	79.44
290.448	74.44
290.679	86.44
290.91	91.44
291.141	101.44
291.371	80.44
291.602	98.44
291.833	95.44
292.064	78.44
292.295	80.44
292.526	78.44
292.757	93.44
292.987	92.44
293.218	82.44
293.449	74.44
293.68	94.44
293.91	90.44
294.141	84.44
294.372	78.44
294.603	91.44
294.833	81.44
295.064	97.44
295.295	75.44
295.525	90.44
295.756	93.44
295.987	119.44
296.217	153.44
296.448	131.44
296.679	99.44
296.909	86.44
297.14	90.44
297.37	99.44
297.601	89.44
297.831	85.44
298.062	81.44
298.292	103.44
298.523	80.44
298.753	83.44
298.984	95.44
299.214	92.44
299.445	95.44
299.675	91.44
299.905	103.44
300.136	103.44
300.366	95.44
300.597	81.44
300.827	95.44
301.057	97.44
301.288	112.44
301.518	90.44
301.748	90.44
301.979	124.44
302.209	85.44
302.439	100.44
302.669	100.44
302.9	92.44
303.13	90.44
303.36	102.44
303.59	119.44
303.82	100.44
304.051	90.44
304.281	96.44
304.511	85.44
304.741	84.44
304.971	84.44
305.201	98.44
305.431	100.44
305.661	104.44
305.891	95.44
306.121	93.44
306.352	113.44
306.582	114.44
306.812	95.44
307.042	109.44
307.272	108.44
307.502	132.44
307.731	124.44
307.961	111.44
308.191	93.44
308.421	78.44
308.651	92.44
308.881	95.44
309.111	95.44
309.341	98.44
309.571	91.44
309.8	103.44
310.03	106.44
310.26	94.44
310.49	99.44
310.72	99.44
310.949	100.44
311.179	93.44
311.409	96.44
311.639	92.44
311.868	91.44
312.098	87.44
312.328	107.44
312.557	116.44
312.787	100.44
313.017	115.44
313.246	86.44
313.476	70.44
313.706	97.44
313.935	101.44
314.165	118.44
314.394	96.44
314.624	112.44
314.853	81.44
315.083	106.44
315.312	93.44
315.542	85.44
315.771	97.44
316.001	101.44
316.23	90.44
316.46	69.44
316.689	87.44
316.919	92.44
317.148	96.44
317.377	89.44
317.607	102.44
317.836	89.44
318.065	93.44
318.295	90.44
318.524	89.44
318.753	95.44
318.983	90.44
319.212	96.44
319.441	98.44
319.67	92.44
319.9	106.44
320.129	88.44
320.358	96.44
320.587	90.44
320.816	87.44
321.046	103.44
321.275	97.44
321.504	90.44
321.733	95.44
321.962	106.44
322.191	103.44
322.42	103.44
322.649	103.44
322.878	108.44
323.108	113.44
323.337	118.44
323.566	145.44
323.795	143.44
324.024	203.44
324.253	410.44
324.482	869.44
324.71	1838.44
324.939	2458.44
325.168	871.44
325.397	257.44
325.626	158.44
325.855	124.44
326.084	122.44
326.313	140.44
326.542	161.44
326.77	254.44
326.999	487.44
327.228	1013.44
327.457	1859.44
327.686	1510.44
327.914	442.44
328.143	332.44
328.372	344.44
328.6	226.44
328.829	141.44
329.058	156.44
329.287	154.44
329.515	131.44
329.744	168.44
329.972	284.44
330.201	495.44
330.43	659.44
330.658	338.44
330.887	181.44
331.115	150.44
331.344	102.44
331.572	96.44
331.801	116.44
332.03	102.44
332.258	103.44
332.486	99.44
332.715	102.44
332.943	92.44
333.172	100.44
333.4	111.44
333.629	119.44
333.857	168.44
334.085	250.44
334.314	459.44
334.542	836.44
334.771	775.44
334.999	240.44
335.227	135.44
335.455	105.44
335.684	97.44
335.912	109.44
336.14	91.44
336.369	99.44
336.597	108.44
336.825	118.44
337.053	94.44
337.281	102.44
337.51	95.44
337.738	106.44
337.966	102.44
338.194	102.44
338.422	100.44
338.65	96.44
338.878	92.44
339.106	84.44
339.334	83.44
339.562	83.44
339.79	105.44
340.018	95.44
340.246	96.44
340.474	96.44
340.702	89.44
340.93	108.44
341.158	110.44
341.386	101.44
341.614	100.44
341.842	87.44
342.07	103.44
342.298	85.44
342.526	96.44
342.754	93.44
342.981	95.44
343.209	92.44
343.437	103.44
343.665	85.44
343.893	87.44
344.12	104.44
344.348	92.44
344.576	92.44
344.804	99.44
345.031	108.44
345.259	120.44
345.487	100.44
345.714	100.44
345.942	98.44
346.17	102.44
346.397	100.44
346.625	92.44
346.853	89.44
347.08	87.44
347.308	100.44
347.535	108.44
347.763	116.44
347.99	104.44
348.218	119.44
348.445	110.44
348.673	98.44
348.9	97.44
349.128	101.44
349.355	91.44
349.583	90.44
349.81	90.44
350.037	79.44
350.265	95.44
350.492	94.44
350.72	105.44
350.947	97.44
351.174	120.44
351.402	105.44
351.629	100.44
351.856	104.44
352.083	103.44
352.311	116.44
352.538	111.44
352.765	125.44
352.992	115.44
353.22	109.44
353.447	103.44
353.674	103.44
353.901	83.44
354.128	105.44
354.355	90.44
354.583	95.44
354.81	95.44
355.037	108.44
355.264	87.44
355.491	97.44
355.718	88.44
355.945	103.44
356.172	98.44
356.399	98.44
356.626	103.44
356.853	82.44
357.08	88.44
357.307	93.44
357.534	84.44
357.761	81.44
357.988	94.44
358.215	102.44
358.441	100.44
358.668	87.44
358.895	104.44
359.122	92.44
359.349	102.44
359.576	103.44
359.802	104.44
360.029	113.44
360.256	121.44
360.483	105.44
360.709	79.44
360.936	104.44
361.163	98.44
361.39	91.44
361.616	88.44
361.843	99.44
362.07	81.44
362.296	91.44
362.523	103.44
362.749	91.44
362.976	95.44
363.203	89.44
363.429	88.44
363.656	93.44
363.882	83.44
364.109	68.44
364.335	96.44
364.562	96.44
364.788	92.44
365.015	107.44
365.241	95.44
365.468	103.44
365.694	95.44
365.92	96.44
366.147	98.44
366.373	93.44
366.599	101.44
366.826	94.44
367.052	88.44
367.278	100.44
367.505	82.44
367.731	79.44
367.957	82.44
368.184	101.44
368.41	111.44
368.636	108.44
368.862	112.44
369.089	108.44
369.315	80.44
369.541	113.44
369.767	96.44
369.993	93.44
370.219	92.44
370.445	97.44
370.672	92.44
370.898	92.44
371.124	95.44
371.35	85.44
371.576	83.44
371.802	84.44
372.028	88.44
372.254	98.44
372.48	87.44
372.706	84.44
372.932	91.44
373.158	89.44
373.384	80.44
373.61	93.44
373.835	100.44
374.061	100.44
374.287	96.44
374.513	78.44
374.739	93.44
374.965	77.44
375.191	86.44
375.416	82.44
375.642	99.44
375.868	87.44
376.094	103.44
376.319	79.44
376.545	88.44
376.771	104.44
376.997	96.44
377.222	97.44
377.448	96.44
377.674	92.44
377.899	84.44
378.125	92.44
378.35	109.44
378.576	83.44
378.802	87.44
379.027	96.44
379.253	83.44
379.478	96.44
379.704	90.44
379.929	98.44
380.155	93.44
380.38	100.44
380.606	95.44
380.831	110.44
381.057	105.44
381.282	88.44
381.507	88.44
381.733	98.44
381.958	95.44
382.184	99.44
382.409	96.44
382.634	104.44
382.86	107.44
383.085	95.44
383.31	104.44
383.535	112.44
383.761	108.44
383.986	99.44
384.211	114.44
384.436	98.44
384.662	93.44
384.887	95.44
385.112	96.44
385.337	123.44
385.562	115.44
385.787	108.44
386.013	106.44
386.238	122.44
386.463	107.44
386.688	103.44
386.913	123.44
387.138	107.44
387.363	104.44
387.588	112.44
387.813	109.44
388.038	122.44
388.263	110.44
388.488	109.44
388.713	105.44
388.938	80.44
389.163	87.44
389.387	96.44
389.612	102.44
389.837	96.44
390.062	79.44
390.287	92.44
390.512	107.44
390.736	92.44
390.961	101.44
391.186	98.44
391.411	94.44
391.636	86.44
391.86	81.44
392.085	85.44
392.31	89.44
392.534	92.44
392.759	95.44
392.984	76.44
393.208	82.44
393.433	86.44
393.658	81.44
393.882	76.44
394.107	94.44
394.331	85.44
394.556	87.44
394.78	94.44
395.005	82.44
395.229	90.44
395.454	84.44
395.678	87.44
395.903	90.44
396.127	81.44
396.352	92.44
396.576	87.44
396.801	88.44
397.025	83.44
397.249	82.44
397.474	92.44
397.698	98.44
397.922	85.44
398.147	76.44
398.371	80.44
398.595	86.44
398.82	91.44
399.044	76.44
399.268	85.44
399.492	83.44
399.717	92.44
399.941	103.44
400.165	99.44
400.389	93.44
400.613	80.44
400.837	78.44
401.062	87.44
401.286	99.44
401.51	70.44
401.734	94.44
401.958	98.44
402.182	131.44
402.406	174.44
402.63	130.44
402.854	104.44
403.078	93.44
403.302	98.44
403.526	76.44
403.75	96.44
403.974	93.44
404.198	101.44
404.422	94.44
404.645	83.44
404.869	88.44
405.093	106.44
405.317	117.44
405.541	131.44
405.765	104.44
405.988	110.44
406.212	170.44
406.436	240.44
406.66	154.44
406.883	94.44
407.107	90.44
407.331	96.44
407.555	107.44
407.778	93.44
408.002	95.44
408.226	85.44
408.449	90.44
408.673	90.44
408.896	86.44
409.12	88.44
409.344	81.44
409.567	89.44
409.791	96.44
410.014	89.44
410.238	87.44
410.461	82.44
410.685	93.44
410.908	91.44
411.132	115.44
411.355	103.44
411.578	94.44
411.802	78.44
412.025	95.44
412.249	107.44
412.472	97.44
412.695	118.44
412.919	109.44
413.142	93.44
413.365	94.44
413.589	92.44
413.812	87.44
414.035	84.44
414.258	108.44
414.482	95.44
414.705	91.44
414.928	86.44
415.151	97.44
415.374	85.44
415.597	92.44
415.821	108.44
416.044	93.44
416.267	82.44
416.49	79.44
416.713	76.44
416.936	83.44
417.159	87.44
417.382	93.44
417.605	107.44
417.828	111.44
418.051	95.44
418.274	98.44
418.497	90.44
418.72	72.44
418.943	87.44
419.166	72.44
419.389	93.44
419.611	84.44
419.834	87.44
420.057	82.44
420.28	90.44
420.503	80.44
420.726	76.44
420.948	94.44
421.171	93.44
421.394	100.44
421.617	85.44
421.839	88.44
422.062	80.44
422.285	87.44
422.507	114.44
422.73	103.44
422.953	88.44
423.175	95.44
423.398	93.44
423.621	95.44
423.843	90.44
424.066	85.44
424.288	84.44
424.511	94.44
424.733	97.44
424.956	101.44
425.178	117.44
425.401	117.44
425.623	114.44
425.846	77.44
426.068	92.44
426.291	74.44
426.513	90.44
426.735	87.44
426.958	100.44
427.18	122.44
427.402	159.44
427.625	206.44
427.847	193.44
428.069	192.44
428.292	127.44
428.514	77.44
428.736	92.44
428.958	77.44
429.181	80.44
429.403	93.44
429.625	83.44
429.847	86.44
430.069	101.44
430.292	99.44
430.514	98.44
430.736	79.44
430.958	85.44
431.18	85.44
431.402	85.44
431.624	77.44
431.846	82.44
432.068	95.44
432.29	99.44
432.512	93.44
432.734	86.44
432.956	90.44
433.178	101.44
433.4	102.44
433.622	93.44
433.844	93.44
434.066	102.44
434.287	93.44
434.509	91.44
434.731	77.44
434.953	85.44
435.175	91.44
435.397	89.44
435.618	98.44
435.84	99.44
436.062	145.44
436.284	112.44
436.505	103.44
436.727	97.44
436.949	95.44
437.17	86.44
437.392	96.44
437.614	85.44
437.835	100.44
438.057	129.44
438.278	116.44
438.5	126.44
438.721	126.44
438.943	106.44
439.165	86.44
439.386	95.44
439.608	85.44
439.829	113.44
440.05	130.44
440.272	159.44
440.493	95.44
440.715	97.44
440.936	94.44
441.158	91.44
441.379	80.44
441.6	87.44
441.822	108.44
442.043	107.44
442.264	107.44
442.486	104.44
442.707	90.44
442.928	107.44
443.149	133.44
443.371	152.44
443.592	122.44
443.813	121.44
444.034	109.44
444.255	93.44
444.476	80.44
444.698	94.44
444.919	92.44
445.14	143.44
445.361	134.44
445.582	122.44
445.803	155.44
446.024	151.44
446.245	144.44
446.466	115.44
446.687	87.44
446.908	88.44
447.129	87.44
447.35	85.44
447.571	112.44
447.792	90.44
448.013	96.44
448.234	114.44
448.455	102.44
448.675	134.44
448.896	135.44
449.117	101.44
449.338	103.44
449.559	153.44
449.779	141.44
450	97.44
450.221	88.44
450.442	92.44
450.662	110.44
450.883	110.44
451.104	104.44
451.324	107.44
451.545	102.44
451.766	69.44
451.986	73.44
452.207	90.44
452.428	93.44
452.648	95.44
452.869	114.44
453.089	110.44
453.31	115.44
453.53	94.44
453.751	95.44
453.971	123.44
454.192	106.44
454.412	99.44
454.633	88.44
454.853	83.44
455.073	89.44
455.294	114.44
455.514	112.44
455.734	99.44
455.955	96.44
456.175	80.44
456.395	86.44
456.616	94.44
456.836	89.44
457.056	77.44
457.276	84.44
457.497	87.44
457.717	85.44
457.937	93.44
458.157	87.44
458.377	85.44
458.598	117.44
458.818	168.44
459.038	172.44
459.258	126.44
459.478	108.44
459.698	83.44
459.918	93.44
460.138	91.44
460.358	92.44
460.578	85.44
460.798	79.44
461.018	77.44
461.238	84.44
461.458	87.44
461.678	79.44
461.898	95.44
462.118	95.44
462.338	94.44
462.558	77.44
462.777	90.44
462.997	93.44
463.217	111.44
463.437	91.44
463.657	78.44
463.876	93.44
464.096	112.44
464.316	87.44
464.536	86.44
464.755	91.44
464.975	110.44
465.195	183.44
465.414	180.44
465.634	96.44
465.854	85.44
466.073	72.44
466.293	82.44
466.512	93.44
466.732	76.44
466.951	82.44
467.171	78.44
467.391	108.44
467.61	112.44
467.829	126.44
468.049	295.44
468.268	394.44
468.488	132.44
468.707	82.44
468.927	85.44
469.146	86.44
469.365	75.44
469.585	82.44
469.804	102.44
470.023	104.44
470.243	102.44
470.462	103.44
470.681	126.44
470.901	92.44
471.12	88.44
471.339	86.44
471.558	87.44
471.777	109.44
471.997	187.44
472.216	546.44
472.435	1113.44
472.654	289.44
472.873	123.44
473.092	87.44
473.311	101.44
473.53	87.44
473.749	93.44
473.968	108.44
474.187	112.44
474.406	98.44
474.625	90.44
474.844	95.44
475.063	83.44
475.282	77.44
475.501	90.44
475.72	85.44
475.939	94.44
476.158	83.44
476.377	88.44
476.596	96.44
476.814	97.44
477.033	90.44
477.252	102.44
477.471	86.44
477.69	89.44
477.908	94.44
478.127	84.44
478.346	79.44
478.564	77.44
478.783	85.44
479.002	104.44
479.22	99.44
479.439	118.44
479.658	112.44
479.876	110.44
480.095	101.44
480.313	103.44
480.532	117.44
480.751	192.44
480.969	503.44
481.188	1958.44
481.406	1130.44
481.624	200.44
481.843	113.44
482.061	105.44
482.28	94.44
482.498	67.44
482.717	96.44
482.935	87.44
483.153	79.44
483.372	104.44
483.59	87.44
483.808	75.44
484.027	90.44
484.245	94.44
484.463	84.44
484.681	94.44
484.9	96.44
485.118	92.44
485.336	96.44
485.554	112.44
485.772	103.44
485.99	99.44
486.209	100.44
486.427	95.44
486.645	107.44
486.863	114.44
487.081	112.44
487.299	94.44
487.517	109.44
487.735	95.44
487.953	83.44
488.171	99.44
488.389	97.44
488.607	106.44
488.825	111.44
489.043	90.44
489.261	84.44
489.479	92.44
489.696	80.44
489.914	99.44
490.132	83.44
490.35	89.44
490.568	98.44
490.786	93.44
491.003	76.44
491.221	106.44
491.439	102.44
491.657	97.44
491.874	111.44
492.092	87.44
492.31	92.44
492.527	82.44
492.745	101.44
492.963	101.44
493.18	83.44
493.398	95.44
493.615	110.44
493.833	91.44
494.05	95.44
494.268	84.44
494.485	86.44
494.703	84.44
494.92	92.44
495.138	112.44
495.355	95.44
495.573	96.44
495.79	80.44
496.008	101.44
496.225	104.44
496.442	93.44
496.66	100.44
496.877	100.44
497.094	110.44
497.312	98.44
497.529	90.44
497.746	83.44
497.963	101.44
498.181	91.44
498.398	93.44
498.615	114.44
498.832	113.44
499.049	75.44
499.267	106.44
499.484	89.44
499.701	74.44
499.918	86.44
500.135	84.44
500.352	88.44
500.569	95.44
500.786	97.44
501.003	84.44
501.22	81.44
501.437	91.44
501.654	100.44
501.871	103.44
502.088	85.44
502.305	81.44
502.522	87.44
502.739	87.44
502.956	81.44
503.172	90.44
503.389	114.44
503.606	109.44
503.823	111.44
504.04	92.44
504.256	109.44
504.473	86.44
504.69	104.44
504.907	100.44
505.123	97.44
505.34	86.44
505.557	97.44
505.773	101.44
505.99	97.44
506.207	94.44
506.423	90.44
506.64	99.44
506.856	92.44
507.073	95.44
507.289	98.44
507.506	100.44
507.722	117.44
507.939	103.44
508.155	85.44
508.372	97.44
508.588	83.44
508.805	104.44
509.021	91.44
509.238	109.44
509.454	98.44
509.67	96.44
509.887	125.44
510.103	128.44
510.319	210.44
510.536	718.44
510.752	2230.44
510.968	631.44
511.184	161.44
511.401	115.44
511.617	98.44
511.833	78.44
512.049	88.44
512.265	111.44
512.481	92.44
512.698	96.44
512.914	97.44
513.13	99.44
513.346	103.44
513.562	94.44
513.778	99.44
513.994	90.44
514.21	99.44
