Data from Circ_1990_H10_HRD10591_00025.txt Node
Date: Wed Jan 03 11:55:09 EST 2024
User: Yrep
Spectrometer: HR+D1059
Trigger mode: 1
Integration Time (sec): 1.000000E-1
Scans to average: 1
Electric dark correction enabled: true
Nonlinearity correction enabled: false
Boxcar width: 0
XAxis mode: Wavelengths
Number of Pixels in Spectrum: 2048
>>>>>Begin Spectral Data<<<<<
223.165	-9.94
223.4	-9.94
223.635	-9.94
223.869	-14.94
224.104	-24.94
224.338	-23.94
224.573	-23.94
224.808	-12.94
225.042	2.06
225.277	-1.94
225.511	4.06
225.746	7.06
225.98	5.06
226.215	18.06
226.449	7.06
226.683	6.06
226.918	26.06
227.152	37.06
227.387	44.06
227.621	45.06
227.856	42.06
228.09	28.06
228.324	39.06
228.559	68.06
228.793	61.06
229.027	67.06
229.262	76.06
229.496	74.06
229.73	83.06
229.964	85.06
230.199	79.06
230.433	85.06
230.667	80.06
230.901	76.06
231.136	76.06
231.37	66.06
231.604	64.06
231.838	71.06
232.072	83.06
232.306	87.06
232.541	84.06
232.775	85.06
233.009	74.06
233.243	82.06
233.477	85.06
233.711	82.06
233.945	78.06
234.179	95.06
234.413	80.06
234.647	65.06
234.881	90.06
235.115	77.06
235.349	71.06
235.583	84.06
235.817	79.06
236.051	77.06
236.285	85.06
236.519	71.06
236.753	80.06
236.987	88.06
237.221	88.06
237.455	83.06
237.689	63.06
237.922	78.06
238.156	76.06
238.39	80.06
238.624	80.06
238.858	76.06
239.091	62.06
239.325	82.06
239.559	71.06
239.793	85.06
240.027	80.06
240.26	85.06
240.494	76.06
240.728	71.06
240.961	79.06
241.195	83.06
241.429	82.06
241.662	68.06
241.896	65.06
242.13	67.06
242.363	72.06
242.597	70.06
242.83	79.06
243.064	78.06
243.298	81.06
243.531	74.06
243.765	72.06
243.998	65.06
244.232	75.06
244.465	66.06
244.699	81.06
244.932	74.06
245.166	82.06
245.399	74.06
245.633	85.06
245.866	86.06
246.099	72.06
246.333	81.06
246.566	68.06
246.8	77.06
247.033	74.06
247.266	79.06
247.5	76.06
247.733	89.06
247.966	71.06
248.2	78.06
248.433	80.06
248.666	70.06
248.899	80.06
249.133	86.06
249.366	87.06
249.599	98.06
249.832	84.06
250.066	85.06
250.299	79.06
250.532	91.06
250.765	80.06
250.998	67.06
251.231	83.06
251.465	67.06
251.698	83.06
251.931	99.06
252.164	84.06
252.397	91.06
252.63	89.06
252.863	76.06
253.096	76.06
253.329	83.06
253.562	69.06
253.795	79.06
254.028	81.06
254.261	86.06
254.494	81.06
254.727	80.06
254.96	98.06
255.193	64.06
255.426	81.06
255.659	74.06
255.892	91.06
256.124	99.06
256.357	94.06
256.59	79.06
256.823	87.06
257.056	94.06
257.289	87.06
257.521	81.06
257.754	83.06
257.987	74.06
258.22	88.06
258.452	85.06
258.685	92.06
258.918	97.06
259.151	69.06
259.383	78.06
259.616	83.06
259.849	83.06
260.081	79.06
260.314	79.06
260.547	78.06
260.779	70.06
261.012	93.06
261.244	100.06
261.477	85.06
261.71	93.06
261.942	124.06
262.175	122.06
262.407	96.06
262.64	96.06
262.872	92.06
263.105	93.06
263.337	91.06
263.57	93.06
263.802	79.06
264.035	77.06
264.267	93.06
264.499	96.06
264.732	102.06
264.964	93.06
265.197	90.06
265.429	76.06
265.661	74.06
265.894	95.06
266.126	94.06
266.358	91.06
266.591	92.06
266.823	81.06
267.055	84.06
267.287	90.06
267.52	87.06
267.752	86.06
267.984	76.06
268.216	58.06
268.448	78.06
268.681	84.06
268.913	90.06
269.145	80.06
269.377	75.06
269.609	103.06
269.841	84.06
270.073	78.06
270.306	99.06
270.538	90.06
270.77	79.06
271.002	88.06
271.234	101.06
271.466	83.06
271.698	80.06
271.93	96.06
272.162	90.06
272.394	86.06
272.626	82.06
272.858	86.06
273.09	95.06
273.322	79.06
273.553	72.06
273.785	79.06
274.017	84.06
274.249	88.06
274.481	82.06
274.713	86.06
274.945	90.06
275.176	92.06
275.408	88.06
275.64	92.06
275.872	75.06
276.104	84.06
276.335	90.06
276.567	111.06
276.799	127.06
277.031	124.06
277.262	113.06
277.494	105.06
277.726	71.06
277.957	77.06
278.189	85.06
278.421	94.06
278.652	72.06
278.884	78.06
279.115	86.06
279.347	93.06
279.579	75.06
279.81	84.06
280.042	100.06
280.273	138.06
280.505	103.06
280.736	77.06
280.968	98.06
281.199	89.06
281.431	77.06
281.662	96.06
281.894	92.06
282.125	97.06
282.356	112.06
282.588	142.06
282.819	97.06
283.051	81.06
283.282	84.06
283.513	90.06
283.745	88.06
283.976	77.06
284.207	81.06
284.439	84.06
284.67	84.06
284.901	87.06
285.132	80.06
285.364	83.06
285.595	85.06
285.826	84.06
286.057	87.06
286.288	78.06
286.52	90.06
286.751	93.06
286.982	91.06
287.213	98.06
287.444	83.06
287.675	91.06
287.906	89.06
288.138	102.06
288.369	99.06
288.6	96.06
288.831	86.06
289.062	89.06
289.293	80.06
289.524	70.06
289.755	84.06
289.986	90.06
290.217	82.06
290.448	72.06
290.679	92.06
290.91	84.06
291.141	93.06
291.371	106.06
291.602	92.06
291.833	91.06
292.064	88.06
292.295	91.06
292.526	81.06
292.757	88.06
292.987	87.06
293.218	84.06
293.449	86.06
293.68	92.06
293.91	86.06
294.141	92.06
294.372	84.06
294.603	96.06
294.833	85.06
295.064	102.06
295.295	88.06
295.525	95.06
295.756	98.06
295.987	102.06
296.217	143.06
296.448	128.06
296.679	87.06
296.909	83.06
297.14	100.06
297.37	84.06
297.601	85.06
297.831	92.06
298.062	74.06
298.292	89.06
298.523	79.06
298.753	88.06
298.984	86.06
299.214	94.06
299.445	92.06
299.675	99.06
299.905	87.06
300.136	95.06
300.366	92.06
300.597	80.06
300.827	84.06
301.057	100.06
301.288	111.06
301.518	96.06
301.748	78.06
301.979	107.06
302.209	92.06
302.439	81.06
302.669	86.06
302.9	94.06
303.13	91.06
303.36	94.06
303.59	103.06
303.82	113.06
304.051	95.06
304.281	89.06
304.511	94.06
304.741	87.06
304.971	82.06
305.201	107.06
305.431	86.06
305.661	97.06
305.891	90.06
306.121	85.06
306.352	97.06
306.582	104.06
306.812	86.06
307.042	101.06
307.272	114.06
307.502	103.06
307.731	92.06
307.961	100.06
308.191	100.06
308.421	79.06
308.651	94.06
308.881	94.06
309.111	88.06
309.341	100.06
309.571	96.06
309.8	100.06
310.03	99.06
310.26	95.06
310.49	92.06
310.72	104.06
310.949	109.06
311.179	91.06
311.409	88.06
311.639	97.06
311.868	94.06
312.098	111.06
312.328	102.06
312.557	97.06
312.787	96.06
313.017	101.06
313.246	109.06
313.476	95.06
313.706	97.06
313.935	92.06
314.165	90.06
314.394	102.06
314.624	91.06
314.853	96.06
315.083	116.06
315.312	100.06
315.542	88.06
315.771	99.06
316.001	91.06
316.23	87.06
316.46	90.06
316.689	92.06
316.919	93.06
317.148	94.06
317.377	96.06
317.607	100.06
317.836	88.06
318.065	81.06
318.295	92.06
318.524	87.06
318.753	85.06
318.983	101.06
319.212	107.06
319.441	108.06
319.67	89.06
319.9	92.06
320.129	93.06
320.358	90.06
320.587	102.06
320.816	97.06
321.046	89.06
321.275	79.06
321.504	93.06
321.733	108.06
321.962	83.06
322.191	91.06
322.42	91.06
322.649	94.06
322.878	104.06
323.108	113.06
323.337	122.06
323.566	145.06
323.795	161.06
324.024	205.06
324.253	390.06
324.482	810.06
324.71	1687.06
324.939	2263.06
325.168	819.06
325.397	261.06
325.626	146.06
325.855	124.06
326.084	113.06
326.313	124.06
326.542	158.06
326.77	223.06
326.999	457.06
327.228	963.06
327.457	1735.06
327.686	1406.06
327.914	389.06
328.143	254.06
328.372	265.06
328.6	165.06
328.829	136.06
329.058	135.06
329.287	143.06
329.515	110.06
329.744	143.06
329.972	193.06
330.201	294.06
330.43	418.06
330.658	234.06
330.887	166.06
331.115	158.06
331.344	107.06
331.572	113.06
331.801	98.06
332.03	109.06
332.258	97.06
332.486	87.06
332.715	99.06
332.943	94.06
333.172	95.06
333.4	111.06
333.629	128.06
333.857	138.06
334.085	180.06
334.314	308.06
334.542	494.06
334.771	444.06
334.999	188.06
335.227	119.06
335.455	102.06
335.684	98.06
335.912	106.06
336.14	91.06
336.369	93.06
336.597	115.06
336.825	97.06
337.053	108.06
337.281	98.06
337.51	105.06
337.738	86.06
337.966	88.06
338.194	106.06
338.422	99.06
338.65	104.06
338.878	113.06
339.106	69.06
339.334	92.06
339.562	88.06
339.79	94.06
340.018	93.06
340.246	92.06
340.474	97.06
340.702	102.06
340.93	86.06
341.158	88.06
341.386	87.06
341.614	102.06
341.842	108.06
342.07	100.06
342.298	82.06
342.526	80.06
342.754	91.06
342.981	97.06
343.209	88.06
343.437	105.06
343.665	99.06
343.893	90.06
344.12	100.06
344.348	84.06
344.576	101.06
344.804	85.06
345.031	104.06
345.259	90.06
345.487	87.06
345.714	91.06
345.942	94.06
346.17	92.06
346.397	82.06
346.625	85.06
346.853	84.06
347.08	86.06
347.308	92.06
347.535	93.06
347.763	92.06
347.99	103.06
348.218	97.06
348.445	96.06
348.673	99.06
348.9	99.06
349.128	94.06
349.355	101.06
349.583	98.06
349.81	94.06
350.037	88.06
350.265	100.06
350.492	85.06
350.72	84.06
350.947	99.06
351.174	99.06
351.402	102.06
351.629	94.06
351.856	105.06
352.083	114.06
352.311	107.06
352.538	112.06
352.765	103.06
352.992	120.06
353.22	110.06
353.447	115.06
353.674	97.06
353.901	96.06
354.128	91.06
354.355	103.06
354.583	95.06
354.81	87.06
355.037	96.06
355.264	98.06
355.491	93.06
355.718	78.06
355.945	91.06
356.172	96.06
356.399	95.06
356.626	98.06
356.853	100.06
357.08	86.06
357.307	90.06
357.534	86.06
357.761	96.06
357.988	95.06
358.215	112.06
358.441	109.06
358.668	90.06
358.895	89.06
359.122	99.06
359.349	90.06
359.576	100.06
359.802	97.06
360.029	113.06
360.256	91.06
360.483	96.06
360.709	101.06
360.936	99.06
361.163	107.06
361.39	90.06
361.616	103.06
361.843	94.06
362.07	74.06
362.296	86.06
362.523	90.06
362.749	102.06
362.976	73.06
363.203	99.06
363.429	92.06
363.656	99.06
363.882	94.06
364.109	87.06
364.335	102.06
364.562	88.06
364.788	87.06
365.015	97.06
365.241	102.06
365.468	108.06
365.694	112.06
365.92	109.06
366.147	100.06
366.373	82.06
366.599	97.06
366.826	84.06
367.052	92.06
367.278	94.06
367.505	99.06
367.731	78.06
367.957	94.06
368.184	86.06
368.41	95.06
368.636	109.06
368.862	115.06
369.089	107.06
369.315	108.06
369.541	86.06
369.767	94.06
369.993	80.06
370.219	86.06
370.445	90.06
370.672	92.06
370.898	89.06
371.124	89.06
371.35	78.06
371.576	67.06
371.802	92.06
372.028	88.06
372.254	86.06
372.48	91.06
372.706	94.06
372.932	92.06
373.158	83.06
373.384	101.06
373.61	94.06
373.835	87.06
374.061	104.06
374.287	87.06
374.513	98.06
374.739	87.06
374.965	84.06
375.191	93.06
375.416	86.06
375.642	82.06
375.868	91.06
376.094	110.06
376.319	96.06
376.545	82.06
376.771	93.06
376.997	80.06
377.222	83.06
377.448	100.06
377.674	98.06
377.899	94.06
378.125	99.06
378.35	88.06
378.576	101.06
378.802	98.06
379.027	101.06
379.253	111.06
379.478	101.06
379.704	103.06
379.929	85.06
380.155	98.06
380.38	102.06
380.606	107.06
380.831	116.06
381.057	107.06
381.282	98.06
381.507	100.06
381.733	99.06
381.958	117.06
382.184	114.06
382.409	115.06
382.634	112.06
382.86	117.06
383.085	115.06
383.31	122.06
383.535	109.06
383.761	107.06
383.986	92.06
384.211	116.06
384.436	118.06
384.662	102.06
384.887	133.06
385.112	123.06
385.337	135.06
385.562	119.06
385.787	115.06
386.013	118.06
386.238	141.06
386.463	120.06
386.688	133.06
386.913	129.06
387.138	135.06
387.363	110.06
387.588	98.06
387.813	117.06
388.038	139.06
388.263	134.06
388.488	129.06
388.713	102.06
388.938	93.06
389.163	96.06
389.387	99.06
389.612	91.06
389.837	102.06
390.062	94.06
390.287	94.06
390.512	81.06
390.736	88.06
390.961	90.06
391.186	95.06
391.411	103.06
391.636	104.06
391.86	91.06
392.085	88.06
392.31	94.06
392.534	84.06
392.759	92.06
392.984	88.06
393.208	90.06
393.433	103.06
393.658	106.06
393.882	86.06
394.107	87.06
394.331	92.06
394.556	97.06
394.78	85.06
395.005	86.06
395.229	102.06
395.454	76.06
395.678	78.06
395.903	91.06
396.127	91.06
396.352	98.06
396.576	83.06
396.801	84.06
397.025	88.06
397.249	101.06
397.474	92.06
397.698	87.06
397.922	86.06
398.147	84.06
398.371	78.06
398.595	81.06
398.82	67.06
399.044	83.06
399.268	93.06
399.492	84.06
399.717	94.06
399.941	95.06
400.165	100.06
400.389	103.06
400.613	91.06
400.837	83.06
401.062	84.06
401.286	87.06
401.51	86.06
401.734	94.06
401.958	102.06
402.182	120.06
402.406	163.06
402.63	123.06
402.854	92.06
403.078	88.06
403.302	103.06
403.526	92.06
403.75	91.06
403.974	86.06
404.198	92.06
404.422	97.06
404.645	87.06
404.869	116.06
405.093	95.06
405.317	106.06
405.541	106.06
405.765	98.06
405.988	112.06
406.212	166.06
406.436	221.06
406.66	156.06
406.883	93.06
407.107	96.06
407.331	102.06
407.555	96.06
407.778	106.06
408.002	80.06
408.226	100.06
408.449	86.06
408.673	102.06
408.896	104.06
409.12	100.06
409.344	103.06
409.567	94.06
409.791	77.06
410.014	84.06
410.238	102.06
410.461	90.06
410.685	100.06
410.908	92.06
411.132	109.06
411.355	86.06
411.578	100.06
411.802	86.06
412.025	97.06
412.249	106.06
412.472	102.06
412.695	108.06
412.919	101.06
413.142	87.06
413.365	78.06
413.589	86.06
413.812	104.06
414.035	93.06
414.258	90.06
414.482	90.06
414.705	85.06
414.928	102.06
415.151	91.06
415.374	92.06
415.597	98.06
415.821	85.06
416.044	87.06
416.267	99.06
416.49	85.06
416.713	102.06
416.936	94.06
417.159	94.06
417.382	93.06
417.605	87.06
417.828	111.06
418.051	112.06
418.274	106.06
418.497	93.06
418.72	86.06
418.943	78.06
419.166	92.06
419.389	78.06
419.611	114.06
419.834	86.06
420.057	82.06
420.28	83.06
420.503	89.06
420.726	95.06
420.948	94.06
421.171	97.06
421.394	90.06
421.617	89.06
421.839	89.06
422.062	96.06
422.285	98.06
422.507	92.06
422.73	95.06
422.953	90.06
423.175	98.06
423.398	90.06
423.621	85.06
423.843	78.06
424.066	100.06
424.288	88.06
424.511	89.06
424.733	102.06
424.956	100.06
425.178	98.06
425.401	95.06
425.623	90.06
425.846	91.06
426.068	92.06
426.291	87.06
426.513	90.06
426.735	77.06
426.958	88.06
427.18	107.06
427.402	142.06
427.625	186.06
427.847	163.06
428.069	158.06
428.292	106.06
428.514	102.06
428.736	90.06
428.958	88.06
429.181	78.06
429.403	84.06
429.625	91.06
429.847	92.06
430.069	109.06
430.292	80.06
430.514	107.06
430.736	95.06
430.958	82.06
431.18	72.06
431.402	85.06
431.624	94.06
431.846	90.06
432.068	78.06
432.29	72.06
432.512	97.06
432.734	86.06
432.956	97.06
433.178	102.06
433.4	87.06
433.622	99.06
433.844	90.06
434.066	96.06
434.287	107.06
434.509	99.06
434.731	102.06
434.953	79.06
435.175	84.06
435.397	94.06
435.618	98.06
435.84	111.06
436.062	132.06
436.284	121.06
436.505	89.06
436.727	100.06
436.949	93.06
437.17	95.06
437.392	98.06
437.614	74.06
437.835	105.06
438.057	136.06
438.278	122.06
438.5	105.06
438.721	122.06
438.943	90.06
439.165	94.06
439.386	83.06
439.608	98.06
439.829	84.06
440.05	117.06
440.272	145.06
440.493	98.06
440.715	88.06
440.936	86.06
441.158	90.06
441.379	92.06
441.6	93.06
441.822	90.06
442.043	97.06
442.264	112.06
442.486	98.06
442.707	99.06
442.928	96.06
443.149	156.06
443.371	128.06
443.592	127.06
443.813	115.06
444.034	112.06
444.255	98.06
444.476	78.06
444.698	86.06
444.919	84.06
445.14	134.06
445.361	128.06
445.582	112.06
445.803	160.06
446.024	142.06
446.245	126.06
446.466	94.06
446.687	95.06
446.908	86.06
447.129	93.06
447.35	87.06
447.571	85.06
447.792	82.06
448.013	98.06
448.234	97.06
448.455	92.06
448.675	127.06
448.896	118.06
449.117	88.06
449.338	102.06
449.559	145.06
449.779	140.06
450	96.06
450.221	77.06
450.442	99.06
450.662	101.06
450.883	89.06
451.104	115.06
451.324	100.06
451.545	106.06
451.766	91.06
451.986	86.06
452.207	95.06
452.428	96.06
452.648	95.06
452.869	119.06
453.089	99.06
453.31	111.06
453.53	95.06
453.751	83.06
453.971	94.06
454.192	106.06
454.412	97.06
454.633	99.06
454.853	98.06
455.073	90.06
455.294	76.06
455.514	103.06
455.734	91.06
455.955	73.06
456.175	78.06
456.395	79.06
456.616	84.06
456.836	82.06
457.056	85.06
457.276	90.06
457.497	85.06
457.717	84.06
457.937	86.06
458.157	88.06
458.377	88.06
458.598	113.06
458.818	156.06
459.038	162.06
459.258	111.06
459.478	88.06
459.698	84.06
459.918	87.06
460.138	96.06
460.358	84.06
460.578	88.06
460.798	83.06
461.018	82.06
461.238	78.06
461.458	88.06
461.678	76.06
461.898	92.06
462.118	87.06
462.338	76.06
462.558	80.06
462.777	88.06
462.997	81.06
463.217	84.06
463.437	81.06
463.657	74.06
463.876	99.06
464.096	93.06
464.316	84.06
464.536	86.06
464.755	88.06
464.975	102.06
465.195	158.06
465.414	155.06
465.634	80.06
465.854	74.06
466.073	102.06
466.293	86.06
466.512	82.06
466.732	97.06
466.951	95.06
467.171	88.06
467.391	103.06
467.61	111.06
467.829	137.06
468.049	188.06
468.268	262.06
468.488	104.06
468.707	106.06
468.927	87.06
469.146	92.06
469.365	90.06
469.585	98.06
469.804	98.06
470.023	91.06
470.243	99.06
470.462	100.06
470.681	108.06
470.901	97.06
471.12	87.06
471.339	103.06
471.558	86.06
471.777	94.06
471.997	146.06
472.216	338.06
472.435	622.06
472.654	198.06
472.873	110.06
473.092	96.06
473.311	85.06
473.53	110.06
473.749	83.06
473.968	105.06
474.187	115.06
474.406	90.06
474.625	97.06
474.844	84.06
475.063	79.06
475.282	84.06
475.501	88.06
475.72	92.06
475.939	90.06
476.158	98.06
476.377	92.06
476.596	99.06
476.814	73.06
477.033	97.06
477.252	100.06
477.471	95.06
477.69	80.06
477.908	83.06
478.127	84.06
478.346	92.06
478.564	89.06
478.783	89.06
479.002	99.06
479.22	94.06
479.439	106.06
479.658	119.06
479.876	90.06
480.095	93.06
480.313	95.06
480.532	89.06
480.751	134.06
480.969	308.06
481.188	1062.06
481.406	639.06
481.624	160.06
481.843	104.06
482.061	103.06
482.28	87.06
482.498	86.06
482.717	93.06
482.935	104.06
483.153	90.06
483.372	90.06
483.59	91.06
483.808	101.06
484.027	95.06
484.245	94.06
484.463	106.06
484.681	98.06
484.9	90.06
485.118	110.06
485.336	106.06
485.554	97.06
485.772	96.06
485.99	107.06
486.209	108.06
486.427	117.06
486.645	106.06
486.863	105.06
487.081	106.06
487.299	85.06
487.517	79.06
487.735	79.06
487.953	91.06
488.171	96.06
488.389	109.06
488.607	101.06
488.825	78.06
489.043	83.06
489.261	74.06
489.479	88.06
489.696	84.06
489.914	85.06
490.132	87.06
490.35	93.06
490.568	98.06
490.786	86.06
491.003	75.06
491.221	92.06
491.439	83.06
491.657	94.06
491.874	87.06
492.092	90.06
492.31	85.06
492.527	98.06
492.745	80.06
492.963	104.06
493.18	101.06
493.398	105.06
493.615	99.06
493.833	94.06
494.05	74.06
494.268	88.06
494.485	88.06
494.703	98.06
494.92	93.06
495.138	97.06
495.355	100.06
495.573	94.06
495.79	86.06
496.008	104.06
496.225	96.06
496.442	91.06
496.66	95.06
496.877	82.06
497.094	94.06
497.312	94.06
497.529	104.06
497.746	88.06
497.963	94.06
498.181	86.06
498.398	86.06
498.615	106.06
498.832	99.06
499.049	101.06
499.267	104.06
499.484	101.06
499.701	93.06
499.918	92.06
500.135	88.06
500.352	79.06
500.569	78.06
500.786	87.06
501.003	79.06
501.22	98.06
501.437	82.06
501.654	92.06
501.871	108.06
502.088	80.06
502.305	91.06
502.522	86.06
502.739	106.06
502.956	82.06
503.172	96.06
503.389	84.06
503.606	109.06
503.823	110.06
504.04	90.06
504.256	94.06
504.473	97.06
504.69	85.06
504.907	83.06
505.123	97.06
505.34	99.06
505.557	95.06
505.773	82.06
505.99	92.06
506.207	82.06
506.423	75.06
506.64	94.06
506.856	90.06
507.073	102.06
507.289	103.06
507.506	101.06
507.722	105.06
507.939	114.06
508.155	95.06
508.372	90.06
508.588	92.06
508.805	93.06
509.021	91.06
509.238	93.06
509.454	94.06
509.67	97.06
509.887	100.06
510.103	132.06
510.319	190.06
510.536	734.06
510.752	2295.06
510.968	606.06
511.184	146.06
511.401	116.06
511.617	83.06
511.833	84.06
512.049	99.06
512.265	90.06
512.481	96.06
512.698	84.06
512.914	104.06
513.13	108.06
513.346	94.06
513.562	88.06
513.778	95.06
513.994	94.06
514.21	118.06
514.426	110.06
514.642	140.06
514.858	114.06
