Data from Circ_1990_H10_HRD10591_00079.txt Node
Date: Wed Jan 03 11:55:19 EST 2024
User: Yrep
Spectrometer: HR+D1059
Trigger mode: 1
Integration Time (sec): 1.000000E-1
Scans to average: 1
Electric dark correction enabled: true
Nonlinearity correction enabled: false
Boxcar width: 0
XAxis mode: Wavelengths
Number of Pixels in Spectrum: 2048
>>>>>Begin Spectral Data<<<<<
223.165	-10.56
223.4	-10.56
223.635	-10.56
223.869	-27.56
224.104	-18.56
224.338	-3.56
224.573	-20.56
224.808	-9.56
225.042	-5.56
225.277	-13.56
225.511	7.44
225.746	-1.56
225.98	-3.56
226.215	12.44
226.449	3.44
226.683	26.44
226.918	26.44
227.152	38.44
227.387	40.44
227.621	34.44
227.856	53.44
228.09	48.44
228.324	61.44
228.559	64.44
228.793	52.44
229.027	80.44
229.262	59.44
229.496	78.44
229.73	85.44
229.964	93.44
230.199	74.44
230.433	80.44
230.667	67.44
230.901	82.44
231.136	64.44
231.37	91.44
231.604	84.44
231.838	82.44
232.072	71.44
232.306	91.44
232.541	59.44
232.775	85.44
233.009	67.44
233.243	70.44
233.477	82.44
233.711	81.44
233.945	59.44
234.179	77.44
234.413	78.44
234.647	75.44
234.881	86.44
235.115	83.44
235.349	83.44
235.583	72.44
235.817	74.44
236.051	65.44
236.285	71.44
236.519	75.44
236.753	66.44
236.987	70.44
237.221	75.44
237.455	87.44
237.689	84.44
237.922	79.44
238.156	76.44
238.39	67.44
238.624	80.44
238.858	82.44
239.091	84.44
239.325	76.44
239.559	82.44
239.793	92.44
240.027	77.44
240.26	71.44
240.494	80.44
240.728	81.44
240.961	86.44
241.195	71.44
241.429	84.44
241.662	68.44
241.896	78.44
242.13	78.44
242.363	68.44
242.597	86.44
242.83	75.44
243.064	82.44
243.298	72.44
243.531	78.44
243.765	68.44
243.998	64.44
244.232	75.44
244.465	71.44
244.699	90.44
244.932	76.44
245.166	63.44
245.399	78.44
245.633	90.44
245.866	76.44
246.099	80.44
246.333	76.44
246.566	75.44
246.8	78.44
247.033	80.44
247.266	74.44
247.5	83.44
247.733	86.44
247.966	71.44
248.2	78.44
248.433	74.44
248.666	88.44
248.899	80.44
249.133	85.44
249.366	96.44
249.599	93.44
249.832	80.44
250.066	74.44
250.299	80.44
250.532	83.44
250.765	82.44
250.998	96.44
251.231	82.44
251.465	79.44
251.698	77.44
251.931	78.44
252.164	88.44
252.397	84.44
252.63	79.44
252.863	84.44
253.096	83.44
253.329	96.44
253.562	100.44
253.795	93.44
254.028	71.44
254.261	78.44
254.494	82.44
254.727	91.44
254.96	97.44
255.193	77.44
255.426	69.44
255.659	71.44
255.892	90.44
256.124	87.44
256.357	71.44
256.59	80.44
256.823	87.44
257.056	87.44
257.289	101.44
257.521	90.44
257.754	82.44
257.987	81.44
258.22	85.44
258.452	90.44
258.685	85.44
258.918	76.44
259.151	78.44
259.383	79.44
259.616	78.44
259.849	83.44
260.081	67.44
260.314	79.44
260.547	87.44
260.779	77.44
261.012	82.44
261.244	92.44
261.477	97.44
261.71	94.44
261.942	109.44
262.175	104.44
262.407	77.44
262.64	88.44
262.872	82.44
263.105	82.44
263.337	83.44
263.57	88.44
263.802	79.44
264.035	77.44
264.267	91.44
264.499	76.44
264.732	98.44
264.964	98.44
265.197	90.44
265.429	79.44
265.661	72.44
265.894	88.44
266.126	75.44
266.358	92.44
266.591	85.44
266.823	70.44
267.055	89.44
267.287	91.44
267.52	76.44
267.752	96.44
267.984	86.44
268.216	68.44
268.448	77.44
268.681	84.44
268.913	85.44
269.145	91.44
269.377	83.44
269.609	74.44
269.841	76.44
270.073	78.44
270.306	82.44
270.538	86.44
270.77	88.44
271.002	94.44
271.234	87.44
271.466	95.44
271.698	83.44
271.93	79.44
272.162	90.44
272.394	90.44
272.626	75.44
272.858	82.44
273.09	75.44
273.322	82.44
273.553	79.44
273.785	79.44
274.017	95.44
274.249	87.44
274.481	92.44
274.713	89.44
274.945	87.44
275.176	82.44
275.408	93.44
275.64	94.44
275.872	93.44
276.104	95.44
276.335	96.44
276.567	100.44
276.799	116.44
277.031	120.44
277.262	114.44
277.494	111.44
277.726	90.44
277.957	88.44
278.189	94.44
278.421	98.44
278.652	76.44
278.884	84.44
279.115	101.44
279.347	88.44
279.579	86.44
279.81	108.44
280.042	121.44
280.273	140.44
280.505	123.44
280.736	94.44
280.968	86.44
281.199	83.44
281.431	94.44
281.662	88.44
281.894	84.44
282.125	87.44
282.356	121.44
282.588	123.44
282.819	131.44
283.051	94.44
283.282	101.44
283.513	90.44
283.745	99.44
283.976	94.44
284.207	100.44
284.439	97.44
284.67	88.44
284.901	78.44
285.132	90.44
285.364	80.44
285.595	88.44
285.826	77.44
286.057	86.44
286.288	80.44
286.52	94.44
286.751	98.44
286.982	78.44
287.213	58.44
287.444	77.44
287.675	103.44
287.906	89.44
288.138	95.44
288.369	85.44
288.6	105.44
288.831	102.44
289.062	91.44
289.293	82.44
289.524	91.44
289.755	78.44
289.986	91.44
290.217	90.44
290.448	86.44
290.679	86.44
290.91	107.44
291.141	90.44
291.371	87.44
291.602	83.44
291.833	91.44
292.064	89.44
292.295	94.44
292.526	86.44
292.757	99.44
292.987	91.44
293.218	79.44
293.449	93.44
293.68	99.44
293.91	79.44
294.141	84.44
294.372	89.44
294.603	83.44
294.833	83.44
295.064	91.44
295.295	89.44
295.525	75.44
295.756	104.44
295.987	107.44
296.217	123.44
296.448	102.44
296.679	92.44
296.909	96.44
297.14	90.44
297.37	97.44
297.601	91.44
297.831	92.44
298.062	100.44
298.292	88.44
298.523	103.44
298.753	88.44
298.984	80.44
299.214	93.44
299.445	88.44
299.675	94.44
299.905	95.44
300.136	93.44
300.366	81.44
300.597	88.44
300.827	101.44
301.057	96.44
301.288	97.44
301.518	109.44
301.748	111.44
301.979	109.44
302.209	88.44
302.439	84.44
302.669	78.44
302.9	106.44
303.13	86.44
303.36	92.44
303.59	98.44
303.82	114.44
304.051	100.44
304.281	88.44
304.511	101.44
304.741	80.44
304.971	87.44
305.201	88.44
305.431	104.44
305.661	92.44
305.891	84.44
306.121	108.44
306.352	106.44
306.582	91.44
306.812	91.44
307.042	112.44
307.272	120.44
307.502	110.44
307.731	112.44
307.961	109.44
308.191	96.44
308.421	88.44
308.651	94.44
308.881	80.44
309.111	93.44
309.341	89.44
309.571	80.44
309.8	91.44
310.03	102.44
310.26	95.44
310.49	94.44
310.72	93.44
310.949	104.44
311.179	98.44
311.409	104.44
311.639	82.44
311.868	92.44
312.098	85.44
312.328	89.44
312.557	96.44
312.787	95.44
313.017	96.44
313.246	92.44
313.476	85.44
313.706	89.44
313.935	86.44
314.165	91.44
314.394	96.44
314.624	95.44
314.853	99.44
315.083	100.44
315.312	92.44
315.542	93.44
315.771	100.44
316.001	82.44
316.23	91.44
316.46	82.44
316.689	95.44
316.919	94.44
317.148	96.44
317.377	85.44
317.607	92.44
317.836	92.44
318.065	101.44
318.295	94.44
318.524	85.44
318.753	78.44
318.983	106.44
319.212	94.44
319.441	100.44
319.67	111.44
319.9	92.44
320.129	100.44
320.358	95.44
320.587	102.44
320.816	102.44
321.046	100.44
321.275	95.44
321.504	86.44
321.733	97.44
321.962	96.44
322.191	96.44
322.42	114.44
322.649	111.44
322.878	108.44
323.108	106.44
323.337	124.44
323.566	136.44
323.795	147.44
324.024	197.44
324.253	359.44
324.482	796.44
324.71	1574.44
324.939	2156.44
325.168	800.44
325.397	240.44
325.626	156.44
325.855	130.44
326.084	122.44
326.313	129.44
326.542	161.44
326.77	240.44
326.999	442.44
327.228	891.44
327.457	1654.44
327.686	1328.44
327.914	422.44
328.143	298.44
328.372	307.44
328.6	188.44
328.829	122.44
329.058	139.44
329.287	151.44
329.515	145.44
329.744	155.44
329.972	221.44
330.201	418.44
330.43	552.44
330.658	309.44
330.887	167.44
331.115	138.44
331.344	104.44
331.572	109.44
331.801	120.44
332.03	115.44
332.258	91.44
332.486	89.44
332.715	96.44
332.943	99.44
333.172	92.44
333.4	117.44
333.629	114.44
333.857	151.44
334.085	234.44
334.314	412.44
334.542	696.44
334.771	663.44
334.999	212.44
335.227	114.44
335.455	114.44
335.684	107.44
335.912	95.44
336.14	104.44
336.369	110.44
336.597	101.44
336.825	108.44
337.053	95.44
337.281	88.44
337.51	90.44
337.738	97.44
337.966	92.44
338.194	101.44
338.422	93.44
338.65	85.44
338.878	100.44
339.106	89.44
339.334	76.44
339.562	90.44
339.79	86.44
340.018	94.44
340.246	96.44
340.474	96.44
340.702	92.44
340.93	87.44
341.158	98.44
341.386	78.44
341.614	96.44
341.842	93.44
342.07	99.44
342.298	93.44
342.526	80.44
342.754	100.44
342.981	83.44
343.209	97.44
343.437	90.44
343.665	99.44
343.893	89.44
344.12	113.44
344.348	87.44
344.576	96.44
344.804	95.44
345.031	92.44
345.259	92.44
345.487	80.44
345.714	91.44
345.942	97.44
346.17	92.44
346.397	88.44
346.625	86.44
346.853	91.44
347.08	94.44
347.308	99.44
347.535	87.44
347.763	107.44
347.99	111.44
348.218	88.44
348.445	116.44
348.673	103.44
348.9	95.44
349.128	103.44
349.355	94.44
349.583	98.44
349.81	103.44
350.037	102.44
350.265	92.44
350.492	96.44
350.72	102.44
350.947	107.44
351.174	111.44
351.402	110.44
351.629	112.44
351.856	84.44
352.083	99.44
352.311	100.44
352.538	103.44
352.765	101.44
352.992	111.44
353.22	92.44
353.447	107.44
353.674	115.44
353.901	100.44
354.128	114.44
354.355	102.44
354.583	96.44
354.81	83.44
355.037	85.44
355.264	86.44
355.491	97.44
355.718	85.44
355.945	87.44
356.172	89.44
356.399	110.44
356.626	96.44
356.853	83.44
357.08	87.44
357.307	92.44
357.534	87.44
357.761	81.44
357.988	87.44
358.215	92.44
358.441	88.44
358.668	99.44
358.895	88.44
359.122	91.44
359.349	83.44
359.576	80.44
359.802	102.44
360.029	114.44
360.256	103.44
360.483	103.44
360.709	88.44
360.936	99.44
361.163	82.44
361.39	84.44
361.616	101.44
361.843	103.44
362.07	95.44
362.296	88.44
362.523	98.44
362.749	91.44
362.976	93.44
363.203	106.44
363.429	80.44
363.656	88.44
363.882	103.44
364.109	98.44
364.335	88.44
364.562	104.44
364.788	84.44
365.015	100.44
365.241	94.44
365.468	108.44
365.694	100.44
365.92	99.44
366.147	95.44
366.373	100.44
366.599	94.44
366.826	87.44
367.052	94.44
367.278	88.44
367.505	94.44
367.731	100.44
367.957	88.44
368.184	100.44
368.41	90.44
368.636	100.44
368.862	102.44
369.089	92.44
369.315	93.44
369.541	95.44
369.767	98.44
369.993	95.44
370.219	97.44
370.445	94.44
370.672	83.44
370.898	74.44
371.124	80.44
371.35	84.44
371.576	89.44
371.802	81.44
372.028	96.44
372.254	80.44
372.48	86.44
372.706	95.44
372.932	97.44
373.158	102.44
373.384	86.44
373.61	98.44
373.835	86.44
374.061	94.44
374.287	99.44
374.513	84.44
374.739	81.44
374.965	82.44
375.191	74.44
375.416	82.44
375.642	86.44
375.868	76.44
376.094	82.44
376.319	98.44
376.545	96.44
376.771	105.44
376.997	102.44
377.222	94.44
377.448	104.44
377.674	86.44
377.899	98.44
378.125	95.44
378.35	104.44
378.576	87.44
378.802	98.44
379.027	82.44
379.253	88.44
379.478	94.44
379.704	71.44
379.929	88.44
380.155	88.44
380.38	86.44
380.606	78.44
380.831	80.44
381.057	75.44
381.282	92.44
381.507	101.44
381.733	86.44
381.958	87.44
382.184	100.44
382.409	97.44
382.634	98.44
382.86	108.44
383.085	95.44
383.31	106.44
383.535	107.44
383.761	104.44
383.986	95.44
384.211	97.44
384.436	103.44
384.662	108.44
384.887	90.44
385.112	98.44
385.337	102.44
385.562	104.44
385.787	99.44
386.013	114.44
386.238	121.44
386.463	91.44
386.688	117.44
386.913	104.44
387.138	93.44
387.363	101.44
387.588	104.44
387.813	92.44
388.038	113.44
388.263	117.44
388.488	101.44
388.713	99.44
388.938	83.44
389.163	101.44
389.387	92.44
389.612	97.44
389.837	99.44
390.062	101.44
390.287	83.44
390.512	99.44
390.736	86.44
390.961	79.44
391.186	94.44
391.411	93.44
391.636	102.44
391.86	76.44
392.085	88.44
392.31	85.44
392.534	79.44
392.759	84.44
392.984	87.44
393.208	89.44
393.433	91.44
393.658	94.44
393.882	99.44
394.107	77.44
394.331	80.44
394.556	84.44
394.78	94.44
395.005	102.44
395.229	76.44
395.454	91.44
395.678	82.44
395.903	77.44
396.127	97.44
396.352	94.44
396.576	109.44
396.801	82.44
397.025	91.44
397.249	96.44
397.474	102.44
397.698	90.44
397.922	80.44
398.147	90.44
398.371	85.44
398.595	92.44
398.82	86.44
399.044	78.44
399.268	100.44
399.492	81.44
399.717	89.44
399.941	84.44
400.165	102.44
400.389	102.44
400.613	92.44
400.837	92.44
401.062	91.44
401.286	86.44
401.51	96.44
401.734	90.44
401.958	102.44
402.182	118.44
402.406	148.44
402.63	108.44
402.854	104.44
403.078	96.44
403.302	88.44
403.526	90.44
403.75	80.44
403.974	96.44
404.198	90.44
404.422	82.44
404.645	94.44
404.869	99.44
405.093	110.44
405.317	120.44
405.541	124.44
405.765	98.44
405.988	115.44
406.212	167.44
406.436	203.44
406.66	140.44
406.883	107.44
407.107	86.44
407.331	84.44
407.555	90.44
407.778	105.44
408.002	86.44
408.226	84.44
408.449	85.44
408.673	90.44
408.896	79.44
409.12	98.44
409.344	85.44
409.567	81.44
409.791	95.44
410.014	95.44
410.238	89.44
410.461	79.44
410.685	99.44
410.908	104.44
411.132	87.44
411.355	106.44
411.578	90.44
411.802	92.44
412.025	88.44
412.249	94.44
412.472	100.44
412.695	110.44
412.919	91.44
413.142	97.44
413.365	70.44
413.589	91.44
413.812	99.44
414.035	93.44
414.258	89.44
414.482	115.44
414.705	96.44
414.928	92.44
415.151	84.44
415.374	94.44
415.597	100.44
415.821	84.44
416.044	90.44
416.267	93.44
416.49	91.44
416.713	97.44
416.936	87.44
417.159	85.44
417.382	100.44
417.605	101.44
417.828	104.44
418.051	106.44
418.274	101.44
418.497	85.44
418.72	79.44
418.943	78.44
419.166	81.44
419.389	91.44
419.611	93.44
419.834	94.44
420.057	92.44
420.28	100.44
420.503	93.44
420.726	76.44
420.948	97.44
421.171	92.44
421.394	92.44
421.617	86.44
421.839	91.44
422.062	93.44
422.285	95.44
422.507	90.44
422.73	114.44
422.953	106.44
423.175	83.44
423.398	88.44
423.621	83.44
423.843	89.44
424.066	85.44
424.288	68.44
424.511	80.44
424.733	97.44
424.956	106.44
425.178	108.44
425.401	114.44
425.623	92.44
425.846	83.44
426.068	85.44
426.291	98.44
426.513	94.44
426.735	96.44
426.958	101.44
427.18	100.44
427.402	151.44
427.625	178.44
427.847	158.44
428.069	159.44
428.292	107.44
428.514	98.44
428.736	87.44
428.958	80.44
429.181	83.44
429.403	88.44
429.625	92.44
429.847	84.44
430.069	109.44
430.292	91.44
430.514	93.44
430.736	78.44
430.958	92.44
431.18	78.44
431.402	85.44
431.624	91.44
431.846	76.44
432.068	92.44
432.29	78.44
432.512	91.44
432.734	84.44
432.956	96.44
433.178	100.44
433.4	103.44
433.622	95.44
433.844	99.44
434.066	94.44
434.287	82.44
434.509	83.44
434.731	82.44
434.953	88.44
435.175	95.44
435.397	98.44
435.618	88.44
435.84	98.44
436.062	112.44
436.284	116.44
436.505	89.44
436.727	106.44
436.949	90.44
437.17	84.44
437.392	90.44
437.614	82.44
437.835	112.44
438.057	128.44
438.278	126.44
438.5	111.44
438.721	118.44
438.943	88.44
439.165	83.44
439.386	81.44
439.608	94.44
439.829	97.44
440.05	118.44
440.272	148.44
440.493	104.44
440.715	85.44
440.936	98.44
441.158	84.44
441.379	93.44
441.6	99.44
441.822	101.44
442.043	84.44
442.264	100.44
442.486	114.44
442.707	100.44
442.928	111.44
443.149	129.44
443.371	126.44
443.592	112.44
443.813	116.44
444.034	110.44
444.255	95.44
444.476	81.44
444.698	88.44
444.919	100.44
445.14	134.44
445.361	138.44
445.582	127.44
445.803	136.44
446.024	138.44
446.245	131.44
446.466	116.44
446.687	102.44
446.908	91.44
447.129	90.44
447.35	67.44
447.571	82.44
447.792	93.44
448.013	94.44
448.234	110.44
448.455	111.44
448.675	112.44
448.896	127.44
449.117	94.44
449.338	104.44
449.559	138.44
449.779	138.44
450	96.44
450.221	92.44
450.442	82.44
450.662	76.44
450.883	102.44
451.104	107.44
451.324	85.44
451.545	84.44
451.766	80.44
451.986	89.44
452.207	87.44
452.428	94.44
452.648	96.44
452.869	118.44
453.089	110.44
453.31	110.44
453.53	86.44
453.751	90.44
453.971	112.44
454.192	103.44
454.412	95.44
454.633	83.44
454.853	99.44
455.073	94.44
455.294	86.44
455.514	99.44
455.734	85.44
455.955	79.44
456.175	87.44
456.395	92.44
456.616	85.44
456.836	89.44
457.056	94.44
457.276	88.44
457.497	88.44
457.717	85.44
457.937	85.44
458.157	83.44
458.377	98.44
458.598	107.44
458.818	179.44
459.038	141.44
459.258	110.44
459.478	90.44
459.698	91.44
459.918	96.44
460.138	85.44
460.358	81.44
460.578	80.44
460.798	100.44
461.018	95.44
461.238	92.44
461.458	76.44
461.678	75.44
461.898	82.44
462.118	96.44
462.338	85.44
462.558	97.44
462.777	96.44
462.997	90.44
463.217	88.44
463.437	86.44
463.657	67.44
463.876	86.44
464.096	101.44
464.316	94.44
464.536	81.44
464.755	98.44
464.975	107.44
465.195	167.44
465.414	158.44
465.634	92.44
465.854	76.44
466.073	92.44
466.293	91.44
466.512	84.44
466.732	81.44
466.951	101.44
467.171	80.44
467.391	96.44
467.61	125.44
467.829	149.44
468.049	253.44
468.268	330.44
468.488	121.44
468.707	90.44
468.927	83.44
469.146	82.44
469.365	68.44
469.585	87.44
469.804	93.44
470.023	108.44
470.243	110.44
470.462	107.44
470.681	96.44
470.901	95.44
471.12	104.44
471.339	87.44
471.558	104.44
471.777	96.44
471.997	166.44
472.216	446.44
472.435	894.44
472.654	246.44
472.873	97.44
473.092	101.44
473.311	79.44
473.53	95.44
473.749	83.44
473.968	93.44
474.187	100.44
474.406	99.44
474.625	93.44
474.844	104.44
475.063	93.44
475.282	78.44
475.501	88.44
475.72	83.44
475.939	79.44
476.158	84.44
476.377	91.44
476.596	89.44
476.814	104.44
477.033	86.44
477.252	85.44
477.471	102.44
477.69	90.44
477.908	103.44
478.127	87.44
478.346	81.44
478.564	91.44
478.783	97.44
479.002	90.44
479.22	107.44
479.439	103.44
479.658	120.44
479.876	93.44
480.095	94.44
480.313	104.44
480.532	105.44
480.751	163.44
480.969	447.44
481.188	1673.44
481.406	972.44
481.624	198.44
481.843	103.44
482.061	100.44
482.28	86.44
482.498	94.44
482.717	93.44
482.935	98.44
483.153	85.44
483.372	88.44
483.59	105.44
483.808	96.44
484.027	94.44
484.245	102.44
484.463	95.44
484.681	103.44
484.9	87.44
485.118	109.44
485.336	100.44
485.554	98.44
485.772	109.44
485.99	95.44
486.209	96.44
486.427	91.44
486.645	112.44
486.863	111.44
487.081	104.44
487.299	103.44
487.517	91.44
487.735	95.44
487.953	105.44
488.171	90.44
488.389	92.44
488.607	99.44
488.825	95.44
489.043	91.44
489.261	100.44
489.479	98.44
489.696	96.44
489.914	84.44
490.132	84.44
490.35	76.44
490.568	106.44
490.786	98.44
491.003	94.44
491.221	101.44
491.439	95.44
491.657	99.44
491.874	86.44
492.092	92.44
492.31	90.44
492.527	86.44
492.745	78.44
492.963	95.44
493.18	89.44
493.398	87.44
493.615	105.44
493.833	86.44
494.05	90.44
494.268	84.44
494.485	88.44
494.703	83.44
494.92	80.44
495.138	86.44
495.355	90.44
495.573	90.44
495.79	80.44
496.008	97.44
496.225	92.44
496.442	86.44
496.66	93.44
496.877	94.44
497.094	86.44
497.312	88.44
497.529	77.44
497.746	95.44
497.963	97.44
498.181	106.44
498.398	93.44
498.615	114.44
498.832	108.44
499.049	79.44
499.267	95.44
499.484	88.44
499.701	78.44
499.918	87.44
500.135	82.44
500.352	102.44
500.569	84.44
500.786	107.44
501.003	86.44
501.22	98.44
501.437	93.44
501.654	95.44
501.871	100.44
502.088	100.44
502.305	111.44
502.522	88.44
502.739	85.44
502.956	96.44
503.172	84.44
503.389	88.44
503.606	97.44
503.823	89.44
504.04	94.44
504.256	92.44
504.473	94.44
504.69	90.44
504.907	98.44
505.123	82.44
505.34	83.44
505.557	77.44
505.773	81.44
505.99	94.44
506.207	115.44
506.423	97.44
506.64	99.44
506.856	90.44
507.073	85.44
507.289	87.44
507.506	83.44
507.722	94.44
507.939	112.44
508.155	94.44
508.372	98.44
508.588	94.44
508.805	92.44
509.021	90.44
509.238	94.44
509.454	87.44
509.67	94.44
509.887	99.44
510.103	128.44
510.319	202.44
510.536	674.44
510.752	2115.44
510.968	570.44
511.184	142.44
511.401	104.44
511.617	111.44
511.833	106.44
512.049	102.44
512.265	80.44
512.481	89.44
512.698	87.44
512.914	94.44
513.13	97.44
513.346	76.44
513.562	94.44
513.778	82.44
513.994	99.44
514.21	98.44
514.426	123.44
514.642	139.44
514.858	118.44
515.074	154.44
