Data from Circ_1990_H10_HRD10591_00065.txt Node
Date: Wed Jan 03 11:55:17 EST 2024
User: Yrep
Spectrometer: HR+D1059
Trigger mode: 1
Integration Time (sec): 1.000000E-1
Scans to average: 1
Electric dark correction enabled: true
Nonlinearity correction enabled: false
Boxcar width: 0
XAxis mode: Wavelengths
Number of Pixels in Spectrum: 2048
>>>>>Begin Spectral Data<<<<<
223.165	-12.38
223.4	-12.38
223.635	-12.38
223.869	-9.38
224.104	-10.38
224.338	-27.38
224.573	-25.38
224.808	-22.38
225.042	1.62
225.277	-2.38
225.511	-2.38
225.746	3.62
225.98	4.62
226.215	13.62
226.449	7.62
226.683	27.62
226.918	27.62
227.152	25.62
227.387	31.62
227.621	45.62
227.856	54.62
228.09	51.62
228.324	57.62
228.559	67.62
228.793	66.62
229.027	72.62
229.262	58.62
229.496	75.62
229.73	79.62
229.964	82.62
230.199	63.62
230.433	78.62
230.667	61.62
230.901	80.62
231.136	79.62
231.37	67.62
231.604	83.62
231.838	79.62
232.072	92.62
232.306	68.62
232.541	83.62
232.775	91.62
233.009	77.62
233.243	88.62
233.477	84.62
233.711	69.62
233.945	73.62
234.179	86.62
234.413	76.62
234.647	86.62
234.881	77.62
235.115	85.62
235.349	85.62
235.583	83.62
235.817	92.62
236.051	73.62
236.285	94.62
236.519	100.62
236.753	85.62
236.987	85.62
237.221	84.62
237.455	85.62
237.689	68.62
237.922	79.62
238.156	89.62
238.39	70.62
238.624	69.62
238.858	89.62
239.091	59.62
239.325	68.62
239.559	74.62
239.793	83.62
240.027	67.62
240.26	79.62
240.494	78.62
240.728	73.62
240.961	80.62
241.195	79.62
241.429	80.62
241.662	73.62
241.896	60.62
242.13	66.62
242.363	79.62
242.597	87.62
242.83	79.62
243.064	92.62
243.298	83.62
243.531	99.62
243.765	78.62
243.998	84.62
244.232	82.62
244.465	72.62
244.699	83.62
244.932	77.62
245.166	96.62
245.399	70.62
245.633	76.62
245.866	77.62
246.099	92.62
246.333	70.62
246.566	79.62
246.8	73.62
247.033	86.62
247.266	78.62
247.5	80.62
247.733	71.62
247.966	78.62
248.2	79.62
248.433	68.62
248.666	75.62
248.899	81.62
249.133	85.62
249.366	90.62
249.599	87.62
249.832	71.62
250.066	89.62
250.299	84.62
250.532	91.62
250.765	69.62
250.998	97.62
251.231	92.62
251.465	77.62
251.698	80.62
251.931	81.62
252.164	68.62
252.397	83.62
252.63	83.62
252.863	77.62
253.096	74.62
253.329	76.62
253.562	77.62
253.795	89.62
254.028	93.62
254.261	77.62
254.494	73.62
254.727	91.62
254.96	91.62
255.193	74.62
255.426	78.62
255.659	80.62
255.892	82.62
256.124	86.62
256.357	86.62
256.59	85.62
256.823	94.62
257.056	83.62
257.289	79.62
257.521	78.62
257.754	63.62
257.987	87.62
258.22	77.62
258.452	84.62
258.685	90.62
258.918	91.62
259.151	80.62
259.383	76.62
259.616	87.62
259.849	66.62
260.081	79.62
260.314	81.62
260.547	91.62
260.779	70.62
261.012	84.62
261.244	77.62
261.477	96.62
261.71	95.62
261.942	103.62
262.175	115.62
262.407	100.62
262.64	85.62
262.872	84.62
263.105	95.62
263.337	91.62
263.57	78.62
263.802	92.62
264.035	94.62
264.267	72.62
264.499	85.62
264.732	79.62
264.964	75.62
265.197	84.62
265.429	81.62
265.661	75.62
265.894	86.62
266.126	84.62
266.358	83.62
266.591	71.62
266.823	86.62
267.055	85.62
267.287	84.62
267.52	77.62
267.752	93.62
267.984	83.62
268.216	68.62
268.448	89.62
268.681	91.62
268.913	96.62
269.145	97.62
269.377	86.62
269.609	87.62
269.841	103.62
270.073	95.62
270.306	77.62
270.538	81.62
270.77	88.62
271.002	88.62
271.234	86.62
271.466	80.62
271.698	72.62
271.93	79.62
272.162	88.62
272.394	85.62
272.626	89.62
272.858	75.62
273.09	87.62
273.322	83.62
273.553	71.62
273.785	86.62
274.017	81.62
274.249	92.62
274.481	84.62
274.713	82.62
274.945	88.62
275.176	99.62
275.408	84.62
275.64	91.62
275.872	87.62
276.104	94.62
276.335	81.62
276.567	102.62
276.799	114.62
277.031	109.62
277.262	117.62
277.494	98.62
277.726	101.62
277.957	83.62
278.189	85.62
278.421	80.62
278.652	79.62
278.884	87.62
279.115	91.62
279.347	93.62
279.579	100.62
279.81	103.62
280.042	115.62
280.273	133.62
280.505	104.62
280.736	83.62
280.968	75.62
281.199	89.62
281.431	81.62
281.662	79.62
281.894	90.62
282.125	94.62
282.356	119.62
282.588	131.62
282.819	105.62
283.051	95.62
283.282	70.62
283.513	89.62
283.745	93.62
283.976	86.62
284.207	87.62
284.439	91.62
284.67	83.62
284.901	87.62
285.132	101.62
285.364	93.62
285.595	96.62
285.826	90.62
286.057	96.62
286.288	82.62
286.52	91.62
286.751	87.62
286.982	93.62
287.213	100.62
287.444	87.62
287.675	76.62
287.906	84.62
288.138	99.62
288.369	92.62
288.6	88.62
288.831	82.62
289.062	102.62
289.293	87.62
289.524	81.62
289.755	83.62
289.986	87.62
290.217	88.62
290.448	90.62
290.679	90.62
290.91	87.62
291.141	84.62
291.371	77.62
291.602	99.62
291.833	78.62
292.064	83.62
292.295	75.62
292.526	92.62
292.757	81.62
292.987	77.62
293.218	87.62
293.449	81.62
293.68	87.62
293.91	93.62
294.141	80.62
294.372	77.62
294.603	89.62
294.833	89.62
295.064	74.62
295.295	81.62
295.525	75.62
295.756	86.62
295.987	124.62
296.217	136.62
296.448	109.62
296.679	94.62
296.909	105.62
297.14	83.62
297.37	84.62
297.601	101.62
297.831	87.62
298.062	94.62
298.292	98.62
298.523	77.62
298.753	91.62
298.984	92.62
299.214	102.62
299.445	102.62
299.675	81.62
299.905	97.62
300.136	88.62
300.366	95.62
300.597	95.62
300.827	95.62
301.057	73.62
301.288	105.62
301.518	94.62
301.748	96.62
301.979	117.62
302.209	93.62
302.439	79.62
302.669	83.62
302.9	86.62
303.13	107.62
303.36	98.62
303.59	105.62
303.82	98.62
304.051	96.62
304.281	87.62
304.511	89.62
304.741	82.62
304.971	94.62
305.201	93.62
305.431	101.62
305.661	88.62
305.891	97.62
306.121	103.62
306.352	94.62
306.582	102.62
306.812	89.62
307.042	96.62
307.272	107.62
307.502	114.62
307.731	140.62
307.961	96.62
308.191	92.62
308.421	85.62
308.651	69.62
308.881	87.62
309.111	94.62
309.341	89.62
309.571	83.62
309.8	103.62
310.03	100.62
310.26	108.62
310.49	85.62
310.72	89.62
310.949	118.62
311.179	107.62
311.409	96.62
311.639	119.62
311.868	98.62
312.098	95.62
312.328	97.62
312.557	83.62
312.787	98.62
313.017	105.62
313.246	93.62
313.476	90.62
313.706	100.62
313.935	97.62
314.165	103.62
314.394	93.62
314.624	94.62
314.853	95.62
315.083	99.62
315.312	90.62
315.542	85.62
315.771	102.62
316.001	97.62
316.23	115.62
316.46	75.62
316.689	79.62
316.919	80.62
317.148	92.62
317.377	85.62
317.607	83.62
317.836	86.62
318.065	97.62
318.295	84.62
318.524	91.62
318.753	104.62
318.983	86.62
319.212	100.62
319.441	128.62
319.67	109.62
319.9	110.62
320.129	106.62
320.358	93.62
320.587	88.62
320.816	98.62
321.046	93.62
321.275	93.62
321.504	79.62
321.733	93.62
321.962	90.62
322.191	94.62
322.42	109.62
322.649	108.62
322.878	100.62
323.108	107.62
323.337	120.62
323.566	142.62
323.795	143.62
324.024	183.62
324.253	340.62
324.482	735.62
324.71	1509.62
324.939	1992.62
325.168	728.62
325.397	208.62
325.626	147.62
325.855	127.62
326.084	119.62
326.313	117.62
326.542	146.62
326.77	213.62
326.999	415.62
327.228	807.62
327.457	1516.62
327.686	1213.62
327.914	382.62
328.143	273.62
328.372	311.62
328.6	180.62
328.829	134.62
329.058	142.62
329.287	133.62
329.515	122.62
329.744	153.62
329.972	237.62
330.201	390.62
330.43	532.62
330.658	275.62
330.887	176.62
331.115	136.62
331.344	116.62
331.572	111.62
331.801	99.62
332.03	108.62
332.258	104.62
332.486	78.62
332.715	79.62
332.943	102.62
333.172	104.62
333.4	112.62
333.629	111.62
333.857	141.62
334.085	217.62
334.314	376.62
334.542	675.62
334.771	623.62
334.999	213.62
335.227	127.62
335.455	107.62
335.684	95.62
335.912	100.62
336.14	91.62
336.369	91.62
336.597	99.62
336.825	99.62
337.053	95.62
337.281	107.62
337.51	84.62
337.738	100.62
337.966	96.62
338.194	99.62
338.422	81.62
338.65	100.62
338.878	99.62
339.106	93.62
339.334	101.62
339.562	99.62
339.79	87.62
340.018	95.62
340.246	101.62
340.474	101.62
340.702	101.62
340.93	85.62
341.158	88.62
341.386	107.62
341.614	93.62
341.842	102.62
342.07	75.62
342.298	100.62
342.526	99.62
342.754	84.62
342.981	83.62
343.209	76.62
343.437	98.62
343.665	96.62
343.893	85.62
344.12	96.62
344.348	88.62
344.576	88.62
344.804	91.62
345.031	85.62
345.259	102.62
345.487	86.62
345.714	98.62
345.942	91.62
346.17	95.62
346.397	93.62
346.625	98.62
346.853	109.62
347.08	73.62
347.308	97.62
347.535	91.62
347.763	87.62
347.99	100.62
348.218	102.62
348.445	110.62
348.673	95.62
348.9	98.62
349.128	81.62
349.355	90.62
349.583	105.62
349.81	110.62
350.037	100.62
350.265	99.62
350.492	96.62
350.72	93.62
350.947	97.62
351.174	119.62
351.402	113.62
351.629	101.62
351.856	88.62
352.083	96.62
352.311	110.62
352.538	100.62
352.765	101.62
352.992	112.62
353.22	105.62
353.447	87.62
353.674	109.62
353.901	94.62
354.128	79.62
354.355	105.62
354.583	94.62
354.81	104.62
355.037	91.62
355.264	102.62
355.491	81.62
355.718	84.62
355.945	95.62
356.172	91.62
356.399	105.62
356.626	97.62
356.853	88.62
357.08	99.62
357.307	85.62
357.534	83.62
357.761	95.62
357.988	94.62
358.215	95.62
358.441	87.62
358.668	92.62
358.895	96.62
359.122	87.62
359.349	102.62
359.576	86.62
359.802	98.62
360.029	124.62
360.256	112.62
360.483	104.62
360.709	88.62
360.936	83.62
361.163	87.62
361.39	108.62
361.616	86.62
361.843	82.62
362.07	87.62
362.296	102.62
362.523	91.62
362.749	82.62
362.976	98.62
363.203	89.62
363.429	102.62
363.656	104.62
363.882	97.62
364.109	105.62
364.335	99.62
364.562	72.62
364.788	82.62
365.015	104.62
365.241	99.62
365.468	108.62
365.694	104.62
365.92	72.62
366.147	97.62
366.373	84.62
366.599	100.62
366.826	91.62
367.052	83.62
367.278	82.62
367.505	79.62
367.731	89.62
367.957	88.62
368.184	91.62
368.41	91.62
368.636	94.62
368.862	115.62
369.089	106.62
369.315	78.62
369.541	92.62
369.767	99.62
369.993	91.62
370.219	103.62
370.445	81.62
370.672	85.62
370.898	103.62
371.124	92.62
371.35	91.62
371.576	84.62
371.802	88.62
372.028	88.62
372.254	87.62
372.48	89.62
372.706	95.62
372.932	85.62
373.158	94.62
373.384	99.62
373.61	90.62
373.835	93.62
374.061	101.62
374.287	106.62
374.513	87.62
374.739	95.62
374.965	87.62
375.191	99.62
375.416	89.62
375.642	87.62
375.868	92.62
376.094	97.62
376.319	81.62
376.545	89.62
376.771	89.62
376.997	90.62
377.222	97.62
377.448	83.62
377.674	97.62
377.899	79.62
378.125	95.62
378.35	86.62
378.576	81.62
378.802	101.62
379.027	88.62
379.253	98.62
379.478	79.62
379.704	109.62
379.929	94.62
380.155	110.62
380.38	85.62
380.606	99.62
380.831	97.62
381.057	104.62
381.282	92.62
381.507	84.62
381.733	104.62
381.958	107.62
382.184	100.62
382.409	97.62
382.634	119.62
382.86	101.62
383.085	95.62
383.31	120.62
383.535	106.62
383.761	100.62
383.986	93.62
384.211	88.62
384.436	96.62
384.662	109.62
384.887	111.62
385.112	104.62
385.337	104.62
385.562	111.62
385.787	97.62
386.013	118.62
386.238	114.62
386.463	109.62
386.688	114.62
386.913	95.62
387.138	125.62
387.363	113.62
387.588	118.62
387.813	98.62
388.038	101.62
388.263	128.62
388.488	128.62
388.713	103.62
388.938	105.62
389.163	97.62
389.387	87.62
389.612	90.62
389.837	91.62
390.062	86.62
390.287	84.62
390.512	79.62
390.736	87.62
390.961	85.62
391.186	101.62
391.411	101.62
391.636	86.62
391.86	76.62
392.085	85.62
392.31	87.62
392.534	99.62
392.759	98.62
392.984	94.62
393.208	97.62
393.433	103.62
393.658	78.62
393.882	84.62
394.107	95.62
394.331	83.62
394.556	104.62
394.78	92.62
395.005	88.62
395.229	83.62
395.454	99.62
395.678	87.62
395.903	81.62
396.127	79.62
396.352	91.62
396.576	84.62
396.801	95.62
397.025	97.62
397.249	71.62
397.474	80.62
397.698	89.62
397.922	73.62
398.147	82.62
398.371	67.62
398.595	88.62
398.82	80.62
399.044	93.62
399.268	96.62
399.492	81.62
399.717	97.62
399.941	98.62
400.165	88.62
400.389	97.62
400.613	93.62
400.837	94.62
401.062	86.62
401.286	103.62
401.51	105.62
401.734	98.62
401.958	99.62
402.182	115.62
402.406	154.62
402.63	107.62
402.854	87.62
403.078	83.62
403.302	92.62
403.526	83.62
403.75	73.62
403.974	85.62
404.198	86.62
404.422	97.62
404.645	88.62
404.869	93.62
405.093	112.62
405.317	109.62
405.541	113.62
405.765	100.62
405.988	105.62
406.212	158.62
406.436	228.62
406.66	150.62
406.883	91.62
407.107	95.62
407.331	88.62
407.555	104.62
407.778	110.62
408.002	97.62
408.226	107.62
408.449	92.62
408.673	83.62
408.896	101.62
409.12	108.62
409.344	100.62
409.567	81.62
409.791	90.62
410.014	88.62
410.238	97.62
410.461	86.62
410.685	95.62
410.908	100.62
411.132	104.62
411.355	114.62
411.578	86.62
411.802	98.62
412.025	89.62
412.249	81.62
412.472	94.62
412.695	114.62
412.919	111.62
413.142	96.62
413.365	93.62
413.589	98.62
413.812	77.62
414.035	91.62
414.258	82.62
414.482	95.62
414.705	87.62
414.928	91.62
415.151	81.62
415.374	99.62
415.597	95.62
415.821	89.62
416.044	83.62
416.267	99.62
416.49	76.62
416.713	92.62
416.936	92.62
417.159	113.62
417.382	92.62
417.605	98.62
417.828	85.62
418.051	88.62
418.274	79.62
418.497	79.62
418.72	85.62
418.943	96.62
419.166	94.62
419.389	95.62
419.611	91.62
419.834	87.62
420.057	87.62
420.28	84.62
420.503	94.62
420.726	76.62
420.948	94.62
421.171	110.62
421.394	107.62
421.617	88.62
421.839	87.62
422.062	98.62
422.285	93.62
422.507	91.62
422.73	100.62
422.953	88.62
423.175	90.62
423.398	84.62
423.621	100.62
423.843	84.62
424.066	84.62
424.288	80.62
424.511	88.62
424.733	103.62
424.956	111.62
425.178	95.62
425.401	98.62
425.623	109.62
425.846	92.62
426.068	93.62
426.291	79.62
426.513	98.62
426.735	80.62
426.958	105.62
427.18	102.62
427.402	143.62
427.625	170.62
427.847	155.62
428.069	149.62
428.292	97.62
428.514	92.62
428.736	91.62
428.958	84.62
429.181	84.62
429.403	88.62
429.625	92.62
429.847	78.62
430.069	113.62
430.292	89.62
430.514	100.62
430.736	96.62
430.958	84.62
431.18	89.62
431.402	95.62
431.624	79.62
431.846	85.62
432.068	94.62
432.29	83.62
432.512	95.62
432.734	93.62
432.956	85.62
433.178	100.62
433.4	94.62
433.622	94.62
433.844	96.62
434.066	84.62
434.287	94.62
434.509	90.62
434.731	91.62
434.953	88.62
435.175	95.62
435.397	92.62
435.618	101.62
435.84	108.62
436.062	115.62
436.284	113.62
436.505	98.62
436.727	104.62
436.949	97.62
437.17	102.62
437.392	77.62
437.614	88.62
437.835	107.62
438.057	103.62
438.278	119.62
438.5	114.62
438.721	124.62
438.943	109.62
439.165	97.62
439.386	76.62
439.608	75.62
439.829	102.62
440.05	125.62
440.272	139.62
440.493	110.62
440.715	99.62
440.936	86.62
441.158	86.62
441.379	87.62
441.6	83.62
441.822	84.62
442.043	92.62
442.264	95.62
442.486	105.62
442.707	73.62
442.928	101.62
443.149	142.62
443.371	135.62
443.592	97.62
443.813	101.62
444.034	110.62
444.255	92.62
444.476	85.62
444.698	81.62
444.919	95.62
445.14	145.62
445.361	114.62
445.582	115.62
445.803	136.62
446.024	143.62
446.245	133.62
446.466	113.62
446.687	72.62
446.908	99.62
447.129	90.62
447.35	83.62
447.571	94.62
447.792	95.62
448.013	96.62
448.234	96.62
448.455	99.62
448.675	109.62
448.896	132.62
449.117	118.62
449.338	98.62
449.559	133.62
449.779	125.62
450	99.62
450.221	91.62
450.442	84.62
450.662	95.62
450.883	102.62
451.104	120.62
451.324	87.62
451.545	95.62
451.766	104.62
451.986	84.62
452.207	91.62
452.428	87.62
452.648	93.62
452.869	108.62
453.089	117.62
453.31	119.62
453.53	103.62
453.751	85.62
453.971	109.62
454.192	101.62
454.412	93.62
454.633	79.62
454.853	88.62
455.073	90.62
455.294	105.62
455.514	103.62
455.734	96.62
455.955	85.62
456.175	86.62
456.395	88.62
456.616	79.62
456.836	83.62
457.056	85.62
457.276	79.62
457.497	90.62
457.717	89.62
457.937	100.62
458.157	94.62
458.377	80.62
458.598	112.62
458.818	137.62
459.038	167.62
459.258	113.62
459.478	93.62
459.698	96.62
459.918	83.62
460.138	80.62
460.358	91.62
460.578	87.62
460.798	100.62
461.018	101.62
461.238	81.62
461.458	92.62
461.678	73.62
461.898	96.62
462.118	74.62
462.338	84.62
462.558	73.62
462.777	81.62
462.997	79.62
463.217	112.62
463.437	81.62
463.657	84.62
463.876	86.62
464.096	103.62
464.316	103.62
464.536	109.62
464.755	94.62
464.975	105.62
465.195	173.62
465.414	158.62
465.634	100.62
465.854	79.62
466.073	101.62
466.293	94.62
466.512	91.62
466.732	82.62
466.951	93.62
467.171	84.62
467.391	90.62
467.61	109.62
467.829	128.62
468.049	247.62
468.268	331.62
468.488	134.62
468.707	96.62
468.927	89.62
469.146	98.62
469.365	83.62
469.585	93.62
469.804	91.62
470.023	104.62
470.243	91.62
470.462	105.62
470.681	111.62
470.901	87.62
471.12	95.62
471.339	85.62
471.558	93.62
471.777	100.62
471.997	160.62
472.216	447.62
472.435	902.62
472.654	248.62
472.873	123.62
473.092	94.62
473.311	97.62
473.53	98.62
473.749	94.62
473.968	83.62
474.187	103.62
474.406	101.62
474.625	92.62
474.844	94.62
475.063	67.62
475.282	98.62
475.501	79.62
475.72	98.62
475.939	74.62
476.158	86.62
476.377	79.62
476.596	106.62
476.814	87.62
477.033	97.62
477.252	93.62
477.471	109.62
477.69	97.62
477.908	85.62
478.127	92.62
478.346	96.62
478.564	81.62
478.783	100.62
479.002	101.62
479.22	97.62
479.439	116.62
479.658	107.62
479.876	109.62
480.095	98.62
480.313	113.62
480.532	125.62
480.751	162.62
480.969	419.62
481.188	1637.62
481.406	937.62
481.624	181.62
481.843	105.62
482.061	99.62
482.28	100.62
482.498	88.62
482.717	79.62
482.935	96.62
483.153	91.62
483.372	82.62
483.59	98.62
483.808	90.62
484.027	89.62
484.245	96.62
484.463	98.62
484.681	101.62
484.9	104.62
485.118	92.62
485.336	95.62
485.554	99.62
485.772	119.62
485.99	111.62
486.209	98.62
486.427	109.62
486.645	121.62
486.863	108.62
487.081	92.62
487.299	81.62
487.517	93.62
487.735	96.62
487.953	100.62
488.171	101.62
488.389	106.62
488.607	107.62
488.825	106.62
489.043	90.62
489.261	99.62
489.479	87.62
489.696	111.62
489.914	93.62
490.132	93.62
490.35	84.62
490.568	87.62
490.786	91.62
491.003	101.62
491.221	101.62
491.439	93.62
491.657	93.62
491.874	92.62
492.092	94.62
492.31	86.62
492.527	95.62
492.745	95.62
492.963	88.62
493.18	92.62
493.398	88.62
493.615	97.62
493.833	97.62
494.05	102.62
494.268	94.62
494.485	78.62
494.703	90.62
494.92	81.62
495.138	85.62
495.355	100.62
495.573	96.62
495.79	98.62
496.008	81.62
496.225	111.62
496.442	89.62
496.66	81.62
496.877	98.62
497.094	88.62
497.312	86.62
497.529	92.62
497.746	83.62
497.963	86.62
498.181	100.62
498.398	109.62
498.615	109.62
498.832	107.62
499.049	112.62
499.267	104.62
499.484	89.62
499.701	95.62
499.918	89.62
500.135	93.62
500.352	97.62
500.569	87.62
500.786	77.62
501.003	100.62
501.22	95.62
501.437	90.62
501.654	84.62
501.871	114.62
502.088	94.62
502.305	83.62
502.522	107.62
502.739	94.62
502.956	84.62
503.172	92.62
503.389	77.62
503.606	116.62
503.823	110.62
504.04	99.62
504.256	102.62
504.473	82.62
504.69	85.62
504.907	92.62
505.123	78.62
505.34	83.62
505.557	89.62
505.773	88.62
505.99	82.62
506.207	102.62
506.423	79.62
506.64	94.62
506.856	84.62
507.073	88.62
507.289	99.62
507.506	98.62
507.722	113.62
507.939	98.62
508.155	98.62
508.372	79.62
508.588	88.62
508.805	85.62
509.021	96.62
509.238	101.62
509.454	95.62
509.67	120.62
509.887	99.62
510.103	111.62
510.319	194.62
510.536	664.62
510.752	2160.62
510.968	596.62
511.184	129.62
511.401	114.62
511.617	108.62
511.833	100.62
512.049	93.62
512.265	90.62
512.481	86.62
512.698	100.62
512.914	86.62
513.13	85.62
513.346	100.62
513.562	109.62
513.778	85.62
513.994	88.62
514.21	113.62
514.426	117.62
514.642	136.62
