Data from Circ_1990_H10_HRD10591_00048.txt Node
Date: Wed Jan 03 11:55:13 EST 2024
User: Yrep
Spectrometer: HR+D1059
Trigger mode: 1
Integration Time (sec): 1.000000E-1
Scans to average: 1
Electric dark correction enabled: true
Nonlinearity correction enabled: false
Boxcar width: 0
XAxis mode: Wavelengths
Number of Pixels in Spectrum: 2048
>>>>>Begin Spectral Data<<<<<
223.165	-13.88
223.4	-13.88
223.635	-13.88
223.869	-8.88
224.104	-18.88
224.338	-9.88
224.573	-21.88
224.808	-16.88
225.042	-16.88
225.277	-5.88
225.511	-7.88
225.746	0.12
225.98	17.12
226.215	-5.88
226.449	23.12
226.683	28.12
226.918	22.12
227.152	36.12
227.387	40.12
227.621	40.12
227.856	49.12
228.09	60.12
228.324	40.12
228.559	52.12
228.793	48.12
229.027	61.12
229.262	65.12
229.496	80.12
229.73	78.12
229.964	82.12
230.199	74.12
230.433	68.12
230.667	67.12
230.901	79.12
231.136	69.12
231.37	83.12
231.604	93.12
231.838	96.12
232.072	75.12
232.306	77.12
232.541	86.12
232.775	86.12
233.009	76.12
233.243	89.12
233.477	92.12
233.711	87.12
233.945	92.12
234.179	87.12
234.413	73.12
234.647	79.12
234.881	79.12
235.115	75.12
235.349	69.12
235.583	87.12
235.817	68.12
236.051	81.12
236.285	73.12
236.519	82.12
236.753	80.12
236.987	94.12
237.221	99.12
237.455	97.12
237.689	74.12
237.922	86.12
238.156	66.12
238.39	78.12
238.624	69.12
238.858	79.12
239.091	82.12
239.325	97.12
239.559	81.12
239.793	86.12
240.027	70.12
240.26	59.12
240.494	74.12
240.728	92.12
240.961	84.12
241.195	93.12
241.429	89.12
241.662	71.12
241.896	64.12
242.13	84.12
242.363	90.12
242.597	82.12
242.83	81.12
243.064	76.12
243.298	70.12
243.531	73.12
243.765	89.12
243.998	78.12
244.232	71.12
244.465	62.12
244.699	79.12
244.932	82.12
245.166	81.12
245.399	90.12
245.633	74.12
245.866	81.12
246.099	82.12
246.333	73.12
246.566	80.12
246.8	66.12
247.033	89.12
247.266	77.12
247.5	82.12
247.733	83.12
247.966	86.12
248.2	90.12
248.433	95.12
248.666	84.12
248.899	82.12
249.133	90.12
249.366	106.12
249.599	97.12
249.832	93.12
250.066	81.12
250.299	65.12
250.532	79.12
250.765	89.12
250.998	76.12
251.231	82.12
251.465	96.12
251.698	92.12
251.931	81.12
252.164	95.12
252.397	83.12
252.63	87.12
252.863	80.12
253.096	86.12
253.329	94.12
253.562	80.12
253.795	101.12
254.028	88.12
254.261	82.12
254.494	79.12
254.727	89.12
254.96	73.12
255.193	84.12
255.426	80.12
255.659	84.12
255.892	89.12
256.124	95.12
256.357	96.12
256.59	84.12
256.823	72.12
257.056	81.12
257.289	114.12
257.521	94.12
257.754	99.12
257.987	84.12
258.22	78.12
258.452	78.12
258.685	89.12
258.918	87.12
259.151	73.12
259.383	78.12
259.616	98.12
259.849	84.12
260.081	88.12
260.314	85.12
260.547	81.12
260.779	92.12
261.012	97.12
261.244	87.12
261.477	86.12
261.71	102.12
261.942	117.12
262.175	112.12
262.407	97.12
262.64	88.12
262.872	105.12
263.105	78.12
263.337	93.12
263.57	83.12
263.802	87.12
264.035	84.12
264.267	81.12
264.499	81.12
264.732	92.12
264.964	92.12
265.197	84.12
265.429	93.12
265.661	97.12
265.894	84.12
266.126	94.12
266.358	84.12
266.591	95.12
266.823	86.12
267.055	81.12
267.287	73.12
267.52	88.12
267.752	89.12
267.984	82.12
268.216	86.12
268.448	85.12
268.681	89.12
268.913	93.12
269.145	95.12
269.377	93.12
269.609	92.12
269.841	88.12
270.073	80.12
270.306	79.12
270.538	109.12
270.77	77.12
271.002	86.12
271.234	89.12
271.466	73.12
271.698	80.12
271.93	84.12
272.162	86.12
272.394	87.12
272.626	80.12
272.858	86.12
273.09	88.12
273.322	91.12
273.553	74.12
273.785	85.12
274.017	84.12
274.249	89.12
274.481	89.12
274.713	77.12
274.945	93.12
275.176	88.12
275.408	90.12
275.64	103.12
275.872	98.12
276.104	98.12
276.335	114.12
276.567	105.12
276.799	116.12
277.031	126.12
277.262	111.12
277.494	99.12
277.726	92.12
277.957	82.12
278.189	85.12
278.421	93.12
278.652	86.12
278.884	77.12
279.115	81.12
279.347	78.12
279.579	98.12
279.81	113.12
280.042	116.12
280.273	140.12
280.505	122.12
280.736	99.12
280.968	85.12
281.199	106.12
281.431	84.12
281.662	99.12
281.894	89.12
282.125	102.12
282.356	104.12
282.588	154.12
282.819	112.12
283.051	92.12
283.282	89.12
283.513	78.12
283.745	86.12
283.976	98.12
284.207	92.12
284.439	79.12
284.67	87.12
284.901	98.12
285.132	108.12
285.364	91.12
285.595	86.12
285.826	102.12
286.057	85.12
286.288	76.12
286.52	88.12
286.751	79.12
286.982	91.12
287.213	84.12
287.444	102.12
287.675	95.12
287.906	102.12
288.138	83.12
288.369	89.12
288.6	95.12
288.831	84.12
289.062	94.12
289.293	82.12
289.524	98.12
289.755	85.12
289.986	82.12
290.217	93.12
290.448	89.12
290.679	82.12
290.91	90.12
291.141	83.12
291.371	86.12
291.602	89.12
291.833	88.12
292.064	103.12
292.295	109.12
292.526	103.12
292.757	89.12
292.987	86.12
293.218	100.12
293.449	80.12
293.68	78.12
293.91	91.12
294.141	82.12
294.372	104.12
294.603	97.12
294.833	96.12
295.064	95.12
295.295	103.12
295.525	86.12
295.756	99.12
295.987	114.12
296.217	132.12
296.448	124.12
296.679	96.12
296.909	83.12
297.14	90.12
297.37	89.12
297.601	89.12
297.831	95.12
298.062	74.12
298.292	97.12
298.523	81.12
298.753	87.12
298.984	95.12
299.214	99.12
299.445	78.12
299.675	95.12
299.905	93.12
300.136	73.12
300.366	88.12
300.597	97.12
300.827	98.12
301.057	104.12
301.288	110.12
301.518	102.12
301.748	103.12
301.979	102.12
302.209	98.12
302.439	96.12
302.669	88.12
302.9	98.12
303.13	112.12
303.36	96.12
303.59	113.12
303.82	104.12
304.051	87.12
304.281	101.12
304.511	85.12
304.741	102.12
304.971	86.12
305.201	82.12
305.431	85.12
305.661	90.12
305.891	87.12
306.121	110.12
306.352	103.12
306.582	108.12
306.812	95.12
307.042	96.12
307.272	101.12
307.502	115.12
307.731	117.12
307.961	110.12
308.191	90.12
308.421	87.12
308.651	86.12
308.881	101.12
309.111	104.12
309.341	106.12
309.571	99.12
309.8	92.12
310.03	90.12
310.26	101.12
310.49	92.12
310.72	105.12
310.949	109.12
311.179	90.12
311.409	92.12
311.639	103.12
311.868	90.12
312.098	101.12
312.328	109.12
312.557	104.12
312.787	111.12
313.017	110.12
313.246	96.12
313.476	100.12
313.706	85.12
313.935	93.12
314.165	103.12
314.394	106.12
314.624	111.12
314.853	114.12
315.083	98.12
315.312	95.12
315.542	100.12
315.771	95.12
316.001	89.12
316.23	98.12
316.46	81.12
316.689	96.12
316.919	89.12
317.148	98.12
317.377	103.12
317.607	95.12
317.836	93.12
318.065	91.12
318.295	86.12
318.524	102.12
318.753	95.12
318.983	101.12
319.212	96.12
319.441	111.12
319.67	99.12
319.9	94.12
320.129	92.12
320.358	95.12
320.587	94.12
320.816	104.12
321.046	124.12
321.275	104.12
321.504	95.12
321.733	93.12
321.962	98.12
322.191	90.12
322.42	122.12
322.649	113.12
322.878	115.12
323.108	123.12
323.337	126.12
323.566	122.12
323.795	158.12
324.024	206.12
324.253	394.12
324.482	848.12
324.71	1744.12
324.939	2316.12
325.168	847.12
325.397	261.12
325.626	159.12
325.855	134.12
326.084	142.12
326.313	136.12
326.542	165.12
326.77	244.12
326.999	465.12
327.228	928.12
327.457	1769.12
327.686	1410.12
327.914	410.12
328.143	285.12
328.372	310.12
328.6	191.12
328.829	130.12
329.058	146.12
329.287	164.12
329.515	128.12
329.744	146.12
329.972	230.12
330.201	383.12
330.43	534.12
330.658	274.12
330.887	165.12
331.115	150.12
331.344	121.12
331.572	102.12
331.801	104.12
332.03	100.12
332.258	104.12
332.486	89.12
332.715	90.12
332.943	109.12
333.172	106.12
333.4	113.12
333.629	124.12
333.857	138.12
334.085	227.12
334.314	384.12
334.542	664.12
334.771	620.12
334.999	218.12
335.227	144.12
335.455	123.12
335.684	104.12
335.912	100.12
336.14	103.12
336.369	104.12
336.597	91.12
336.825	96.12
337.053	100.12
337.281	84.12
337.51	97.12
337.738	91.12
337.966	100.12
338.194	116.12
338.422	104.12
338.65	96.12
338.878	101.12
339.106	86.12
339.334	98.12
339.562	102.12
339.79	91.12
340.018	100.12
340.246	95.12
340.474	93.12
340.702	93.12
340.93	106.12
341.158	95.12
341.386	93.12
341.614	98.12
341.842	114.12
342.07	98.12
342.298	104.12
342.526	95.12
342.754	80.12
342.981	93.12
343.209	89.12
343.437	96.12
343.665	86.12
343.893	90.12
344.12	88.12
344.348	96.12
344.576	88.12
344.804	92.12
345.031	96.12
345.259	93.12
345.487	96.12
345.714	96.12
345.942	86.12
346.17	96.12
346.397	99.12
346.625	102.12
346.853	98.12
347.08	109.12
347.308	84.12
347.535	102.12
347.763	113.12
347.99	104.12
348.218	103.12
348.445	103.12
348.673	108.12
348.9	90.12
349.128	98.12
349.355	109.12
349.583	115.12
349.81	78.12
350.037	97.12
350.265	104.12
350.492	97.12
350.72	98.12
350.947	103.12
351.174	117.12
351.402	102.12
351.629	104.12
351.856	91.12
352.083	97.12
352.311	100.12
352.538	113.12
352.765	117.12
352.992	113.12
353.22	124.12
353.447	119.12
353.674	93.12
353.901	101.12
354.128	92.12
354.355	96.12
354.583	103.12
354.81	106.12
355.037	107.12
355.264	112.12
355.491	98.12
355.718	95.12
355.945	105.12
356.172	90.12
356.399	97.12
356.626	95.12
356.853	113.12
357.08	84.12
357.307	95.12
357.534	92.12
357.761	101.12
357.988	95.12
358.215	101.12
358.441	94.12
358.668	96.12
358.895	98.12
359.122	97.12
359.349	90.12
359.576	99.12
359.802	110.12
360.029	108.12
360.256	104.12
360.483	105.12
360.709	99.12
360.936	97.12
361.163	101.12
361.39	103.12
361.616	85.12
361.843	86.12
362.07	97.12
362.296	101.12
362.523	93.12
362.749	98.12
362.976	91.12
363.203	94.12
363.429	92.12
363.656	94.12
363.882	96.12
364.109	98.12
364.335	97.12
364.562	106.12
364.788	94.12
365.015	93.12
365.241	106.12
365.468	115.12
365.694	100.12
365.92	102.12
366.147	79.12
366.373	87.12
366.599	96.12
366.826	94.12
367.052	110.12
367.278	85.12
367.505	101.12
367.731	86.12
367.957	91.12
368.184	94.12
368.41	100.12
368.636	116.12
368.862	100.12
369.089	105.12
369.315	110.12
369.541	92.12
369.767	89.12
369.993	92.12
370.219	88.12
370.445	89.12
370.672	88.12
370.898	88.12
371.124	91.12
371.35	97.12
371.576	95.12
371.802	73.12
372.028	82.12
372.254	101.12
372.48	86.12
372.706	91.12
372.932	84.12
373.158	85.12
373.384	97.12
373.61	85.12
373.835	89.12
374.061	89.12
374.287	81.12
374.513	99.12
374.739	100.12
374.965	82.12
375.191	96.12
375.416	92.12
375.642	96.12
375.868	86.12
376.094	85.12
376.319	82.12
376.545	92.12
376.771	80.12
376.997	97.12
377.222	83.12
377.448	95.12
377.674	95.12
377.899	90.12
378.125	101.12
378.35	95.12
378.576	101.12
378.802	101.12
379.027	85.12
379.253	95.12
379.478	101.12
379.704	96.12
379.929	98.12
380.155	86.12
380.38	107.12
380.606	103.12
380.831	101.12
381.057	103.12
381.282	92.12
381.507	89.12
381.733	86.12
381.958	102.12
382.184	89.12
382.409	110.12
382.634	106.12
382.86	110.12
383.085	112.12
383.31	110.12
383.535	112.12
383.761	120.12
383.986	104.12
384.211	107.12
384.436	107.12
384.662	112.12
384.887	106.12
385.112	125.12
385.337	108.12
385.562	112.12
385.787	104.12
386.013	121.12
386.238	134.12
386.463	131.12
386.688	123.12
386.913	105.12
387.138	111.12
387.363	120.12
387.588	100.12
387.813	102.12
388.038	120.12
388.263	131.12
388.488	102.12
388.713	102.12
388.938	97.12
389.163	86.12
389.387	90.12
389.612	95.12
389.837	90.12
390.062	94.12
390.287	90.12
390.512	82.12
390.736	89.12
390.961	86.12
391.186	93.12
391.411	97.12
391.636	88.12
391.86	82.12
392.085	85.12
392.31	83.12
392.534	101.12
392.759	90.12
392.984	94.12
393.208	104.12
393.433	88.12
393.658	94.12
393.882	93.12
394.107	82.12
394.331	88.12
394.556	88.12
394.78	90.12
395.005	86.12
395.229	97.12
395.454	84.12
395.678	68.12
395.903	89.12
396.127	101.12
396.352	93.12
396.576	90.12
396.801	97.12
397.025	77.12
397.249	100.12
397.474	96.12
397.698	85.12
397.922	82.12
398.147	83.12
398.371	80.12
398.595	100.12
398.82	87.12
399.044	94.12
399.268	85.12
399.492	84.12
399.717	82.12
399.941	85.12
400.165	89.12
400.389	92.12
400.613	88.12
400.837	87.12
401.062	92.12
401.286	101.12
401.51	95.12
401.734	88.12
401.958	89.12
402.182	143.12
402.406	160.12
402.63	104.12
402.854	95.12
403.078	86.12
403.302	76.12
403.526	89.12
403.75	85.12
403.974	96.12
404.198	89.12
404.422	93.12
404.645	81.12
404.869	96.12
405.093	102.12
405.317	128.12
405.541	120.12
405.765	100.12
405.988	114.12
406.212	171.12
406.436	223.12
406.66	157.12
406.883	118.12
407.107	89.12
407.331	90.12
407.555	114.12
407.778	101.12
408.002	95.12
408.226	96.12
408.449	86.12
408.673	81.12
408.896	88.12
409.12	103.12
409.344	97.12
409.567	93.12
409.791	92.12
410.014	88.12
410.238	84.12
410.461	100.12
410.685	98.12
410.908	96.12
411.132	107.12
411.355	98.12
411.578	84.12
411.802	95.12
412.025	96.12
412.249	102.12
412.472	102.12
412.695	120.12
412.919	100.12
413.142	94.12
413.365	93.12
413.589	87.12
413.812	94.12
414.035	101.12
414.258	83.12
414.482	95.12
414.705	94.12
414.928	73.12
415.151	99.12
415.374	94.12
415.597	99.12
415.821	101.12
416.044	89.12
416.267	96.12
416.49	88.12
416.713	78.12
416.936	92.12
417.159	91.12
417.382	90.12
417.605	99.12
417.828	95.12
418.051	111.12
418.274	94.12
418.497	88.12
418.72	99.12
418.943	88.12
419.166	90.12
419.389	105.12
419.611	89.12
419.834	96.12
420.057	97.12
420.28	93.12
420.503	96.12
420.726	103.12
420.948	88.12
421.171	107.12
421.394	94.12
421.617	89.12
421.839	88.12
422.062	94.12
422.285	78.12
422.507	110.12
422.73	104.12
422.953	108.12
423.175	102.12
423.398	87.12
423.621	100.12
423.843	93.12
424.066	96.12
424.288	93.12
424.511	86.12
424.733	89.12
424.956	110.12
425.178	87.12
425.401	103.12
425.623	106.12
425.846	91.12
426.068	94.12
426.291	95.12
426.513	94.12
426.735	88.12
426.958	90.12
427.18	103.12
427.402	156.12
427.625	180.12
427.847	178.12
428.069	162.12
428.292	108.12
428.514	91.12
428.736	96.12
428.958	94.12
429.181	97.12
429.403	97.12
429.625	88.12
429.847	92.12
430.069	114.12
430.292	98.12
430.514	96.12
430.736	97.12
430.958	85.12
431.18	99.12
431.402	89.12
431.624	87.12
431.846	85.12
432.068	92.12
432.29	94.12
432.512	94.12
432.734	93.12
432.956	91.12
433.178	105.12
433.4	115.12
433.622	84.12
433.844	102.12
434.066	88.12
434.287	92.12
434.509	86.12
434.731	96.12
434.953	93.12
435.175	85.12
435.397	91.12
435.618	101.12
435.84	100.12
436.062	131.12
436.284	117.12
436.505	108.12
436.727	101.12
436.949	96.12
437.17	80.12
437.392	90.12
437.614	88.12
437.835	133.12
438.057	127.12
438.278	125.12
438.5	108.12
438.721	115.12
438.943	113.12
439.165	90.12
439.386	89.12
439.608	98.12
439.829	112.12
440.05	130.12
440.272	176.12
440.493	108.12
440.715	85.12
440.936	79.12
441.158	96.12
441.379	86.12
441.6	103.12
441.822	106.12
442.043	98.12
442.264	108.12
442.486	104.12
442.707	79.12
442.928	100.12
443.149	128.12
443.371	147.12
443.592	112.12
443.813	127.12
444.034	118.12
444.255	105.12
444.476	86.12
444.698	92.12
444.919	80.12
445.14	147.12
445.361	124.12
445.582	126.12
445.803	136.12
446.024	158.12
446.245	164.12
446.466	117.12
446.687	93.12
446.908	88.12
447.129	88.12
447.35	93.12
447.571	103.12
447.792	96.12
448.013	97.12
448.234	109.12
448.455	114.12
448.675	109.12
448.896	116.12
449.117	111.12
449.338	112.12
449.559	156.12
449.779	134.12
450	107.12
450.221	96.12
450.442	99.12
450.662	97.12
450.883	117.12
451.104	129.12
451.324	92.12
451.545	96.12
451.766	89.12
451.986	90.12
452.207	85.12
452.428	90.12
452.648	109.12
452.869	125.12
453.089	109.12
453.31	109.12
453.53	112.12
453.751	95.12
453.971	112.12
454.192	119.12
454.412	99.12
454.633	93.12
454.853	100.12
455.073	74.12
455.294	95.12
455.514	104.12
455.734	98.12
455.955	88.12
456.175	82.12
456.395	96.12
456.616	90.12
456.836	94.12
457.056	97.12
457.276	85.12
457.497	86.12
457.717	92.12
457.937	84.12
458.157	80.12
458.377	89.12
458.598	113.12
458.818	177.12
459.038	166.12
459.258	126.12
459.478	91.12
459.698	100.12
459.918	82.12
460.138	88.12
460.358	78.12
460.578	97.12
460.798	96.12
461.018	90.12
461.238	85.12
461.458	106.12
461.678	87.12
461.898	81.12
462.118	90.12
462.338	90.12
462.558	87.12
462.777	90.12
462.997	109.12
463.217	82.12
463.437	91.12
463.657	92.12
463.876	86.12
464.096	87.12
464.316	90.12
464.536	104.12
464.755	98.12
464.975	110.12
465.195	168.12
465.414	182.12
465.634	98.12
465.854	80.12
466.073	95.12
466.293	101.12
466.512	96.12
466.732	102.12
466.951	82.12
467.171	96.12
467.391	113.12
467.61	119.12
467.829	126.12
468.049	247.12
468.268	311.12
468.488	137.12
468.707	84.12
468.927	94.12
469.146	102.12
469.365	95.12
469.585	98.12
469.804	111.12
470.023	106.12
470.243	98.12
470.462	111.12
470.681	105.12
470.901	92.12
471.12	96.12
471.339	79.12
471.558	101.12
471.777	125.12
471.997	158.12
472.216	429.12
472.435	876.12
472.654	264.12
472.873	113.12
473.092	111.12
473.311	78.12
473.53	97.12
473.749	84.12
473.968	104.12
474.187	121.12
474.406	122.12
474.625	102.12
474.844	90.12
475.063	97.12
475.282	93.12
475.501	80.12
475.72	90.12
475.939	90.12
476.158	90.12
476.377	93.12
476.596	101.12
476.814	99.12
477.033	106.12
477.252	93.12
477.471	97.12
477.69	96.12
477.908	87.12
478.127	97.12
478.346	95.12
478.564	99.12
478.783	96.12
479.002	87.12
479.22	93.12
479.439	111.12
479.658	112.12
479.876	109.12
480.095	90.12
480.313	115.12
480.532	117.12
480.751	164.12
480.969	422.12
481.188	1534.12
481.406	938.12
481.624	199.12
481.843	108.12
482.061	87.12
482.28	119.12
482.498	104.12
482.717	93.12
482.935	82.12
483.153	90.12
483.372	89.12
483.59	90.12
483.808	96.12
484.027	91.12
484.245	92.12
484.463	85.12
484.681	92.12
484.9	73.12
485.118	102.12
485.336	107.12
485.554	92.12
485.772	101.12
485.99	94.12
486.209	105.12
486.427	111.12
486.645	120.12
486.863	110.12
487.081	113.12
487.299	92.12
487.517	96.12
487.735	100.12
487.953	104.12
488.171	96.12
488.389	90.12
488.607	110.12
488.825	95.12
489.043	76.12
489.261	101.12
489.479	88.12
489.696	86.12
489.914	89.12
490.132	97.12
490.35	98.12
490.568	80.12
490.786	93.12
491.003	84.12
491.221	100.12
491.439	95.12
491.657	95.12
491.874	103.12
492.092	88.12
492.31	86.12
492.527	100.12
492.745	92.12
492.963	102.12
493.18	74.12
493.398	106.12
493.615	97.12
493.833	94.12
494.05	103.12
494.268	81.12
494.485	91.12
494.703	77.12
494.92	92.12
495.138	97.12
495.355	88.12
495.573	105.12
495.79	100.12
496.008	86.12
496.225	96.12
496.442	98.12
496.66	99.12
496.877	109.12
497.094	90.12
497.312	96.12
497.529	89.12
497.746	77.12
497.963	98.12
498.181	106.12
498.398	95.12
498.615	97.12
498.832	101.12
499.049	92.12
499.267	83.12
499.484	89.12
499.701	92.12
499.918	95.12
500.135	81.12
500.352	82.12
500.569	92.12
500.786	117.12
501.003	102.12
501.22	97.12
501.437	90.12
501.654	98.12
501.871	102.12
502.088	102.12
502.305	90.12
502.522	87.12
502.739	105.12
502.956	100.12
503.172	95.12
503.389	105.12
503.606	109.12
503.823	105.12
504.04	89.12
504.256	99.12
504.473	88.12
504.69	85.12
504.907	103.12
505.123	83.12
505.34	98.12
505.557	86.12
505.773	85.12
505.99	84.12
506.207	87.12
506.423	101.12
506.64	101.12
506.856	88.12
507.073	80.12
507.289	96.12
507.506	109.12
507.722	111.12
507.939	123.12
508.155	72.12
508.372	86.12
508.588	103.12
508.805	101.12
509.021	87.12
509.238	100.12
509.454	98.12
509.67	107.12
509.887	108.12
510.103	135.12
510.319	212.12
510.536	701.12
510.752	2274.12
510.968	625.12
511.184	141.12
511.401	106.12
511.617	98.12
511.833	104.12
512.049	94.12
512.265	103.12
512.481	104.12
512.698	96.12
512.914	73.12
513.13	88.12
513.346	80.12
513.562	86.12
