Data from Circ_1990_H10_HRD10591_00062.txt Node
Date: Wed Jan 03 11:55:16 EST 2024
User: Yrep
Spectrometer: HR+D1059
Trigger mode: 1
Integration Time (sec): 1.000000E-1
Scans to average: 1
Electric dark correction enabled: true
Nonlinearity correction enabled: false
Boxcar width: 0
XAxis mode: Wavelengths
Number of Pixels in Spectrum: 2048
>>>>>Begin Spectral Data<<<<<
223.165	-20.38
223.4	-20.38
223.635	-20.38
223.869	-21.38
224.104	-12.38
224.338	-14.38
224.573	-12.38
224.808	-0.38
225.042	-11.38
225.277	-0.38
225.511	-10.38
225.746	1.62
225.98	5.62
226.215	0.62
226.449	25.62
226.683	19.62
226.918	20.62
227.152	29.62
227.387	35.62
227.621	36.62
227.856	33.62
228.09	42.62
228.324	42.62
228.559	50.62
228.793	51.62
229.027	51.62
229.262	69.62
229.496	67.62
229.73	87.62
229.964	79.62
230.199	71.62
230.433	68.62
230.667	83.62
230.901	66.62
231.136	77.62
231.37	76.62
231.604	83.62
231.838	80.62
232.072	89.62
232.306	71.62
232.541	85.62
232.775	98.62
233.009	77.62
233.243	75.62
233.477	75.62
233.711	82.62
233.945	58.62
234.179	80.62
234.413	79.62
234.647	80.62
234.881	81.62
235.115	83.62
235.349	87.62
235.583	83.62
235.817	73.62
236.051	64.62
236.285	87.62
236.519	79.62
236.753	73.62
236.987	94.62
237.221	81.62
237.455	74.62
237.689	81.62
237.922	90.62
238.156	75.62
238.39	71.62
238.624	71.62
238.858	66.62
239.091	93.62
239.325	79.62
239.559	83.62
239.793	81.62
240.027	90.62
240.26	70.62
240.494	87.62
240.728	71.62
240.961	82.62
241.195	75.62
241.429	79.62
241.662	83.62
241.896	60.62
242.13	69.62
242.363	91.62
242.597	75.62
242.83	84.62
243.064	82.62
243.298	65.62
243.531	75.62
243.765	83.62
243.998	84.62
244.232	64.62
244.465	77.62
244.699	81.62
244.932	74.62
245.166	78.62
245.399	76.62
245.633	84.62
245.866	86.62
246.099	79.62
246.333	81.62
246.566	65.62
246.8	74.62
247.033	73.62
247.266	82.62
247.5	82.62
247.733	74.62
247.966	93.62
248.2	89.62
248.433	69.62
248.666	77.62
248.899	86.62
249.133	83.62
249.366	95.62
249.599	98.62
249.832	77.62
250.066	83.62
250.299	93.62
250.532	68.62
250.765	78.62
250.998	70.62
251.231	83.62
251.465	78.62
251.698	77.62
251.931	80.62
252.164	77.62
252.397	79.62
252.63	81.62
252.863	77.62
253.096	90.62
253.329	84.62
253.562	69.62
253.795	65.62
254.028	79.62
254.261	83.62
254.494	64.62
254.727	85.62
254.96	74.62
255.193	83.62
255.426	80.62
255.659	90.62
255.892	65.62
256.124	94.62
256.357	98.62
256.59	86.62
256.823	84.62
257.056	85.62
257.289	91.62
257.521	88.62
257.754	71.62
257.987	81.62
258.22	78.62
258.452	103.62
258.685	94.62
258.918	89.62
259.151	73.62
259.383	79.62
259.616	81.62
259.849	57.62
260.081	73.62
260.314	73.62
260.547	101.62
260.779	85.62
261.012	83.62
261.244	93.62
261.477	81.62
261.71	98.62
261.942	101.62
262.175	109.62
262.407	85.62
262.64	80.62
262.872	75.62
263.105	91.62
263.337	94.62
263.57	81.62
263.802	91.62
264.035	84.62
264.267	89.62
264.499	79.62
264.732	78.62
264.964	89.62
265.197	78.62
265.429	73.62
265.661	60.62
265.894	93.62
266.126	83.62
266.358	85.62
266.591	78.62
266.823	68.62
267.055	82.62
267.287	62.62
267.52	89.62
267.752	91.62
267.984	89.62
268.216	90.62
268.448	85.62
268.681	64.62
268.913	67.62
269.145	79.62
269.377	93.62
269.609	85.62
269.841	93.62
270.073	79.62
270.306	90.62
270.538	82.62
270.77	77.62
271.002	90.62
271.234	81.62
271.466	89.62
271.698	77.62
271.93	77.62
272.162	74.62
272.394	98.62
272.626	80.62
272.858	86.62
273.09	74.62
273.322	91.62
273.553	86.62
273.785	89.62
274.017	86.62
274.249	87.62
274.481	81.62
274.713	82.62
274.945	78.62
275.176	83.62
275.408	92.62
275.64	79.62
275.872	107.62
276.104	92.62
276.335	87.62
276.567	99.62
276.799	120.62
277.031	123.62
277.262	103.62
277.494	85.62
277.726	80.62
277.957	86.62
278.189	76.62
278.421	83.62
278.652	91.62
278.884	91.62
279.115	77.62
279.347	95.62
279.579	91.62
279.81	94.62
280.042	114.62
280.273	139.62
280.505	117.62
280.736	84.62
280.968	88.62
281.199	69.62
281.431	88.62
281.662	83.62
281.894	83.62
282.125	100.62
282.356	125.62
282.588	137.62
282.819	106.62
283.051	83.62
283.282	82.62
283.513	87.62
283.745	83.62
283.976	78.62
284.207	87.62
284.439	86.62
284.67	94.62
284.901	83.62
285.132	70.62
285.364	79.62
285.595	82.62
285.826	74.62
286.057	85.62
286.288	93.62
286.52	84.62
286.751	87.62
286.982	84.62
287.213	93.62
287.444	77.62
287.675	84.62
287.906	79.62
288.138	85.62
288.369	83.62
288.6	103.62
288.831	83.62
289.062	86.62
289.293	82.62
289.524	70.62
289.755	76.62
289.986	91.62
290.217	71.62
290.448	89.62
290.679	93.62
290.91	86.62
291.141	83.62
291.371	89.62
291.602	86.62
291.833	83.62
292.064	93.62
292.295	88.62
292.526	88.62
292.757	95.62
292.987	80.62
293.218	97.62
293.449	95.62
293.68	78.62
293.91	99.62
294.141	104.62
294.372	81.62
294.603	95.62
294.833	97.62
295.064	75.62
295.295	77.62
295.525	87.62
295.756	108.62
295.987	103.62
296.217	127.62
296.448	134.62
296.679	88.62
296.909	92.62
297.14	84.62
297.37	95.62
297.601	82.62
297.831	83.62
298.062	102.62
298.292	84.62
298.523	92.62
298.753	96.62
298.984	91.62
299.214	88.62
299.445	83.62
299.675	100.62
299.905	90.62
300.136	84.62
300.366	81.62
300.597	85.62
300.827	94.62
301.057	101.62
301.288	92.62
301.518	93.62
301.748	99.62
301.979	106.62
302.209	102.62
302.439	90.62
302.669	97.62
302.9	77.62
303.13	100.62
303.36	99.62
303.59	99.62
303.82	101.62
304.051	100.62
304.281	85.62
304.511	103.62
304.741	95.62
304.971	82.62
305.201	76.62
305.431	90.62
305.661	90.62
305.891	82.62
306.121	107.62
306.352	102.62
306.582	104.62
306.812	83.62
307.042	87.62
307.272	121.62
307.502	133.62
307.731	123.62
307.961	100.62
308.191	79.62
308.421	98.62
308.651	105.62
308.881	93.62
309.111	85.62
309.341	99.62
309.571	82.62
309.8	89.62
310.03	94.62
310.26	90.62
310.49	98.62
310.72	99.62
310.949	109.62
311.179	94.62
311.409	95.62
311.639	100.62
311.868	106.62
312.098	86.62
312.328	96.62
312.557	91.62
312.787	110.62
313.017	112.62
313.246	94.62
313.476	92.62
313.706	92.62
313.935	97.62
314.165	96.62
314.394	99.62
314.624	104.62
314.853	97.62
315.083	95.62
315.312	85.62
315.542	91.62
315.771	87.62
316.001	89.62
316.23	67.62
316.46	83.62
316.689	85.62
316.919	93.62
317.148	89.62
317.377	100.62
317.607	81.62
317.836	99.62
318.065	101.62
318.295	69.62
318.524	93.62
318.753	91.62
318.983	98.62
319.212	92.62
319.441	100.62
319.67	111.62
319.9	95.62
320.129	86.62
320.358	95.62
320.587	75.62
320.816	102.62
321.046	100.62
321.275	91.62
321.504	104.62
321.733	93.62
321.962	94.62
322.191	82.62
322.42	110.62
322.649	119.62
322.878	122.62
323.108	104.62
323.337	117.62
323.566	118.62
323.795	153.62
324.024	194.62
324.253	370.62
324.482	717.62
324.71	1488.62
324.939	1990.62
325.168	754.62
325.397	229.62
325.626	141.62
325.855	130.62
326.084	121.62
326.313	132.62
326.542	145.62
326.77	214.62
326.999	400.62
327.228	807.62
327.457	1488.62
327.686	1238.62
327.914	377.62
328.143	262.62
328.372	281.62
328.6	185.62
328.829	124.62
329.058	137.62
329.287	123.62
329.515	124.62
329.744	135.62
329.972	213.62
330.201	375.62
330.43	495.62
330.658	262.62
330.887	175.62
331.115	140.62
331.344	101.62
331.572	99.62
331.801	112.62
332.03	119.62
332.258	101.62
332.486	91.62
332.715	97.62
332.943	92.62
333.172	108.62
333.4	95.62
333.629	113.62
333.857	158.62
334.085	226.62
334.314	347.62
334.542	606.62
334.771	582.62
334.999	197.62
335.227	110.62
335.455	97.62
335.684	110.62
335.912	95.62
336.14	99.62
336.369	93.62
336.597	97.62
336.825	84.62
337.053	81.62
337.281	83.62
337.51	102.62
337.738	80.62
337.966	89.62
338.194	102.62
338.422	99.62
338.65	87.62
338.878	109.62
339.106	83.62
339.334	107.62
339.562	87.62
339.79	83.62
340.018	75.62
340.246	92.62
340.474	85.62
340.702	85.62
340.93	102.62
341.158	85.62
341.386	89.62
341.614	90.62
341.842	108.62
342.07	99.62
342.298	96.62
342.526	96.62
342.754	89.62
342.981	88.62
343.209	84.62
343.437	110.62
343.665	85.62
343.893	85.62
344.12	86.62
344.348	99.62
344.576	88.62
344.804	94.62
345.031	80.62
345.259	109.62
345.487	89.62
345.714	92.62
345.942	106.62
346.17	75.62
346.397	86.62
346.625	85.62
346.853	77.62
347.08	85.62
347.308	85.62
347.535	87.62
347.763	109.62
347.99	107.62
348.218	99.62
348.445	105.62
348.673	100.62
348.9	95.62
349.128	89.62
349.355	97.62
349.583	103.62
349.81	104.62
350.037	81.62
350.265	86.62
350.492	85.62
350.72	90.62
350.947	98.62
351.174	103.62
351.402	121.62
351.629	109.62
351.856	90.62
352.083	93.62
352.311	94.62
352.538	107.62
352.765	97.62
352.992	102.62
353.22	99.62
353.447	94.62
353.674	74.62
353.901	102.62
354.128	88.62
354.355	101.62
354.583	99.62
354.81	89.62
355.037	77.62
355.264	104.62
355.491	87.62
355.718	81.62
355.945	95.62
356.172	85.62
356.399	96.62
356.626	90.62
356.853	93.62
357.08	83.62
357.307	91.62
357.534	102.62
357.761	80.62
357.988	90.62
358.215	99.62
358.441	94.62
358.668	92.62
358.895	101.62
359.122	80.62
359.349	102.62
359.576	100.62
359.802	100.62
360.029	114.62
360.256	102.62
360.483	89.62
360.709	80.62
360.936	110.62
361.163	106.62
361.39	95.62
361.616	93.62
361.843	78.62
362.07	103.62
362.296	90.62
362.523	93.62
362.749	93.62
362.976	97.62
363.203	89.62
363.429	88.62
363.656	81.62
363.882	84.62
364.109	88.62
364.335	101.62
364.562	96.62
364.788	84.62
365.015	94.62
365.241	101.62
365.468	109.62
365.694	96.62
365.92	97.62
366.147	82.62
366.373	94.62
366.599	97.62
366.826	98.62
367.052	92.62
367.278	82.62
367.505	79.62
367.731	95.62
367.957	83.62
368.184	87.62
368.41	118.62
368.636	115.62
368.862	107.62
369.089	100.62
369.315	87.62
369.541	101.62
369.767	85.62
369.993	84.62
370.219	103.62
370.445	69.62
370.672	96.62
370.898	93.62
371.124	80.62
371.35	82.62
371.576	89.62
371.802	89.62
372.028	89.62
372.254	91.62
372.48	90.62
372.706	87.62
372.932	80.62
373.158	93.62
373.384	83.62
373.61	79.62
373.835	86.62
374.061	89.62
374.287	76.62
374.513	85.62
374.739	86.62
374.965	94.62
375.191	96.62
375.416	92.62
375.642	88.62
375.868	88.62
376.094	84.62
376.319	89.62
376.545	89.62
376.771	99.62
376.997	96.62
377.222	99.62
377.448	98.62
377.674	82.62
377.899	89.62
378.125	84.62
378.35	94.62
378.576	91.62
378.802	95.62
379.027	99.62
379.253	96.62
379.478	92.62
379.704	100.62
379.929	91.62
380.155	86.62
380.38	97.62
380.606	89.62
380.831	97.62
381.057	86.62
381.282	85.62
381.507	97.62
381.733	94.62
381.958	102.62
382.184	100.62
382.409	93.62
382.634	98.62
382.86	102.62
383.085	104.62
383.31	109.62
383.535	109.62
383.761	110.62
383.986	99.62
384.211	100.62
384.436	105.62
384.662	101.62
384.887	116.62
385.112	100.62
385.337	100.62
385.562	100.62
385.787	123.62
386.013	128.62
386.238	120.62
386.463	109.62
386.688	119.62
386.913	120.62
387.138	111.62
387.363	94.62
387.588	79.62
387.813	101.62
388.038	96.62
388.263	115.62
388.488	111.62
388.713	100.62
388.938	103.62
389.163	101.62
389.387	86.62
389.612	106.62
389.837	93.62
390.062	105.62
390.287	99.62
390.512	102.62
390.736	90.62
390.961	90.62
391.186	89.62
391.411	74.62
391.636	89.62
391.86	99.62
392.085	93.62
392.31	90.62
392.534	81.62
392.759	93.62
392.984	83.62
393.208	87.62
393.433	95.62
393.658	91.62
393.882	85.62
394.107	100.62
394.331	95.62
394.556	95.62
394.78	81.62
395.005	89.62
395.229	90.62
395.454	76.62
395.678	78.62
395.903	90.62
396.127	103.62
396.352	93.62
396.576	98.62
396.801	89.62
397.025	85.62
397.249	74.62
397.474	94.62
397.698	106.62
397.922	74.62
398.147	94.62
398.371	87.62
398.595	74.62
398.82	80.62
399.044	73.62
399.268	78.62
399.492	83.62
399.717	109.62
399.941	89.62
400.165	99.62
400.389	96.62
400.613	80.62
400.837	89.62
401.062	80.62
401.286	88.62
401.51	90.62
401.734	77.62
401.958	115.62
402.182	130.62
402.406	150.62
402.63	134.62
402.854	86.62
403.078	90.62
403.302	85.62
403.526	82.62
403.75	87.62
403.974	95.62
404.198	90.62
404.422	84.62
404.645	94.62
404.869	90.62
405.093	92.62
405.317	117.62
405.541	91.62
405.765	111.62
405.988	130.62
406.212	157.62
406.436	224.62
406.66	138.62
406.883	102.62
407.107	77.62
407.331	89.62
407.555	94.62
407.778	95.62
408.002	90.62
408.226	84.62
408.449	75.62
408.673	86.62
408.896	92.62
409.12	93.62
409.344	101.62
409.567	86.62
409.791	95.62
410.014	89.62
410.238	82.62
410.461	98.62
410.685	106.62
410.908	98.62
411.132	95.62
411.355	101.62
411.578	99.62
411.802	91.62
412.025	95.62
412.249	84.62
412.472	89.62
412.695	95.62
412.919	101.62
413.142	101.62
413.365	88.62
413.589	89.62
413.812	94.62
414.035	83.62
414.258	96.62
414.482	98.62
414.705	85.62
414.928	85.62
415.151	102.62
415.374	96.62
415.597	95.62
415.821	88.62
416.044	91.62
416.267	89.62
416.49	81.62
416.713	84.62
416.936	93.62
417.159	95.62
417.382	94.62
417.605	95.62
417.828	96.62
418.051	94.62
418.274	96.62
418.497	85.62
418.72	99.62
418.943	90.62
419.166	82.62
419.389	98.62
419.611	100.62
419.834	99.62
420.057	94.62
420.28	90.62
420.503	81.62
420.726	75.62
420.948	91.62
421.171	66.62
421.394	86.62
421.617	94.62
421.839	83.62
422.062	85.62
422.285	86.62
422.507	104.62
422.73	91.62
422.953	95.62
423.175	96.62
423.398	86.62
423.621	77.62
423.843	92.62
424.066	80.62
424.288	100.62
424.511	105.62
424.733	96.62
424.956	108.62
425.178	100.62
425.401	93.62
425.623	104.62
425.846	103.62
426.068	77.62
426.291	91.62
426.513	91.62
426.735	89.62
426.958	93.62
427.18	107.62
427.402	117.62
427.625	161.62
427.847	145.62
428.069	135.62
428.292	95.62
428.514	97.62
428.736	95.62
428.958	86.62
429.181	86.62
429.403	88.62
429.625	87.62
429.847	94.62
430.069	90.62
430.292	75.62
430.514	81.62
430.736	70.62
430.958	96.62
431.18	88.62
431.402	89.62
431.624	83.62
431.846	79.62
432.068	102.62
432.29	89.62
432.512	101.62
432.734	95.62
432.956	79.62
433.178	92.62
433.4	99.62
433.622	93.62
433.844	91.62
434.066	85.62
434.287	90.62
434.509	85.62
434.731	84.62
434.953	96.62
435.175	84.62
435.397	85.62
435.618	92.62
435.84	107.62
436.062	117.62
436.284	129.62
436.505	102.62
436.727	98.62
436.949	98.62
437.17	93.62
437.392	66.62
437.614	95.62
437.835	98.62
438.057	111.62
438.278	91.62
438.5	101.62
438.721	105.62
438.943	92.62
439.165	82.62
439.386	82.62
439.608	69.62
439.829	95.62
440.05	124.62
440.272	126.62
440.493	79.62
440.715	97.62
440.936	86.62
441.158	103.62
441.379	105.62
441.6	97.62
441.822	91.62
442.043	104.62
442.264	97.62
442.486	94.62
442.707	70.62
442.928	102.62
443.149	119.62
443.371	132.62
443.592	112.62
443.813	92.62
444.034	105.62
444.255	96.62
444.476	102.62
444.698	98.62
444.919	80.62
445.14	135.62
445.361	110.62
445.582	114.62
445.803	127.62
446.024	137.62
446.245	122.62
446.466	110.62
446.687	92.62
446.908	83.62
447.129	85.62
447.35	90.62
447.571	121.62
447.792	81.62
448.013	107.62
448.234	117.62
448.455	103.62
448.675	110.62
448.896	122.62
449.117	96.62
449.338	84.62
449.559	115.62
449.779	108.62
450	87.62
450.221	81.62
450.442	93.62
450.662	100.62
450.883	95.62
451.104	103.62
451.324	95.62
451.545	100.62
451.766	94.62
451.986	90.62
452.207	81.62
452.428	86.62
452.648	97.62
452.869	101.62
453.089	116.62
453.31	102.62
453.53	99.62
453.751	78.62
453.971	86.62
454.192	126.62
454.412	102.62
454.633	90.62
454.853	87.62
455.073	81.62
455.294	92.62
455.514	103.62
455.734	69.62
455.955	100.62
456.175	98.62
456.395	79.62
456.616	83.62
456.836	75.62
457.056	85.62
457.276	90.62
457.497	91.62
457.717	89.62
457.937	84.62
458.157	84.62
458.377	93.62
458.598	111.62
458.818	152.62
459.038	185.62
459.258	121.62
459.478	110.62
459.698	94.62
459.918	76.62
460.138	76.62
460.358	92.62
460.578	83.62
460.798	93.62
461.018	95.62
461.238	82.62
461.458	73.62
461.678	96.62
461.898	84.62
462.118	77.62
462.338	80.62
462.558	92.62
462.777	70.62
462.997	89.62
463.217	86.62
463.437	88.62
463.657	83.62
463.876	95.62
464.096	90.62
464.316	95.62
464.536	91.62
464.755	99.62
464.975	111.62
465.195	157.62
465.414	153.62
465.634	86.62
465.854	86.62
466.073	75.62
466.293	93.62
466.512	91.62
466.732	90.62
466.951	85.62
467.171	95.62
467.391	93.62
467.61	100.62
467.829	133.62
468.049	246.62
468.268	305.62
468.488	124.62
468.707	96.62
468.927	78.62
469.146	83.62
469.365	96.62
469.585	87.62
469.804	85.62
470.023	98.62
470.243	111.62
470.462	102.62
470.681	116.62
470.901	95.62
471.12	89.62
471.339	94.62
471.558	94.62
471.777	95.62
471.997	159.62
472.216	432.62
472.435	875.62
472.654	251.62
472.873	110.62
473.092	107.62
473.311	91.62
473.53	94.62
473.749	79.62
473.968	93.62
474.187	93.62
474.406	78.62
474.625	82.62
474.844	81.62
475.063	81.62
475.282	89.62
475.501	75.62
475.72	87.62
475.939	80.62
476.158	88.62
476.377	103.62
476.596	100.62
476.814	92.62
477.033	74.62
477.252	95.62
477.471	81.62
477.69	87.62
477.908	95.62
478.127	95.62
478.346	99.62
478.564	82.62
478.783	84.62
479.002	90.62
479.22	107.62
479.439	93.62
479.658	107.62
479.876	109.62
480.095	101.62
480.313	110.62
480.532	123.62
480.751	153.62
480.969	411.62
481.188	1537.62
481.406	890.62
481.624	177.62
481.843	105.62
482.061	78.62
482.28	85.62
482.498	88.62
482.717	74.62
482.935	70.62
483.153	91.62
483.372	91.62
483.59	84.62
483.808	91.62
484.027	97.62
484.245	83.62
484.463	98.62
484.681	82.62
484.9	104.62
485.118	100.62
485.336	102.62
485.554	87.62
485.772	101.62
485.99	118.62
486.209	86.62
486.427	115.62
486.645	118.62
486.863	104.62
487.081	103.62
487.299	93.62
487.517	88.62
487.735	86.62
487.953	99.62
488.171	97.62
488.389	97.62
488.607	92.62
488.825	84.62
489.043	90.62
489.261	98.62
489.479	85.62
489.696	88.62
489.914	78.62
490.132	82.62
490.35	87.62
490.568	89.62
490.786	90.62
491.003	82.62
491.221	86.62
491.439	94.62
491.657	88.62
491.874	94.62
492.092	84.62
492.31	86.62
492.527	94.62
492.745	83.62
492.963	100.62
493.18	83.62
493.398	100.62
493.615	92.62
493.833	93.62
494.05	88.62
494.268	86.62
494.485	95.62
494.703	96.62
494.92	78.62
495.138	76.62
495.355	81.62
495.573	91.62
495.79	92.62
496.008	92.62
496.225	95.62
496.442	105.62
496.66	101.62
496.877	83.62
497.094	101.62
497.312	95.62
497.529	86.62
497.746	95.62
497.963	88.62
498.181	93.62
498.398	98.62
498.615	105.62
498.832	103.62
499.049	95.62
499.267	86.62
499.484	93.62
499.701	94.62
499.918	88.62
500.135	85.62
500.352	102.62
500.569	86.62
500.786	90.62
501.003	86.62
501.22	93.62
501.437	103.62
501.654	89.62
501.871	117.62
502.088	93.62
502.305	91.62
502.522	93.62
502.739	85.62
502.956	90.62
503.172	91.62
503.389	102.62
503.606	99.62
503.823	101.62
504.04	94.62
504.256	89.62
504.473	90.62
504.69	90.62
504.907	89.62
505.123	86.62
505.34	72.62
505.557	77.62
505.773	84.62
505.99	89.62
506.207	99.62
506.423	105.62
506.64	99.62
506.856	98.62
507.073	96.62
507.289	102.62
507.506	95.62
507.722	105.62
507.939	121.62
508.155	108.62
508.372	95.62
508.588	102.62
508.805	92.62
509.021	93.62
509.238	99.62
509.454	95.62
509.67	97.62
509.887	111.62
510.103	117.62
510.319	192.62
510.536	684.62
510.752	2221.62
510.968	607.62
511.184	151.62
511.401	113.62
511.617	96.62
511.833	99.62
512.049	79.62
512.265	91.62
512.481	83.62
512.698	95.62
512.914	91.62
513.13	83.62
513.346	98.62
513.562	92.62
513.778	98.62
513.994	89.62
514.21	103.62
514.426	113.62
514.642	133.62
514.858	130.62
515.074	157.62
515.29	462.62
