Data from Circ_1990_H10_HRD10591_00066.txt Node
Date: Wed Jan 03 11:55:17 EST 2024
User: Yrep
Spectrometer: HR+D1059
Trigger mode: 1
Integration Time (sec): 1.000000E-1
Scans to average: 1
Electric dark correction enabled: true
Nonlinearity correction enabled: false
Boxcar width: 0
XAxis mode: Wavelengths
Number of Pixels in Spectrum: 2048
>>>>>Begin Spectral Data<<<<<
223.165	-15.75
223.4	-15.75
223.635	-15.75
223.869	-14.75
224.104	-25.75
224.338	-20.75
224.573	-16.75
224.808	-13.75
225.042	-9.75
225.277	-13.75
225.511	-9.75
225.746	10.25
225.98	6.25
226.215	18.25
226.449	22.25
226.683	12.25
226.918	18.25
227.152	53.25
227.387	36.25
227.621	36.25
227.856	58.25
228.09	44.25
228.324	56.25
228.559	69.25
228.793	65.25
229.027	66.25
229.262	83.25
229.496	72.25
229.73	92.25
229.964	77.25
230.199	78.25
230.433	85.25
230.667	84.25
230.901	74.25
231.136	84.25
231.37	77.25
231.604	87.25
231.838	87.25
232.072	90.25
232.306	86.25
232.541	99.25
232.775	90.25
233.009	86.25
233.243	88.25
233.477	90.25
233.711	83.25
233.945	66.25
234.179	89.25
234.413	87.25
234.647	89.25
234.881	84.25
235.115	88.25
235.349	88.25
235.583	92.25
235.817	91.25
236.051	92.25
236.285	89.25
236.519	81.25
236.753	87.25
236.987	91.25
237.221	100.25
237.455	98.25
237.689	95.25
237.922	85.25
238.156	86.25
238.39	76.25
238.624	89.25
238.858	75.25
239.091	78.25
239.325	75.25
239.559	86.25
239.793	72.25
240.027	89.25
240.26	82.25
240.494	84.25
240.728	74.25
240.961	83.25
241.195	80.25
241.429	78.25
241.662	95.25
241.896	73.25
242.13	82.25
242.363	83.25
242.597	84.25
242.83	80.25
243.064	85.25
243.298	87.25
243.531	66.25
243.765	88.25
243.998	90.25
244.232	90.25
244.465	99.25
244.699	81.25
244.932	102.25
245.166	83.25
245.399	88.25
245.633	79.25
245.866	75.25
246.099	82.25
246.333	91.25
246.566	80.25
246.8	73.25
247.033	75.25
247.266	86.25
247.5	74.25
247.733	85.25
247.966	96.25
248.2	99.25
248.433	98.25
248.666	82.25
248.899	75.25
249.133	92.25
249.366	102.25
249.599	102.25
249.832	93.25
250.066	88.25
250.299	75.25
250.532	90.25
250.765	81.25
250.998	106.25
251.231	81.25
251.465	85.25
251.698	81.25
251.931	85.25
252.164	84.25
252.397	80.25
252.63	86.25
252.863	95.25
253.096	90.25
253.329	82.25
253.562	73.25
253.795	82.25
254.028	87.25
254.261	93.25
254.494	89.25
254.727	87.25
254.96	93.25
255.193	86.25
255.426	84.25
255.659	81.25
255.892	89.25
256.124	94.25
256.357	86.25
256.59	92.25
256.823	87.25
257.056	75.25
257.289	90.25
257.521	98.25
257.754	92.25
257.987	87.25
258.22	103.25
258.452	99.25
258.685	95.25
258.918	85.25
259.151	97.25
259.383	92.25
259.616	78.25
259.849	88.25
260.081	91.25
260.314	81.25
260.547	87.25
260.779	97.25
261.012	105.25
261.244	103.25
261.477	99.25
261.71	105.25
261.942	130.25
262.175	114.25
262.407	88.25
262.64	94.25
262.872	78.25
263.105	80.25
263.337	83.25
263.57	79.25
263.802	88.25
264.035	88.25
264.267	83.25
264.499	98.25
264.732	103.25
264.964	96.25
265.197	88.25
265.429	105.25
265.661	84.25
265.894	73.25
266.126	90.25
266.358	93.25
266.591	85.25
266.823	87.25
267.055	87.25
267.287	96.25
267.52	98.25
267.752	79.25
267.984	79.25
268.216	98.25
268.448	88.25
268.681	101.25
268.913	92.25
269.145	78.25
269.377	97.25
269.609	84.25
269.841	88.25
270.073	90.25
270.306	89.25
270.538	81.25
270.77	71.25
271.002	88.25
271.234	94.25
271.466	94.25
271.698	92.25
271.93	94.25
272.162	87.25
272.394	78.25
272.626	87.25
272.858	83.25
273.09	96.25
273.322	90.25
273.553	84.25
273.785	77.25
274.017	90.25
274.249	89.25
274.481	88.25
274.713	78.25
274.945	91.25
275.176	98.25
275.408	88.25
275.64	104.25
275.872	102.25
276.104	108.25
276.335	101.25
276.567	103.25
276.799	124.25
277.031	145.25
277.262	125.25
277.494	101.25
277.726	105.25
277.957	94.25
278.189	90.25
278.421	110.25
278.652	89.25
278.884	91.25
279.115	89.25
279.347	102.25
279.579	99.25
279.81	124.25
280.042	137.25
280.273	160.25
280.505	120.25
280.736	86.25
280.968	84.25
281.199	97.25
281.431	99.25
281.662	81.25
281.894	103.25
282.125	102.25
282.356	134.25
282.588	170.25
282.819	121.25
283.051	98.25
283.282	87.25
283.513	94.25
283.745	98.25
283.976	76.25
284.207	82.25
284.439	93.25
284.67	93.25
284.901	67.25
285.132	91.25
285.364	90.25
285.595	92.25
285.826	94.25
286.057	91.25
286.288	80.25
286.52	98.25
286.751	94.25
286.982	99.25
287.213	88.25
287.444	91.25
287.675	92.25
287.906	93.25
288.138	98.25
288.369	95.25
288.6	84.25
288.831	92.25
289.062	97.25
289.293	87.25
289.524	92.25
289.755	87.25
289.986	97.25
290.217	100.25
290.448	91.25
290.679	91.25
290.91	103.25
291.141	99.25
291.371	110.25
291.602	92.25
291.833	94.25
292.064	100.25
292.295	92.25
292.526	87.25
292.757	97.25
292.987	95.25
293.218	81.25
293.449	87.25
293.68	96.25
293.91	100.25
294.141	106.25
294.372	94.25
294.603	108.25
294.833	108.25
295.064	92.25
295.295	95.25
295.525	79.25
295.756	102.25
295.987	122.25
296.217	139.25
296.448	142.25
296.679	86.25
296.909	91.25
297.14	99.25
297.37	107.25
297.601	94.25
297.831	82.25
298.062	96.25
298.292	91.25
298.523	91.25
298.753	91.25
298.984	91.25
299.214	86.25
299.445	102.25
299.675	90.25
299.905	97.25
300.136	95.25
300.366	93.25
300.597	86.25
300.827	106.25
301.057	107.25
301.288	98.25
301.518	98.25
301.748	97.25
301.979	128.25
302.209	103.25
302.439	94.25
302.669	84.25
302.9	103.25
303.13	88.25
303.36	105.25
303.59	112.25
303.82	127.25
304.051	113.25
304.281	95.25
304.511	98.25
304.741	96.25
304.971	88.25
305.201	90.25
305.431	111.25
305.661	91.25
305.891	90.25
306.121	112.25
306.352	108.25
306.582	117.25
306.812	107.25
307.042	118.25
307.272	115.25
307.502	141.25
307.731	143.25
307.961	107.25
308.191	112.25
308.421	99.25
308.651	97.25
308.881	93.25
309.111	110.25
309.341	98.25
309.571	116.25
309.8	108.25
310.03	99.25
310.26	108.25
310.49	106.25
310.72	120.25
310.949	117.25
311.179	116.25
311.409	100.25
311.639	99.25
311.868	113.25
312.098	108.25
312.328	111.25
312.557	105.25
312.787	112.25
313.017	114.25
313.246	91.25
313.476	83.25
313.706	84.25
313.935	105.25
314.165	106.25
314.394	114.25
314.624	106.25
314.853	105.25
315.083	106.25
315.312	94.25
315.542	100.25
315.771	93.25
316.001	88.25
316.23	84.25
316.46	95.25
316.689	107.25
316.919	101.25
317.148	90.25
317.377	104.25
317.607	102.25
317.836	102.25
318.065	102.25
318.295	103.25
318.524	93.25
318.753	102.25
318.983	113.25
319.212	106.25
319.441	126.25
319.67	121.25
319.9	94.25
320.129	92.25
320.358	80.25
320.587	104.25
320.816	107.25
321.046	108.25
321.275	106.25
321.504	107.25
321.733	113.25
321.962	110.25
322.191	99.25
322.42	115.25
322.649	131.25
322.878	131.25
323.108	130.25
323.337	137.25
323.566	140.25
323.795	179.25
324.024	229.25
324.253	459.25
324.482	946.25
324.71	1910.25
324.939	2529.25
325.168	937.25
325.397	276.25
325.626	158.25
325.855	154.25
326.084	143.25
326.313	144.25
326.542	173.25
326.77	254.25
326.999	499.25
327.228	1064.25
327.457	1920.25
327.686	1567.25
327.914	472.25
328.143	340.25
328.372	383.25
328.6	248.25
328.829	144.25
329.058	163.25
329.287	160.25
329.515	136.25
329.744	179.25
329.972	277.25
330.201	507.25
330.43	713.25
330.658	361.25
330.887	204.25
331.115	170.25
331.344	134.25
331.572	105.25
331.801	127.25
332.03	92.25
332.258	105.25
332.486	86.25
332.715	103.25
332.943	120.25
333.172	119.25
333.4	111.25
333.629	149.25
333.857	185.25
334.085	264.25
334.314	502.25
334.542	922.25
334.771	829.25
334.999	255.25
335.227	130.25
335.455	102.25
335.684	105.25
335.912	103.25
336.14	129.25
336.369	108.25
336.597	118.25
336.825	108.25
337.053	105.25
337.281	109.25
337.51	115.25
337.738	97.25
337.966	82.25
338.194	108.25
338.422	112.25
338.65	93.25
338.878	102.25
339.106	91.25
339.334	98.25
339.562	93.25
339.79	98.25
340.018	91.25
340.246	102.25
340.474	102.25
340.702	83.25
340.93	104.25
341.158	92.25
341.386	104.25
341.614	115.25
341.842	115.25
342.07	105.25
342.298	119.25
342.526	102.25
342.754	101.25
342.981	97.25
343.209	88.25
343.437	81.25
343.665	110.25
343.893	97.25
344.12	90.25
344.348	101.25
344.576	91.25
344.804	98.25
345.031	113.25
345.259	102.25
345.487	97.25
345.714	95.25
345.942	107.25
346.17	97.25
346.397	100.25
346.625	107.25
346.853	102.25
347.08	112.25
347.308	96.25
347.535	104.25
347.763	94.25
347.99	94.25
348.218	111.25
348.445	107.25
348.673	115.25
348.9	101.25
349.128	110.25
349.355	105.25
349.583	101.25
349.81	104.25
350.037	113.25
350.265	96.25
350.492	91.25
350.72	94.25
350.947	107.25
351.174	105.25
351.402	121.25
351.629	108.25
351.856	102.25
352.083	108.25
352.311	124.25
352.538	114.25
352.765	103.25
352.992	108.25
353.22	107.25
353.447	107.25
353.674	118.25
353.901	114.25
354.128	97.25
354.355	99.25
354.583	112.25
354.81	98.25
355.037	111.25
355.264	98.25
355.491	106.25
355.718	113.25
355.945	88.25
356.172	91.25
356.399	105.25
356.626	94.25
356.853	109.25
357.08	97.25
357.307	98.25
357.534	98.25
357.761	100.25
357.988	96.25
358.215	102.25
358.441	101.25
358.668	91.25
358.895	105.25
359.122	89.25
359.349	89.25
359.576	95.25
359.802	109.25
360.029	132.25
360.256	131.25
360.483	122.25
360.709	97.25
360.936	111.25
361.163	93.25
361.39	89.25
361.616	98.25
361.843	99.25
362.07	102.25
362.296	113.25
362.523	99.25
362.749	83.25
362.976	97.25
363.203	102.25
363.429	93.25
363.656	100.25
363.882	94.25
364.109	95.25
364.335	99.25
364.562	98.25
364.788	104.25
365.015	100.25
365.241	102.25
365.468	115.25
365.694	120.25
365.92	89.25
366.147	99.25
366.373	92.25
366.599	86.25
366.826	96.25
367.052	84.25
367.278	87.25
367.505	92.25
367.731	105.25
367.957	101.25
368.184	96.25
368.41	100.25
368.636	116.25
368.862	119.25
369.089	110.25
369.315	97.25
369.541	94.25
369.767	81.25
369.993	108.25
370.219	95.25
370.445	88.25
370.672	99.25
370.898	85.25
371.124	106.25
371.35	92.25
371.576	89.25
371.802	85.25
372.028	86.25
372.254	79.25
372.48	101.25
372.706	92.25
372.932	75.25
373.158	88.25
373.384	87.25
373.61	90.25
373.835	83.25
374.061	91.25
374.287	93.25
374.513	93.25
374.739	95.25
374.965	83.25
375.191	101.25
375.416	102.25
375.642	100.25
375.868	83.25
376.094	97.25
376.319	93.25
376.545	89.25
376.771	96.25
376.997	88.25
377.222	87.25
377.448	90.25
377.674	84.25
377.899	83.25
378.125	95.25
378.35	99.25
378.576	98.25
378.802	95.25
379.027	89.25
379.253	90.25
379.478	88.25
379.704	104.25
379.929	91.25
380.155	97.25
380.38	88.25
380.606	92.25
380.831	94.25
381.057	97.25
381.282	98.25
381.507	103.25
381.733	109.25
381.958	100.25
382.184	107.25
382.409	112.25
382.634	100.25
382.86	103.25
383.085	99.25
383.31	91.25
383.535	90.25
383.761	94.25
383.986	117.25
384.211	107.25
384.436	106.25
384.662	105.25
384.887	108.25
385.112	111.25
385.337	116.25
385.562	103.25
385.787	117.25
386.013	112.25
386.238	126.25
386.463	119.25
386.688	118.25
386.913	104.25
387.138	100.25
387.363	110.25
387.588	100.25
387.813	123.25
388.038	112.25
388.263	139.25
388.488	111.25
388.713	105.25
388.938	109.25
389.163	103.25
389.387	95.25
389.612	100.25
389.837	95.25
390.062	91.25
390.287	101.25
390.512	96.25
390.736	98.25
390.961	82.25
391.186	95.25
391.411	94.25
391.636	100.25
391.86	88.25
392.085	84.25
392.31	78.25
392.534	88.25
392.759	82.25
392.984	88.25
393.208	104.25
393.433	90.25
393.658	95.25
393.882	86.25
394.107	112.25
394.331	90.25
394.556	88.25
394.78	97.25
395.005	100.25
395.229	74.25
395.454	98.25
395.678	90.25
395.903	99.25
396.127	101.25
396.352	100.25
396.576	84.25
396.801	83.25
397.025	96.25
397.249	76.25
397.474	101.25
397.698	90.25
397.922	85.25
398.147	98.25
398.371	90.25
398.595	89.25
398.82	88.25
399.044	87.25
399.268	85.25
399.492	88.25
399.717	91.25
399.941	103.25
400.165	91.25
400.389	92.25
400.613	82.25
400.837	89.25
401.062	73.25
401.286	86.25
401.51	106.25
401.734	105.25
401.958	113.25
402.182	134.25
402.406	178.25
402.63	143.25
402.854	86.25
403.078	104.25
403.302	88.25
403.526	99.25
403.75	87.25
403.974	79.25
404.198	101.25
404.422	86.25
404.645	88.25
404.869	113.25
405.093	129.25
405.317	131.25
405.541	124.25
405.765	104.25
405.988	129.25
406.212	196.25
406.436	269.25
406.66	166.25
406.883	118.25
407.107	111.25
407.331	109.25
407.555	108.25
407.778	103.25
408.002	93.25
408.226	108.25
408.449	90.25
408.673	105.25
408.896	95.25
409.12	110.25
409.344	105.25
409.567	86.25
409.791	98.25
410.014	94.25
410.238	98.25
410.461	106.25
410.685	99.25
410.908	100.25
411.132	109.25
411.355	110.25
411.578	102.25
411.802	91.25
412.025	98.25
412.249	110.25
412.472	107.25
412.695	123.25
412.919	103.25
413.142	98.25
413.365	98.25
413.589	85.25
413.812	93.25
414.035	100.25
414.258	95.25
414.482	89.25
414.705	98.25
414.928	87.25
415.151	105.25
415.374	109.25
415.597	91.25
415.821	89.25
416.044	86.25
416.267	92.25
416.49	100.25
416.713	88.25
416.936	107.25
417.159	102.25
417.382	82.25
417.605	107.25
417.828	116.25
418.051	110.25
418.274	101.25
418.497	92.25
418.72	78.25
418.943	96.25
419.166	96.25
419.389	96.25
419.611	99.25
419.834	101.25
420.057	94.25
420.28	84.25
420.503	98.25
420.726	81.25
420.948	102.25
421.171	105.25
421.394	105.25
421.617	97.25
421.839	101.25
422.062	109.25
422.285	88.25
422.507	102.25
422.73	106.25
422.953	104.25
423.175	98.25
423.398	92.25
423.621	92.25
423.843	90.25
424.066	105.25
424.288	87.25
424.511	106.25
424.733	88.25
424.956	120.25
425.178	114.25
425.401	105.25
425.623	99.25
425.846	103.25
426.068	108.25
426.291	94.25
426.513	112.25
426.735	83.25
426.958	96.25
427.18	107.25
427.402	147.25
427.625	207.25
427.847	207.25
428.069	181.25
428.292	114.25
428.514	94.25
428.736	92.25
428.958	92.25
429.181	91.25
429.403	66.25
429.625	87.25
429.847	104.25
430.069	121.25
430.292	107.25
430.514	94.25
430.736	99.25
430.958	74.25
431.18	90.25
431.402	92.25
431.624	114.25
431.846	91.25
432.068	84.25
432.29	99.25
432.512	81.25
432.734	71.25
432.956	101.25
433.178	103.25
433.4	103.25
433.622	89.25
433.844	87.25
434.066	110.25
434.287	94.25
434.509	84.25
434.731	97.25
434.953	102.25
435.175	101.25
435.397	94.25
435.618	98.25
435.84	101.25
436.062	143.25
436.284	117.25
436.505	110.25
436.727	111.25
436.949	94.25
437.17	95.25
437.392	89.25
437.614	100.25
437.835	114.25
438.057	131.25
438.278	119.25
438.5	108.25
438.721	137.25
438.943	117.25
439.165	84.25
439.386	85.25
439.608	104.25
439.829	92.25
440.05	127.25
440.272	152.25
440.493	94.25
440.715	111.25
440.936	88.25
441.158	98.25
441.379	107.25
441.6	106.25
441.822	105.25
442.043	116.25
442.264	127.25
442.486	108.25
442.707	87.25
442.928	117.25
443.149	145.25
443.371	150.25
443.592	132.25
443.813	121.25
444.034	107.25
444.255	106.25
444.476	95.25
444.698	99.25
444.919	97.25
445.14	143.25
445.361	136.25
445.582	141.25
445.803	160.25
446.024	160.25
446.245	156.25
446.466	103.25
446.687	88.25
446.908	90.25
447.129	90.25
447.35	93.25
447.571	108.25
447.792	95.25
448.013	99.25
448.234	121.25
448.455	106.25
448.675	122.25
448.896	130.25
449.117	111.25
449.338	123.25
449.559	139.25
449.779	152.25
450	109.25
450.221	85.25
450.442	104.25
450.662	107.25
450.883	119.25
451.104	121.25
451.324	101.25
451.545	91.25
451.766	90.25
451.986	90.25
452.207	87.25
452.428	96.25
452.648	117.25
452.869	115.25
453.089	119.25
453.31	146.25
453.53	108.25
453.751	84.25
453.971	107.25
454.192	117.25
454.412	104.25
454.633	99.25
454.853	89.25
455.073	82.25
455.294	102.25
455.514	115.25
455.734	92.25
455.955	79.25
456.175	79.25
456.395	69.25
456.616	82.25
456.836	94.25
457.056	86.25
457.276	82.25
457.497	92.25
457.717	67.25
457.937	96.25
458.157	107.25
458.377	81.25
458.598	144.25
458.818	187.25
459.038	194.25
459.258	135.25
459.478	101.25
459.698	86.25
459.918	85.25
460.138	91.25
460.358	88.25
460.578	101.25
460.798	91.25
461.018	97.25
461.238	84.25
461.458	79.25
461.678	98.25
461.898	96.25
462.118	98.25
462.338	80.25
462.558	82.25
462.777	93.25
462.997	110.25
463.217	94.25
463.437	97.25
463.657	94.25
463.876	92.25
464.096	100.25
464.316	83.25
464.536	91.25
464.755	103.25
464.975	120.25
465.195	207.25
465.414	201.25
465.634	109.25
465.854	98.25
466.073	101.25
466.293	97.25
466.512	98.25
466.732	82.25
466.951	96.25
467.171	91.25
467.391	107.25
467.61	119.25
467.829	147.25
468.049	293.25
468.268	439.25
468.488	160.25
468.707	110.25
468.927	104.25
469.146	86.25
469.365	99.25
469.585	87.25
469.804	108.25
470.023	109.25
470.243	103.25
470.462	111.25
470.681	125.25
470.901	90.25
471.12	102.25
471.339	91.25
471.558	84.25
471.777	123.25
471.997	190.25
472.216	606.25
472.435	1206.25
472.654	316.25
472.873	114.25
473.092	106.25
473.311	90.25
473.53	96.25
473.749	100.25
473.968	107.25
474.187	117.25
474.406	103.25
474.625	92.25
474.844	105.25
475.063	96.25
475.282	88.25
475.501	87.25
475.72	86.25
475.939	94.25
476.158	95.25
476.377	90.25
476.596	107.25
476.814	104.25
477.033	99.25
477.252	94.25
477.471	103.25
477.69	100.25
477.908	94.25
478.127	86.25
478.346	92.25
478.564	94.25
478.783	98.25
479.002	100.25
479.22	103.25
479.439	107.25
479.658	124.25
479.876	124.25
480.095	115.25
480.313	117.25
480.532	124.25
480.751	197.25
480.969	570.25
481.188	2162.25
481.406	1247.25
481.624	238.25
481.843	110.25
482.061	103.25
482.28	97.25
482.498	100.25
482.717	101.25
482.935	89.25
483.153	92.25
483.372	106.25
483.59	99.25
483.808	91.25
484.027	98.25
484.245	100.25
484.463	100.25
484.681	96.25
484.9	92.25
485.118	89.25
485.336	95.25
485.554	108.25
485.772	115.25
485.99	110.25
486.209	121.25
486.427	117.25
486.645	111.25
486.863	104.25
487.081	117.25
487.299	115.25
487.517	109.25
487.735	96.25
487.953	90.25
488.171	96.25
488.389	75.25
488.607	115.25
488.825	98.25
489.043	114.25
489.261	92.25
489.479	102.25
489.696	91.25
489.914	96.25
490.132	84.25
490.35	85.25
490.568	94.25
490.786	85.25
491.003	99.25
491.221	98.25
491.439	98.25
491.657	100.25
491.874	100.25
492.092	100.25
492.31	97.25
492.527	91.25
492.745	98.25
492.963	104.25
493.18	95.25
493.398	107.25
493.615	110.25
493.833	94.25
494.05	87.25
494.268	92.25
494.485	89.25
494.703	99.25
494.92	90.25
495.138	91.25
495.355	103.25
495.573	92.25
495.79	102.25
496.008	91.25
496.225	94.25
496.442	92.25
496.66	89.25
496.877	86.25
497.094	100.25
497.312	94.25
497.529	88.25
497.746	83.25
497.963	106.25
498.181	87.25
498.398	99.25
498.615	132.25
498.832	108.25
499.049	96.25
499.267	106.25
499.484	86.25
499.701	84.25
499.918	90.25
500.135	103.25
500.352	78.25
500.569	98.25
500.786	104.25
501.003	92.25
501.22	84.25
501.437	101.25
501.654	98.25
501.871	117.25
502.088	102.25
502.305	93.25
502.522	91.25
502.739	94.25
502.956	87.25
503.172	95.25
503.389	112.25
503.606	123.25
503.823	98.25
504.04	96.25
504.256	95.25
504.473	97.25
504.69	101.25
504.907	99.25
505.123	102.25
505.34	88.25
505.557	94.25
505.773	80.25
505.99	91.25
506.207	94.25
506.423	105.25
506.64	101.25
506.856	86.25
507.073	90.25
507.289	96.25
507.506	100.25
507.722	122.25
507.939	122.25
508.155	104.25
508.372	99.25
508.588	96.25
508.805	106.25
509.021	91.25
509.238	107.25
509.454	91.25
509.67	102.25
509.887	123.25
510.103	148.25
510.319	234.25
510.536	822.25
510.752	2661.25
510.968	734.25
511.184	177.25
511.401	116.25
511.617	93.25
511.833	95.25
512.049	96.25
