Data from Circ_1990_H10_HRD10591_00067.txt Node
Date: Wed Jan 03 11:55:17 EST 2024
User: Yrep
Spectrometer: HR+D1059
Trigger mode: 1
Integration Time (sec): 1.000000E-1
Scans to average: 1
Electric dark correction enabled: true
Nonlinearity correction enabled: false
Boxcar width: 0
XAxis mode: Wavelengths
Number of Pixels in Spectrum: 2048
>>>>>Begin Spectral Data<<<<<
223.165	-18.06
223.4	-18.06
223.635	-18.06
223.869	-12.06
224.104	-18.06
224.338	-24.06
224.573	-11.06
224.808	-10.06
225.042	-3.06
225.277	4.94
225.511	3.94
225.746	-1.06
225.98	-0.06
226.215	1.94
226.449	14.94
226.683	25.94
226.918	19.94
227.152	25.94
227.387	37.94
227.621	34.94
227.856	36.94
228.09	43.94
228.324	43.94
228.559	55.94
228.793	53.94
229.027	53.94
229.262	67.94
229.496	72.94
229.73	87.94
229.964	95.94
230.199	74.94
230.433	70.94
230.667	64.94
230.901	68.94
231.136	82.94
231.37	68.94
231.604	72.94
231.838	75.94
232.072	74.94
232.306	76.94
232.541	76.94
232.775	66.94
233.009	83.94
233.243	77.94
233.477	69.94
233.711	77.94
233.945	77.94
234.179	75.94
234.413	79.94
234.647	65.94
234.881	82.94
235.115	68.94
235.349	65.94
235.583	69.94
235.817	73.94
236.051	83.94
236.285	84.94
236.519	75.94
236.753	73.94
236.987	83.94
237.221	71.94
237.455	65.94
237.689	71.94
237.922	73.94
238.156	72.94
238.39	84.94
238.624	65.94
238.858	71.94
239.091	67.94
239.325	74.94
239.559	69.94
239.793	73.94
240.027	72.94
240.26	73.94
240.494	67.94
240.728	81.94
240.961	67.94
241.195	72.94
241.429	72.94
241.662	65.94
241.896	71.94
242.13	69.94
242.363	73.94
242.597	79.94
242.83	71.94
243.064	68.94
243.298	81.94
243.531	79.94
243.765	82.94
243.998	71.94
244.232	74.94
244.465	81.94
244.699	67.94
244.932	62.94
245.166	69.94
245.399	82.94
245.633	77.94
245.866	79.94
246.099	80.94
246.333	63.94
246.566	68.94
246.8	74.94
247.033	77.94
247.266	77.94
247.5	64.94
247.733	66.94
247.966	75.94
248.2	87.94
248.433	75.94
248.666	73.94
248.899	80.94
249.133	80.94
249.366	90.94
249.599	101.94
249.832	85.94
250.066	87.94
250.299	63.94
250.532	84.94
250.765	82.94
250.998	80.94
251.231	75.94
251.465	75.94
251.698	76.94
251.931	68.94
252.164	78.94
252.397	73.94
252.63	83.94
252.863	67.94
253.096	71.94
253.329	80.94
253.562	73.94
253.795	72.94
254.028	85.94
254.261	83.94
254.494	76.94
254.727	68.94
254.96	75.94
255.193	88.94
255.426	85.94
255.659	86.94
255.892	89.94
256.124	90.94
256.357	86.94
256.59	66.94
256.823	68.94
257.056	78.94
257.289	82.94
257.521	79.94
257.754	71.94
257.987	67.94
258.22	83.94
258.452	83.94
258.685	76.94
258.918	76.94
259.151	83.94
259.383	73.94
259.616	86.94
259.849	98.94
260.081	95.94
260.314	72.94
260.547	76.94
260.779	96.94
261.012	91.94
261.244	79.94
261.477	89.94
261.71	76.94
261.942	120.94
262.175	116.94
262.407	82.94
262.64	82.94
262.872	93.94
263.105	87.94
263.337	80.94
263.57	91.94
263.802	90.94
264.035	81.94
264.267	65.94
264.499	83.94
264.732	93.94
264.964	83.94
265.197	72.94
265.429	65.94
265.661	79.94
265.894	73.94
266.126	72.94
266.358	80.94
266.591	80.94
266.823	76.94
267.055	86.94
267.287	89.94
267.52	97.94
267.752	98.94
267.984	92.94
268.216	80.94
268.448	71.94
268.681	87.94
268.913	75.94
269.145	68.94
269.377	83.94
269.609	77.94
269.841	71.94
270.073	75.94
270.306	78.94
270.538	67.94
270.77	77.94
271.002	73.94
271.234	84.94
271.466	92.94
271.698	75.94
271.93	96.94
272.162	92.94
272.394	90.94
272.626	76.94
272.858	82.94
273.09	80.94
273.322	90.94
273.553	82.94
273.785	78.94
274.017	93.94
274.249	75.94
274.481	80.94
274.713	74.94
274.945	81.94
275.176	87.94
275.408	88.94
275.64	92.94
275.872	87.94
276.104	89.94
276.335	103.94
276.567	90.94
276.799	99.94
277.031	108.94
277.262	111.94
277.494	91.94
277.726	76.94
277.957	81.94
278.189	83.94
278.421	89.94
278.652	83.94
278.884	73.94
279.115	85.94
279.347	84.94
279.579	80.94
279.81	101.94
280.042	106.94
280.273	143.94
280.505	97.94
280.736	89.94
280.968	81.94
281.199	76.94
281.431	84.94
281.662	80.94
281.894	74.94
282.125	100.94
282.356	111.94
282.588	152.94
282.819	124.94
283.051	103.94
283.282	83.94
283.513	90.94
283.745	64.94
283.976	87.94
284.207	86.94
284.439	84.94
284.67	109.94
284.901	85.94
285.132	82.94
285.364	88.94
285.595	88.94
285.826	84.94
286.057	88.94
286.288	85.94
286.52	98.94
286.751	79.94
286.982	77.94
287.213	75.94
287.444	81.94
287.675	99.94
287.906	68.94
288.138	84.94
288.369	84.94
288.6	89.94
288.831	80.94
289.062	75.94
289.293	79.94
289.524	80.94
289.755	81.94
289.986	69.94
290.217	88.94
290.448	77.94
290.679	81.94
290.91	94.94
291.141	87.94
291.371	84.94
291.602	87.94
291.833	86.94
292.064	88.94
292.295	97.94
292.526	92.94
292.757	92.94
292.987	92.94
293.218	84.94
293.449	68.94
293.68	86.94
293.91	91.94
294.141	75.94
294.372	99.94
294.603	92.94
294.833	74.94
295.064	99.94
295.295	97.94
295.525	100.94
295.756	92.94
295.987	114.94
296.217	130.94
296.448	120.94
296.679	90.94
296.909	95.94
297.14	85.94
297.37	79.94
297.601	87.94
297.831	84.94
298.062	76.94
298.292	80.94
298.523	67.94
298.753	89.94
298.984	97.94
299.214	82.94
299.445	95.94
299.675	105.94
299.905	102.94
300.136	98.94
300.366	92.94
300.597	95.94
300.827	66.94
301.057	96.94
301.288	111.94
301.518	77.94
301.748	77.94
301.979	93.94
302.209	85.94
302.439	72.94
302.669	82.94
302.9	91.94
303.13	79.94
303.36	110.94
303.59	101.94
303.82	118.94
304.051	92.94
304.281	87.94
304.511	89.94
304.741	78.94
304.971	85.94
305.201	80.94
305.431	82.94
305.661	84.94
305.891	83.94
306.121	80.94
306.352	102.94
306.582	108.94
306.812	99.94
307.042	112.94
307.272	101.94
307.502	116.94
307.731	131.94
307.961	98.94
308.191	90.94
308.421	76.94
308.651	77.94
308.881	83.94
309.111	90.94
309.341	96.94
309.571	100.94
309.8	109.94
310.03	101.94
310.26	101.94
310.49	89.94
310.72	106.94
310.949	93.94
311.179	95.94
311.409	102.94
311.639	92.94
311.868	84.94
312.098	85.94
312.328	94.94
312.557	99.94
312.787	104.94
313.017	115.94
313.246	95.94
313.476	87.94
313.706	92.94
313.935	100.94
314.165	98.94
314.394	101.94
314.624	75.94
314.853	93.94
315.083	84.94
315.312	97.94
315.542	78.94
315.771	84.94
316.001	97.94
316.23	79.94
316.46	83.94
316.689	83.94
316.919	90.94
317.148	102.94
317.377	91.94
317.607	99.94
317.836	74.94
318.065	78.94
318.295	81.94
318.524	96.94
318.753	88.94
318.983	86.94
319.212	95.94
319.441	119.94
319.67	103.94
319.9	90.94
320.129	83.94
320.358	95.94
320.587	76.94
320.816	88.94
321.046	84.94
321.275	88.94
321.504	97.94
321.733	100.94
321.962	87.94
322.191	100.94
322.42	104.94
322.649	105.94
322.878	104.94
323.108	111.94
323.337	120.94
323.566	120.94
323.795	144.94
324.024	196.94
324.253	360.94
324.482	743.94
324.71	1579.94
324.939	2054.94
325.168	759.94
325.397	218.94
325.626	117.94
325.855	105.94
326.084	112.94
326.313	132.94
326.542	136.94
326.77	228.94
326.999	415.94
327.228	856.94
327.457	1557.94
327.686	1237.94
327.914	415.94
328.143	303.94
328.372	333.94
328.6	207.94
328.829	131.94
329.058	135.94
329.287	154.94
329.515	130.94
329.744	160.94
329.972	244.94
330.201	447.94
330.43	609.94
330.658	306.94
330.887	186.94
331.115	134.94
331.344	102.94
331.572	107.94
331.801	106.94
332.03	105.94
332.258	86.94
332.486	97.94
332.715	106.94
332.943	95.94
333.172	103.94
333.4	92.94
333.629	131.94
333.857	161.94
334.085	233.94
334.314	421.94
334.542	749.94
334.771	717.94
334.999	231.94
335.227	118.94
335.455	94.94
335.684	96.94
335.912	83.94
336.14	87.94
336.369	99.94
336.597	80.94
336.825	100.94
337.053	95.94
337.281	93.94
337.51	88.94
337.738	97.94
337.966	75.94
338.194	83.94
338.422	85.94
338.65	81.94
338.878	88.94
339.106	101.94
339.334	104.94
339.562	73.94
339.79	91.94
340.018	75.94
340.246	94.94
340.474	98.94
340.702	88.94
340.93	94.94
341.158	95.94
341.386	90.94
341.614	108.94
341.842	107.94
342.07	86.94
342.298	83.94
342.526	97.94
342.754	74.94
342.981	80.94
343.209	81.94
343.437	93.94
343.665	84.94
343.893	91.94
344.12	98.94
344.348	88.94
344.576	87.94
344.804	91.94
345.031	83.94
345.259	97.94
345.487	98.94
345.714	105.94
345.942	98.94
346.17	93.94
346.397	94.94
346.625	92.94
346.853	87.94
347.08	101.94
347.308	81.94
347.535	95.94
347.763	95.94
347.99	89.94
348.218	95.94
348.445	107.94
348.673	103.94
348.9	84.94
349.128	87.94
349.355	79.94
349.583	87.94
349.81	92.94
350.037	95.94
350.265	96.94
350.492	93.94
350.72	99.94
350.947	104.94
351.174	99.94
351.402	112.94
351.629	103.94
351.856	105.94
352.083	100.94
352.311	112.94
352.538	94.94
352.765	101.94
352.992	115.94
353.22	101.94
353.447	106.94
353.674	100.94
353.901	104.94
354.128	99.94
354.355	91.94
354.583	107.94
354.81	76.94
355.037	111.94
355.264	97.94
355.491	99.94
355.718	81.94
355.945	100.94
356.172	72.94
356.399	99.94
356.626	79.94
356.853	96.94
357.08	98.94
357.307	94.94
357.534	91.94
357.761	91.94
357.988	90.94
358.215	86.94
358.441	94.94
358.668	75.94
358.895	82.94
359.122	81.94
359.349	91.94
359.576	92.94
359.802	89.94
360.029	114.94
360.256	124.94
360.483	99.94
360.709	104.94
360.936	89.94
361.163	97.94
361.39	105.94
361.616	86.94
361.843	83.94
362.07	109.94
362.296	90.94
362.523	103.94
362.749	86.94
362.976	74.94
363.203	100.94
363.429	85.94
363.656	88.94
363.882	89.94
364.109	91.94
364.335	101.94
364.562	79.94
364.788	100.94
365.015	98.94
365.241	94.94
365.468	98.94
365.694	96.94
365.92	88.94
366.147	78.94
366.373	78.94
366.599	90.94
366.826	96.94
367.052	88.94
367.278	90.94
367.505	85.94
367.731	85.94
367.957	83.94
368.184	95.94
368.41	101.94
368.636	108.94
368.862	121.94
369.089	111.94
369.315	114.94
369.541	111.94
369.767	93.94
369.993	100.94
370.219	101.94
370.445	83.94
370.672	84.94
370.898	75.94
371.124	82.94
371.35	86.94
371.576	77.94
371.802	93.94
372.028	93.94
372.254	76.94
372.48	89.94
372.706	91.94
372.932	76.94
373.158	97.94
373.384	89.94
373.61	75.94
373.835	90.94
374.061	83.94
374.287	89.94
374.513	94.94
374.739	73.94
374.965	85.94
375.191	89.94
375.416	82.94
375.642	96.94
375.868	92.94
376.094	85.94
376.319	86.94
376.545	81.94
376.771	73.94
376.997	90.94
377.222	95.94
377.448	94.94
377.674	93.94
377.899	92.94
378.125	96.94
378.35	100.94
378.576	94.94
378.802	92.94
379.027	91.94
379.253	86.94
379.478	92.94
379.704	91.94
379.929	80.94
380.155	81.94
380.38	93.94
380.606	87.94
380.831	84.94
381.057	92.94
381.282	90.94
381.507	100.94
381.733	90.94
381.958	101.94
382.184	83.94
382.409	112.94
382.634	98.94
382.86	93.94
383.085	98.94
383.31	96.94
383.535	106.94
383.761	88.94
383.986	102.94
384.211	94.94
384.436	111.94
384.662	89.94
384.887	102.94
385.112	107.94
385.337	107.94
385.562	116.94
385.787	100.94
386.013	126.94
386.238	119.94
386.463	96.94
386.688	131.94
386.913	96.94
387.138	101.94
387.363	95.94
387.588	91.94
387.813	94.94
388.038	113.94
388.263	117.94
388.488	103.94
388.713	87.94
388.938	79.94
389.163	75.94
389.387	97.94
389.612	91.94
389.837	89.94
390.062	109.94
390.287	87.94
390.512	77.94
390.736	89.94
390.961	104.94
391.186	100.94
391.411	90.94
391.636	87.94
391.86	76.94
392.085	86.94
392.31	91.94
392.534	87.94
392.759	90.94
392.984	81.94
393.208	88.94
393.433	78.94
393.658	92.94
393.882	94.94
394.107	89.94
394.331	85.94
394.556	83.94
394.78	85.94
395.005	91.94
395.229	79.94
395.454	94.94
395.678	95.94
395.903	94.94
396.127	83.94
396.352	84.94
396.576	76.94
396.801	89.94
397.025	84.94
397.249	94.94
397.474	100.94
397.698	83.94
397.922	77.94
398.147	94.94
398.371	78.94
398.595	78.94
398.82	82.94
399.044	84.94
399.268	89.94
399.492	79.94
399.717	88.94
399.941	71.94
400.165	89.94
400.389	78.94
400.613	77.94
400.837	85.94
401.062	74.94
401.286	92.94
401.51	88.94
401.734	86.94
401.958	94.94
402.182	126.94
402.406	168.94
402.63	120.94
402.854	99.94
403.078	79.94
403.302	84.94
403.526	87.94
403.75	81.94
403.974	90.94
404.198	85.94
404.422	81.94
404.645	98.94
404.869	92.94
405.093	101.94
405.317	102.94
405.541	100.94
405.765	100.94
405.988	112.94
406.212	173.94
406.436	243.94
406.66	166.94
406.883	98.94
407.107	89.94
407.331	90.94
407.555	97.94
407.778	95.94
408.002	90.94
408.226	82.94
408.449	94.94
408.673	92.94
408.896	108.94
409.12	100.94
409.344	84.94
409.567	77.94
409.791	92.94
410.014	85.94
410.238	83.94
410.461	88.94
410.685	89.94
410.908	81.94
411.132	120.94
411.355	113.94
411.578	87.94
411.802	84.94
412.025	90.94
412.249	92.94
412.472	91.94
412.695	110.94
412.919	100.94
413.142	90.94
413.365	77.94
413.589	68.94
413.812	84.94
414.035	104.94
414.258	89.94
414.482	99.94
414.705	80.94
414.928	76.94
415.151	90.94
415.374	91.94
415.597	94.94
415.821	80.94
416.044	96.94
416.267	92.94
416.49	85.94
416.713	98.94
416.936	83.94
417.159	78.94
417.382	83.94
417.605	78.94
417.828	103.94
418.051	87.94
418.274	95.94
418.497	80.94
418.72	95.94
418.943	82.94
419.166	80.94
419.389	94.94
419.611	84.94
419.834	92.94
420.057	83.94
420.28	78.94
420.503	77.94
420.726	92.94
420.948	86.94
421.171	97.94
421.394	97.94
421.617	92.94
421.839	93.94
422.062	82.94
422.285	94.94
422.507	88.94
422.73	89.94
422.953	78.94
423.175	85.94
423.398	88.94
423.621	95.94
423.843	81.94
424.066	90.94
424.288	93.94
424.511	99.94
424.733	93.94
424.956	100.94
425.178	89.94
425.401	102.94
425.623	107.94
425.846	91.94
426.068	93.94
426.291	93.94
426.513	83.94
426.735	88.94
426.958	96.94
427.18	100.94
427.402	150.94
427.625	208.94
427.847	173.94
428.069	150.94
428.292	108.94
428.514	89.94
428.736	89.94
428.958	75.94
429.181	74.94
429.403	69.94
429.625	85.94
429.847	86.94
430.069	88.94
430.292	99.94
430.514	83.94
430.736	71.94
430.958	93.94
431.18	96.94
431.402	77.94
431.624	79.94
431.846	88.94
432.068	79.94
432.29	85.94
432.512	88.94
432.734	81.94
432.956	97.94
433.178	85.94
433.4	85.94
433.622	78.94
433.844	75.94
434.066	79.94
434.287	97.94
434.509	95.94
434.731	88.94
434.953	77.94
435.175	79.94
435.397	83.94
435.618	85.94
435.84	100.94
436.062	107.94
436.284	124.94
436.505	106.94
436.727	91.94
436.949	97.94
437.17	90.94
437.392	87.94
437.614	91.94
437.835	102.94
438.057	98.94
438.278	111.94
438.5	107.94
438.721	100.94
438.943	96.94
439.165	84.94
439.386	91.94
439.608	87.94
439.829	101.94
440.05	127.94
440.272	133.94
440.493	75.94
440.715	74.94
440.936	85.94
441.158	78.94
441.379	72.94
441.6	100.94
441.822	87.94
442.043	87.94
442.264	100.94
442.486	101.94
442.707	86.94
442.928	109.94
443.149	124.94
443.371	115.94
443.592	92.94
443.813	128.94
444.034	119.94
444.255	100.94
444.476	99.94
444.698	68.94
444.919	89.94
445.14	130.94
445.361	125.94
445.582	119.94
445.803	131.94
446.024	137.94
446.245	124.94
446.466	105.94
446.687	105.94
446.908	98.94
447.129	84.94
447.35	84.94
447.571	76.94
447.792	92.94
448.013	113.94
448.234	105.94
448.455	99.94
448.675	106.94
448.896	118.94
449.117	91.94
449.338	107.94
449.559	116.94
449.779	128.94
450	105.94
450.221	90.94
450.442	83.94
450.662	90.94
450.883	105.94
451.104	120.94
451.324	92.94
451.545	71.94
451.766	85.94
451.986	83.94
452.207	80.94
452.428	82.94
452.648	108.94
452.869	112.94
453.089	122.94
453.31	114.94
453.53	101.94
453.751	86.94
453.971	95.94
454.192	111.94
454.412	79.94
454.633	81.94
454.853	77.94
455.073	83.94
455.294	90.94
455.514	76.94
455.734	99.94
455.955	81.94
456.175	82.94
456.395	82.94
456.616	84.94
456.836	72.94
457.056	88.94
457.276	75.94
457.497	68.94
457.717	87.94
457.937	89.94
458.157	83.94
458.377	84.94
458.598	114.94
458.818	172.94
459.038	152.94
459.258	126.94
459.478	84.94
459.698	78.94
459.918	65.94
460.138	98.94
460.358	99.94
460.578	74.94
460.798	89.94
461.018	81.94
461.238	88.94
461.458	90.94
461.678	78.94
461.898	79.94
462.118	90.94
462.338	89.94
462.558	101.94
462.777	80.94
462.997	87.94
463.217	90.94
463.437	89.94
463.657	80.94
463.876	79.94
464.096	78.94
464.316	91.94
464.536	93.94
464.755	96.94
464.975	108.94
465.195	189.94
465.414	166.94
465.634	93.94
465.854	91.94
466.073	80.94
466.293	85.94
466.512	79.94
466.732	84.94
466.951	97.94
467.171	107.94
467.391	90.94
467.61	120.94
467.829	134.94
468.049	283.94
468.268	373.94
468.488	131.94
468.707	91.94
468.927	88.94
469.146	87.94
469.365	95.94
469.585	85.94
469.804	95.94
470.023	107.94
470.243	94.94
470.462	108.94
470.681	109.94
470.901	104.94
471.12	100.94
471.339	88.94
471.558	93.94
471.777	110.94
471.997	154.94
472.216	501.94
472.435	1079.94
472.654	303.94
472.873	114.94
473.092	87.94
473.311	81.94
473.53	96.94
473.749	86.94
473.968	114.94
474.187	97.94
474.406	92.94
474.625	87.94
474.844	81.94
475.063	92.94
475.282	82.94
475.501	87.94
475.72	92.94
475.939	66.94
476.158	83.94
476.377	75.94
476.596	74.94
476.814	90.94
477.033	92.94
477.252	98.94
477.471	68.94
477.69	82.94
477.908	77.94
478.127	88.94
478.346	80.94
478.564	95.94
478.783	100.94
479.002	93.94
479.22	95.94
479.439	101.94
479.658	106.94
479.876	101.94
480.095	94.94
480.313	98.94
480.532	138.94
480.751	162.94
480.969	480.94
481.188	1804.94
481.406	1071.94
481.624	191.94
481.843	107.94
482.061	102.94
482.28	89.94
482.498	93.94
482.717	79.94
482.935	92.94
483.153	96.94
483.372	84.94
483.59	87.94
483.808	92.94
484.027	87.94
484.245	91.94
484.463	99.94
484.681	87.94
484.9	97.94
485.118	89.94
485.336	85.94
485.554	98.94
485.772	108.94
485.99	105.94
486.209	108.94
486.427	97.94
486.645	110.94
486.863	111.94
487.081	97.94
487.299	94.94
487.517	90.94
487.735	75.94
487.953	98.94
488.171	96.94
488.389	94.94
488.607	96.94
488.825	77.94
489.043	72.94
489.261	82.94
489.479	90.94
489.696	88.94
489.914	80.94
490.132	85.94
490.35	92.94
490.568	84.94
490.786	77.94
491.003	93.94
491.221	93.94
491.439	83.94
491.657	97.94
491.874	98.94
492.092	84.94
492.31	97.94
492.527	78.94
492.745	86.94
492.963	89.94
493.18	83.94
493.398	90.94
493.615	95.94
493.833	83.94
494.05	90.94
494.268	87.94
494.485	79.94
494.703	96.94
494.92	89.94
495.138	88.94
495.355	88.94
495.573	98.94
495.79	100.94
496.008	84.94
496.225	83.94
496.442	78.94
496.66	88.94
496.877	79.94
497.094	93.94
497.312	85.94
497.529	91.94
497.746	92.94
497.963	87.94
498.181	87.94
498.398	94.94
498.615	105.94
498.832	95.94
499.049	75.94
499.267	82.94
499.484	87.94
499.701	89.94
499.918	82.94
500.135	73.94
500.352	90.94
500.569	88.94
500.786	110.94
501.003	93.94
501.22	65.94
501.437	86.94
501.654	87.94
501.871	107.94
502.088	76.94
502.305	89.94
502.522	85.94
502.739	103.94
502.956	88.94
503.172	84.94
503.389	99.94
503.606	124.94
503.823	101.94
504.04	87.94
504.256	81.94
504.473	89.94
504.69	91.94
504.907	100.94
505.123	98.94
505.34	93.94
505.557	86.94
505.773	81.94
505.99	83.94
506.207	103.94
506.423	86.94
506.64	95.94
506.856	73.94
507.073	96.94
507.289	84.94
507.506	92.94
507.722	112.94
507.939	100.94
508.155	97.94
508.372	99.94
508.588	87.94
508.805	98.94
509.021	85.94
509.238	92.94
509.454	83.94
509.67	95.94
509.887	100.94
510.103	122.94
510.319	199.94
510.536	711.94
510.752	2405.94
510.968	652.94
511.184	164.94
511.401	128.94
511.617	94.94
511.833	87.94
512.049	90.94
512.265	98.94
512.481	90.94
512.698	77.94
512.914	94.94
513.13	94.94
513.346	94.94
513.562	100.94
513.778	92.94
513.994	99.94
514.21	116.94
514.426	118.94
514.642	140.94
514.858	127.94
515.074	161.94
515.29	506.94
515.506	1695.94
515.721	626.94
