Data from Circ_1990_H10_HRD10591_00034.txt Node
Date: Wed Jan 03 11:55:10 EST 2024
User: Yrep
Spectrometer: HR+D1059
Trigger mode: 1
Integration Time (sec): 1.000000E-1
Scans to average: 1
Electric dark correction enabled: true
Nonlinearity correction enabled: false
Boxcar width: 0
XAxis mode: Wavelengths
Number of Pixels in Spectrum: 2048
>>>>>Begin Spectral Data<<<<<
223.165	-13.69
223.4	-13.69
223.635	-13.69
223.869	-11.69
224.104	-22.69
224.338	-14.69
224.573	-22.69
224.808	-9.69
225.042	-10.69
225.277	-22.69
225.511	-16.69
225.746	16.31
225.98	11.31
226.215	1.31
226.449	30.31
226.683	30.31
226.918	20.31
227.152	35.31
227.387	32.31
227.621	27.31
227.856	31.31
228.09	43.31
228.324	56.31
228.559	64.31
228.793	71.31
229.027	63.31
229.262	62.31
229.496	71.31
229.73	86.31
229.964	94.31
230.199	68.31
230.433	68.31
230.667	91.31
230.901	88.31
231.136	70.31
231.37	80.31
231.604	89.31
231.838	65.31
232.072	82.31
232.306	78.31
232.541	78.31
232.775	76.31
233.009	72.31
233.243	73.31
233.477	78.31
233.711	79.31
233.945	57.31
234.179	70.31
234.413	81.31
234.647	79.31
234.881	74.31
235.115	70.31
235.349	88.31
235.583	63.31
235.817	85.31
236.051	69.31
236.285	83.31
236.519	66.31
236.753	64.31
236.987	80.31
237.221	94.31
237.455	84.31
237.689	70.31
237.922	81.31
238.156	77.31
238.39	66.31
238.624	67.31
238.858	65.31
239.091	66.31
239.325	86.31
239.559	78.31
239.793	82.31
240.027	82.31
240.26	77.31
240.494	63.31
240.728	66.31
240.961	61.31
241.195	96.31
241.429	77.31
241.662	74.31
241.896	59.31
242.13	78.31
242.363	80.31
242.597	74.31
242.83	76.31
243.064	73.31
243.298	78.31
243.531	68.31
243.765	76.31
243.998	70.31
244.232	85.31
244.465	90.31
244.699	77.31
244.932	65.31
245.166	68.31
245.399	68.31
245.633	87.31
245.866	60.31
246.099	73.31
246.333	68.31
246.566	60.31
246.8	63.31
247.033	63.31
247.266	76.31
247.5	66.31
247.733	84.31
247.966	81.31
248.2	77.31
248.433	77.31
248.666	74.31
248.899	76.31
249.133	76.31
249.366	87.31
249.599	99.31
249.832	75.31
250.066	76.31
250.299	77.31
250.532	77.31
250.765	76.31
250.998	72.31
251.231	79.31
251.465	78.31
251.698	74.31
251.931	79.31
252.164	67.31
252.397	65.31
252.63	75.31
252.863	84.31
253.096	79.31
253.329	77.31
253.562	83.31
253.795	67.31
254.028	79.31
254.261	83.31
254.494	65.31
254.727	86.31
254.96	72.31
255.193	65.31
255.426	83.31
255.659	65.31
255.892	82.31
256.124	74.31
256.357	79.31
256.59	95.31
256.823	70.31
257.056	67.31
257.289	68.31
257.521	80.31
257.754	77.31
257.987	78.31
258.22	89.31
258.452	78.31
258.685	75.31
258.918	78.31
259.151	87.31
259.383	57.31
259.616	79.31
259.849	72.31
260.081	67.31
260.314	87.31
260.547	84.31
260.779	75.31
261.012	93.31
261.244	100.31
261.477	92.31
261.71	83.31
261.942	117.31
262.175	112.31
262.407	81.31
262.64	85.31
262.872	86.31
263.105	68.31
263.337	87.31
263.57	86.31
263.802	80.31
264.035	90.31
264.267	74.31
264.499	67.31
264.732	80.31
264.964	84.31
265.197	71.31
265.429	83.31
265.661	89.31
265.894	87.31
266.126	100.31
266.358	79.31
266.591	85.31
266.823	79.31
267.055	87.31
267.287	97.31
267.52	70.31
267.752	84.31
267.984	76.31
268.216	66.31
268.448	75.31
268.681	82.31
268.913	82.31
269.145	87.31
269.377	84.31
269.609	81.31
269.841	87.31
270.073	82.31
270.306	69.31
270.538	90.31
270.77	78.31
271.002	75.31
271.234	85.31
271.466	81.31
271.698	83.31
271.93	79.31
272.162	88.31
272.394	81.31
272.626	86.31
272.858	82.31
273.09	83.31
273.322	78.31
273.553	85.31
273.785	79.31
274.017	74.31
274.249	81.31
274.481	82.31
274.713	84.31
274.945	87.31
275.176	92.31
275.408	94.31
275.64	89.31
275.872	97.31
276.104	98.31
276.335	91.31
276.567	103.31
276.799	104.31
277.031	122.31
277.262	107.31
277.494	101.31
277.726	89.31
277.957	86.31
278.189	78.31
278.421	79.31
278.652	82.31
278.884	88.31
279.115	79.31
279.347	82.31
279.579	93.31
279.81	102.31
280.042	111.31
280.273	146.31
280.505	97.31
280.736	85.31
280.968	99.31
281.199	84.31
281.431	73.31
281.662	89.31
281.894	72.31
282.125	76.31
282.356	122.31
282.588	146.31
282.819	107.31
283.051	90.31
283.282	74.31
283.513	96.31
283.745	77.31
283.976	84.31
284.207	85.31
284.439	82.31
284.67	95.31
284.901	90.31
285.132	81.31
285.364	94.31
285.595	87.31
285.826	88.31
286.057	91.31
286.288	76.31
286.52	92.31
286.751	84.31
286.982	84.31
287.213	80.31
287.444	80.31
287.675	86.31
287.906	89.31
288.138	93.31
288.369	81.31
288.6	85.31
288.831	84.31
289.062	73.31
289.293	79.31
289.524	86.31
289.755	92.31
289.986	68.31
290.217	63.31
290.448	82.31
290.679	79.31
290.91	64.31
291.141	79.31
291.371	86.31
291.602	87.31
291.833	80.31
292.064	81.31
292.295	80.31
292.526	78.31
292.757	76.31
292.987	74.31
293.218	86.31
293.449	80.31
293.68	81.31
293.91	78.31
294.141	89.31
294.372	76.31
294.603	79.31
294.833	77.31
295.064	90.31
295.295	86.31
295.525	100.31
295.756	100.31
295.987	123.31
296.217	146.31
296.448	130.31
296.679	106.31
296.909	86.31
297.14	75.31
297.37	97.31
297.601	75.31
297.831	96.31
298.062	79.31
298.292	78.31
298.523	84.31
298.753	92.31
298.984	95.31
299.214	94.31
299.445	83.31
299.675	77.31
299.905	84.31
300.136	87.31
300.366	66.31
300.597	77.31
300.827	85.31
301.057	83.31
301.288	106.31
301.518	103.31
301.748	76.31
301.979	96.31
302.209	86.31
302.439	97.31
302.669	98.31
302.9	91.31
303.13	82.31
303.36	96.31
303.59	99.31
303.82	117.31
304.051	91.31
304.281	97.31
304.511	98.31
304.741	89.31
304.971	66.31
305.201	73.31
305.431	83.31
305.661	80.31
305.891	100.31
306.121	109.31
306.352	103.31
306.582	88.31
306.812	90.31
307.042	109.31
307.272	100.31
307.502	115.31
307.731	107.31
307.961	115.31
308.191	82.31
308.421	88.31
308.651	91.31
308.881	82.31
309.111	92.31
309.341	90.31
309.571	89.31
309.8	81.31
310.03	91.31
310.26	102.31
310.49	76.31
310.72	96.31
310.949	92.31
311.179	116.31
311.409	87.31
311.639	94.31
311.868	105.31
312.098	98.31
312.328	93.31
312.557	99.31
312.787	116.31
313.017	102.31
313.246	88.31
313.476	82.31
313.706	95.31
313.935	107.31
314.165	102.31
314.394	91.31
314.624	98.31
314.853	85.31
315.083	91.31
315.312	109.31
315.542	75.31
315.771	96.31
316.001	87.31
316.23	76.31
316.46	91.31
316.689	94.31
316.919	100.31
317.148	104.31
317.377	84.31
317.607	92.31
317.836	91.31
318.065	88.31
318.295	95.31
318.524	84.31
318.753	96.31
318.983	100.31
319.212	97.31
319.441	102.31
319.67	106.31
319.9	88.31
320.129	90.31
320.358	89.31
320.587	88.31
320.816	89.31
321.046	84.31
321.275	81.31
321.504	90.31
321.733	98.31
321.962	104.31
322.191	94.31
322.42	114.31
322.649	121.31
322.878	120.31
323.108	113.31
323.337	112.31
323.566	131.31
323.795	153.31
324.024	215.31
324.253	409.31
324.482	872.31
324.71	1767.31
324.939	2396.31
325.168	884.31
325.397	255.31
325.626	140.31
325.855	121.31
326.084	127.31
326.313	118.31
326.542	153.31
326.77	232.31
326.999	464.31
327.228	934.31
327.457	1736.31
327.686	1390.31
327.914	406.31
328.143	291.31
328.372	309.31
328.6	193.31
328.829	128.31
329.058	142.31
329.287	146.31
329.515	125.31
329.744	152.31
329.972	212.31
330.201	392.31
330.43	534.31
330.658	300.31
330.887	182.31
331.115	146.31
331.344	109.31
331.572	86.31
331.801	121.31
332.03	106.31
332.258	99.31
332.486	89.31
332.715	84.31
332.943	95.31
333.172	106.31
333.4	109.31
333.629	110.31
333.857	164.31
334.085	224.31
334.314	371.31
334.542	674.31
334.771	650.31
334.999	202.31
335.227	117.31
335.455	99.31
335.684	107.31
335.912	94.31
336.14	102.31
336.369	88.31
336.597	92.31
336.825	106.31
337.053	86.31
337.281	92.31
337.51	106.31
337.738	82.31
337.966	92.31
338.194	90.31
338.422	86.31
338.65	101.31
338.878	85.31
339.106	78.31
339.334	91.31
339.562	87.31
339.79	79.31
340.018	87.31
340.246	73.31
340.474	83.31
340.702	83.31
340.93	73.31
341.158	99.31
341.386	97.31
341.614	91.31
341.842	92.31
342.07	87.31
342.298	89.31
342.526	82.31
342.754	89.31
342.981	81.31
343.209	89.31
343.437	99.31
343.665	86.31
343.893	80.31
344.12	84.31
344.348	95.31
344.576	96.31
344.804	76.31
345.031	86.31
345.259	108.31
345.487	72.31
345.714	91.31
345.942	96.31
346.17	97.31
346.397	95.31
346.625	100.31
346.853	105.31
347.08	84.31
347.308	90.31
347.535	95.31
347.763	93.31
347.99	90.31
348.218	88.31
348.445	94.31
348.673	91.31
348.9	87.31
349.128	80.31
349.355	99.31
349.583	71.31
349.81	95.31
350.037	98.31
350.265	89.31
350.492	94.31
350.72	77.31
350.947	87.31
351.174	96.31
351.402	124.31
351.629	99.31
351.856	97.31
352.083	98.31
352.311	98.31
352.538	99.31
352.765	114.31
352.992	117.31
353.22	95.31
353.447	102.31
353.674	105.31
353.901	86.31
354.128	110.31
354.355	91.31
354.583	88.31
354.81	104.31
355.037	87.31
355.264	88.31
355.491	107.31
355.718	100.31
355.945	92.31
356.172	83.31
356.399	93.31
356.626	93.31
356.853	90.31
357.08	90.31
357.307	104.31
357.534	96.31
357.761	102.31
357.988	98.31
358.215	102.31
358.441	89.31
358.668	88.31
358.895	88.31
359.122	80.31
359.349	85.31
359.576	98.31
359.802	96.31
360.029	111.31
360.256	126.31
360.483	111.31
360.709	90.31
360.936	94.31
361.163	76.31
361.39	89.31
361.616	88.31
361.843	93.31
362.07	91.31
362.296	100.31
362.523	86.31
362.749	77.31
362.976	95.31
363.203	95.31
363.429	87.31
363.656	93.31
363.882	101.31
364.109	99.31
364.335	81.31
364.562	87.31
364.788	88.31
365.015	97.31
365.241	90.31
365.468	110.31
365.694	106.31
365.92	93.31
366.147	93.31
366.373	90.31
366.599	95.31
366.826	81.31
367.052	90.31
367.278	100.31
367.505	74.31
367.731	94.31
367.957	90.31
368.184	98.31
368.41	87.31
368.636	110.31
368.862	122.31
369.089	112.31
369.315	78.31
369.541	73.31
369.767	88.31
369.993	90.31
370.219	94.31
370.445	79.31
370.672	82.31
370.898	82.31
371.124	75.31
371.35	70.31
371.576	63.31
371.802	84.31
372.028	82.31
372.254	74.31
372.48	88.31
372.706	91.31
372.932	85.31
373.158	83.31
373.384	95.31
373.61	100.31
373.835	99.31
374.061	90.31
374.287	100.31
374.513	81.31
374.739	88.31
374.965	76.31
375.191	88.31
375.416	91.31
375.642	89.31
375.868	89.31
376.094	94.31
376.319	86.31
376.545	67.31
376.771	81.31
376.997	93.31
377.222	74.31
377.448	88.31
377.674	87.31
377.899	80.31
378.125	86.31
378.35	91.31
378.576	105.31
378.802	86.31
379.027	101.31
379.253	99.31
379.478	81.31
379.704	86.31
379.929	94.31
380.155	101.31
380.38	88.31
380.606	83.31
380.831	95.31
381.057	106.31
381.282	92.31
381.507	96.31
381.733	102.31
381.958	86.31
382.184	112.31
382.409	90.31
382.634	110.31
382.86	89.31
383.085	99.31
383.31	91.31
383.535	98.31
383.761	114.31
383.986	115.31
384.211	98.31
384.436	110.31
384.662	104.31
384.887	118.31
385.112	105.31
385.337	107.31
385.562	122.31
385.787	114.31
386.013	116.31
386.238	128.31
386.463	108.31
386.688	115.31
386.913	115.31
387.138	108.31
387.363	119.31
387.588	102.31
387.813	107.31
388.038	124.31
388.263	124.31
388.488	119.31
388.713	83.31
388.938	90.31
389.163	99.31
389.387	83.31
389.612	88.31
389.837	96.31
390.062	89.31
390.287	68.31
390.512	68.31
390.736	65.31
390.961	89.31
391.186	81.31
391.411	81.31
391.636	77.31
391.86	95.31
392.085	84.31
392.31	77.31
392.534	100.31
392.759	82.31
392.984	82.31
393.208	80.31
393.433	87.31
393.658	101.31
393.882	96.31
394.107	80.31
394.331	70.31
394.556	77.31
394.78	106.31
395.005	80.31
395.229	86.31
395.454	86.31
395.678	68.31
395.903	83.31
396.127	84.31
396.352	86.31
396.576	97.31
396.801	93.31
397.025	82.31
397.249	87.31
397.474	78.31
397.698	86.31
397.922	98.31
398.147	84.31
398.371	71.31
398.595	100.31
398.82	101.31
399.044	79.31
399.268	74.31
399.492	88.31
399.717	77.31
399.941	86.31
400.165	91.31
400.389	88.31
400.613	82.31
400.837	91.31
401.062	100.31
401.286	87.31
401.51	94.31
401.734	100.31
401.958	91.31
402.182	125.31
402.406	188.31
402.63	119.31
402.854	98.31
403.078	74.31
403.302	88.31
403.526	94.31
403.75	83.31
403.974	76.31
404.198	84.31
404.422	88.31
404.645	88.31
404.869	87.31
405.093	103.31
405.317	110.31
405.541	114.31
405.765	106.31
405.988	122.31
406.212	217.31
406.436	278.31
406.66	172.31
406.883	104.31
407.107	99.31
407.331	82.31
407.555	87.31
407.778	85.31
408.002	86.31
408.226	84.31
408.449	77.31
408.673	97.31
408.896	103.31
409.12	104.31
409.344	86.31
409.567	79.31
409.791	82.31
410.014	84.31
410.238	89.31
410.461	94.31
410.685	89.31
410.908	90.31
411.132	107.31
411.355	99.31
411.578	100.31
411.802	94.31
412.025	86.31
412.249	86.31
412.472	90.31
412.695	112.31
412.919	92.31
413.142	95.31
413.365	82.31
413.589	88.31
413.812	86.31
414.035	90.31
414.258	90.31
414.482	91.31
414.705	73.31
414.928	99.31
415.151	75.31
415.374	100.31
415.597	96.31
415.821	95.31
416.044	102.31
416.267	93.31
416.49	91.31
416.713	74.31
416.936	91.31
417.159	100.31
417.382	82.31
417.605	100.31
417.828	104.31
418.051	105.31
418.274	82.31
418.497	87.31
418.72	77.31
418.943	77.31
419.166	93.31
419.389	84.31
419.611	95.31
419.834	83.31
420.057	90.31
420.28	95.31
420.503	78.31
420.726	73.31
420.948	94.31
421.171	98.31
421.394	93.31
421.617	71.31
421.839	101.31
422.062	82.31
422.285	81.31
422.507	96.31
422.73	98.31
422.953	80.31
423.175	91.31
423.398	78.31
423.621	96.31
423.843	92.31
424.066	83.31
424.288	94.31
424.511	77.31
424.733	94.31
424.956	101.31
425.178	98.31
425.401	100.31
425.623	105.31
425.846	79.31
426.068	96.31
426.291	86.31
426.513	84.31
426.735	89.31
426.958	78.31
427.18	92.31
427.402	144.31
427.625	206.31
427.847	182.31
428.069	136.31
428.292	91.31
428.514	84.31
428.736	88.31
428.958	67.31
429.181	88.31
429.403	87.31
429.625	83.31
429.847	99.31
430.069	100.31
430.292	78.31
430.514	82.31
430.736	90.31
430.958	74.31
431.18	86.31
431.402	85.31
431.624	83.31
431.846	82.31
432.068	77.31
432.29	71.31
432.512	96.31
432.734	95.31
432.956	90.31
433.178	104.31
433.4	94.31
433.622	90.31
433.844	95.31
434.066	93.31
434.287	75.31
434.509	93.31
434.731	80.31
434.953	77.31
435.175	80.31
435.397	89.31
435.618	83.31
435.84	91.31
436.062	125.31
436.284	131.31
436.505	107.31
436.727	112.31
436.949	101.31
437.17	90.31
437.392	91.31
437.614	62.31
437.835	108.31
438.057	123.31
438.278	113.31
438.5	100.31
438.721	111.31
438.943	89.31
439.165	84.31
439.386	80.31
439.608	83.31
439.829	102.31
440.05	135.31
440.272	150.31
440.493	103.31
440.715	78.31
440.936	78.31
441.158	79.31
441.379	88.31
441.6	92.31
441.822	98.31
442.043	91.31
442.264	99.31
442.486	99.31
442.707	92.31
442.928	99.31
443.149	132.31
443.371	148.31
443.592	115.31
443.813	116.31
444.034	113.31
444.255	85.31
444.476	84.31
444.698	72.31
444.919	79.31
445.14	130.31
445.361	117.31
445.582	115.31
445.803	149.31
446.024	152.31
446.245	140.31
446.466	102.31
446.687	78.31
446.908	87.31
447.129	81.31
447.35	82.31
447.571	92.31
447.792	79.31
448.013	97.31
448.234	108.31
448.455	97.31
448.675	137.31
448.896	124.31
449.117	103.31
449.338	114.31
449.559	112.31
449.779	130.31
450	86.31
450.221	88.31
450.442	82.31
450.662	88.31
450.883	115.31
451.104	118.31
451.324	121.31
451.545	86.31
451.766	80.31
451.986	79.31
452.207	82.31
452.428	94.31
452.648	100.31
452.869	120.31
453.089	107.31
453.31	107.31
453.53	93.31
453.751	89.31
453.971	109.31
454.192	111.31
454.412	90.31
454.633	91.31
454.853	86.31
455.073	69.31
455.294	79.31
455.514	99.31
455.734	85.31
455.955	88.31
456.175	83.31
456.395	78.31
456.616	81.31
456.836	88.31
457.056	77.31
457.276	72.31
457.497	84.31
457.717	78.31
457.937	88.31
458.157	82.31
458.377	105.31
458.598	114.31
458.818	167.31
459.038	188.31
459.258	129.31
459.478	98.31
459.698	73.31
459.918	75.31
460.138	84.31
460.358	82.31
460.578	80.31
460.798	81.31
461.018	93.31
461.238	82.31
461.458	70.31
461.678	86.31
461.898	66.31
462.118	82.31
462.338	66.31
462.558	69.31
462.777	72.31
462.997	83.31
463.217	82.31
463.437	89.31
463.657	90.31
463.876	82.31
464.096	99.31
464.316	91.31
464.536	93.31
464.755	96.31
464.975	107.31
465.195	190.31
465.414	198.31
465.634	99.31
465.854	84.31
466.073	71.31
466.293	66.31
466.512	83.31
466.732	77.31
466.951	79.31
467.171	94.31
467.391	95.31
467.61	108.31
467.829	132.31
468.049	250.31
468.268	313.31
468.488	107.31
468.707	94.31
468.927	89.31
469.146	89.31
469.365	87.31
469.585	84.31
469.804	105.31
470.023	107.31
470.243	101.31
470.462	105.31
470.681	120.31
470.901	89.31
471.12	97.31
471.339	80.31
471.558	91.31
471.777	118.31
471.997	147.31
472.216	433.31
472.435	870.31
472.654	253.31
472.873	102.31
473.092	95.31
473.311	96.31
473.53	80.31
473.749	84.31
473.968	91.31
474.187	116.31
474.406	80.31
474.625	87.31
474.844	98.31
475.063	79.31
475.282	88.31
475.501	85.31
475.72	88.31
475.939	81.31
476.158	74.31
476.377	90.31
476.596	91.31
476.814	100.31
477.033	103.31
477.252	90.31
477.471	91.31
477.69	99.31
477.908	79.31
478.127	89.31
478.346	92.31
478.564	89.31
478.783	87.31
479.002	86.31
479.22	95.31
479.439	114.31
479.658	112.31
479.876	101.31
480.095	102.31
480.313	112.31
480.532	110.31
480.751	146.31
480.969	402.31
481.188	1496.31
481.406	902.31
481.624	167.31
481.843	98.31
482.061	85.31
482.28	82.31
482.498	95.31
482.717	92.31
482.935	90.31
483.153	80.31
483.372	80.31
483.59	92.31
483.808	90.31
484.027	84.31
484.245	96.31
484.463	90.31
484.681	90.31
484.9	83.31
485.118	99.31
485.336	95.31
485.554	99.31
485.772	76.31
485.99	96.31
486.209	100.31
486.427	98.31
486.645	113.31
486.863	116.31
487.081	99.31
487.299	101.31
487.517	99.31
487.735	92.31
487.953	107.31
488.171	92.31
488.389	79.31
488.607	94.31
488.825	94.31
489.043	97.31
489.261	92.31
489.479	86.31
489.696	82.31
489.914	77.31
490.132	84.31
490.35	76.31
490.568	91.31
490.786	90.31
491.003	91.31
491.221	84.31
491.439	85.31
491.657	89.31
491.874	87.31
492.092	94.31
492.31	100.31
492.527	91.31
492.745	87.31
492.963	92.31
493.18	94.31
493.398	75.31
493.615	86.31
493.833	87.31
494.05	98.31
494.268	82.31
494.485	92.31
494.703	99.31
494.92	69.31
495.138	84.31
495.355	102.31
495.573	84.31
495.79	88.31
496.008	77.31
496.225	95.31
496.442	94.31
496.66	97.31
496.877	88.31
497.094	98.31
497.312	85.31
497.529	82.31
497.746	90.31
497.963	92.31
498.181	91.31
498.398	92.31
498.615	120.31
498.832	83.31
499.049	83.31
499.267	95.31
499.484	107.31
499.701	103.31
499.918	91.31
500.135	88.31
500.352	86.31
500.569	77.31
500.786	90.31
501.003	66.31
501.22	97.31
501.437	88.31
501.654	94.31
501.871	112.31
502.088	84.31
502.305	87.31
502.522	91.31
502.739	82.31
502.956	74.31
503.172	96.31
503.389	86.31
503.606	104.31
503.823	99.31
504.04	76.31
504.256	88.31
504.473	89.31
504.69	86.31
504.907	79.31
505.123	71.31
505.34	90.31
505.557	96.31
505.773	76.31
505.99	85.31
506.207	83.31
506.423	84.31
506.64	99.31
506.856	90.31
507.073	99.31
507.289	83.31
507.506	99.31
507.722	106.31
507.939	115.31
508.155	93.31
508.372	98.31
508.588	90.31
508.805	84.31
509.021	102.31
509.238	113.31
509.454	97.31
509.67	95.31
509.887	104.31
510.103	139.31
510.319	229.31
510.536	802.31
510.752	2742.31
510.968	712.31
511.184	155.31
511.401	122.31
511.617	104.31
511.833	95.31
512.049	99.31
512.265	84.31
512.481	87.31
512.698	94.31
512.914	100.31
513.13	92.31
513.346	103.31
513.562	82.31
513.778	86.31
513.994	95.31
514.21	102.31
514.426	114.31
514.642	146.31
514.858	118.31
515.074	198.31
515.29	546.31
515.506	1964.31
