Data from Circ_1990_H10_HRD10591_00016.txt Node
Date: Wed Jan 03 11:55:07 EST 2024
User: Yrep
Spectrometer: HR+D1059
Trigger mode: 1
Integration Time (sec): 1.000000E-1
Scans to average: 1
Electric dark correction enabled: true
Nonlinearity correction enabled: false
Boxcar width: 0
XAxis mode: Wavelengths
Number of Pixels in Spectrum: 2048
>>>>>Begin Spectral Data<<<<<
223.165	-14.75
223.4	-14.75
223.635	-14.75
223.869	-26.75
224.104	-15.75
224.338	-17.75
224.573	-14.75
224.808	-13.75
225.042	-5.75
225.277	-0.75
225.511	5.25
225.746	-9.75
225.98	6.25
226.215	4.25
226.449	26.25
226.683	17.25
226.918	37.25
227.152	23.25
227.387	34.25
227.621	39.25
227.856	37.25
228.09	34.25
228.324	45.25
228.559	53.25
228.793	61.25
229.027	55.25
229.262	63.25
229.496	67.25
229.73	62.25
229.964	69.25
230.199	78.25
230.433	78.25
230.667	63.25
230.901	73.25
231.136	75.25
231.37	80.25
231.604	76.25
231.838	75.25
232.072	90.25
232.306	84.25
232.541	61.25
232.775	94.25
233.009	84.25
233.243	86.25
233.477	79.25
233.711	84.25
233.945	80.25
234.179	81.25
234.413	94.25
234.647	86.25
234.881	74.25
235.115	78.25
235.349	77.25
235.583	65.25
235.817	77.25
236.051	74.25
236.285	81.25
236.519	76.25
236.753	85.25
236.987	88.25
237.221	73.25
237.455	84.25
237.689	66.25
237.922	80.25
238.156	63.25
238.39	85.25
238.624	91.25
238.858	74.25
239.091	71.25
239.325	61.25
239.559	78.25
239.793	68.25
240.027	77.25
240.26	84.25
240.494	76.25
240.728	78.25
240.961	78.25
241.195	82.25
241.429	69.25
241.662	75.25
241.896	71.25
242.13	63.25
242.363	62.25
242.597	83.25
242.83	61.25
243.064	91.25
243.298	78.25
243.531	77.25
243.765	93.25
243.998	70.25
244.232	67.25
244.465	78.25
244.699	85.25
244.932	58.25
245.166	81.25
245.399	84.25
245.633	85.25
245.866	89.25
246.099	69.25
246.333	83.25
246.566	78.25
246.8	83.25
247.033	83.25
247.266	79.25
247.5	69.25
247.733	84.25
247.966	76.25
248.2	67.25
248.433	73.25
248.666	78.25
248.899	85.25
249.133	64.25
249.366	79.25
249.599	73.25
249.832	74.25
250.066	84.25
250.299	64.25
250.532	68.25
250.765	81.25
250.998	83.25
251.231	83.25
251.465	74.25
251.698	75.25
251.931	80.25
252.164	99.25
252.397	81.25
252.63	76.25
252.863	83.25
253.096	91.25
253.329	82.25
253.562	83.25
253.795	73.25
254.028	80.25
254.261	78.25
254.494	93.25
254.727	82.25
254.96	75.25
255.193	81.25
255.426	74.25
255.659	94.25
255.892	78.25
256.124	90.25
256.357	67.25
256.59	89.25
256.823	74.25
257.056	84.25
257.289	90.25
257.521	81.25
257.754	77.25
257.987	93.25
258.22	81.25
258.452	94.25
258.685	75.25
258.918	78.25
259.151	83.25
259.383	95.25
259.616	80.25
259.849	83.25
260.081	73.25
260.314	78.25
260.547	77.25
260.779	87.25
261.012	86.25
261.244	90.25
261.477	96.25
261.71	93.25
261.942	108.25
262.175	106.25
262.407	84.25
262.64	70.25
262.872	73.25
263.105	81.25
263.337	76.25
263.57	90.25
263.802	94.25
264.035	95.25
264.267	78.25
264.499	64.25
264.732	82.25
264.964	84.25
265.197	81.25
265.429	91.25
265.661	82.25
265.894	72.25
266.126	85.25
266.358	79.25
266.591	83.25
266.823	65.25
267.055	83.25
267.287	77.25
267.52	71.25
267.752	89.25
267.984	83.25
268.216	92.25
268.448	78.25
268.681	73.25
268.913	85.25
269.145	84.25
269.377	68.25
269.609	71.25
269.841	84.25
270.073	73.25
270.306	75.25
270.538	93.25
270.77	78.25
271.002	92.25
271.234	62.25
271.466	86.25
271.698	76.25
271.93	73.25
272.162	86.25
272.394	78.25
272.626	87.25
272.858	79.25
273.09	90.25
273.322	91.25
273.553	92.25
273.785	84.25
274.017	80.25
274.249	76.25
274.481	81.25
274.713	93.25
274.945	92.25
275.176	80.25
275.408	84.25
275.64	80.25
275.872	76.25
276.104	80.25
276.335	74.25
276.567	91.25
276.799	79.25
277.031	82.25
277.262	91.25
277.494	92.25
277.726	99.25
277.957	85.25
278.189	91.25
278.421	90.25
278.652	71.25
278.884	75.25
279.115	89.25
279.347	80.25
279.579	96.25
279.81	81.25
280.042	98.25
280.273	101.25
280.505	77.25
280.736	80.25
280.968	89.25
281.199	91.25
281.431	83.25
281.662	83.25
281.894	78.25
282.125	92.25
282.356	106.25
282.588	123.25
282.819	101.25
283.051	95.25
283.282	88.25
283.513	86.25
283.745	79.25
283.976	81.25
284.207	83.25
284.439	79.25
284.67	93.25
284.901	87.25
285.132	93.25
285.364	85.25
285.595	76.25
285.826	85.25
286.057	86.25
286.288	87.25
286.52	100.25
286.751	98.25
286.982	93.25
287.213	85.25
287.444	85.25
287.675	86.25
287.906	79.25
288.138	96.25
288.369	94.25
288.6	86.25
288.831	84.25
289.062	94.25
289.293	90.25
289.524	93.25
289.755	75.25
289.986	84.25
290.217	82.25
290.448	99.25
290.679	74.25
290.91	74.25
291.141	81.25
291.371	95.25
291.602	93.25
291.833	101.25
292.064	86.25
292.295	84.25
292.526	90.25
292.757	84.25
292.987	83.25
293.218	85.25
293.449	85.25
293.68	86.25
293.91	90.25
294.141	79.25
294.372	89.25
294.603	89.25
294.833	95.25
295.064	90.25
295.295	81.25
295.525	78.25
295.756	100.25
295.987	101.25
296.217	112.25
296.448	106.25
296.679	93.25
296.909	100.25
297.14	83.25
297.37	87.25
297.601	85.25
297.831	79.25
298.062	93.25
298.292	80.25
298.523	82.25
298.753	87.25
298.984	93.25
299.214	85.25
299.445	85.25
299.675	89.25
299.905	84.25
300.136	76.25
300.366	90.25
300.597	77.25
300.827	89.25
301.057	82.25
301.288	109.25
301.518	80.25
301.748	82.25
301.979	87.25
302.209	95.25
302.439	95.25
302.669	87.25
302.9	74.25
303.13	87.25
303.36	91.25
303.59	101.25
303.82	89.25
304.051	89.25
304.281	96.25
304.511	84.25
304.741	85.25
304.971	86.25
305.201	82.25
305.431	86.25
305.661	99.25
305.891	96.25
306.121	95.25
306.352	102.25
306.582	100.25
306.812	84.25
307.042	85.25
307.272	75.25
307.502	87.25
307.731	102.25
307.961	97.25
308.191	79.25
308.421	96.25
308.651	86.25
308.881	75.25
309.111	96.25
309.341	76.25
309.571	82.25
309.8	94.25
310.03	113.25
310.26	97.25
310.49	90.25
310.72	98.25
310.949	82.25
311.179	94.25
311.409	89.25
311.639	89.25
311.868	98.25
312.098	90.25
312.328	87.25
312.557	95.25
312.787	102.25
313.017	95.25
313.246	92.25
313.476	91.25
313.706	97.25
313.935	95.25
314.165	107.25
314.394	86.25
314.624	91.25
314.853	96.25
315.083	98.25
315.312	79.25
315.542	94.25
315.771	89.25
316.001	98.25
316.23	86.25
316.46	89.25
316.689	83.25
316.919	100.25
317.148	78.25
317.377	90.25
317.607	99.25
317.836	85.25
318.065	84.25
318.295	74.25
318.524	102.25
318.753	88.25
318.983	92.25
319.212	91.25
319.441	96.25
319.67	92.25
319.9	73.25
320.129	97.25
320.358	114.25
320.587	92.25
320.816	84.25
321.046	90.25
321.275	90.25
321.504	86.25
321.733	94.25
321.962	87.25
322.191	90.25
322.42	101.25
322.649	101.25
322.878	104.25
323.108	116.25
323.337	121.25
323.566	121.25
323.795	128.25
324.024	166.25
324.253	329.25
324.482	643.25
324.71	1292.25
324.939	1695.25
325.168	644.25
325.397	196.25
325.626	137.25
325.855	122.25
326.084	93.25
326.313	118.25
326.542	137.25
326.77	178.25
326.999	359.25
327.228	765.25
327.457	1327.25
327.686	1063.25
327.914	303.25
328.143	179.25
328.372	180.25
328.6	125.25
328.829	113.25
329.058	104.25
329.287	123.25
329.515	109.25
329.744	102.25
329.972	123.25
330.201	164.25
330.43	199.25
330.658	147.25
330.887	132.25
331.115	113.25
331.344	97.25
331.572	93.25
331.801	94.25
332.03	105.25
332.258	87.25
332.486	90.25
332.715	91.25
332.943	101.25
333.172	81.25
333.4	89.25
333.629	91.25
333.857	113.25
334.085	133.25
334.314	170.25
334.542	243.25
334.771	222.25
334.999	115.25
335.227	94.25
335.455	88.25
335.684	90.25
335.912	98.25
336.14	95.25
336.369	92.25
336.597	87.25
336.825	101.25
337.053	91.25
337.281	85.25
337.51	86.25
337.738	91.25
337.966	105.25
338.194	110.25
338.422	87.25
338.65	89.25
338.878	89.25
339.106	86.25
339.334	83.25
339.562	86.25
339.79	93.25
340.018	97.25
340.246	97.25
340.474	86.25
340.702	87.25
340.93	87.25
341.158	103.25
341.386	83.25
341.614	98.25
341.842	93.25
342.07	93.25
342.298	85.25
342.526	104.25
342.754	94.25
342.981	89.25
343.209	97.25
343.437	109.25
343.665	97.25
343.893	84.25
344.12	73.25
344.348	80.25
344.576	79.25
344.804	80.25
345.031	94.25
345.259	109.25
345.487	86.25
345.714	95.25
345.942	84.25
346.17	81.25
346.397	84.25
346.625	85.25
346.853	97.25
347.08	86.25
347.308	105.25
347.535	92.25
347.763	105.25
347.99	101.25
348.218	103.25
348.445	92.25
348.673	97.25
348.9	89.25
349.128	92.25
349.355	89.25
349.583	101.25
349.81	85.25
350.037	100.25
350.265	96.25
350.492	105.25
350.72	106.25
350.947	84.25
351.174	93.25
351.402	98.25
351.629	102.25
351.856	106.25
352.083	99.25
352.311	103.25
352.538	115.25
352.765	115.25
352.992	115.25
353.22	113.25
353.447	102.25
353.674	107.25
353.901	101.25
354.128	82.25
354.355	89.25
354.583	111.25
354.81	101.25
355.037	80.25
355.264	83.25
355.491	101.25
355.718	107.25
355.945	85.25
356.172	102.25
356.399	91.25
356.626	89.25
356.853	106.25
357.08	89.25
357.307	94.25
357.534	99.25
357.761	101.25
357.988	97.25
358.215	102.25
358.441	97.25
358.668	97.25
358.895	97.25
359.122	89.25
359.349	72.25
359.576	91.25
359.802	89.25
360.029	101.25
360.256	127.25
360.483	105.25
360.709	89.25
360.936	89.25
361.163	84.25
361.39	93.25
361.616	96.25
361.843	99.25
362.07	95.25
362.296	99.25
362.523	93.25
362.749	88.25
362.976	94.25
363.203	96.25
363.429	81.25
363.656	97.25
363.882	94.25
364.109	99.25
364.335	98.25
364.562	80.25
364.788	92.25
365.015	97.25
365.241	93.25
365.468	107.25
365.694	94.25
365.92	96.25
366.147	90.25
366.373	97.25
366.599	93.25
366.826	90.25
367.052	79.25
367.278	84.25
367.505	83.25
367.731	94.25
367.957	93.25
368.184	82.25
368.41	85.25
368.636	106.25
368.862	104.25
369.089	91.25
369.315	102.25
369.541	69.25
369.767	98.25
369.993	83.25
370.219	95.25
370.445	98.25
370.672	91.25
370.898	80.25
371.124	94.25
371.35	83.25
371.576	99.25
371.802	92.25
372.028	85.25
372.254	99.25
372.48	96.25
372.706	85.25
372.932	93.25
373.158	84.25
373.384	86.25
373.61	78.25
373.835	85.25
374.061	91.25
374.287	100.25
374.513	91.25
374.739	70.25
374.965	97.25
375.191	86.25
375.416	102.25
375.642	102.25
375.868	105.25
376.094	86.25
376.319	90.25
376.545	100.25
376.771	99.25
376.997	96.25
377.222	99.25
377.448	85.25
377.674	95.25
377.899	96.25
378.125	95.25
378.35	93.25
378.576	102.25
378.802	100.25
379.027	102.25
379.253	105.25
379.478	87.25
379.704	102.25
379.929	95.25
380.155	95.25
380.38	113.25
380.606	103.25
380.831	100.25
381.057	107.25
381.282	108.25
381.507	111.25
381.733	119.25
381.958	118.25
382.184	124.25
382.409	116.25
382.634	107.25
382.86	116.25
383.085	137.25
383.31	106.25
383.535	121.25
383.761	105.25
383.986	111.25
384.211	112.25
384.436	110.25
384.662	148.25
384.887	137.25
385.112	145.25
385.337	152.25
385.562	142.25
385.787	131.25
386.013	156.25
386.238	153.25
386.463	141.25
386.688	151.25
386.913	137.25
387.138	155.25
387.363	125.25
387.588	125.25
387.813	134.25
388.038	157.25
388.263	152.25
388.488	153.25
388.713	102.25
388.938	98.25
389.163	87.25
389.387	103.25
389.612	105.25
389.837	91.25
390.062	99.25
390.287	97.25
390.512	94.25
390.736	77.25
390.961	93.25
391.186	94.25
391.411	105.25
391.636	95.25
391.86	85.25
392.085	79.25
392.31	82.25
392.534	79.25
392.759	70.25
392.984	91.25
393.208	87.25
393.433	86.25
393.658	97.25
393.882	86.25
394.107	99.25
394.331	82.25
394.556	89.25
394.78	101.25
395.005	98.25
395.229	87.25
395.454	81.25
395.678	81.25
395.903	89.25
396.127	90.25
396.352	91.25
396.576	76.25
396.801	84.25
397.025	92.25
397.249	90.25
397.474	89.25
397.698	78.25
397.922	85.25
398.147	102.25
398.371	81.25
398.595	88.25
398.82	81.25
399.044	82.25
399.268	83.25
399.492	80.25
399.717	79.25
399.941	88.25
400.165	83.25
400.389	82.25
400.613	90.25
400.837	86.25
401.062	98.25
401.286	78.25
401.51	94.25
401.734	82.25
401.958	102.25
402.182	125.25
402.406	117.25
402.63	105.25
402.854	99.25
403.078	76.25
403.302	79.25
403.526	81.25
403.75	82.25
403.974	84.25
404.198	98.25
404.422	96.25
404.645	89.25
404.869	83.25
405.093	83.25
405.317	100.25
405.541	111.25
405.765	89.25
405.988	99.25
406.212	140.25
406.436	179.25
406.66	132.25
406.883	104.25
407.107	103.25
407.331	107.25
407.555	111.25
407.778	95.25
408.002	78.25
408.226	84.25
408.449	76.25
408.673	90.25
408.896	83.25
409.12	89.25
409.344	89.25
409.567	93.25
409.791	94.25
410.014	93.25
410.238	103.25
410.461	95.25
410.685	103.25
410.908	94.25
411.132	113.25
411.355	103.25
411.578	101.25
411.802	87.25
412.025	91.25
412.249	98.25
412.472	86.25
412.695	83.25
412.919	83.25
413.142	95.25
413.365	100.25
413.589	92.25
413.812	88.25
414.035	97.25
414.258	102.25
414.482	95.25
414.705	92.25
414.928	89.25
415.151	84.25
415.374	91.25
415.597	93.25
415.821	95.25
416.044	92.25
416.267	87.25
416.49	97.25
416.713	92.25
416.936	94.25
417.159	75.25
417.382	86.25
417.605	91.25
417.828	94.25
418.051	81.25
418.274	88.25
418.497	83.25
418.72	90.25
418.943	94.25
419.166	92.25
419.389	83.25
419.611	95.25
419.834	102.25
420.057	91.25
420.28	109.25
420.503	91.25
420.726	89.25
420.948	79.25
421.171	95.25
421.394	100.25
421.617	102.25
421.839	97.25
422.062	93.25
422.285	94.25
422.507	118.25
422.73	110.25
422.953	93.25
423.175	100.25
423.398	90.25
423.621	80.25
423.843	79.25
424.066	87.25
424.288	98.25
424.511	101.25
424.733	81.25
424.956	103.25
425.178	91.25
425.401	87.25
425.623	101.25
425.846	88.25
426.068	82.25
426.291	85.25
426.513	84.25
426.735	94.25
426.958	89.25
427.18	97.25
427.402	126.25
427.625	154.25
427.847	129.25
428.069	132.25
428.292	93.25
428.514	78.25
428.736	84.25
428.958	71.25
429.181	78.25
429.403	85.25
429.625	97.25
429.847	86.25
430.069	90.25
430.292	88.25
430.514	78.25
430.736	84.25
430.958	86.25
431.18	90.25
431.402	93.25
431.624	71.25
431.846	71.25
432.068	91.25
432.29	96.25
432.512	83.25
432.734	82.25
432.956	80.25
433.178	91.25
433.4	88.25
433.622	87.25
433.844	79.25
434.066	79.25
434.287	85.25
434.509	77.25
434.731	95.25
434.953	93.25
435.175	70.25
435.397	99.25
435.618	87.25
435.84	106.25
436.062	111.25
436.284	97.25
436.505	83.25
436.727	101.25
436.949	109.25
437.17	81.25
437.392	95.25
437.614	95.25
437.835	88.25
438.057	100.25
438.278	95.25
438.5	90.25
438.721	119.25
438.943	103.25
439.165	93.25
439.386	75.25
439.608	89.25
439.829	107.25
440.05	115.25
440.272	135.25
440.493	101.25
440.715	96.25
440.936	87.25
441.158	113.25
441.379	94.25
441.6	87.25
441.822	92.25
442.043	92.25
442.264	100.25
442.486	86.25
442.707	91.25
442.928	93.25
443.149	117.25
443.371	126.25
443.592	94.25
443.813	93.25
444.034	106.25
444.255	86.25
444.476	69.25
444.698	96.25
444.919	92.25
445.14	137.25
445.361	118.25
445.582	99.25
445.803	111.25
446.024	114.25
446.245	113.25
446.466	107.25
446.687	75.25
446.908	75.25
447.129	105.25
447.35	90.25
447.571	79.25
447.792	80.25
448.013	78.25
448.234	87.25
448.455	93.25
448.675	110.25
448.896	118.25
449.117	100.25
449.338	89.25
449.559	123.25
449.779	118.25
450	88.25
450.221	88.25
450.442	92.25
450.662	83.25
450.883	94.25
451.104	94.25
451.324	87.25
451.545	79.25
451.766	86.25
451.986	94.25
452.207	73.25
452.428	82.25
452.648	102.25
452.869	103.25
453.089	78.25
453.31	94.25
453.53	102.25
453.751	80.25
453.971	101.25
454.192	92.25
454.412	87.25
454.633	85.25
454.853	95.25
455.073	80.25
455.294	85.25
455.514	93.25
455.734	92.25
455.955	71.25
456.175	87.25
456.395	94.25
456.616	92.25
456.836	86.25
457.056	106.25
457.276	86.25
457.497	72.25
457.717	77.25
457.937	81.25
458.157	79.25
458.377	85.25
458.598	99.25
458.818	125.25
459.038	148.25
459.258	110.25
459.478	78.25
459.698	76.25
459.918	78.25
460.138	108.25
460.358	98.25
460.578	95.25
460.798	96.25
461.018	89.25
461.238	77.25
461.458	87.25
461.678	88.25
461.898	89.25
462.118	96.25
462.338	81.25
462.558	95.25
462.777	76.25
462.997	89.25
463.217	74.25
463.437	84.25
463.657	70.25
463.876	92.25
464.096	94.25
464.316	78.25
464.536	99.25
464.755	91.25
464.975	97.25
465.195	135.25
465.414	127.25
465.634	89.25
465.854	90.25
466.073	78.25
466.293	85.25
466.512	88.25
466.732	77.25
466.951	93.25
467.171	92.25
467.391	95.25
467.61	98.25
467.829	96.25
468.049	124.25
468.268	142.25
468.488	93.25
468.707	81.25
468.927	94.25
469.146	83.25
469.365	87.25
469.585	77.25
469.804	92.25
470.023	95.25
470.243	89.25
470.462	95.25
470.681	93.25
470.901	86.25
471.12	75.25
471.339	81.25
471.558	76.25
471.777	90.25
471.997	107.25
472.216	168.25
472.435	293.25
472.654	133.25
472.873	87.25
473.092	81.25
473.311	83.25
473.53	85.25
473.749	80.25
473.968	88.25
474.187	115.25
474.406	90.25
474.625	101.25
474.844	82.25
475.063	73.25
475.282	93.25
475.501	99.25
475.72	92.25
475.939	91.25
476.158	86.25
476.377	96.25
476.596	86.25
476.814	69.25
477.033	88.25
477.252	96.25
477.471	86.25
477.69	91.25
477.908	87.25
478.127	95.25
478.346	93.25
478.564	87.25
478.783	87.25
479.002	69.25
479.22	93.25
479.439	94.25
479.658	91.25
479.876	90.25
480.095	75.25
480.313	92.25
480.532	93.25
480.751	108.25
480.969	175.25
481.188	496.25
481.406	285.25
481.624	94.25
481.843	97.25
482.061	89.25
482.28	79.25
482.498	94.25
482.717	80.25
482.935	82.25
483.153	97.25
483.372	78.25
483.59	88.25
483.808	91.25
484.027	93.25
484.245	88.25
484.463	90.25
484.681	94.25
484.9	101.25
485.118	84.25
485.336	97.25
485.554	107.25
485.772	117.25
485.99	115.25
486.209	109.25
486.427	95.25
486.645	103.25
486.863	101.25
487.081	99.25
487.299	88.25
487.517	98.25
487.735	99.25
487.953	84.25
488.171	84.25
488.389	97.25
488.607	94.25
488.825	84.25
489.043	85.25
489.261	89.25
489.479	93.25
489.696	90.25
489.914	91.25
490.132	84.25
490.35	91.25
490.568	96.25
490.786	79.25
491.003	82.25
491.221	87.25
491.439	97.25
491.657	84.25
491.874	94.25
492.092	95.25
492.31	92.25
492.527	91.25
492.745	80.25
492.963	84.25
493.18	84.25
493.398	84.25
493.615	93.25
493.833	99.25
494.05	87.25
494.268	91.25
494.485	85.25
494.703	93.25
494.92	92.25
495.138	90.25
495.355	89.25
495.573	95.25
495.79	94.25
496.008	92.25
496.225	97.25
496.442	83.25
496.66	99.25
496.877	89.25
497.094	87.25
497.312	91.25
497.529	101.25
497.746	89.25
497.963	90.25
498.181	97.25
498.398	91.25
498.615	102.25
498.832	106.25
499.049	90.25
499.267	92.25
499.484	93.25
499.701	86.25
499.918	93.25
500.135	86.25
500.352	77.25
500.569	97.25
500.786	89.25
501.003	90.25
501.22	84.25
501.437	92.25
501.654	77.25
501.871	86.25
502.088	82.25
502.305	93.25
502.522	97.25
502.739	85.25
502.956	86.25
503.172	90.25
503.389	102.25
503.606	100.25
503.823	98.25
504.04	106.25
504.256	86.25
504.473	93.25
504.69	90.25
504.907	77.25
505.123	77.25
505.34	91.25
505.557	83.25
505.773	87.25
505.99	75.25
506.207	85.25
506.423	94.25
506.64	70.25
506.856	91.25
507.073	96.25
507.289	91.25
507.506	78.25
507.722	115.25
507.939	99.25
508.155	98.25
508.372	96.25
508.588	105.25
508.805	93.25
509.021	94.25
509.238	89.25
509.454	86.25
509.67	97.25
509.887	113.25
510.103	118.25
510.319	177.25
510.536	555.25
510.752	1670.25
510.968	489.25
511.184	136.25
511.401	106.25
511.617	90.25
511.833	94.25
512.049	92.25
512.265	86.25
512.481	82.25
512.698	94.25
512.914	89.25
513.13	84.25
513.346	106.25
513.562	82.25
513.778	85.25
513.994	101.25
514.21	94.25
514.426	103.25
514.642	121.25
514.858	110.25
515.074	140.25
515.29	325.25
515.506	1013.25
515.721	397.25
515.937	138.25
516.153	98.25
