Data from Circ_1990_H10_HRD10591_00007.txt Node
Date: Wed Jan 03 11:55:05 EST 2024
User: Yrep
Spectrometer: HR+D1059
Trigger mode: 1
Integration Time (sec): 1.000000E-1
Scans to average: 1
Electric dark correction enabled: true
Nonlinearity correction enabled: false
Boxcar width: 0
XAxis mode: Wavelengths
Number of Pixels in Spectrum: 2048
>>>>>Begin Spectral Data<<<<<
223.165	-20.38
223.4	-20.38
223.635	-20.38
223.869	-11.38
224.104	-34.38
224.338	-29.38
224.573	-23.38
224.808	-9.38
225.042	-9.38
225.277	-0.38
225.511	1.62
225.746	1.62
225.98	23.62
226.215	18.62
226.449	16.62
226.683	16.62
226.918	42.62
227.152	16.62
227.387	50.62
227.621	25.62
227.856	55.62
228.09	47.62
228.324	56.62
228.559	62.62
228.793	69.62
229.027	57.62
229.262	62.62
229.496	68.62
229.73	76.62
229.964	75.62
230.199	77.62
230.433	68.62
230.667	85.62
230.901	69.62
231.136	65.62
231.37	76.62
231.604	83.62
231.838	77.62
232.072	76.62
232.306	79.62
232.541	100.62
232.775	77.62
233.009	78.62
233.243	75.62
233.477	86.62
233.711	73.62
233.945	68.62
234.179	69.62
234.413	93.62
234.647	79.62
234.881	79.62
235.115	84.62
235.349	61.62
235.583	78.62
235.817	77.62
236.051	68.62
236.285	72.62
236.519	73.62
236.753	87.62
236.987	69.62
237.221	83.62
237.455	87.62
237.689	68.62
237.922	80.62
238.156	69.62
238.39	73.62
238.624	65.62
238.858	84.62
239.091	82.62
239.325	79.62
239.559	73.62
239.793	84.62
240.027	82.62
240.26	85.62
240.494	82.62
240.728	81.62
240.961	68.62
241.195	78.62
241.429	67.62
241.662	72.62
241.896	78.62
242.13	82.62
242.363	68.62
242.597	89.62
242.83	65.62
243.064	69.62
243.298	80.62
243.531	78.62
243.765	71.62
243.998	75.62
244.232	75.62
244.465	96.62
244.699	73.62
244.932	76.62
245.166	87.62
245.399	93.62
245.633	79.62
245.866	86.62
246.099	88.62
246.333	91.62
246.566	69.62
246.8	77.62
247.033	83.62
247.266	68.62
247.5	69.62
247.733	84.62
247.966	60.62
248.2	81.62
248.433	67.62
248.666	85.62
248.899	97.62
249.133	78.62
249.366	97.62
249.599	93.62
249.832	75.62
250.066	86.62
250.299	77.62
250.532	79.62
250.765	69.62
250.998	91.62
251.231	75.62
251.465	81.62
251.698	84.62
251.931	91.62
252.164	77.62
252.397	80.62
252.63	80.62
252.863	88.62
253.096	83.62
253.329	83.62
253.562	63.62
253.795	80.62
254.028	82.62
254.261	97.62
254.494	79.62
254.727	84.62
254.96	91.62
255.193	78.62
255.426	85.62
255.659	91.62
255.892	77.62
256.124	78.62
256.357	72.62
256.59	81.62
256.823	88.62
257.056	87.62
257.289	88.62
257.521	77.62
257.754	91.62
257.987	93.62
258.22	83.62
258.452	69.62
258.685	75.62
258.918	80.62
259.151	79.62
259.383	75.62
259.616	82.62
259.849	69.62
260.081	85.62
260.314	77.62
260.547	80.62
260.779	75.62
261.012	93.62
261.244	84.62
261.477	91.62
261.71	103.62
261.942	111.62
262.175	108.62
262.407	96.62
262.64	92.62
262.872	82.62
263.105	81.62
263.337	90.62
263.57	78.62
263.802	96.62
264.035	84.62
264.267	71.62
264.499	72.62
264.732	93.62
264.964	91.62
265.197	83.62
265.429	79.62
265.661	94.62
265.894	77.62
266.126	93.62
266.358	70.62
266.591	85.62
266.823	89.62
267.055	85.62
267.287	62.62
267.52	83.62
267.752	81.62
267.984	85.62
268.216	83.62
268.448	84.62
268.681	86.62
268.913	78.62
269.145	87.62
269.377	82.62
269.609	88.62
269.841	98.62
270.073	88.62
270.306	88.62
270.538	75.62
270.77	88.62
271.002	80.62
271.234	91.62
271.466	71.62
271.698	87.62
271.93	78.62
272.162	72.62
272.394	95.62
272.626	91.62
272.858	83.62
273.09	91.62
273.322	80.62
273.553	95.62
273.785	75.62
274.017	96.62
274.249	85.62
274.481	78.62
274.713	79.62
274.945	91.62
275.176	100.62
275.408	75.62
275.64	89.62
275.872	88.62
276.104	91.62
276.335	73.62
276.567	79.62
276.799	88.62
277.031	100.62
277.262	88.62
277.494	94.62
277.726	84.62
277.957	95.62
278.189	92.62
278.421	86.62
278.652	92.62
278.884	86.62
279.115	84.62
279.347	92.62
279.579	84.62
279.81	85.62
280.042	92.62
280.273	100.62
280.505	84.62
280.736	87.62
280.968	81.62
281.199	95.62
281.431	96.62
281.662	90.62
281.894	107.62
282.125	96.62
282.356	97.62
282.588	107.62
282.819	100.62
283.051	87.62
283.282	79.62
283.513	92.62
283.745	103.62
283.976	85.62
284.207	85.62
284.439	82.62
284.67	78.62
284.901	89.62
285.132	88.62
285.364	88.62
285.595	89.62
285.826	82.62
286.057	81.62
286.288	93.62
286.52	86.62
286.751	85.62
286.982	92.62
287.213	86.62
287.444	87.62
287.675	90.62
287.906	103.62
288.138	84.62
288.369	90.62
288.6	77.62
288.831	78.62
289.062	79.62
289.293	85.62
289.524	110.62
289.755	75.62
289.986	94.62
290.217	77.62
290.448	84.62
290.679	83.62
290.91	103.62
291.141	104.62
291.371	86.62
291.602	88.62
291.833	88.62
292.064	86.62
292.295	80.62
292.526	82.62
292.757	91.62
292.987	95.62
293.218	84.62
293.449	83.62
293.68	88.62
293.91	92.62
294.141	101.62
294.372	102.62
294.603	94.62
294.833	87.62
295.064	89.62
295.295	84.62
295.525	106.62
295.756	113.62
295.987	107.62
296.217	124.62
296.448	113.62
296.679	102.62
296.909	95.62
297.14	87.62
297.37	93.62
297.601	75.62
297.831	91.62
298.062	108.62
298.292	94.62
298.523	90.62
298.753	85.62
298.984	92.62
299.214	90.62
299.445	81.62
299.675	92.62
299.905	98.62
300.136	105.62
300.366	92.62
300.597	88.62
300.827	95.62
301.057	97.62
301.288	100.62
301.518	88.62
301.748	84.62
301.979	95.62
302.209	80.62
302.439	92.62
302.669	89.62
302.9	80.62
303.13	97.62
303.36	83.62
303.59	100.62
303.82	108.62
304.051	90.62
304.281	95.62
304.511	91.62
304.741	109.62
304.971	75.62
305.201	82.62
305.431	93.62
305.661	86.62
305.891	100.62
306.121	100.62
306.352	109.62
306.582	113.62
306.812	96.62
307.042	91.62
307.272	85.62
307.502	109.62
307.731	103.62
307.961	103.62
308.191	91.62
308.421	82.62
308.651	91.62
308.881	99.62
309.111	79.62
309.341	104.62
309.571	99.62
309.8	94.62
310.03	102.62
310.26	111.62
310.49	105.62
310.72	91.62
310.949	97.62
311.179	103.62
311.409	92.62
311.639	93.62
311.868	95.62
312.098	95.62
312.328	89.62
312.557	94.62
312.787	100.62
313.017	113.62
313.246	103.62
313.476	94.62
313.706	108.62
313.935	91.62
314.165	99.62
314.394	94.62
314.624	93.62
314.853	96.62
315.083	108.62
315.312	94.62
315.542	101.62
315.771	101.62
316.001	97.62
316.23	98.62
316.46	101.62
316.689	88.62
316.919	91.62
317.148	96.62
317.377	85.62
317.607	92.62
317.836	90.62
318.065	109.62
318.295	82.62
318.524	88.62
318.753	90.62
318.983	102.62
319.212	94.62
319.441	99.62
319.67	95.62
319.9	97.62
320.129	89.62
320.358	90.62
320.587	97.62
320.816	96.62
321.046	86.62
321.275	93.62
321.504	83.62
321.733	86.62
321.962	93.62
322.191	92.62
322.42	88.62
322.649	112.62
322.878	102.62
323.108	108.62
323.337	116.62
323.566	119.62
323.795	132.62
324.024	182.62
324.253	303.62
324.482	651.62
324.71	1318.62
324.939	1765.62
325.168	638.62
325.397	213.62
325.626	139.62
325.855	109.62
326.084	126.62
326.313	121.62
326.542	144.62
326.77	191.62
326.999	380.62
327.228	751.62
327.457	1361.62
327.686	1063.62
327.914	298.62
328.143	183.62
328.372	163.62
328.6	132.62
328.829	105.62
329.058	89.62
329.287	101.62
329.515	110.62
329.744	107.62
329.972	119.62
330.201	160.62
330.43	195.62
330.658	144.62
330.887	131.62
331.115	115.62
331.344	99.62
331.572	101.62
331.801	112.62
332.03	107.62
332.258	95.62
332.486	89.62
332.715	99.62
332.943	104.62
333.172	102.62
333.4	95.62
333.629	120.62
333.857	123.62
334.085	124.62
334.314	151.62
334.542	229.62
334.771	217.62
334.999	115.62
335.227	103.62
335.455	92.62
335.684	107.62
335.912	102.62
336.14	113.62
336.369	100.62
336.597	98.62
336.825	95.62
337.053	95.62
337.281	113.62
337.51	106.62
337.738	100.62
337.966	87.62
338.194	92.62
338.422	93.62
338.65	100.62
338.878	102.62
339.106	83.62
339.334	88.62
339.562	101.62
339.79	101.62
340.018	80.62
340.246	87.62
340.474	89.62
340.702	82.62
340.93	96.62
341.158	81.62
341.386	94.62
341.614	93.62
341.842	87.62
342.07	87.62
342.298	93.62
342.526	88.62
342.754	86.62
342.981	90.62
343.209	100.62
343.437	102.62
343.665	89.62
343.893	98.62
344.12	94.62
344.348	105.62
344.576	99.62
344.804	95.62
345.031	96.62
345.259	109.62
345.487	92.62
345.714	103.62
345.942	95.62
346.17	87.62
346.397	94.62
346.625	102.62
346.853	76.62
347.08	83.62
347.308	84.62
347.535	79.62
347.763	91.62
347.99	106.62
348.218	115.62
348.445	98.62
348.673	109.62
348.9	88.62
349.128	87.62
349.355	93.62
349.583	91.62
349.81	89.62
350.037	103.62
350.265	114.62
350.492	92.62
350.72	92.62
350.947	99.62
351.174	115.62
351.402	96.62
351.629	98.62
351.856	97.62
352.083	100.62
352.311	96.62
352.538	104.62
352.765	103.62
352.992	83.62
353.22	119.62
353.447	101.62
353.674	103.62
353.901	96.62
354.128	105.62
354.355	87.62
354.583	100.62
354.81	104.62
355.037	115.62
355.264	92.62
355.491	103.62
355.718	99.62
355.945	101.62
356.172	88.62
356.399	104.62
356.626	99.62
356.853	89.62
357.08	91.62
357.307	105.62
357.534	86.62
357.761	113.62
357.988	104.62
358.215	101.62
358.441	107.62
358.668	104.62
358.895	104.62
359.122	100.62
359.349	90.62
359.576	82.62
359.802	98.62
360.029	110.62
360.256	92.62
360.483	105.62
360.709	90.62
360.936	93.62
361.163	99.62
361.39	92.62
361.616	82.62
361.843	91.62
362.07	94.62
362.296	84.62
362.523	86.62
362.749	93.62
362.976	83.62
363.203	98.62
363.429	83.62
363.656	91.62
363.882	94.62
364.109	96.62
364.335	98.62
364.562	96.62
364.788	85.62
365.015	94.62
365.241	97.62
365.468	86.62
365.694	98.62
365.92	87.62
366.147	93.62
366.373	90.62
366.599	93.62
366.826	92.62
367.052	87.62
367.278	86.62
367.505	81.62
367.731	95.62
367.957	97.62
368.184	87.62
368.41	91.62
368.636	84.62
368.862	106.62
369.089	91.62
369.315	87.62
369.541	87.62
369.767	97.62
369.993	100.62
370.219	95.62
370.445	88.62
370.672	101.62
370.898	96.62
371.124	89.62
371.35	75.62
371.576	77.62
371.802	93.62
372.028	83.62
372.254	90.62
372.48	88.62
372.706	87.62
372.932	77.62
373.158	105.62
373.384	98.62
373.61	99.62
373.835	85.62
374.061	107.62
374.287	91.62
374.513	96.62
374.739	116.62
374.965	91.62
375.191	98.62
375.416	92.62
375.642	91.62
375.868	85.62
376.094	104.62
376.319	93.62
376.545	92.62
376.771	79.62
376.997	92.62
377.222	86.62
377.448	112.62
377.674	99.62
377.899	101.62
378.125	92.62
378.35	96.62
378.576	87.62
378.802	87.62
379.027	105.62
379.253	99.62
379.478	107.62
379.704	115.62
379.929	116.62
380.155	116.62
380.38	111.62
380.606	97.62
380.831	116.62
381.057	104.62
381.282	120.62
381.507	108.62
381.733	116.62
381.958	123.62
382.184	120.62
382.409	121.62
382.634	123.62
382.86	119.62
383.085	137.62
383.31	125.62
383.535	135.62
383.761	135.62
383.986	125.62
384.211	133.62
384.436	134.62
384.662	125.62
384.887	151.62
385.112	167.62
385.337	146.62
385.562	142.62
385.787	148.62
386.013	155.62
386.238	172.62
386.463	142.62
386.688	165.62
386.913	167.62
387.138	165.62
387.363	148.62
387.588	143.62
387.813	145.62
388.038	172.62
388.263	197.62
388.488	156.62
388.713	98.62
388.938	101.62
389.163	94.62
389.387	95.62
389.612	96.62
389.837	93.62
390.062	87.62
390.287	87.62
390.512	80.62
390.736	87.62
390.961	104.62
391.186	102.62
391.411	79.62
391.636	98.62
391.86	92.62
392.085	100.62
392.31	95.62
392.534	95.62
392.759	75.62
392.984	85.62
393.208	97.62
393.433	104.62
393.658	102.62
393.882	95.62
394.107	97.62
394.331	90.62
394.556	96.62
394.78	72.62
395.005	100.62
395.229	92.62
395.454	88.62
395.678	80.62
395.903	85.62
396.127	78.62
396.352	92.62
396.576	91.62
396.801	90.62
397.025	101.62
397.249	78.62
397.474	97.62
397.698	96.62
397.922	88.62
398.147	83.62
398.371	91.62
398.595	97.62
398.82	91.62
399.044	87.62
399.268	95.62
399.492	100.62
399.717	94.62
399.941	95.62
400.165	105.62
400.389	95.62
400.613	80.62
400.837	75.62
401.062	104.62
401.286	98.62
401.51	88.62
401.734	102.62
401.958	108.62
402.182	123.62
402.406	129.62
402.63	113.62
402.854	93.62
403.078	103.62
403.302	93.62
403.526	85.62
403.75	84.62
403.974	77.62
404.198	76.62
404.422	99.62
404.645	92.62
404.869	94.62
405.093	91.62
405.317	100.62
405.541	106.62
405.765	99.62
405.988	118.62
406.212	133.62
406.436	181.62
406.66	131.62
406.883	83.62
407.107	96.62
407.331	84.62
407.555	88.62
407.778	88.62
408.002	103.62
408.226	98.62
408.449	96.62
408.673	80.62
408.896	83.62
409.12	84.62
409.344	89.62
409.567	81.62
409.791	84.62
410.014	95.62
410.238	92.62
410.461	96.62
410.685	105.62
410.908	96.62
411.132	100.62
411.355	100.62
411.578	88.62
411.802	86.62
412.025	87.62
412.249	88.62
412.472	109.62
412.695	100.62
412.919	102.62
413.142	96.62
413.365	89.62
413.589	88.62
413.812	91.62
414.035	91.62
414.258	91.62
414.482	85.62
414.705	100.62
414.928	90.62
415.151	102.62
415.374	97.62
415.597	96.62
415.821	95.62
416.044	102.62
416.267	94.62
416.49	95.62
416.713	101.62
416.936	96.62
417.159	96.62
417.382	89.62
417.605	89.62
417.828	87.62
418.051	92.62
418.274	100.62
418.497	83.62
418.72	95.62
418.943	104.62
419.166	95.62
419.389	93.62
419.611	100.62
419.834	99.62
420.057	101.62
420.28	82.62
420.503	81.62
420.726	85.62
420.948	80.62
421.171	87.62
421.394	96.62
421.617	88.62
421.839	94.62
422.062	81.62
422.285	93.62
422.507	104.62
422.73	105.62
422.953	100.62
423.175	97.62
423.398	85.62
423.621	83.62
423.843	91.62
424.066	87.62
424.288	95.62
424.511	88.62
424.733	83.62
424.956	100.62
425.178	100.62
425.401	100.62
425.623	99.62
425.846	97.62
426.068	97.62
426.291	88.62
426.513	82.62
426.735	82.62
426.958	86.62
427.18	97.62
427.402	131.62
427.625	145.62
427.847	132.62
428.069	121.62
428.292	89.62
428.514	100.62
428.736	94.62
428.958	77.62
429.181	67.62
429.403	75.62
429.625	88.62
429.847	85.62
430.069	88.62
430.292	87.62
430.514	82.62
430.736	76.62
430.958	87.62
431.18	98.62
431.402	85.62
431.624	93.62
431.846	85.62
432.068	91.62
432.29	84.62
432.512	84.62
432.734	93.62
432.956	91.62
433.178	105.62
433.4	103.62
433.622	87.62
433.844	89.62
434.066	98.62
434.287	88.62
434.509	100.62
434.731	84.62
434.953	87.62
435.175	98.62
435.397	103.62
435.618	89.62
435.84	112.62
436.062	118.62
436.284	115.62
436.505	91.62
436.727	88.62
436.949	86.62
437.17	87.62
437.392	86.62
437.614	79.62
437.835	89.62
438.057	95.62
438.278	101.62
438.5	104.62
438.721	110.62
438.943	95.62
439.165	102.62
439.386	88.62
439.608	95.62
439.829	98.62
440.05	93.62
440.272	117.62
440.493	109.62
440.715	77.62
440.936	77.62
441.158	85.62
441.379	69.62
441.6	87.62
441.822	83.62
442.043	80.62
442.264	81.62
442.486	88.62
442.707	81.62
442.928	95.62
443.149	118.62
443.371	115.62
443.592	103.62
443.813	106.62
444.034	108.62
444.255	104.62
444.476	82.62
444.698	80.62
444.919	84.62
445.14	142.62
445.361	117.62
445.582	109.62
445.803	104.62
446.024	111.62
446.245	128.62
446.466	102.62
446.687	82.62
446.908	95.62
447.129	74.62
447.35	73.62
447.571	91.62
447.792	81.62
448.013	91.62
448.234	98.62
448.455	103.62
448.675	98.62
448.896	109.62
449.117	103.62
449.338	101.62
449.559	124.62
449.779	109.62
450	91.62
450.221	76.62
450.442	80.62
450.662	92.62
450.883	78.62
451.104	106.62
451.324	76.62
451.545	87.62
451.766	88.62
451.986	88.62
452.207	75.62
452.428	78.62
452.648	100.62
452.869	95.62
453.089	104.62
453.31	104.62
453.53	70.62
453.751	84.62
453.971	98.62
454.192	98.62
454.412	97.62
454.633	97.62
454.853	84.62
455.073	84.62
455.294	80.62
455.514	106.62
455.734	98.62
455.955	75.62
456.175	90.62
456.395	89.62
456.616	80.62
456.836	96.62
457.056	85.62
457.276	76.62
457.497	87.62
457.717	80.62
457.937	94.62
458.157	83.62
458.377	91.62
458.598	107.62
458.818	126.62
459.038	120.62
459.258	98.62
459.478	83.62
459.698	82.62
459.918	93.62
460.138	82.62
460.358	91.62
460.578	92.62
460.798	75.62
461.018	79.62
461.238	75.62
461.458	103.62
461.678	91.62
461.898	94.62
462.118	85.62
462.338	95.62
462.558	72.62
462.777	88.62
462.997	81.62
463.217	84.62
463.437	93.62
463.657	85.62
463.876	102.62
464.096	80.62
464.316	83.62
464.536	102.62
464.755	81.62
464.975	81.62
465.195	131.62
465.414	129.62
465.634	89.62
465.854	81.62
466.073	92.62
466.293	72.62
466.512	72.62
466.732	91.62
466.951	83.62
467.171	100.62
467.391	100.62
467.61	92.62
467.829	95.62
468.049	135.62
468.268	135.62
468.488	94.62
468.707	75.62
468.927	93.62
469.146	72.62
469.365	84.62
469.585	89.62
469.804	97.62
470.023	93.62
470.243	91.62
470.462	91.62
470.681	118.62
470.901	83.62
471.12	92.62
471.339	84.62
471.558	81.62
471.777	100.62
471.997	112.62
472.216	173.62
472.435	274.62
472.654	114.62
472.873	97.62
473.092	98.62
473.311	94.62
473.53	90.62
473.749	83.62
473.968	91.62
474.187	94.62
474.406	96.62
474.625	92.62
474.844	84.62
475.063	73.62
475.282	86.62
475.501	86.62
475.72	96.62
475.939	99.62
476.158	85.62
476.377	88.62
476.596	83.62
476.814	95.62
477.033	85.62
477.252	84.62
477.471	86.62
477.69	88.62
477.908	95.62
478.127	83.62
478.346	96.62
478.564	92.62
478.783	92.62
479.002	89.62
479.22	90.62
479.439	92.62
479.658	94.62
479.876	96.62
480.095	108.62
480.313	87.62
480.532	101.62
480.751	89.62
480.969	170.62
481.188	437.62
481.406	287.62
481.624	114.62
481.843	95.62
482.061	98.62
482.28	86.62
482.498	90.62
482.717	87.62
482.935	92.62
483.153	86.62
483.372	98.62
483.59	85.62
483.808	83.62
484.027	97.62
484.245	87.62
484.463	87.62
484.681	91.62
484.9	104.62
485.118	102.62
485.336	89.62
485.554	105.62
485.772	99.62
485.99	118.62
486.209	109.62
486.427	105.62
486.645	115.62
486.863	116.62
487.081	99.62
487.299	103.62
487.517	113.62
487.735	105.62
487.953	89.62
488.171	73.62
488.389	75.62
488.607	94.62
488.825	96.62
489.043	96.62
489.261	90.62
489.479	95.62
489.696	85.62
489.914	92.62
490.132	93.62
490.35	99.62
490.568	84.62
490.786	92.62
491.003	83.62
491.221	94.62
491.439	85.62
491.657	76.62
491.874	85.62
492.092	94.62
492.31	90.62
492.527	100.62
492.745	112.62
492.963	96.62
493.18	101.62
493.398	86.62
493.615	107.62
493.833	116.62
494.05	86.62
494.268	101.62
494.485	104.62
494.703	85.62
494.92	105.62
495.138	91.62
495.355	104.62
495.573	103.62
495.79	96.62
496.008	102.62
496.225	91.62
496.442	98.62
496.66	94.62
496.877	87.62
497.094	98.62
497.312	84.62
497.529	69.62
497.746	89.62
497.963	95.62
498.181	79.62
498.398	87.62
498.615	105.62
498.832	97.62
499.049	100.62
499.267	103.62
499.484	88.62
499.701	90.62
499.918	89.62
500.135	98.62
500.352	94.62
500.569	98.62
500.786	96.62
501.003	84.62
501.22	104.62
501.437	86.62
501.654	107.62
501.871	100.62
502.088	90.62
502.305	88.62
502.522	79.62
502.739	80.62
502.956	102.62
503.172	79.62
503.389	82.62
503.606	96.62
503.823	109.62
504.04	96.62
504.256	83.62
504.473	81.62
504.69	95.62
504.907	94.62
505.123	88.62
505.34	77.62
505.557	81.62
505.773	96.62
505.99	98.62
506.207	90.62
506.423	88.62
506.64	77.62
506.856	91.62
507.073	101.62
507.289	85.62
507.506	117.62
507.722	102.62
507.939	107.62
508.155	93.62
508.372	87.62
508.588	86.62
508.805	94.62
509.021	93.62
509.238	88.62
509.454	69.62
509.67	111.62
509.887	112.62
510.103	118.62
510.319	187.62
510.536	559.62
510.752	1677.62
510.968	503.62
511.184	140.62
511.401	97.62
511.617	95.62
511.833	94.62
512.049	87.62
512.265	90.62
512.481	107.62
512.698	73.62
512.914	75.62
513.13	100.62
513.346	88.62
513.562	101.62
513.778	92.62
513.994	94.62
514.21	108.62
514.426	113.62
514.642	130.62
514.858	115.62
515.074	149.62
