Data from Circ_1990_H10_HRD10591_00095.txt Node
Date: Wed Jan 03 11:55:23 EST 2024
User: Yrep
Spectrometer: HR+D1059
Trigger mode: 1
Integration Time (sec): 1.000000E-1
Scans to average: 1
Electric dark correction enabled: true
Nonlinearity correction enabled: false
Boxcar width: 0
XAxis mode: Wavelengths
Number of Pixels in Spectrum: 2048
>>>>>Begin Spectral Data<<<<<
223.165	-9.31
223.4	-9.31
223.635	-9.31
223.869	-18.31
224.104	-18.31
224.338	-22.31
224.573	-24.31
224.808	-23.31
225.042	1.69
225.277	-11.31
225.511	6.69
225.746	12.69
225.98	-5.31
226.215	7.69
226.449	16.69
226.683	17.69
226.918	25.69
227.152	43.69
227.387	48.69
227.621	38.69
227.856	45.69
228.09	50.69
228.324	48.69
228.559	61.69
228.793	63.69
229.027	64.69
229.262	72.69
229.496	82.69
229.73	80.69
229.964	92.69
230.199	83.69
230.433	83.69
230.667	93.69
230.901	85.69
231.136	90.69
231.37	77.69
231.604	85.69
231.838	90.69
232.072	77.69
232.306	73.69
232.541	78.69
232.775	74.69
233.009	81.69
233.243	89.69
233.477	83.69
233.711	76.69
233.945	87.69
234.179	78.69
234.413	71.69
234.647	86.69
234.881	90.69
235.115	80.69
235.349	77.69
235.583	85.69
235.817	78.69
236.051	69.69
236.285	76.69
236.519	65.69
236.753	84.69
236.987	69.69
237.221	82.69
237.455	89.69
237.689	73.69
237.922	68.69
238.156	80.69
238.39	72.69
238.624	82.69
238.858	85.69
239.091	89.69
239.325	77.69
239.559	80.69
239.793	89.69
240.027	89.69
240.26	94.69
240.494	88.69
240.728	82.69
240.961	97.69
241.195	71.69
241.429	75.69
241.662	81.69
241.896	84.69
242.13	71.69
242.363	69.69
242.597	88.69
242.83	87.69
243.064	93.69
243.298	82.69
243.531	88.69
243.765	76.69
243.998	75.69
244.232	79.69
244.465	89.69
244.699	75.69
244.932	66.69
245.166	72.69
245.399	81.69
245.633	80.69
245.866	79.69
246.099	83.69
246.333	100.69
246.566	76.69
246.8	67.69
247.033	83.69
247.266	75.69
247.5	66.69
247.733	76.69
247.966	77.69
248.2	88.69
248.433	94.69
248.666	77.69
248.899	95.69
249.133	91.69
249.366	100.69
249.599	79.69
249.832	71.69
250.066	73.69
250.299	76.69
250.532	90.69
250.765	68.69
250.998	84.69
251.231	71.69
251.465	68.69
251.698	77.69
251.931	87.69
252.164	80.69
252.397	79.69
252.63	78.69
252.863	89.69
253.096	79.69
253.329	85.69
253.562	83.69
253.795	78.69
254.028	90.69
254.261	101.69
254.494	90.69
254.727	80.69
254.96	94.69
255.193	80.69
255.426	93.69
255.659	76.69
255.892	86.69
256.124	89.69
256.357	80.69
256.59	84.69
256.823	86.69
257.056	77.69
257.289	74.69
257.521	87.69
257.754	86.69
257.987	82.69
258.22	93.69
258.452	82.69
258.685	85.69
258.918	83.69
259.151	74.69
259.383	86.69
259.616	88.69
259.849	67.69
260.081	76.69
260.314	91.69
260.547	83.69
260.779	84.69
261.012	84.69
261.244	93.69
261.477	91.69
261.71	96.69
261.942	108.69
262.175	116.69
262.407	81.69
262.64	91.69
262.872	88.69
263.105	81.69
263.337	90.69
263.57	87.69
263.802	96.69
264.035	94.69
264.267	81.69
264.499	71.69
264.732	89.69
264.964	92.69
265.197	90.69
265.429	78.69
265.661	94.69
265.894	89.69
266.126	86.69
266.358	80.69
266.591	90.69
266.823	94.69
267.055	83.69
267.287	85.69
267.52	94.69
267.752	86.69
267.984	85.69
268.216	78.69
268.448	86.69
268.681	85.69
268.913	81.69
269.145	83.69
269.377	90.69
269.609	77.69
269.841	90.69
270.073	88.69
270.306	87.69
270.538	83.69
270.77	70.69
271.002	91.69
271.234	79.69
271.466	95.69
271.698	90.69
271.93	88.69
272.162	97.69
272.394	97.69
272.626	88.69
272.858	78.69
273.09	95.69
273.322	78.69
273.553	89.69
273.785	85.69
274.017	89.69
274.249	90.69
274.481	94.69
274.713	87.69
274.945	79.69
275.176	85.69
275.408	78.69
275.64	97.69
275.872	95.69
276.104	101.69
276.335	82.69
276.567	88.69
276.799	123.69
277.031	122.69
277.262	118.69
277.494	103.69
277.726	93.69
277.957	110.69
278.189	72.69
278.421	94.69
278.652	93.69
278.884	90.69
279.115	88.69
279.347	87.69
279.579	88.69
279.81	106.69
280.042	120.69
280.273	142.69
280.505	103.69
280.736	96.69
280.968	90.69
281.199	84.69
281.431	92.69
281.662	95.69
281.894	91.69
282.125	96.69
282.356	105.69
282.588	133.69
282.819	127.69
283.051	92.69
283.282	87.69
283.513	93.69
283.745	88.69
283.976	87.69
284.207	90.69
284.439	84.69
284.67	81.69
284.901	88.69
285.132	79.69
285.364	85.69
285.595	82.69
285.826	80.69
286.057	84.69
286.288	82.69
286.52	88.69
286.751	97.69
286.982	78.69
287.213	86.69
287.444	72.69
287.675	78.69
287.906	93.69
288.138	90.69
288.369	94.69
288.6	92.69
288.831	99.69
289.062	80.69
289.293	87.69
289.524	93.69
289.755	78.69
289.986	99.69
290.217	86.69
290.448	91.69
290.679	94.69
290.91	89.69
291.141	96.69
291.371	88.69
291.602	80.69
291.833	70.69
292.064	88.69
292.295	102.69
292.526	91.69
292.757	113.69
292.987	71.69
293.218	94.69
293.449	78.69
293.68	94.69
293.91	93.69
294.141	89.69
294.372	82.69
294.603	82.69
294.833	95.69
295.064	87.69
295.295	86.69
295.525	97.69
295.756	120.69
295.987	110.69
296.217	130.69
296.448	117.69
296.679	93.69
296.909	93.69
297.14	88.69
297.37	94.69
297.601	95.69
297.831	80.69
298.062	98.69
298.292	98.69
298.523	93.69
298.753	76.69
298.984	91.69
299.214	92.69
299.445	86.69
299.675	101.69
299.905	102.69
300.136	84.69
300.366	100.69
300.597	83.69
300.827	89.69
301.057	93.69
301.288	101.69
301.518	90.69
301.748	98.69
301.979	112.69
302.209	97.69
302.439	103.69
302.669	87.69
302.9	87.69
303.13	80.69
303.36	103.69
303.59	106.69
303.82	118.69
304.051	100.69
304.281	97.69
304.511	91.69
304.741	92.69
304.971	102.69
305.201	91.69
305.431	92.69
305.661	86.69
305.891	80.69
306.121	81.69
306.352	112.69
306.582	108.69
306.812	111.69
307.042	88.69
307.272	106.69
307.502	121.69
307.731	121.69
307.961	98.69
308.191	97.69
308.421	84.69
308.651	87.69
308.881	78.69
309.111	97.69
309.341	100.69
309.571	113.69
309.8	105.69
310.03	97.69
310.26	89.69
310.49	89.69
310.72	95.69
310.949	116.69
311.179	101.69
311.409	95.69
311.639	89.69
311.868	97.69
312.098	113.69
312.328	102.69
312.557	93.69
312.787	115.69
313.017	102.69
313.246	87.69
313.476	96.69
313.706	88.69
313.935	82.69
314.165	101.69
314.394	92.69
314.624	92.69
314.853	96.69
315.083	84.69
315.312	93.69
315.542	89.69
315.771	101.69
316.001	97.69
316.23	87.69
316.46	82.69
316.689	94.69
316.919	101.69
317.148	99.69
317.377	108.69
317.607	101.69
317.836	88.69
318.065	89.69
318.295	88.69
318.524	89.69
318.753	104.69
318.983	96.69
319.212	97.69
319.441	105.69
319.67	96.69
319.9	92.69
320.129	87.69
320.358	90.69
320.587	97.69
320.816	106.69
321.046	103.69
321.275	104.69
321.504	98.69
321.733	94.69
321.962	101.69
322.191	103.69
322.42	93.69
322.649	106.69
322.878	99.69
323.108	125.69
323.337	129.69
323.566	141.69
323.795	136.69
324.024	208.69
324.253	391.69
324.482	833.69
324.71	1655.69
324.939	2224.69
325.168	792.69
325.397	250.69
325.626	143.69
325.855	133.69
326.084	125.69
326.313	131.69
326.542	163.69
326.77	233.69
326.999	451.69
327.228	919.69
327.457	1659.69
327.686	1369.69
327.914	412.69
328.143	290.69
328.372	317.69
328.6	201.69
328.829	140.69
329.058	137.69
329.287	141.69
329.515	119.69
329.744	147.69
329.972	229.69
330.201	423.69
330.43	547.69
330.658	277.69
330.887	194.69
331.115	153.69
331.344	111.69
331.572	103.69
331.801	103.69
332.03	110.69
332.258	94.69
332.486	90.69
332.715	100.69
332.943	108.69
333.172	110.69
333.4	113.69
333.629	124.69
333.857	153.69
334.085	220.69
334.314	382.69
334.542	681.69
334.771	631.69
334.999	208.69
335.227	130.69
335.455	104.69
335.684	103.69
335.912	102.69
336.14	100.69
336.369	103.69
336.597	108.69
336.825	104.69
337.053	103.69
337.281	97.69
337.51	92.69
337.738	102.69
337.966	96.69
338.194	97.69
338.422	96.69
338.65	102.69
338.878	90.69
339.106	99.69
339.334	100.69
339.562	97.69
339.79	87.69
340.018	82.69
340.246	86.69
340.474	96.69
340.702	92.69
340.93	101.69
341.158	105.69
341.386	102.69
341.614	84.69
341.842	90.69
342.07	100.69
342.298	72.69
342.526	72.69
342.754	84.69
342.981	89.69
343.209	92.69
343.437	103.69
343.665	98.69
343.893	96.69
344.12	84.69
344.348	92.69
344.576	108.69
344.804	92.69
345.031	100.69
345.259	100.69
345.487	90.69
345.714	102.69
345.942	90.69
346.17	94.69
346.397	96.69
346.625	90.69
346.853	100.69
347.08	95.69
347.308	99.69
347.535	87.69
347.763	107.69
347.99	85.69
348.218	96.69
348.445	94.69
348.673	118.69
348.9	101.69
349.128	92.69
349.355	80.69
349.583	97.69
349.81	102.69
350.037	102.69
350.265	97.69
350.492	88.69
350.72	83.69
350.947	117.69
351.174	116.69
351.402	108.69
351.629	109.69
351.856	100.69
352.083	101.69
352.311	117.69
352.538	102.69
352.765	105.69
352.992	93.69
353.22	109.69
353.447	107.69
353.674	110.69
353.901	95.69
354.128	99.69
354.355	86.69
354.583	98.69
354.81	96.69
355.037	99.69
355.264	88.69
355.491	90.69
355.718	93.69
355.945	98.69
356.172	86.69
356.399	99.69
356.626	101.69
356.853	101.69
357.08	96.69
357.307	115.69
357.534	103.69
357.761	96.69
357.988	88.69
358.215	101.69
358.441	91.69
358.668	94.69
358.895	90.69
359.122	100.69
359.349	90.69
359.576	82.69
359.802	91.69
360.029	103.69
360.256	112.69
360.483	105.69
360.709	92.69
360.936	108.69
361.163	104.69
361.39	99.69
361.616	93.69
361.843	95.69
362.07	101.69
362.296	87.69
362.523	92.69
362.749	85.69
362.976	88.69
363.203	84.69
363.429	94.69
363.656	90.69
363.882	99.69
364.109	80.69
364.335	86.69
364.562	93.69
364.788	96.69
365.015	96.69
365.241	100.69
365.468	98.69
365.694	110.69
365.92	89.69
366.147	86.69
366.373	94.69
366.599	69.69
366.826	92.69
367.052	98.69
367.278	81.69
367.505	91.69
367.731	96.69
367.957	95.69
368.184	112.69
368.41	90.69
368.636	106.69
368.862	120.69
369.089	108.69
369.315	91.69
369.541	86.69
369.767	98.69
369.993	103.69
370.219	100.69
370.445	108.69
370.672	75.69
370.898	97.69
371.124	85.69
371.35	89.69
371.576	80.69
371.802	96.69
372.028	101.69
372.254	94.69
372.48	92.69
372.706	91.69
372.932	89.69
373.158	91.69
373.384	96.69
373.61	85.69
373.835	102.69
374.061	91.69
374.287	94.69
374.513	102.69
374.739	92.69
374.965	80.69
375.191	92.69
375.416	96.69
375.642	105.69
375.868	106.69
376.094	96.69
376.319	77.69
376.545	102.69
376.771	90.69
376.997	94.69
377.222	88.69
377.448	94.69
377.674	84.69
377.899	94.69
378.125	101.69
378.35	101.69
378.576	107.69
378.802	90.69
379.027	98.69
379.253	99.69
379.478	85.69
379.704	77.69
379.929	105.69
380.155	87.69
380.38	94.69
380.606	96.69
380.831	102.69
381.057	88.69
381.282	98.69
381.507	81.69
381.733	95.69
381.958	113.69
382.184	101.69
382.409	117.69
382.634	97.69
382.86	97.69
383.085	100.69
383.31	100.69
383.535	109.69
383.761	103.69
383.986	99.69
384.211	100.69
384.436	91.69
384.662	98.69
384.887	106.69
385.112	109.69
385.337	102.69
385.562	103.69
385.787	98.69
386.013	106.69
386.238	117.69
386.463	102.69
386.688	97.69
386.913	101.69
387.138	116.69
387.363	97.69
387.588	100.69
387.813	106.69
388.038	98.69
388.263	117.69
388.488	106.69
388.713	102.69
388.938	82.69
389.163	92.69
389.387	92.69
389.612	100.69
389.837	99.69
390.062	114.69
390.287	92.69
390.512	86.69
390.736	88.69
390.961	97.69
391.186	100.69
391.411	85.69
391.636	92.69
391.86	95.69
392.085	90.69
392.31	94.69
392.534	93.69
392.759	88.69
392.984	72.69
393.208	92.69
393.433	84.69
393.658	88.69
393.882	81.69
394.107	92.69
394.331	84.69
394.556	88.69
394.78	90.69
395.005	92.69
395.229	83.69
395.454	87.69
395.678	78.69
395.903	87.69
396.127	92.69
396.352	90.69
396.576	85.69
396.801	81.69
397.025	86.69
397.249	93.69
397.474	89.69
397.698	85.69
397.922	101.69
398.147	96.69
398.371	97.69
398.595	84.69
398.82	96.69
399.044	90.69
399.268	89.69
399.492	103.69
399.717	96.69
399.941	97.69
400.165	98.69
400.389	96.69
400.613	91.69
400.837	82.69
401.062	103.69
401.286	71.69
401.51	88.69
401.734	89.69
401.958	111.69
402.182	117.69
402.406	165.69
402.63	120.69
402.854	95.69
403.078	91.69
403.302	89.69
403.526	89.69
403.75	79.69
403.974	90.69
404.198	92.69
404.422	74.69
404.645	96.69
404.869	107.69
405.093	95.69
405.317	119.69
405.541	99.69
405.765	96.69
405.988	103.69
406.212	162.69
406.436	218.69
406.66	146.69
406.883	99.69
407.107	85.69
407.331	99.69
407.555	96.69
407.778	99.69
408.002	92.69
408.226	85.69
408.449	88.69
408.673	115.69
408.896	82.69
409.12	89.69
409.344	85.69
409.567	89.69
409.791	91.69
410.014	85.69
410.238	88.69
410.461	90.69
410.685	104.69
410.908	97.69
411.132	94.69
411.355	87.69
411.578	95.69
411.802	88.69
412.025	88.69
412.249	94.69
412.472	97.69
412.695	99.69
412.919	94.69
413.142	88.69
413.365	79.69
413.589	88.69
413.812	86.69
414.035	103.69
414.258	102.69
414.482	68.69
414.705	94.69
414.928	82.69
415.151	81.69
415.374	93.69
415.597	93.69
415.821	96.69
416.044	77.69
416.267	84.69
416.49	82.69
416.713	89.69
416.936	94.69
417.159	88.69
417.382	98.69
417.605	96.69
417.828	90.69
418.051	86.69
418.274	106.69
418.497	89.69
418.72	89.69
418.943	85.69
419.166	89.69
419.389	81.69
419.611	88.69
419.834	86.69
420.057	98.69
420.28	93.69
420.503	94.69
420.726	82.69
420.948	84.69
421.171	93.69
421.394	109.69
421.617	89.69
421.839	79.69
422.062	85.69
422.285	104.69
422.507	103.69
422.73	98.69
422.953	97.69
423.175	88.69
423.398	84.69
423.621	97.69
423.843	96.69
424.066	94.69
424.288	93.69
424.511	92.69
424.733	104.69
424.956	100.69
425.178	105.69
425.401	87.69
425.623	96.69
425.846	87.69
426.068	95.69
426.291	101.69
426.513	97.69
426.735	82.69
426.958	101.69
427.18	96.69
427.402	149.69
427.625	174.69
427.847	172.69
428.069	151.69
428.292	112.69
428.514	97.69
428.736	85.69
428.958	91.69
429.181	80.69
429.403	80.69
429.625	98.69
429.847	96.69
430.069	109.69
430.292	87.69
430.514	81.69
430.736	88.69
430.958	82.69
431.18	85.69
431.402	83.69
431.624	97.69
431.846	88.69
432.068	86.69
432.29	73.69
432.512	82.69
432.734	87.69
432.956	91.69
433.178	101.69
433.4	111.69
433.622	101.69
433.844	94.69
434.066	78.69
434.287	100.69
434.509	88.69
434.731	78.69
434.953	93.69
435.175	86.69
435.397	82.69
435.618	85.69
435.84	104.69
436.062	126.69
436.284	116.69
436.505	95.69
436.727	108.69
436.949	90.69
437.17	92.69
437.392	87.69
437.614	90.69
437.835	114.69
438.057	132.69
438.278	113.69
438.5	114.69
438.721	131.69
438.943	113.69
439.165	88.69
439.386	92.69
439.608	97.69
439.829	97.69
440.05	137.69
440.272	136.69
440.493	118.69
440.715	92.69
440.936	80.69
441.158	83.69
441.379	83.69
441.6	84.69
441.822	97.69
442.043	102.69
442.264	105.69
442.486	96.69
442.707	104.69
442.928	104.69
443.149	148.69
443.371	134.69
443.592	107.69
443.813	110.69
444.034	99.69
444.255	87.69
444.476	97.69
444.698	83.69
444.919	92.69
445.14	146.69
445.361	122.69
445.582	131.69
445.803	144.69
446.024	140.69
446.245	136.69
446.466	128.69
446.687	109.69
446.908	93.69
447.129	83.69
447.35	73.69
447.571	86.69
447.792	99.69
448.013	92.69
448.234	98.69
448.455	101.69
448.675	119.69
448.896	109.69
449.117	76.69
449.338	108.69
449.559	114.69
449.779	132.69
450	96.69
450.221	87.69
450.442	97.69
450.662	97.69
450.883	96.69
451.104	111.69
451.324	94.69
451.545	86.69
451.766	82.69
451.986	84.69
452.207	84.69
452.428	96.69
452.648	101.69
452.869	96.69
453.089	104.69
453.31	116.69
453.53	88.69
453.751	73.69
453.971	98.69
454.192	106.69
454.412	107.69
454.633	103.69
454.853	91.69
455.073	94.69
455.294	100.69
455.514	95.69
455.734	96.69
455.955	90.69
456.175	93.69
456.395	97.69
456.616	82.69
456.836	87.69
457.056	76.69
457.276	98.69
457.497	90.69
457.717	83.69
457.937	93.69
458.157	86.69
458.377	86.69
458.598	117.69
458.818	131.69
459.038	149.69
459.258	117.69
459.478	96.69
459.698	91.69
459.918	90.69
460.138	86.69
460.358	88.69
460.578	93.69
460.798	98.69
461.018	93.69
461.238	72.69
461.458	73.69
461.678	97.69
461.898	83.69
462.118	84.69
462.338	81.69
462.558	80.69
462.777	80.69
462.997	86.69
463.217	90.69
463.437	95.69
463.657	66.69
463.876	90.69
464.096	83.69
464.316	94.69
464.536	93.69
464.755	110.69
464.975	109.69
465.195	146.69
465.414	148.69
465.634	98.69
465.854	102.69
466.073	77.69
466.293	90.69
466.512	100.69
466.732	86.69
466.951	79.69
467.171	88.69
467.391	88.69
467.61	112.69
467.829	137.69
468.049	270.69
468.268	340.69
468.488	133.69
468.707	89.69
468.927	80.69
469.146	90.69
469.365	89.69
469.585	94.69
469.804	106.69
470.023	90.69
470.243	90.69
470.462	112.69
470.681	110.69
470.901	105.69
471.12	94.69
471.339	101.69
471.558	103.69
471.777	110.69
471.997	154.69
472.216	472.69
472.435	931.69
472.654	264.69
472.873	108.69
473.092	90.69
473.311	92.69
473.53	106.69
473.749	80.69
473.968	105.69
474.187	113.69
474.406	93.69
474.625	98.69
474.844	85.69
475.063	86.69
475.282	81.69
475.501	81.69
475.72	92.69
475.939	93.69
476.158	82.69
476.377	93.69
476.596	92.69
476.814	98.69
477.033	93.69
477.252	97.69
477.471	89.69
477.69	102.69
477.908	80.69
478.127	103.69
478.346	99.69
478.564	90.69
478.783	107.69
479.002	80.69
479.22	98.69
479.439	117.69
479.658	121.69
479.876	100.69
480.095	95.69
480.313	118.69
480.532	112.69
480.751	178.69
480.969	453.69
481.188	1694.69
481.406	967.69
481.624	200.69
481.843	99.69
482.061	89.69
482.28	97.69
482.498	105.69
482.717	96.69
482.935	88.69
483.153	88.69
483.372	86.69
483.59	93.69
483.808	80.69
484.027	98.69
484.245	89.69
484.463	93.69
484.681	99.69
484.9	94.69
485.118	110.69
485.336	100.69
485.554	101.69
485.772	106.69
485.99	118.69
486.209	111.69
486.427	98.69
486.645	124.69
486.863	111.69
487.081	95.69
487.299	100.69
487.517	98.69
487.735	94.69
487.953	104.69
488.171	92.69
488.389	88.69
488.607	108.69
488.825	87.69
489.043	87.69
489.261	84.69
489.479	96.69
489.696	87.69
489.914	100.69
490.132	93.69
490.35	95.69
490.568	93.69
490.786	87.69
491.003	103.69
491.221	85.69
491.439	92.69
491.657	108.69
491.874	106.69
492.092	80.69
492.31	90.69
492.527	99.69
492.745	91.69
492.963	88.69
493.18	97.69
493.398	107.69
493.615	86.69
493.833	84.69
494.05	94.69
494.268	102.69
494.485	93.69
494.703	96.69
494.92	94.69
495.138	90.69
495.355	92.69
495.573	108.69
495.79	99.69
496.008	89.69
496.225	70.69
496.442	102.69
496.66	98.69
496.877	99.69
497.094	109.69
497.312	103.69
497.529	114.69
497.746	83.69
497.963	97.69
498.181	82.69
498.398	96.69
498.615	126.69
498.832	102.69
499.049	98.69
499.267	97.69
499.484	93.69
499.701	95.69
499.918	96.69
500.135	75.69
500.352	95.69
500.569	89.69
500.786	93.69
501.003	99.69
501.22	89.69
501.437	96.69
501.654	87.69
501.871	120.69
502.088	90.69
502.305	94.69
502.522	100.69
502.739	90.69
502.956	82.69
503.172	96.69
503.389	73.69
503.606	93.69
503.823	96.69
504.04	102.69
504.256	100.69
504.473	93.69
504.69	103.69
504.907	90.69
505.123	100.69
505.34	91.69
505.557	91.69
505.773	85.69
505.99	103.69
506.207	94.69
506.423	99.69
506.64	98.69
506.856	85.69
507.073	94.69
507.289	95.69
507.506	108.69
507.722	100.69
507.939	104.69
508.155	94.69
508.372	84.69
508.588	92.69
508.805	112.69
509.021	103.69
509.238	97.69
509.454	97.69
509.67	93.69
509.887	110.69
510.103	131.69
510.319	190.69
510.536	654.69
510.752	1997.69
510.968	577.69
511.184	156.69
511.401	116.69
511.617	106.69
511.833	107.69
512.049	92.69
512.265	92.69
512.481	96.69
512.698	96.69
512.914	89.69
513.13	90.69
513.346	98.69
513.562	106.69
513.778	88.69
513.994	98.69
514.21	100.69
514.426	116.69
514.642	138.69
