Data from Circ_1990_H10_HRD10591_00003.txt Node
Date: Wed Jan 03 11:55:04 EST 2024
User: Yrep
Spectrometer: HR+D1059
Trigger mode: 1
Integration Time (sec): 1.000000E-1
Scans to average: 1
Electric dark correction enabled: true
Nonlinearity correction enabled: false
Boxcar width: 0
XAxis mode: Wavelengths
Number of Pixels in Spectrum: 2048
>>>>>Begin Spectral Data<<<<<
223.165	-15.62
223.4	-15.62
223.635	-15.62
223.869	-17.62
224.104	-10.62
224.338	-23.62
224.573	-19.62
224.808	-12.62
225.042	-4.62
225.277	-0.62
225.511	6.38
225.746	10.38
225.98	4.38
226.215	12.38
226.449	4.38
226.683	1.38
226.918	27.38
227.152	38.38
227.387	26.38
227.621	42.38
227.856	38.38
228.09	57.38
228.324	49.38
228.559	51.38
228.793	50.38
229.027	61.38
229.262	52.38
229.496	58.38
229.73	63.38
229.964	77.38
230.199	72.38
230.433	68.38
230.667	88.38
230.901	73.38
231.136	83.38
231.37	67.38
231.604	73.38
231.838	88.38
232.072	78.38
232.306	78.38
232.541	72.38
232.775	74.38
233.009	77.38
233.243	73.38
233.477	71.38
233.711	74.38
233.945	75.38
234.179	82.38
234.413	80.38
234.647	69.38
234.881	58.38
235.115	81.38
235.349	67.38
235.583	91.38
235.817	90.38
236.051	80.38
236.285	88.38
236.519	77.38
236.753	68.38
236.987	65.38
237.221	61.38
237.455	53.38
237.689	63.38
237.922	73.38
238.156	79.38
238.39	71.38
238.624	74.38
238.858	68.38
239.091	74.38
239.325	78.38
239.559	65.38
239.793	72.38
240.027	70.38
240.26	70.38
240.494	81.38
240.728	73.38
240.961	58.38
241.195	87.38
241.429	80.38
241.662	71.38
241.896	76.38
242.13	78.38
242.363	67.38
242.597	80.38
242.83	68.38
243.064	59.38
243.298	70.38
243.531	83.38
243.765	78.38
243.998	63.38
244.232	84.38
244.465	80.38
244.699	65.38
244.932	81.38
245.166	72.38
245.399	70.38
245.633	80.38
245.866	73.38
246.099	78.38
246.333	69.38
246.566	64.38
246.8	87.38
247.033	79.38
247.266	76.38
247.5	71.38
247.733	84.38
247.966	66.38
248.2	86.38
248.433	86.38
248.666	81.38
248.899	63.38
249.133	86.38
249.366	86.38
249.599	84.38
249.832	78.38
250.066	78.38
250.299	83.38
250.532	81.38
250.765	88.38
250.998	78.38
251.231	61.38
251.465	59.38
251.698	70.38
251.931	85.38
252.164	59.38
252.397	67.38
252.63	78.38
252.863	74.38
253.096	88.38
253.329	75.38
253.562	82.38
253.795	90.38
254.028	79.38
254.261	66.38
254.494	75.38
254.727	90.38
254.96	70.38
255.193	70.38
255.426	83.38
255.659	67.38
255.892	73.38
256.124	74.38
256.357	79.38
256.59	87.38
256.823	73.38
257.056	74.38
257.289	83.38
257.521	87.38
257.754	75.38
257.987	71.38
258.22	67.38
258.452	84.38
258.685	71.38
258.918	74.38
259.151	76.38
259.383	87.38
259.616	80.38
259.849	78.38
260.081	84.38
260.314	81.38
260.547	81.38
260.779	87.38
261.012	81.38
261.244	81.38
261.477	98.38
261.71	86.38
261.942	88.38
262.175	91.38
262.407	82.38
262.64	79.38
262.872	59.38
263.105	86.38
263.337	71.38
263.57	89.38
263.802	76.38
264.035	90.38
264.267	84.38
264.499	70.38
264.732	70.38
264.964	77.38
265.197	80.38
265.429	77.38
265.661	65.38
265.894	78.38
266.126	76.38
266.358	74.38
266.591	81.38
266.823	70.38
267.055	82.38
267.287	85.38
267.52	83.38
267.752	84.38
267.984	92.38
268.216	78.38
268.448	89.38
268.681	66.38
268.913	74.38
269.145	83.38
269.377	90.38
269.609	80.38
269.841	86.38
270.073	91.38
270.306	74.38
270.538	86.38
270.77	78.38
271.002	86.38
271.234	85.38
271.466	82.38
271.698	83.38
271.93	74.38
272.162	80.38
272.394	85.38
272.626	67.38
272.858	76.38
273.09	77.38
273.322	72.38
273.553	72.38
273.785	87.38
274.017	61.38
274.249	87.38
274.481	80.38
274.713	77.38
274.945	76.38
275.176	89.38
275.408	80.38
275.64	86.38
275.872	89.38
276.104	95.38
276.335	88.38
276.567	85.38
276.799	100.38
277.031	96.38
277.262	90.38
277.494	69.38
277.726	80.38
277.957	81.38
278.189	75.38
278.421	82.38
278.652	85.38
278.884	79.38
279.115	83.38
279.347	68.38
279.579	74.38
279.81	93.38
280.042	88.38
280.273	84.38
280.505	77.38
280.736	82.38
280.968	64.38
281.199	97.38
281.431	76.38
281.662	85.38
281.894	92.38
282.125	95.38
282.356	103.38
282.588	108.38
282.819	95.38
283.051	87.38
283.282	60.38
283.513	72.38
283.745	87.38
283.976	81.38
284.207	83.38
284.439	83.38
284.67	83.38
284.901	83.38
285.132	84.38
285.364	79.38
285.595	96.38
285.826	89.38
286.057	100.38
286.288	89.38
286.52	83.38
286.751	83.38
286.982	82.38
287.213	77.38
287.444	79.38
287.675	76.38
287.906	88.38
288.138	74.38
288.369	78.38
288.6	72.38
288.831	89.38
289.062	86.38
289.293	73.38
289.524	79.38
289.755	86.38
289.986	80.38
290.217	76.38
290.448	86.38
290.679	82.38
290.91	90.38
291.141	80.38
291.371	84.38
291.602	94.38
291.833	77.38
292.064	88.38
292.295	82.38
292.526	78.38
292.757	88.38
292.987	92.38
293.218	89.38
293.449	78.38
293.68	92.38
293.91	87.38
294.141	88.38
294.372	75.38
294.603	73.38
294.833	96.38
295.064	89.38
295.295	97.38
295.525	90.38
295.756	85.38
295.987	92.38
296.217	112.38
296.448	95.38
296.679	91.38
296.909	78.38
297.14	76.38
297.37	84.38
297.601	82.38
297.831	87.38
298.062	97.38
298.292	100.38
298.523	81.38
298.753	79.38
298.984	87.38
299.214	96.38
299.445	76.38
299.675	83.38
299.905	89.38
300.136	81.38
300.366	80.38
300.597	96.38
300.827	84.38
301.057	100.38
301.288	85.38
301.518	76.38
301.748	68.38
301.979	86.38
302.209	86.38
302.439	80.38
302.669	78.38
302.9	89.38
303.13	91.38
303.36	96.38
303.59	86.38
303.82	88.38
304.051	80.38
304.281	98.38
304.511	99.38
304.741	89.38
304.971	76.38
305.201	82.38
305.431	94.38
305.661	83.38
305.891	70.38
306.121	80.38
306.352	92.38
306.582	95.38
306.812	92.38
307.042	97.38
307.272	83.38
307.502	88.38
307.731	85.38
307.961	84.38
308.191	83.38
308.421	95.38
308.651	97.38
308.881	85.38
309.111	108.38
309.341	100.38
309.571	94.38
309.8	87.38
310.03	90.38
310.26	93.38
310.49	74.38
310.72	86.38
310.949	83.38
311.179	85.38
311.409	97.38
311.639	96.38
311.868	85.38
312.098	83.38
312.328	85.38
312.557	92.38
312.787	95.38
313.017	92.38
313.246	90.38
313.476	91.38
313.706	89.38
313.935	89.38
314.165	107.38
314.394	98.38
314.624	76.38
314.853	88.38
315.083	70.38
315.312	77.38
315.542	87.38
315.771	80.38
316.001	83.38
316.23	90.38
316.46	87.38
316.689	91.38
316.919	86.38
317.148	80.38
317.377	96.38
317.607	89.38
317.836	90.38
318.065	102.38
318.295	76.38
318.524	90.38
318.753	86.38
318.983	87.38
319.212	91.38
319.441	97.38
319.67	99.38
319.9	85.38
320.129	102.38
320.358	86.38
320.587	90.38
320.816	85.38
321.046	91.38
321.275	84.38
321.504	97.38
321.733	93.38
321.962	84.38
322.191	86.38
322.42	88.38
322.649	102.38
322.878	94.38
323.108	87.38
323.337	114.38
323.566	107.38
323.795	125.38
324.024	159.38
324.253	278.38
324.482	559.38
324.71	1108.38
324.939	1439.38
325.168	550.38
325.397	180.38
325.626	116.38
325.855	99.38
326.084	104.38
326.313	105.38
326.542	121.38
326.77	188.38
326.999	322.38
327.228	633.38
327.457	1119.38
327.686	914.38
327.914	263.38
328.143	176.38
328.372	126.38
328.6	102.38
328.829	100.38
329.058	101.38
329.287	117.38
329.515	106.38
329.744	104.38
329.972	87.38
330.201	109.38
330.43	130.38
330.658	122.38
330.887	115.38
331.115	117.38
331.344	83.38
331.572	78.38
331.801	112.38
332.03	92.38
332.258	88.38
332.486	90.38
332.715	75.38
332.943	85.38
333.172	88.38
333.4	113.38
333.629	96.38
333.857	90.38
334.085	101.38
334.314	107.38
334.542	135.38
334.771	114.38
334.999	86.38
335.227	78.38
335.455	85.38
335.684	83.38
335.912	92.38
336.14	88.38
336.369	98.38
336.597	97.38
336.825	79.38
337.053	96.38
337.281	86.38
337.51	88.38
337.738	98.38
337.966	91.38
338.194	87.38
338.422	80.38
338.65	96.38
338.878	74.38
339.106	84.38
339.334	92.38
339.562	95.38
339.79	81.38
340.018	81.38
340.246	82.38
340.474	86.38
340.702	90.38
340.93	81.38
341.158	78.38
341.386	87.38
341.614	97.38
341.842	95.38
342.07	88.38
342.298	96.38
342.526	80.38
342.754	81.38
342.981	81.38
343.209	81.38
343.437	92.38
343.665	87.38
343.893	66.38
344.12	78.38
344.348	83.38
344.576	71.38
344.804	95.38
345.031	102.38
345.259	75.38
345.487	89.38
345.714	89.38
345.942	95.38
346.17	97.38
346.397	67.38
346.625	79.38
346.853	76.38
347.08	104.38
347.308	89.38
347.535	91.38
347.763	87.38
347.99	91.38
348.218	94.38
348.445	88.38
348.673	99.38
348.9	92.38
349.128	84.38
349.355	101.38
349.583	83.38
349.81	88.38
350.037	91.38
350.265	90.38
350.492	93.38
350.72	88.38
350.947	108.38
351.174	91.38
351.402	100.38
351.629	90.38
351.856	107.38
352.083	99.38
352.311	90.38
352.538	112.38
352.765	107.38
352.992	110.38
353.22	100.38
353.447	95.38
353.674	105.38
353.901	90.38
354.128	97.38
354.355	94.38
354.583	104.38
354.81	98.38
355.037	98.38
355.264	90.38
355.491	81.38
355.718	91.38
355.945	103.38
356.172	97.38
356.399	94.38
356.626	97.38
356.853	95.38
357.08	84.38
357.307	88.38
357.534	104.38
357.761	105.38
357.988	114.38
358.215	118.38
358.441	110.38
358.668	108.38
358.895	112.38
359.122	96.38
359.349	98.38
359.576	94.38
359.802	85.38
360.029	98.38
360.256	96.38
360.483	101.38
360.709	70.38
360.936	92.38
361.163	80.38
361.39	88.38
361.616	83.38
361.843	86.38
362.07	103.38
362.296	91.38
362.523	84.38
362.749	79.38
362.976	91.38
363.203	84.38
363.429	86.38
363.656	87.38
363.882	83.38
364.109	89.38
364.335	81.38
364.562	80.38
364.788	82.38
365.015	79.38
365.241	88.38
365.468	92.38
365.694	102.38
365.92	79.38
366.147	81.38
366.373	67.38
366.599	71.38
366.826	94.38
367.052	88.38
367.278	77.38
367.505	75.38
367.731	94.38
367.957	84.38
368.184	83.38
368.41	87.38
368.636	86.38
368.862	90.38
369.089	95.38
369.315	104.38
369.541	92.38
369.767	89.38
369.993	90.38
370.219	88.38
370.445	66.38
370.672	73.38
370.898	80.38
371.124	89.38
371.35	70.38
371.576	82.38
371.802	93.38
372.028	93.38
372.254	87.38
372.48	78.38
372.706	86.38
372.932	93.38
373.158	96.38
373.384	91.38
373.61	102.38
373.835	106.38
374.061	84.38
374.287	84.38
374.513	83.38
374.739	76.38
374.965	90.38
375.191	79.38
375.416	92.38
375.642	86.38
375.868	94.38
376.094	83.38
376.319	92.38
376.545	85.38
376.771	78.38
376.997	100.38
377.222	101.38
377.448	98.38
377.674	100.38
377.899	108.38
378.125	98.38
378.35	104.38
378.576	111.38
378.802	109.38
379.027	108.38
379.253	107.38
379.478	105.38
379.704	110.38
379.929	101.38
380.155	102.38
380.38	117.38
380.606	129.38
380.831	104.38
381.057	118.38
381.282	113.38
381.507	117.38
381.733	124.38
381.958	118.38
382.184	113.38
382.409	110.38
382.634	117.38
382.86	132.38
383.085	137.38
383.31	122.38
383.535	131.38
383.761	127.38
383.986	136.38
384.211	131.38
384.436	138.38
384.662	153.38
384.887	175.38
385.112	160.38
385.337	175.38
385.562	174.38
385.787	157.38
386.013	158.38
386.238	169.38
386.463	160.38
386.688	156.38
386.913	167.38
387.138	161.38
387.363	175.38
387.588	138.38
387.813	144.38
388.038	150.38
388.263	191.38
388.488	190.38
388.713	113.38
388.938	92.38
389.163	102.38
389.387	89.38
389.612	79.38
389.837	81.38
390.062	97.38
390.287	91.38
390.512	89.38
390.736	75.38
390.961	76.38
391.186	86.38
391.411	85.38
391.636	103.38
391.86	83.38
392.085	91.38
392.31	77.38
392.534	73.38
392.759	93.38
392.984	108.38
393.208	98.38
393.433	106.38
393.658	101.38
393.882	75.38
394.107	80.38
394.331	74.38
394.556	77.38
394.78	91.38
395.005	93.38
395.229	89.38
395.454	91.38
395.678	80.38
395.903	78.38
396.127	91.38
396.352	92.38
396.576	81.38
396.801	76.38
397.025	97.38
397.249	66.38
397.474	93.38
397.698	82.38
397.922	75.38
398.147	86.38
398.371	81.38
398.595	88.38
398.82	86.38
399.044	85.38
399.268	97.38
399.492	87.38
399.717	72.38
399.941	80.38
400.165	72.38
400.389	83.38
400.613	90.38
400.837	74.38
401.062	80.38
401.286	74.38
401.51	79.38
401.734	84.38
401.958	83.38
402.182	102.38
402.406	119.38
402.63	88.38
402.854	75.38
403.078	81.38
403.302	75.38
403.526	86.38
403.75	86.38
403.974	78.38
404.198	71.38
404.422	73.38
404.645	79.38
404.869	82.38
405.093	89.38
405.317	87.38
405.541	82.38
405.765	85.38
405.988	87.38
406.212	120.38
406.436	152.38
406.66	105.38
406.883	91.38
407.107	79.38
407.331	87.38
407.555	86.38
407.778	83.38
408.002	79.38
408.226	67.38
408.449	73.38
408.673	77.38
408.896	98.38
409.12	94.38
409.344	105.38
409.567	78.38
409.791	78.38
410.014	87.38
410.238	77.38
410.461	82.38
410.685	78.38
410.908	97.38
411.132	100.38
411.355	100.38
411.578	85.38
411.802	97.38
412.025	69.38
412.249	71.38
412.472	93.38
412.695	105.38
412.919	82.38
413.142	84.38
413.365	93.38
413.589	95.38
413.812	72.38
414.035	86.38
414.258	91.38
414.482	95.38
414.705	92.38
414.928	81.38
415.151	92.38
415.374	97.38
415.597	94.38
415.821	94.38
416.044	103.38
416.267	89.38
416.49	88.38
416.713	84.38
416.936	97.38
417.159	78.38
417.382	87.38
417.605	92.38
417.828	79.38
418.051	92.38
418.274	104.38
418.497	96.38
418.72	105.38
418.943	88.38
419.166	95.38
419.389	86.38
419.611	90.38
419.834	68.38
420.057	89.38
420.28	90.38
420.503	80.38
420.726	75.38
420.948	79.38
421.171	92.38
421.394	87.38
421.617	93.38
421.839	92.38
422.062	91.38
422.285	84.38
422.507	106.38
422.73	106.38
422.953	103.38
423.175	81.38
423.398	84.38
423.621	81.38
423.843	82.38
424.066	79.38
424.288	65.38
424.511	73.38
424.733	86.38
424.956	95.38
425.178	97.38
425.401	81.38
425.623	104.38
425.846	89.38
426.068	79.38
426.291	94.38
426.513	87.38
426.735	81.38
426.958	98.38
427.18	90.38
427.402	88.38
427.625	121.38
427.847	119.38
428.069	91.38
428.292	81.38
428.514	77.38
428.736	78.38
428.958	81.38
429.181	66.38
429.403	82.38
429.625	70.38
429.847	83.38
430.069	83.38
430.292	91.38
430.514	82.38
430.736	67.38
430.958	88.38
431.18	78.38
431.402	82.38
431.624	81.38
431.846	80.38
432.068	88.38
432.29	81.38
432.512	93.38
432.734	85.38
432.956	92.38
433.178	84.38
433.4	86.38
433.622	90.38
433.844	72.38
434.066	82.38
434.287	99.38
434.509	87.38
434.731	86.38
434.953	78.38
435.175	79.38
435.397	79.38
435.618	81.38
435.84	96.38
436.062	101.38
436.284	85.38
436.505	83.38
436.727	82.38
436.949	83.38
437.17	87.38
437.392	73.38
437.614	74.38
437.835	90.38
438.057	78.38
438.278	75.38
438.5	102.38
438.721	106.38
438.943	81.38
439.165	90.38
439.386	82.38
439.608	86.38
439.829	92.38
440.05	113.38
440.272	123.38
440.493	97.38
440.715	76.38
440.936	71.38
441.158	85.38
441.379	83.38
441.6	62.38
441.822	78.38
442.043	74.38
442.264	86.38
442.486	67.38
442.707	90.38
442.928	101.38
443.149	107.38
443.371	96.38
443.592	86.38
443.813	85.38
444.034	100.38
444.255	92.38
444.476	87.38
444.698	88.38
444.919	84.38
445.14	130.38
445.361	107.38
445.582	93.38
445.803	113.38
446.024	101.38
446.245	106.38
446.466	97.38
446.687	84.38
446.908	78.38
447.129	83.38
447.35	79.38
447.571	95.38
447.792	84.38
448.013	72.38
448.234	94.38
448.455	94.38
448.675	98.38
448.896	96.38
449.117	99.38
449.338	80.38
449.559	98.38
449.779	113.38
450	88.38
450.221	90.38
450.442	98.38
450.662	103.38
450.883	97.38
451.104	79.38
451.324	98.38
451.545	81.38
451.766	76.38
451.986	84.38
452.207	82.38
452.428	79.38
452.648	70.38
452.869	97.38
453.089	94.38
453.31	83.38
453.53	84.38
453.751	88.38
453.971	110.38
454.192	94.38
454.412	91.38
454.633	99.38
454.853	97.38
455.073	80.38
455.294	74.38
455.514	74.38
455.734	80.38
455.955	78.38
456.175	82.38
456.395	74.38
456.616	82.38
456.836	78.38
457.056	75.38
457.276	68.38
457.497	70.38
457.717	73.38
457.937	81.38
458.157	72.38
458.377	74.38
458.598	89.38
458.818	96.38
459.038	111.38
459.258	87.38
459.478	91.38
459.698	88.38
459.918	82.38
460.138	82.38
460.358	79.38
460.578	90.38
460.798	88.38
461.018	97.38
461.238	86.38
461.458	92.38
461.678	84.38
461.898	88.38
462.118	71.38
462.338	64.38
462.558	76.38
462.777	70.38
462.997	73.38
463.217	68.38
463.437	95.38
463.657	79.38
463.876	81.38
464.096	88.38
464.316	100.38
464.536	73.38
464.755	72.38
464.975	83.38
465.195	109.38
465.414	111.38
465.634	94.38
465.854	84.38
466.073	86.38
466.293	58.38
466.512	90.38
466.732	79.38
466.951	93.38
467.171	74.38
467.391	78.38
467.61	80.38
467.829	80.38
468.049	88.38
468.268	82.38
468.488	76.38
468.707	70.38
468.927	86.38
469.146	83.38
469.365	80.38
469.585	87.38
469.804	77.38
470.023	83.38
470.243	69.38
470.462	81.38
470.681	94.38
470.901	73.38
471.12	80.38
471.339	86.38
471.558	75.38
471.777	87.38
471.997	88.38
472.216	118.38
472.435	158.38
472.654	102.38
472.873	78.38
473.092	82.38
473.311	90.38
473.53	85.38
473.749	87.38
473.968	74.38
474.187	96.38
474.406	76.38
474.625	75.38
474.844	76.38
475.063	74.38
475.282	84.38
475.501	92.38
475.72	100.38
475.939	79.38
476.158	70.38
476.377	81.38
476.596	87.38
476.814	88.38
477.033	78.38
477.252	90.38
477.471	67.38
477.69	71.38
477.908	88.38
478.127	93.38
478.346	73.38
478.564	101.38
478.783	78.38
479.002	90.38
479.22	102.38
479.439	88.38
479.658	81.38
479.876	102.38
480.095	82.38
480.313	74.38
480.532	101.38
480.751	105.38
480.969	103.38
481.188	215.38
481.406	150.38
481.624	101.38
481.843	83.38
482.061	103.38
482.28	76.38
482.498	81.38
482.717	92.38
482.935	83.38
483.153	92.38
483.372	86.38
483.59	82.38
483.808	91.38
484.027	93.38
484.245	94.38
484.463	94.38
484.681	96.38
484.9	90.38
485.118	96.38
485.336	104.38
485.554	96.38
485.772	102.38
485.99	104.38
486.209	112.38
486.427	105.38
486.645	106.38
486.863	104.38
487.081	91.38
487.299	100.38
487.517	90.38
487.735	79.38
487.953	82.38
488.171	96.38
488.389	96.38
488.607	96.38
488.825	95.38
489.043	85.38
489.261	83.38
489.479	82.38
489.696	85.38
489.914	95.38
490.132	107.38
490.35	70.38
490.568	85.38
490.786	76.38
491.003	87.38
491.221	86.38
491.439	85.38
491.657	85.38
491.874	98.38
492.092	78.38
492.31	87.38
492.527	100.38
492.745	92.38
492.963	92.38
493.18	75.38
493.398	71.38
493.615	89.38
493.833	89.38
494.05	85.38
494.268	91.38
494.485	79.38
494.703	89.38
494.92	86.38
495.138	96.38
495.355	94.38
495.573	86.38
495.79	110.38
496.008	94.38
496.225	98.38
496.442	96.38
496.66	84.38
496.877	76.38
497.094	85.38
497.312	89.38
497.529	78.38
497.746	81.38
497.963	90.38
498.181	90.38
498.398	87.38
498.615	97.38
498.832	96.38
499.049	74.38
499.267	74.38
499.484	98.38
499.701	93.38
499.918	87.38
500.135	92.38
500.352	90.38
500.569	79.38
500.786	89.38
501.003	92.38
501.22	86.38
501.437	91.38
501.654	81.38
501.871	100.38
502.088	85.38
502.305	64.38
502.522	90.38
502.739	76.38
502.956	94.38
503.172	70.38
503.389	92.38
503.606	87.38
503.823	90.38
504.04	83.38
504.256	83.38
504.473	87.38
504.69	89.38
504.907	94.38
505.123	80.38
505.34	82.38
505.557	81.38
505.773	89.38
505.99	82.38
506.207	96.38
506.423	82.38
506.64	86.38
506.856	82.38
507.073	79.38
507.289	111.38
507.506	92.38
507.722	95.38
507.939	103.38
508.155	79.38
508.372	88.38
508.588	95.38
508.805	87.38
509.021	89.38
509.238	93.38
509.454	84.38
509.67	100.38
509.887	99.38
510.103	101.38
510.319	154.38
510.536	480.38
510.752	1407.38
510.968	426.38
511.184	135.38
511.401	86.38
511.617	89.38
511.833	97.38
512.049	87.38
512.265	95.38
512.481	103.38
512.698	89.38
512.914	91.38
513.13	94.38
513.346	74.38
513.562	81.38
513.778	78.38
513.994	88.38
514.21	100.38
514.426	89.38
514.642	94.38
514.858	106.38
515.074	122.38
515.29	269.38
515.506	810.38
515.721	310.38
515.937	113.38
516.153	108.38
516.369	95.38
516.585	82.38
516.801	82.38
517.016	97.38
