Data from Circ_1990_H10_HRD10591_00042.txt Node
Date: Wed Jan 03 11:55:12 EST 2024
User: Yrep
Spectrometer: HR+D1059
Trigger mode: 1
Integration Time (sec): 1.000000E-1
Scans to average: 1
Electric dark correction enabled: true
Nonlinearity correction enabled: false
Boxcar width: 0
XAxis mode: Wavelengths
Number of Pixels in Spectrum: 2048
>>>>>Begin Spectral Data<<<<<
223.165	-18.25
223.4	-18.25
223.635	-18.25
223.869	-23.25
224.104	-7.25
224.338	-14.25
224.573	-21.25
224.808	-22.25
225.042	-12.25
225.277	-8.25
225.511	11.75
225.746	20.75
225.98	-2.25
226.215	14.75
226.449	2.75
226.683	21.75
226.918	19.75
227.152	37.75
227.387	30.75
227.621	39.75
227.856	40.75
228.09	43.75
228.324	46.75
228.559	72.75
228.793	57.75
229.027	74.75
229.262	81.75
229.496	77.75
229.73	76.75
229.964	88.75
230.199	83.75
230.433	77.75
230.667	68.75
230.901	83.75
231.136	69.75
231.37	67.75
231.604	75.75
231.838	73.75
232.072	78.75
232.306	73.75
232.541	75.75
232.775	80.75
233.009	77.75
233.243	70.75
233.477	75.75
233.711	78.75
233.945	80.75
234.179	76.75
234.413	97.75
234.647	81.75
234.881	78.75
235.115	73.75
235.349	77.75
235.583	76.75
235.817	67.75
236.051	73.75
236.285	78.75
236.519	73.75
236.753	75.75
236.987	58.75
237.221	78.75
237.455	87.75
237.689	87.75
237.922	85.75
238.156	66.75
238.39	62.75
238.624	66.75
238.858	81.75
239.091	74.75
239.325	84.75
239.559	71.75
239.793	67.75
240.027	58.75
240.26	73.75
240.494	79.75
240.728	81.75
240.961	74.75
241.195	86.75
241.429	80.75
241.662	77.75
241.896	79.75
242.13	70.75
242.363	75.75
242.597	67.75
242.83	82.75
243.064	78.75
243.298	68.75
243.531	77.75
243.765	80.75
243.998	84.75
244.232	78.75
244.465	82.75
244.699	79.75
244.932	66.75
245.166	70.75
245.399	69.75
245.633	81.75
245.866	69.75
246.099	87.75
246.333	79.75
246.566	79.75
246.8	75.75
247.033	64.75
247.266	93.75
247.5	69.75
247.733	76.75
247.966	71.75
248.2	81.75
248.433	82.75
248.666	74.75
248.899	100.75
249.133	87.75
249.366	84.75
249.599	101.75
249.832	79.75
250.066	73.75
250.299	81.75
250.532	83.75
250.765	67.75
250.998	70.75
251.231	74.75
251.465	69.75
251.698	67.75
251.931	84.75
252.164	89.75
252.397	84.75
252.63	78.75
252.863	82.75
253.096	86.75
253.329	79.75
253.562	79.75
253.795	80.75
254.028	77.75
254.261	76.75
254.494	85.75
254.727	89.75
254.96	70.75
255.193	77.75
255.426	85.75
255.659	82.75
255.892	92.75
256.124	90.75
256.357	83.75
256.59	85.75
256.823	74.75
257.056	84.75
257.289	84.75
257.521	75.75
257.754	87.75
257.987	74.75
258.22	74.75
258.452	79.75
258.685	78.75
258.918	83.75
259.151	77.75
259.383	86.75
259.616	77.75
259.849	101.75
260.081	86.75
260.314	80.75
260.547	81.75
260.779	88.75
261.012	82.75
261.244	90.75
261.477	97.75
261.71	87.75
261.942	112.75
262.175	116.75
262.407	86.75
262.64	87.75
262.872	83.75
263.105	93.75
263.337	90.75
263.57	91.75
263.802	92.75
264.035	90.75
264.267	76.75
264.499	82.75
264.732	80.75
264.964	76.75
265.197	84.75
265.429	82.75
265.661	82.75
265.894	84.75
266.126	102.75
266.358	83.75
266.591	81.75
266.823	82.75
267.055	67.75
267.287	84.75
267.52	75.75
267.752	91.75
267.984	73.75
268.216	72.75
268.448	88.75
268.681	82.75
268.913	90.75
269.145	105.75
269.377	92.75
269.609	83.75
269.841	83.75
270.073	81.75
270.306	96.75
270.538	89.75
270.77	84.75
271.002	98.75
271.234	83.75
271.466	83.75
271.698	73.75
271.93	82.75
272.162	88.75
272.394	91.75
272.626	85.75
272.858	75.75
273.09	81.75
273.322	81.75
273.553	82.75
273.785	84.75
274.017	98.75
274.249	83.75
274.481	99.75
274.713	73.75
274.945	79.75
275.176	85.75
275.408	91.75
275.64	96.75
275.872	95.75
276.104	95.75
276.335	80.75
276.567	108.75
276.799	110.75
277.031	114.75
277.262	110.75
277.494	93.75
277.726	77.75
277.957	79.75
278.189	83.75
278.421	84.75
278.652	73.75
278.884	89.75
279.115	82.75
279.347	89.75
279.579	86.75
279.81	98.75
280.042	114.75
280.273	130.75
280.505	92.75
280.736	86.75
280.968	87.75
281.199	85.75
281.431	97.75
281.662	90.75
281.894	82.75
282.125	97.75
282.356	113.75
282.588	129.75
282.819	92.75
283.051	86.75
283.282	86.75
283.513	102.75
283.745	84.75
283.976	98.75
284.207	91.75
284.439	91.75
284.67	81.75
284.901	97.75
285.132	77.75
285.364	76.75
285.595	93.75
285.826	90.75
286.057	84.75
286.288	76.75
286.52	81.75
286.751	70.75
286.982	81.75
287.213	93.75
287.444	98.75
287.675	102.75
287.906	82.75
288.138	102.75
288.369	92.75
288.6	82.75
288.831	94.75
289.062	75.75
289.293	74.75
289.524	86.75
289.755	89.75
289.986	86.75
290.217	80.75
290.448	75.75
290.679	91.75
290.91	82.75
291.141	75.75
291.371	77.75
291.602	83.75
291.833	92.75
292.064	69.75
292.295	87.75
292.526	90.75
292.757	80.75
292.987	98.75
293.218	89.75
293.449	81.75
293.68	89.75
293.91	76.75
294.141	85.75
294.372	91.75
294.603	83.75
294.833	93.75
295.064	78.75
295.295	82.75
295.525	82.75
295.756	88.75
295.987	113.75
296.217	144.75
296.448	121.75
296.679	88.75
296.909	94.75
297.14	83.75
297.37	97.75
297.601	90.75
297.831	79.75
298.062	81.75
298.292	89.75
298.523	79.75
298.753	82.75
298.984	86.75
299.214	98.75
299.445	94.75
299.675	91.75
299.905	99.75
300.136	76.75
300.366	83.75
300.597	98.75
300.827	82.75
301.057	79.75
301.288	99.75
301.518	103.75
301.748	99.75
301.979	109.75
302.209	85.75
302.439	79.75
302.669	91.75
302.9	101.75
303.13	87.75
303.36	100.75
303.59	107.75
303.82	101.75
304.051	101.75
304.281	90.75
304.511	109.75
304.741	105.75
304.971	81.75
305.201	103.75
305.431	96.75
305.661	90.75
305.891	91.75
306.121	93.75
306.352	96.75
306.582	103.75
306.812	90.75
307.042	110.75
307.272	95.75
307.502	128.75
307.731	130.75
307.961	99.75
308.191	86.75
308.421	86.75
308.651	83.75
308.881	94.75
309.111	84.75
309.341	103.75
309.571	96.75
309.8	104.75
310.03	73.75
310.26	91.75
310.49	106.75
310.72	96.75
310.949	95.75
311.179	102.75
311.409	79.75
311.639	91.75
311.868	89.75
312.098	100.75
312.328	100.75
312.557	95.75
312.787	100.75
313.017	93.75
313.246	94.75
313.476	84.75
313.706	97.75
313.935	97.75
314.165	97.75
314.394	103.75
314.624	99.75
314.853	90.75
315.083	87.75
315.312	87.75
315.542	95.75
315.771	85.75
316.001	89.75
316.23	102.75
316.46	101.75
316.689	102.75
316.919	82.75
317.148	94.75
317.377	96.75
317.607	95.75
317.836	97.75
318.065	97.75
318.295	67.75
318.524	70.75
318.753	79.75
318.983	84.75
319.212	102.75
319.441	106.75
319.67	101.75
319.9	91.75
320.129	85.75
320.358	85.75
320.587	84.75
320.816	107.75
321.046	107.75
321.275	102.75
321.504	89.75
321.733	93.75
321.962	113.75
322.191	92.75
322.42	111.75
322.649	110.75
322.878	126.75
323.108	122.75
323.337	131.75
323.566	114.75
323.795	149.75
324.024	194.75
324.253	371.75
324.482	745.75
324.71	1571.75
324.939	2119.75
325.168	783.75
325.397	221.75
325.626	153.75
325.855	123.75
326.084	140.75
326.313	125.75
326.542	164.75
326.77	194.75
326.999	412.75
327.228	849.75
327.457	1595.75
327.686	1293.75
327.914	377.75
328.143	281.75
328.372	301.75
328.6	184.75
328.829	139.75
329.058	153.75
329.287	145.75
329.515	129.75
329.744	138.75
329.972	195.75
330.201	347.75
330.43	505.75
330.658	269.75
330.887	155.75
331.115	124.75
331.344	113.75
331.572	81.75
331.801	106.75
332.03	108.75
332.258	94.75
332.486	102.75
332.715	107.75
332.943	92.75
333.172	102.75
333.4	91.75
333.629	105.75
333.857	147.75
334.085	208.75
334.314	350.75
334.542	624.75
334.771	609.75
334.999	206.75
335.227	123.75
335.455	103.75
335.684	108.75
335.912	101.75
336.14	107.75
336.369	102.75
336.597	89.75
336.825	108.75
337.053	96.75
337.281	99.75
337.51	93.75
337.738	109.75
337.966	97.75
338.194	96.75
338.422	98.75
338.65	85.75
338.878	92.75
339.106	86.75
339.334	91.75
339.562	99.75
339.79	92.75
340.018	87.75
340.246	95.75
340.474	91.75
340.702	106.75
340.93	94.75
341.158	85.75
341.386	102.75
341.614	98.75
341.842	82.75
342.07	88.75
342.298	100.75
342.526	94.75
342.754	95.75
342.981	85.75
343.209	99.75
343.437	101.75
343.665	82.75
343.893	79.75
344.12	100.75
344.348	102.75
344.576	100.75
344.804	98.75
345.031	86.75
345.259	103.75
345.487	70.75
345.714	109.75
345.942	100.75
346.17	86.75
346.397	91.75
346.625	95.75
346.853	89.75
347.08	93.75
347.308	98.75
347.535	95.75
347.763	100.75
347.99	105.75
348.218	111.75
348.445	101.75
348.673	95.75
348.9	87.75
349.128	100.75
349.355	81.75
349.583	94.75
349.81	96.75
350.037	87.75
350.265	112.75
350.492	101.75
350.72	106.75
350.947	94.75
351.174	95.75
351.402	116.75
351.629	85.75
351.856	96.75
352.083	109.75
352.311	117.75
352.538	108.75
352.765	107.75
352.992	113.75
353.22	113.75
353.447	103.75
353.674	97.75
353.901	83.75
354.128	80.75
354.355	93.75
354.583	83.75
354.81	107.75
355.037	84.75
355.264	94.75
355.491	90.75
355.718	84.75
355.945	111.75
356.172	90.75
356.399	105.75
356.626	113.75
356.853	96.75
357.08	79.75
357.307	70.75
357.534	89.75
357.761	88.75
357.988	86.75
358.215	98.75
358.441	101.75
358.668	109.75
358.895	101.75
359.122	89.75
359.349	79.75
359.576	79.75
359.802	98.75
360.029	120.75
360.256	102.75
360.483	94.75
360.709	86.75
360.936	94.75
361.163	89.75
361.39	86.75
361.616	81.75
361.843	82.75
362.07	101.75
362.296	101.75
362.523	84.75
362.749	81.75
362.976	83.75
363.203	90.75
363.429	75.75
363.656	100.75
363.882	101.75
364.109	87.75
364.335	90.75
364.562	102.75
364.788	94.75
365.015	92.75
365.241	99.75
365.468	102.75
365.694	105.75
365.92	91.75
366.147	88.75
366.373	93.75
366.599	81.75
366.826	94.75
367.052	99.75
367.278	93.75
367.505	83.75
367.731	93.75
367.957	94.75
368.184	103.75
368.41	93.75
368.636	102.75
368.862	110.75
369.089	104.75
369.315	93.75
369.541	94.75
369.767	101.75
369.993	85.75
370.219	81.75
370.445	86.75
370.672	81.75
370.898	84.75
371.124	79.75
371.35	89.75
371.576	78.75
371.802	89.75
372.028	85.75
372.254	80.75
372.48	83.75
372.706	94.75
372.932	90.75
373.158	95.75
373.384	93.75
373.61	99.75
373.835	86.75
374.061	93.75
374.287	90.75
374.513	89.75
374.739	84.75
374.965	98.75
375.191	85.75
375.416	94.75
375.642	92.75
375.868	94.75
376.094	103.75
376.319	96.75
376.545	87.75
376.771	83.75
376.997	79.75
377.222	85.75
377.448	98.75
377.674	80.75
377.899	91.75
378.125	102.75
378.35	93.75
378.576	90.75
378.802	103.75
379.027	89.75
379.253	97.75
379.478	100.75
379.704	96.75
379.929	97.75
380.155	110.75
380.38	97.75
380.606	102.75
380.831	107.75
381.057	98.75
381.282	95.75
381.507	99.75
381.733	93.75
381.958	91.75
382.184	114.75
382.409	94.75
382.634	95.75
382.86	101.75
383.085	107.75
383.31	114.75
383.535	117.75
383.761	106.75
383.986	113.75
384.211	116.75
384.436	102.75
384.662	95.75
384.887	117.75
385.112	115.75
385.337	109.75
385.562	120.75
385.787	122.75
386.013	131.75
386.238	129.75
386.463	125.75
386.688	119.75
386.913	107.75
387.138	110.75
387.363	107.75
387.588	98.75
387.813	109.75
388.038	120.75
388.263	120.75
388.488	118.75
388.713	89.75
388.938	92.75
389.163	88.75
389.387	103.75
389.612	93.75
389.837	90.75
390.062	87.75
390.287	83.75
390.512	108.75
390.736	96.75
390.961	89.75
391.186	91.75
391.411	87.75
391.636	98.75
391.86	93.75
392.085	80.75
392.31	78.75
392.534	99.75
392.759	90.75
392.984	63.75
393.208	86.75
393.433	86.75
393.658	87.75
393.882	97.75
394.107	86.75
394.331	74.75
394.556	77.75
394.78	74.75
395.005	90.75
395.229	85.75
395.454	86.75
395.678	80.75
395.903	82.75
396.127	95.75
396.352	98.75
396.576	79.75
396.801	94.75
397.025	69.75
397.249	93.75
397.474	80.75
397.698	93.75
397.922	77.75
398.147	89.75
398.371	86.75
398.595	88.75
398.82	80.75
399.044	88.75
399.268	79.75
399.492	85.75
399.717	99.75
399.941	85.75
400.165	85.75
400.389	101.75
400.613	85.75
400.837	95.75
401.062	63.75
401.286	84.75
401.51	76.75
401.734	97.75
401.958	103.75
402.182	119.75
402.406	168.75
402.63	136.75
402.854	97.75
403.078	79.75
403.302	90.75
403.526	90.75
403.75	83.75
403.974	99.75
404.198	90.75
404.422	78.75
404.645	84.75
404.869	91.75
405.093	99.75
405.317	107.75
405.541	113.75
405.765	81.75
405.988	106.75
406.212	162.75
406.436	211.75
406.66	133.75
406.883	95.75
407.107	97.75
407.331	84.75
407.555	92.75
407.778	93.75
408.002	98.75
408.226	77.75
408.449	95.75
408.673	74.75
408.896	102.75
409.12	94.75
409.344	78.75
409.567	100.75
409.791	109.75
410.014	95.75
410.238	91.75
410.461	100.75
410.685	101.75
410.908	95.75
411.132	91.75
411.355	101.75
411.578	100.75
411.802	91.75
412.025	99.75
412.249	97.75
412.472	107.75
412.695	98.75
412.919	93.75
413.142	91.75
413.365	95.75
413.589	83.75
413.812	94.75
414.035	86.75
414.258	93.75
414.482	91.75
414.705	86.75
414.928	91.75
415.151	98.75
415.374	83.75
415.597	96.75
415.821	87.75
416.044	89.75
416.267	89.75
416.49	101.75
416.713	98.75
416.936	77.75
417.159	91.75
417.382	78.75
417.605	88.75
417.828	97.75
418.051	82.75
418.274	89.75
418.497	87.75
418.72	67.75
418.943	82.75
419.166	89.75
419.389	92.75
419.611	84.75
419.834	102.75
420.057	76.75
420.28	85.75
420.503	84.75
420.726	79.75
420.948	87.75
421.171	94.75
421.394	80.75
421.617	87.75
421.839	91.75
422.062	89.75
422.285	94.75
422.507	100.75
422.73	100.75
422.953	92.75
423.175	83.75
423.398	87.75
423.621	91.75
423.843	94.75
424.066	83.75
424.288	89.75
424.511	74.75
424.733	79.75
424.956	110.75
425.178	89.75
425.401	98.75
425.623	106.75
425.846	103.75
426.068	108.75
426.291	100.75
426.513	97.75
426.735	85.75
426.958	99.75
427.18	111.75
427.402	145.75
427.625	182.75
427.847	172.75
428.069	138.75
428.292	91.75
428.514	81.75
428.736	92.75
428.958	92.75
429.181	86.75
429.403	79.75
429.625	77.75
429.847	94.75
430.069	105.75
430.292	93.75
430.514	77.75
430.736	78.75
430.958	82.75
431.18	81.75
431.402	86.75
431.624	89.75
431.846	89.75
432.068	92.75
432.29	82.75
432.512	84.75
432.734	81.75
432.956	82.75
433.178	114.75
433.4	90.75
433.622	93.75
433.844	99.75
434.066	91.75
434.287	91.75
434.509	91.75
434.731	92.75
434.953	85.75
435.175	81.75
435.397	94.75
435.618	93.75
435.84	99.75
436.062	119.75
436.284	123.75
436.505	99.75
436.727	93.75
436.949	100.75
437.17	85.75
437.392	83.75
437.614	90.75
437.835	113.75
438.057	112.75
438.278	103.75
438.5	91.75
438.721	121.75
438.943	100.75
439.165	70.75
439.386	86.75
439.608	77.75
439.829	111.75
440.05	125.75
440.272	157.75
440.493	98.75
440.715	85.75
440.936	91.75
441.158	86.75
441.379	94.75
441.6	88.75
441.822	94.75
442.043	110.75
442.264	107.75
442.486	98.75
442.707	93.75
442.928	110.75
443.149	138.75
443.371	132.75
443.592	97.75
443.813	110.75
444.034	102.75
444.255	94.75
444.476	88.75
444.698	109.75
444.919	84.75
445.14	134.75
445.361	112.75
445.582	106.75
445.803	129.75
446.024	124.75
446.245	137.75
446.466	124.75
446.687	89.75
446.908	94.75
447.129	95.75
447.35	86.75
447.571	99.75
447.792	94.75
448.013	115.75
448.234	111.75
448.455	109.75
448.675	95.75
448.896	106.75
449.117	95.75
449.338	110.75
449.559	134.75
449.779	139.75
450	108.75
450.221	91.75
450.442	99.75
450.662	110.75
450.883	103.75
451.104	103.75
451.324	93.75
451.545	76.75
451.766	92.75
451.986	101.75
452.207	96.75
452.428	81.75
452.648	94.75
452.869	122.75
453.089	117.75
453.31	110.75
453.53	91.75
453.751	82.75
453.971	103.75
454.192	110.75
454.412	98.75
454.633	93.75
454.853	83.75
455.073	77.75
455.294	85.75
455.514	100.75
455.734	89.75
455.955	87.75
456.175	83.75
456.395	85.75
456.616	82.75
456.836	84.75
457.056	92.75
457.276	99.75
457.497	79.75
457.717	77.75
457.937	99.75
458.157	81.75
458.377	89.75
458.598	102.75
458.818	151.75
459.038	176.75
459.258	127.75
459.478	81.75
459.698	81.75
459.918	94.75
460.138	81.75
460.358	91.75
460.578	86.75
460.798	87.75
461.018	92.75
461.238	75.75
461.458	86.75
461.678	85.75
461.898	96.75
462.118	101.75
462.338	94.75
462.558	91.75
462.777	87.75
462.997	93.75
463.217	95.75
463.437	94.75
463.657	96.75
463.876	90.75
464.096	96.75
464.316	91.75
464.536	96.75
464.755	92.75
464.975	99.75
465.195	163.75
465.414	161.75
465.634	100.75
465.854	89.75
466.073	85.75
466.293	86.75
466.512	90.75
466.732	91.75
466.951	98.75
467.171	96.75
467.391	94.75
467.61	109.75
467.829	125.75
468.049	226.75
468.268	302.75
468.488	126.75
468.707	85.75
468.927	95.75
469.146	66.75
469.365	87.75
469.585	81.75
469.804	105.75
470.023	85.75
470.243	99.75
470.462	92.75
470.681	118.75
470.901	93.75
471.12	82.75
471.339	91.75
471.558	84.75
471.777	113.75
471.997	159.75
472.216	440.75
472.435	831.75
472.654	250.75
472.873	111.75
473.092	86.75
473.311	92.75
473.53	97.75
473.749	89.75
473.968	85.75
474.187	105.75
474.406	108.75
474.625	81.75
474.844	83.75
475.063	108.75
475.282	84.75
475.501	91.75
475.72	92.75
475.939	83.75
476.158	80.75
476.377	91.75
476.596	89.75
476.814	86.75
477.033	94.75
477.252	89.75
477.471	87.75
477.69	89.75
477.908	81.75
478.127	101.75
478.346	85.75
478.564	81.75
478.783	89.75
479.002	98.75
479.22	107.75
479.439	109.75
479.658	106.75
479.876	113.75
480.095	106.75
480.313	95.75
480.532	84.75
480.751	132.75
480.969	368.75
481.188	1388.75
481.406	844.75
481.624	173.75
481.843	121.75
482.061	91.75
482.28	99.75
482.498	93.75
482.717	82.75
482.935	95.75
483.153	92.75
483.372	84.75
483.59	105.75
483.808	98.75
484.027	102.75
484.245	98.75
484.463	82.75
484.681	90.75
484.9	92.75
485.118	90.75
485.336	103.75
485.554	105.75
485.772	107.75
485.99	102.75
486.209	103.75
486.427	96.75
486.645	112.75
486.863	103.75
487.081	106.75
487.299	93.75
487.517	93.75
487.735	90.75
487.953	93.75
488.171	93.75
488.389	92.75
488.607	90.75
488.825	89.75
489.043	89.75
489.261	99.75
489.479	90.75
489.696	87.75
489.914	90.75
490.132	89.75
490.35	91.75
490.568	86.75
490.786	91.75
491.003	85.75
491.221	78.75
491.439	96.75
491.657	102.75
491.874	75.75
492.092	100.75
492.31	84.75
492.527	89.75
492.745	98.75
492.963	100.75
493.18	99.75
493.398	104.75
493.615	99.75
493.833	99.75
494.05	105.75
494.268	98.75
494.485	91.75
494.703	83.75
494.92	85.75
495.138	81.75
495.355	73.75
495.573	97.75
495.79	77.75
496.008	89.75
496.225	87.75
496.442	88.75
496.66	95.75
496.877	89.75
497.094	105.75
497.312	100.75
497.529	95.75
497.746	82.75
497.963	82.75
498.181	103.75
498.398	89.75
498.615	119.75
498.832	104.75
499.049	93.75
499.267	101.75
499.484	86.75
499.701	76.75
499.918	86.75
500.135	77.75
500.352	97.75
500.569	95.75
500.786	100.75
501.003	86.75
501.22	78.75
501.437	95.75
501.654	102.75
501.871	116.75
502.088	99.75
502.305	87.75
502.522	88.75
502.739	105.75
502.956	75.75
503.172	82.75
503.389	87.75
503.606	110.75
503.823	102.75
504.04	93.75
504.256	79.75
504.473	94.75
504.69	82.75
504.907	103.75
505.123	93.75
505.34	79.75
505.557	84.75
505.773	99.75
505.99	82.75
506.207	95.75
506.423	100.75
506.64	100.75
506.856	80.75
507.073	100.75
507.289	90.75
507.506	117.75
507.722	111.75
507.939	102.75
508.155	90.75
508.372	76.75
508.588	75.75
508.805	91.75
509.021	98.75
509.238	101.75
509.454	82.75
509.67	97.75
509.887	115.75
510.103	127.75
510.319	207.75
510.536	663.75
510.752	2176.75
510.968	603.75
511.184	144.75
511.401	110.75
511.617	113.75
511.833	92.75
512.049	86.75
512.265	103.75
512.481	99.75
512.698	89.75
512.914	90.75
513.13	88.75
513.346	92.75
513.562	98.75
513.778	98.75
513.994	93.75
514.21	89.75
514.426	108.75
514.642	147.75
514.858	106.75
