Data from Circ_1990_H10_HRD10591_00085.txt Node
Date: Wed Jan 03 11:55:21 EST 2024
User: Yrep
Spectrometer: HR+D1059
Trigger mode: 1
Integration Time (sec): 1.000000E-1
Scans to average: 1
Electric dark correction enabled: true
Nonlinearity correction enabled: false
Boxcar width: 0
XAxis mode: Wavelengths
Number of Pixels in Spectrum: 2048
>>>>>Begin Spectral Data<<<<<
223.165	-15
223.4	-15
223.635	-15
223.869	-8
224.104	-24
224.338	-9
224.573	-25
224.808	-1
225.042	0
225.277	-14
225.511	-13
225.746	13
225.98	12
226.215	0
226.449	13
226.683	18
226.918	22
227.152	31
227.387	35
227.621	40
227.856	43
228.09	41
228.324	61
228.559	57
228.793	60
229.027	62
229.262	76
229.496	72
229.73	104
229.964	79
230.199	76
230.433	71
230.667	67
230.901	78
231.136	92
231.37	66
231.604	74
231.838	95
232.072	75
232.306	78
232.541	86
232.775	79
233.009	87
233.243	82
233.477	85
233.711	79
233.945	70
234.179	79
234.413	75
234.647	86
234.881	87
235.115	77
235.349	94
235.583	80
235.817	80
236.051	69
236.285	93
236.519	91
236.753	72
236.987	95
237.221	77
237.455	90
237.689	80
237.922	83
238.156	61
238.39	61
238.624	69
238.858	71
239.091	67
239.325	91
239.559	79
239.793	95
240.027	69
240.26	75
240.494	91
240.728	80
240.961	79
241.195	80
241.429	76
241.662	71
241.896	75
242.13	77
242.363	77
242.597	83
242.83	74
243.064	71
243.298	79
243.531	77
243.765	69
243.998	77
244.232	92
244.465	84
244.699	84
244.932	79
245.166	81
245.399	72
245.633	83
245.866	85
246.099	98
246.333	80
246.566	82
246.8	87
247.033	83
247.266	91
247.5	84
247.733	85
247.966	82
248.2	97
248.433	76
248.666	81
248.899	81
249.133	85
249.366	104
249.599	100
249.832	78
250.066	73
250.299	93
250.532	92
250.765	76
250.998	75
251.231	72
251.465	85
251.698	78
251.931	82
252.164	75
252.397	86
252.63	85
252.863	77
253.096	83
253.329	88
253.562	86
253.795	84
254.028	75
254.261	83
254.494	83
254.727	89
254.96	92
255.193	72
255.426	81
255.659	83
255.892	85
256.124	92
256.357	87
256.59	98
256.823	96
257.056	77
257.289	82
257.521	76
257.754	75
257.987	72
258.22	79
258.452	95
258.685	81
258.918	85
259.151	79
259.383	78
259.616	85
259.849	90
260.081	84
260.314	82
260.547	98
260.779	73
261.012	85
261.244	85
261.477	97
261.71	106
261.942	111
262.175	118
262.407	98
262.64	77
262.872	87
263.105	80
263.337	85
263.57	82
263.802	86
264.035	79
264.267	85
264.499	82
264.732	83
264.964	85
265.197	76
265.429	95
265.661	91
265.894	86
266.126	88
266.358	91
266.591	82
266.823	88
267.055	95
267.287	85
267.52	91
267.752	88
267.984	85
268.216	88
268.448	85
268.681	89
268.913	81
269.145	92
269.377	100
269.609	88
269.841	82
270.073	75
270.306	89
270.538	77
270.77	84
271.002	83
271.234	85
271.466	91
271.698	103
271.93	92
272.162	70
272.394	96
272.626	94
272.858	100
273.09	100
273.322	79
273.553	99
273.785	91
274.017	82
274.249	94
274.481	78
274.713	90
274.945	88
275.176	80
275.408	88
275.64	85
275.872	110
276.104	77
276.335	86
276.567	100
276.799	118
277.031	144
277.262	141
277.494	117
277.726	95
277.957	89
278.189	92
278.421	91
278.652	103
278.884	84
279.115	96
279.347	89
279.579	103
279.81	102
280.042	119
280.273	154
280.505	128
280.736	89
280.968	101
281.199	89
281.431	91
281.662	87
281.894	83
282.125	104
282.356	131
282.588	140
282.819	119
283.051	97
283.282	97
283.513	87
283.745	103
283.976	84
284.207	83
284.439	79
284.67	79
284.901	92
285.132	92
285.364	83
285.595	81
285.826	92
286.057	85
286.288	82
286.52	85
286.751	73
286.982	72
287.213	76
287.444	85
287.675	95
287.906	109
288.138	84
288.369	79
288.6	97
288.831	88
289.062	97
289.293	88
289.524	93
289.755	103
289.986	98
290.217	89
290.448	81
290.679	97
290.91	93
291.141	98
291.371	93
291.602	89
291.833	87
292.064	89
292.295	98
292.526	90
292.757	97
292.987	85
293.218	89
293.449	89
293.68	84
293.91	92
294.141	91
294.372	93
294.603	88
294.833	94
295.064	89
295.295	94
295.525	97
295.756	117
295.987	123
296.217	149
296.448	129
296.679	87
296.909	92
297.14	89
297.37	101
297.601	107
297.831	99
298.062	91
298.292	100
298.523	96
298.753	94
298.984	89
299.214	86
299.445	95
299.675	97
299.905	92
300.136	85
300.366	77
300.597	83
300.827	86
301.057	101
301.288	96
301.518	91
301.748	93
301.979	97
302.209	100
302.439	85
302.669	88
302.9	82
303.13	78
303.36	116
303.59	111
303.82	110
304.051	88
304.281	80
304.511	105
304.741	96
304.971	88
305.201	95
305.431	91
305.661	88
305.891	90
306.121	96
306.352	94
306.582	124
306.812	109
307.042	96
307.272	123
307.502	124
307.731	139
307.961	111
308.191	98
308.421	98
308.651	113
308.881	109
309.111	98
309.341	93
309.571	101
309.8	98
310.03	99
310.26	92
310.49	100
310.72	112
310.949	117
311.179	93
311.409	88
311.639	104
311.868	107
312.098	94
312.328	95
312.557	108
312.787	112
313.017	113
313.246	110
313.476	92
313.706	86
313.935	92
314.165	99
314.394	113
314.624	113
314.853	105
315.083	104
315.312	101
315.542	84
315.771	88
316.001	88
316.23	95
316.46	109
316.689	78
316.919	97
317.148	87
317.377	112
317.607	100
317.836	85
318.065	86
318.295	83
318.524	85
318.753	91
318.983	91
319.212	113
319.441	111
319.67	102
319.9	88
320.129	90
320.358	96
320.587	87
320.816	97
321.046	90
321.275	100
321.504	100
321.733	92
321.962	92
322.191	93
322.42	103
322.649	103
322.878	109
323.108	120
323.337	135
323.566	145
323.795	158
324.024	209
324.253	409
324.482	882
324.71	1879
324.939	2474
325.168	921
325.397	272
325.626	153
325.855	143
326.084	126
326.313	136
326.542	162
326.77	244
326.999	486
327.228	1017
327.457	1884
327.686	1501
327.914	464
328.143	337
328.372	364
328.6	221
328.829	159
329.058	146
329.287	141
329.515	135
329.744	167
329.972	270
330.201	485
330.43	718
330.658	344
330.887	205
331.115	164
331.344	103
331.572	119
331.801	121
332.03	113
332.258	100
332.486	87
332.715	104
332.943	100
333.172	107
333.4	107
333.629	128
333.857	171
334.085	259
334.314	489
334.542	855
334.771	816
334.999	251
335.227	126
335.455	109
335.684	104
335.912	105
336.14	100
336.369	117
336.597	108
336.825	94
337.053	100
337.281	95
337.51	95
337.738	85
337.966	89
338.194	100
338.422	97
338.65	102
338.878	90
339.106	91
339.334	83
339.562	108
339.79	101
340.018	89
340.246	85
340.474	99
340.702	109
340.93	98
341.158	95
341.386	87
341.614	86
341.842	92
342.07	83
342.298	89
342.526	95
342.754	96
342.981	80
343.209	94
343.437	101
343.665	87
343.893	93
344.12	97
344.348	105
344.576	94
344.804	96
345.031	95
345.259	97
345.487	97
345.714	98
345.942	96
346.17	85
346.397	95
346.625	109
346.853	98
347.08	96
347.308	83
347.535	121
347.763	110
347.99	103
348.218	96
348.445	95
348.673	100
348.9	96
349.128	104
349.355	92
349.583	89
349.81	102
350.037	84
350.265	86
350.492	102
350.72	97
350.947	106
351.174	111
351.402	110
351.629	96
351.856	110
352.083	107
352.311	125
352.538	106
352.765	102
352.992	112
353.22	111
353.447	98
353.674	102
353.901	99
354.128	104
354.355	95
354.583	84
354.81	97
355.037	113
355.264	101
355.491	99
355.718	95
355.945	106
356.172	102
356.399	95
356.626	106
356.853	92
357.08	95
357.307	88
357.534	91
357.761	98
357.988	103
358.215	93
358.441	96
358.668	90
358.895	84
359.122	87
359.349	80
359.576	92
359.802	101
360.029	115
360.256	132
360.483	111
360.709	93
360.936	100
361.163	91
361.39	105
361.616	109
361.843	100
362.07	100
362.296	105
362.523	87
362.749	95
362.976	109
363.203	103
363.429	93
363.656	99
363.882	86
364.109	83
364.335	91
364.562	95
364.788	91
365.015	94
365.241	104
365.468	112
365.694	108
365.92	98
366.147	96
366.373	84
366.599	97
366.826	83
367.052	84
367.278	90
367.505	90
367.731	107
367.957	100
368.184	69
368.41	105
368.636	110
368.862	129
369.089	115
369.315	102
369.541	95
369.767	93
369.993	86
370.219	87
370.445	87
370.672	85
370.898	85
371.124	94
371.35	94
371.576	92
371.802	79
372.028	94
372.254	102
372.48	104
372.706	75
372.932	95
373.158	89
373.384	91
373.61	97
373.835	90
374.061	101
374.287	100
374.513	86
374.739	93
374.965	83
375.191	102
375.416	95
375.642	87
375.868	92
376.094	93
376.319	94
376.545	88
376.771	99
376.997	94
377.222	110
377.448	99
377.674	92
377.899	86
378.125	86
378.35	81
378.576	81
378.802	93
379.027	89
379.253	92
379.478	116
379.704	83
379.929	100
380.155	112
380.38	91
380.606	80
380.831	99
381.057	95
381.282	101
381.507	85
381.733	104
381.958	92
382.184	103
382.409	101
382.634	105
382.86	99
383.085	100
383.31	105
383.535	106
383.761	97
383.986	105
384.211	109
384.436	115
384.662	95
384.887	97
385.112	108
385.337	109
385.562	103
385.787	106
386.013	108
386.238	114
386.463	118
386.688	111
386.913	95
387.138	110
387.363	103
387.588	93
387.813	97
388.038	112
388.263	114
388.488	115
388.713	91
388.938	85
389.163	73
389.387	98
389.612	89
389.837	107
390.062	87
390.287	106
390.512	102
390.736	92
390.961	78
391.186	85
391.411	99
391.636	104
391.86	97
392.085	102
392.31	79
392.534	99
392.759	96
392.984	95
393.208	84
393.433	81
393.658	87
393.882	86
394.107	84
394.331	95
394.556	80
394.78	79
395.005	69
395.229	83
395.454	97
395.678	95
395.903	75
396.127	89
396.352	98
396.576	82
396.801	101
397.025	77
397.249	97
397.474	83
397.698	89
397.922	75
398.147	95
398.371	96
398.595	103
398.82	76
399.044	95
399.268	95
399.492	86
399.717	81
399.941	95
400.165	85
400.389	88
400.613	100
400.837	97
401.062	95
401.286	105
401.51	86
401.734	92
401.958	107
402.182	133
402.406	158
402.63	135
402.854	88
403.078	96
403.302	89
403.526	85
403.75	95
403.974	102
404.198	97
404.422	97
404.645	89
404.869	84
405.093	105
405.317	130
405.541	102
405.765	103
405.988	137
406.212	193
406.436	256
406.66	170
406.883	127
407.107	100
407.331	94
407.555	104
407.778	100
408.002	91
408.226	97
408.449	94
408.673	101
408.896	111
409.12	104
409.344	91
409.567	93
409.791	81
410.014	105
410.238	95
410.461	84
410.685	104
410.908	110
411.132	111
411.355	94
411.578	106
411.802	87
412.025	96
412.249	103
412.472	89
412.695	114
412.919	107
413.142	102
413.365	84
413.589	70
413.812	87
414.035	101
414.258	99
414.482	107
414.705	100
414.928	90
415.151	96
415.374	92
415.597	91
415.821	94
416.044	93
416.267	89
416.49	85
416.713	105
416.936	88
417.159	91
417.382	84
417.605	101
417.828	102
418.051	104
418.274	107
418.497	85
418.72	96
418.943	92
419.166	91
419.389	96
419.611	100
419.834	79
420.057	90
420.28	98
420.503	99
420.726	87
420.948	72
421.171	101
421.394	83
421.617	87
421.839	87
422.062	90
422.285	98
422.507	109
422.73	88
422.953	102
423.175	86
423.398	96
423.621	88
423.843	96
424.066	85
424.288	100
424.511	90
424.733	92
424.956	103
425.178	95
425.401	99
425.623	97
425.846	87
426.068	93
426.291	94
426.513	107
426.735	85
426.958	96
427.18	111
427.402	160
427.625	207
427.847	186
428.069	183
428.292	105
428.514	98
428.736	94
428.958	72
429.181	81
429.403	85
429.625	95
429.847	93
430.069	103
430.292	88
430.514	80
430.736	103
430.958	89
431.18	84
431.402	81
431.624	93
431.846	82
432.068	78
432.29	84
432.512	93
432.734	88
432.956	97
433.178	106
433.4	110
433.622	90
433.844	99
434.066	88
434.287	89
434.509	101
434.731	114
434.953	92
435.175	91
435.397	90
435.618	102
435.84	116
436.062	139
436.284	128
436.505	123
436.727	96
436.949	100
437.17	82
437.392	94
437.614	93
437.835	106
438.057	128
438.278	118
438.5	101
438.721	118
438.943	91
439.165	104
439.386	95
439.608	107
439.829	111
440.05	124
440.272	151
440.493	103
440.715	103
440.936	85
441.158	82
441.379	95
441.6	101
441.822	105
442.043	97
442.264	111
442.486	116
442.707	92
442.928	117
443.149	143
443.371	145
443.592	120
443.813	132
444.034	119
444.255	101
444.476	79
444.698	95
444.919	81
445.14	126
445.361	133
445.582	113
445.803	158
446.024	151
446.245	150
446.466	118
446.687	86
446.908	86
447.129	78
447.35	87
447.571	98
447.792	100
448.013	100
448.234	109
448.455	83
448.675	120
448.896	129
449.117	100
449.338	112
449.559	134
449.779	123
450	107
450.221	81
450.442	89
450.662	99
450.883	109
451.104	114
451.324	108
451.545	91
451.766	103
451.986	91
452.207	81
452.428	100
452.648	95
452.869	123
453.089	137
453.31	120
453.53	96
453.751	89
453.971	103
454.192	109
454.412	97
454.633	99
454.853	81
455.073	90
455.294	96
455.514	110
455.734	80
455.955	84
456.175	96
456.395	74
456.616	98
456.836	109
457.056	93
457.276	83
457.497	93
457.717	79
457.937	94
458.157	95
458.377	94
458.598	114
458.818	182
459.038	188
459.258	129
459.478	91
459.698	93
459.918	78
460.138	94
460.358	83
460.578	94
460.798	95
461.018	85
461.238	80
461.458	81
461.678	79
461.898	81
462.118	87
462.338	87
462.558	79
462.777	95
462.997	93
463.217	102
463.437	85
463.657	97
463.876	98
464.096	103
464.316	88
464.536	100
464.755	107
464.975	118
465.195	198
465.414	183
465.634	97
465.854	79
466.073	89
466.293	85
466.512	84
466.732	97
466.951	76
467.171	88
467.391	113
467.61	121
467.829	145
468.049	288
468.268	428
468.488	155
468.707	95
468.927	100
469.146	91
469.365	97
469.585	96
469.804	99
470.023	114
470.243	102
470.462	115
470.681	121
470.901	99
471.12	91
471.339	107
471.558	110
471.777	118
471.997	179
472.216	575
472.435	1187
472.654	303
472.873	113
473.092	112
473.311	82
473.53	96
473.749	84
473.968	97
474.187	113
474.406	120
474.625	99
474.844	88
475.063	99
475.282	94
475.501	85
475.72	92
475.939	93
476.158	87
476.377	88
476.596	100
476.814	78
477.033	94
477.252	93
477.471	84
477.69	93
477.908	85
478.127	99
478.346	111
478.564	100
478.783	106
479.002	114
479.22	123
479.439	111
479.658	124
479.876	104
480.095	117
480.313	105
480.532	120
480.751	192
480.969	544
481.188	2075
481.406	1211
481.624	219
481.843	117
482.061	102
482.28	102
482.498	86
482.717	93
482.935	98
483.153	89
483.372	81
483.59	88
483.808	86
484.027	91
484.245	93
484.463	91
484.681	96
484.9	98
485.118	93
485.336	100
485.554	113
485.772	100
485.99	100
486.209	108
486.427	105
486.645	115
486.863	108
487.081	97
487.299	96
487.517	100
487.735	95
487.953	89
488.171	85
488.389	98
488.607	107
488.825	84
489.043	88
489.261	88
489.479	78
489.696	105
489.914	105
490.132	89
490.35	92
490.568	77
490.786	97
491.003	81
491.221	95
491.439	98
491.657	96
491.874	107
492.092	92
492.31	88
492.527	95
492.745	83
492.963	93
493.18	86
493.398	89
493.615	102
493.833	81
494.05	102
494.268	101
494.485	99
494.703	95
494.92	83
495.138	93
495.355	96
495.573	96
495.79	99
496.008	92
496.225	94
496.442	86
496.66	103
496.877	91
497.094	93
497.312	94
497.529	101
497.746	93
497.963	108
498.181	94
498.398	99
498.615	113
498.832	102
499.049	96
499.267	95
499.484	111
499.701	100
499.918	97
500.135	98
500.352	92
500.569	91
500.786	80
501.003	85
501.22	96
501.437	87
501.654	88
501.871	129
502.088	95
502.305	102
502.522	84
502.739	95
502.956	94
503.172	98
503.389	91
503.606	106
503.823	105
504.04	108
504.256	83
504.473	101
504.69	80
504.907	92
505.123	76
505.34	101
505.557	84
505.773	85
505.99	102
506.207	89
506.423	94
506.64	86
506.856	92
507.073	98
507.289	110
507.506	98
507.722	117
507.939	127
508.155	88
508.372	87
508.588	85
508.805	104
509.021	102
509.238	87
509.454	99
509.67	94
509.887	103
510.103	120
510.319	216
510.536	763
510.752	2444
510.968	667
511.184	164
511.401	111
511.617	102
511.833	104
512.049	104
512.265	91
512.481	82
512.698	89
512.914	85
513.13	90
513.346	98
513.562	96
513.778	99
513.994	115
514.21	119
514.426	142
514.642	154
514.858	150
515.074	188
515.29	538
515.506	1874
515.721	669
515.937	173
516.153	117
516.369	93
516.585	96
516.801	103
517.016	87
517.232	95
517.448	88
517.664	94
517.879	98
518.095	97
518.311	102
518.527	105
518.742	89
518.958	97
519.173	104
519.389	97
519.605	96
519.82	118
520.036	97
520.251	125
520.467	131
520.682	116
520.898	113
521.113	114
521.329	133
521.544	251
521.76	710
521.975	3030
522.19	1787
522.406	384
522.621	131
522.836	100
523.052	105
523.267	102
523.482	109
523.698	105
523.913	132
524.128	96
524.343	100
524.559	91
524.774	103
524.989	104
525.204	113
525.419	102
525.634	94
525.849	104
526.064	88
526.28	91
526.495	81
526.71	96
526.925	102
527.14	94
527.355	81
527.57	86
527.785	75
527.999	78
528.214	92
528.429	101
528.644	88
528.859	86
529.074	94
529.289	132
529.503	223
529.718	105
529.933	103
530.148	90
530.363	102
530.577	98
530.792	88
531.007	80
531.221	92
531.436	88
531.651	86
531.865	94
532.08	91
532.295	85
532.509	84
532.724	103
532.938	93
533.153	92
533.367	99
533.582	98
533.796	85
534.011	95
534.225	101
534.44	93
534.654	96
534.868	88
535.083	106
535.297	89
535.511	99
535.726	105
535.94	103
536.154	98
536.369	86
536.583	95
536.797	95
537.011	102
537.225	94
537.44	95
537.654	108
537.868	86
538.082	102
538.296	96
538.51	87
538.724	91
538.938	91
539.153	105
539.367	93
539.581	101
539.795	93
540.009	84
540.222	80
540.436	84
540.65	92
540.864	79
541.078	99
541.292	95
541.506	89
541.72	84
541.934	96
542.147	68
542.361	89
542.575	98
542.789	87
543.002	89
543.216	103
543.43	100
543.644	97
543.857	93
544.071	79
544.285	95
544.498	97
544.712	95
544.925	110
545.139	89
545.352	81
545.566	99
545.779	77
545.993	99
546.206	101
546.42	83
546.633	87
546.847	94
547.06	97
547.274	69
547.487	89
547.7	101
547.914	89
548.127	105
548.34	88
548.554	92
548.767	88
548.98	88
549.193	84
549.407	90
549.62	92
549.833	88
550.046	84
550.259	82
550.473	85
550.686	94
550.899	99
551.112	89
551.325	81
551.538	96
551.751	89
551.964	93
552.177	104
552.39	91
552.603	87
552.816	76
553.029	81
553.242	86
553.455	101
553.667	109
553.88	111
554.093	109
554.306	100
554.519	108
554.732	96
554.944	109
555.157	91
555.37	104
555.583	109
555.795	103
556.008	92
556.221	86
556.433	95
556.646	101
556.859	83
557.071	84
557.284	83
557.496	100
557.709	88
557.921	77
558.134	97
558.346	77
558.559	90
558.771	92
558.984	76
559.196	96
559.409	100
559.621	94
559.833	88
560.046	98
560.258	83
560.47	116
560.683	99
560.895	86
561.107	91
561.32	96
561.532	83
561.744	89
561.956	99
562.168	82
562.381	89
562.593	91
562.805	81
563.017	90
563.229	98
563.441	90
563.653	95
563.865	99
564.077	101
564.289	87
564.501	100
564.713	87
564.925	101
565.137	113
565.349	106
565.561	71
565.773	87
565.985	78
566.197	86
566.408	69
566.62	79
566.832	88
567.044	84
567.255	90
567.467	91
567.679	96
567.891	91
568.102	88
568.314	81
568.526	92
568.737	96
568.949	93
569.161	93
569.372	76
569.584	100
569.795	88
570.007	118
570.218	251
570.43	142
570.641	82
570.853	86
571.064	76
571.276	78
571.487	87
571.698	85
571.91	83
572.121	90
572.333	85
572.544	90
572.755	83
572.966	79
573.178	95
573.389	85
573.6	89
573.811	80
574.023	102
574.234	85
574.445	76
574.656	75
574.867	74
575.078	97
575.289	79
575.501	85
575.712	63
575.923	99
576.134	66
576.345	95
576.556	91
576.767	88
576.978	77
577.188	91
577.399	87
577.61	100
577.821	100
578.032	120
578.243	270
578.454	751
578.665	231
578.875	105
579.086	79
579.297	90
579.508	76
579.718	87
579.929	91
580.14	83
580.35	92
580.561	84
580.772	89
580.982	94
581.193	85
