Data from Circ_1990_H10_HRD10591_00075.txt Node
Date: Wed Jan 03 11:55:19 EST 2024
User: Yrep
Spectrometer: HR+D1059
Trigger mode: 1
Integration Time (sec): 1.000000E-1
Scans to average: 1
Electric dark correction enabled: true
Nonlinearity correction enabled: false
Boxcar width: 0
XAxis mode: Wavelengths
Number of Pixels in Spectrum: 2048
>>>>>Begin Spectral Data<<<<<
223.165	-16.88
223.4	-16.88
223.635	-16.88
223.869	-25.88
224.104	-13.88
224.338	-21.88
224.573	-24.88
224.808	-10.88
225.042	-9.88
225.277	-10.88
225.511	7.12
225.746	17.12
225.98	5.12
226.215	15.12
226.449	8.12
226.683	27.12
226.918	19.12
227.152	36.12
227.387	37.12
227.621	42.12
227.856	39.12
228.09	45.12
228.324	49.12
228.559	51.12
228.793	62.12
229.027	57.12
229.262	66.12
229.496	66.12
229.73	87.12
229.964	103.12
230.199	83.12
230.433	75.12
230.667	92.12
230.901	72.12
231.136	66.12
231.37	86.12
231.604	92.12
231.838	86.12
232.072	81.12
232.306	90.12
232.541	81.12
232.775	91.12
233.009	78.12
233.243	92.12
233.477	81.12
233.711	80.12
233.945	91.12
234.179	70.12
234.413	77.12
234.647	80.12
234.881	86.12
235.115	81.12
235.349	86.12
235.583	77.12
235.817	78.12
236.051	67.12
236.285	73.12
236.519	91.12
236.753	87.12
236.987	75.12
237.221	94.12
237.455	91.12
237.689	85.12
237.922	90.12
238.156	80.12
238.39	78.12
238.624	72.12
238.858	75.12
239.091	75.12
239.325	91.12
239.559	76.12
239.793	82.12
240.027	75.12
240.26	75.12
240.494	81.12
240.728	70.12
240.961	77.12
241.195	75.12
241.429	70.12
241.662	74.12
241.896	83.12
242.13	67.12
242.363	76.12
242.597	84.12
242.83	80.12
243.064	68.12
243.298	70.12
243.531	71.12
243.765	81.12
243.998	79.12
244.232	86.12
244.465	84.12
244.699	68.12
244.932	65.12
245.166	75.12
245.399	76.12
245.633	88.12
245.866	87.12
246.099	79.12
246.333	61.12
246.566	77.12
246.8	77.12
247.033	101.12
247.266	85.12
247.5	75.12
247.733	63.12
247.966	92.12
248.2	69.12
248.433	69.12
248.666	68.12
248.899	70.12
249.133	91.12
249.366	103.12
249.599	92.12
249.832	72.12
250.066	82.12
250.299	75.12
250.532	91.12
250.765	93.12
250.998	70.12
251.231	77.12
251.465	74.12
251.698	79.12
251.931	79.12
252.164	88.12
252.397	82.12
252.63	81.12
252.863	72.12
253.096	88.12
253.329	76.12
253.562	88.12
253.795	69.12
254.028	75.12
254.261	80.12
254.494	80.12
254.727	70.12
254.96	88.12
255.193	79.12
255.426	77.12
255.659	71.12
255.892	96.12
256.124	84.12
256.357	85.12
256.59	97.12
256.823	65.12
257.056	79.12
257.289	95.12
257.521	85.12
257.754	100.12
257.987	88.12
258.22	76.12
258.452	79.12
258.685	87.12
258.918	73.12
259.151	75.12
259.383	89.12
259.616	86.12
259.849	85.12
260.081	89.12
260.314	88.12
260.547	77.12
260.779	101.12
261.012	88.12
261.244	92.12
261.477	94.12
261.71	96.12
261.942	118.12
262.175	105.12
262.407	91.12
262.64	80.12
262.872	77.12
263.105	87.12
263.337	88.12
263.57	80.12
263.802	93.12
264.035	100.12
264.267	78.12
264.499	68.12
264.732	87.12
264.964	89.12
265.197	92.12
265.429	76.12
265.661	80.12
265.894	92.12
266.126	96.12
266.358	88.12
266.591	85.12
266.823	68.12
267.055	88.12
267.287	89.12
267.52	86.12
267.752	78.12
267.984	89.12
268.216	85.12
268.448	92.12
268.681	88.12
268.913	75.12
269.145	85.12
269.377	85.12
269.609	79.12
269.841	83.12
270.073	99.12
270.306	73.12
270.538	75.12
270.77	91.12
271.002	71.12
271.234	93.12
271.466	90.12
271.698	93.12
271.93	84.12
272.162	85.12
272.394	76.12
272.626	92.12
272.858	87.12
273.09	96.12
273.322	98.12
273.553	86.12
273.785	93.12
274.017	76.12
274.249	81.12
274.481	92.12
274.713	87.12
274.945	89.12
275.176	98.12
275.408	92.12
275.64	88.12
275.872	91.12
276.104	91.12
276.335	97.12
276.567	88.12
276.799	120.12
277.031	104.12
277.262	126.12
277.494	106.12
277.726	86.12
277.957	88.12
278.189	67.12
278.421	77.12
278.652	102.12
278.884	98.12
279.115	95.12
279.347	82.12
279.579	84.12
279.81	85.12
280.042	111.12
280.273	127.12
280.505	117.12
280.736	88.12
280.968	91.12
281.199	77.12
281.431	92.12
281.662	95.12
281.894	95.12
282.125	98.12
282.356	119.12
282.588	133.12
282.819	116.12
283.051	87.12
283.282	93.12
283.513	101.12
283.745	83.12
283.976	88.12
284.207	95.12
284.439	103.12
284.67	86.12
284.901	76.12
285.132	75.12
285.364	91.12
285.595	96.12
285.826	93.12
286.057	88.12
286.288	85.12
286.52	91.12
286.751	81.12
286.982	87.12
287.213	90.12
287.444	81.12
287.675	82.12
287.906	81.12
288.138	87.12
288.369	88.12
288.6	75.12
288.831	80.12
289.062	95.12
289.293	86.12
289.524	88.12
289.755	75.12
289.986	86.12
290.217	91.12
290.448	95.12
290.679	80.12
290.91	96.12
291.141	86.12
291.371	66.12
291.602	83.12
291.833	70.12
292.064	80.12
292.295	91.12
292.526	88.12
292.757	80.12
292.987	86.12
293.218	80.12
293.449	88.12
293.68	86.12
293.91	79.12
294.141	92.12
294.372	98.12
294.603	99.12
294.833	91.12
295.064	84.12
295.295	83.12
295.525	94.12
295.756	86.12
295.987	87.12
296.217	122.12
296.448	126.12
296.679	108.12
296.909	80.12
297.14	79.12
297.37	104.12
297.601	99.12
297.831	80.12
298.062	84.12
298.292	89.12
298.523	93.12
298.753	83.12
298.984	86.12
299.214	100.12
299.445	85.12
299.675	91.12
299.905	103.12
300.136	102.12
300.366	99.12
300.597	84.12
300.827	98.12
301.057	92.12
301.288	107.12
301.518	92.12
301.748	99.12
301.979	104.12
302.209	88.12
302.439	92.12
302.669	95.12
302.9	87.12
303.13	98.12
303.36	86.12
303.59	104.12
303.82	114.12
304.051	95.12
304.281	85.12
304.511	104.12
304.741	69.12
304.971	89.12
305.201	93.12
305.431	88.12
305.661	73.12
305.891	99.12
306.121	116.12
306.352	100.12
306.582	97.12
306.812	83.12
307.042	110.12
307.272	107.12
307.502	131.12
307.731	103.12
307.961	104.12
308.191	91.12
308.421	92.12
308.651	94.12
308.881	91.12
309.111	84.12
309.341	87.12
309.571	91.12
309.8	101.12
310.03	111.12
310.26	95.12
310.49	95.12
310.72	108.12
310.949	92.12
311.179	89.12
311.409	88.12
311.639	85.12
311.868	99.12
312.098	88.12
312.328	101.12
312.557	113.12
312.787	112.12
313.017	85.12
313.246	88.12
313.476	99.12
313.706	103.12
313.935	95.12
314.165	95.12
314.394	112.12
314.624	99.12
314.853	108.12
315.083	100.12
315.312	97.12
315.542	95.12
315.771	84.12
316.001	88.12
316.23	84.12
316.46	86.12
316.689	85.12
316.919	85.12
317.148	101.12
317.377	98.12
317.607	103.12
317.836	100.12
318.065	95.12
318.295	95.12
318.524	89.12
318.753	93.12
318.983	92.12
319.212	89.12
319.441	120.12
319.67	99.12
319.9	98.12
320.129	84.12
320.358	114.12
320.587	100.12
320.816	104.12
321.046	91.12
321.275	91.12
321.504	90.12
321.733	98.12
321.962	96.12
322.191	110.12
322.42	92.12
322.649	114.12
322.878	118.12
323.108	111.12
323.337	136.12
323.566	122.12
323.795	155.12
324.024	207.12
324.253	367.12
324.482	781.12
324.71	1617.12
324.939	2125.12
325.168	788.12
325.397	251.12
325.626	136.12
325.855	132.12
326.084	123.12
326.313	136.12
326.542	148.12
326.77	213.12
326.999	443.12
327.228	909.12
327.457	1648.12
327.686	1335.12
327.914	398.12
328.143	285.12
328.372	301.12
328.6	204.12
328.829	121.12
329.058	140.12
329.287	154.12
329.515	155.12
329.744	145.12
329.972	245.12
330.201	378.12
330.43	545.12
330.658	295.12
330.887	183.12
331.115	131.12
331.344	99.12
331.572	99.12
331.801	113.12
332.03	110.12
332.258	102.12
332.486	79.12
332.715	101.12
332.943	105.12
333.172	93.12
333.4	103.12
333.629	114.12
333.857	139.12
334.085	215.12
334.314	393.12
334.542	690.12
334.771	665.12
334.999	220.12
335.227	102.12
335.455	103.12
335.684	101.12
335.912	111.12
336.14	110.12
336.369	111.12
336.597	109.12
336.825	102.12
337.053	96.12
337.281	107.12
337.51	88.12
337.738	91.12
337.966	107.12
338.194	101.12
338.422	92.12
338.65	108.12
338.878	99.12
339.106	87.12
339.334	101.12
339.562	89.12
339.79	101.12
340.018	94.12
340.246	105.12
340.474	92.12
340.702	87.12
340.93	85.12
341.158	94.12
341.386	95.12
341.614	102.12
341.842	88.12
342.07	92.12
342.298	88.12
342.526	89.12
342.754	92.12
342.981	70.12
343.209	101.12
343.437	94.12
343.665	70.12
343.893	95.12
344.12	89.12
344.348	83.12
344.576	83.12
344.804	87.12
345.031	87.12
345.259	110.12
345.487	96.12
345.714	90.12
345.942	95.12
346.17	105.12
346.397	89.12
346.625	83.12
346.853	90.12
347.08	92.12
347.308	95.12
347.535	99.12
347.763	101.12
347.99	108.12
348.218	108.12
348.445	98.12
348.673	94.12
348.9	90.12
349.128	81.12
349.355	90.12
349.583	82.12
349.81	79.12
350.037	83.12
350.265	109.12
350.492	84.12
350.72	79.12
350.947	98.12
351.174	119.12
351.402	108.12
351.629	93.12
351.856	110.12
352.083	111.12
352.311	101.12
352.538	112.12
352.765	100.12
352.992	101.12
353.22	103.12
353.447	97.12
353.674	89.12
353.901	98.12
354.128	99.12
354.355	97.12
354.583	104.12
354.81	106.12
355.037	97.12
355.264	99.12
355.491	88.12
355.718	84.12
355.945	99.12
356.172	86.12
356.399	83.12
356.626	96.12
356.853	100.12
357.08	92.12
357.307	93.12
357.534	88.12
357.761	98.12
357.988	92.12
358.215	96.12
358.441	85.12
358.668	92.12
358.895	99.12
359.122	87.12
359.349	94.12
359.576	110.12
359.802	96.12
360.029	104.12
360.256	105.12
360.483	95.12
360.709	81.12
360.936	93.12
361.163	98.12
361.39	100.12
361.616	97.12
361.843	91.12
362.07	99.12
362.296	93.12
362.523	109.12
362.749	107.12
362.976	85.12
363.203	92.12
363.429	86.12
363.656	76.12
363.882	85.12
364.109	76.12
364.335	93.12
364.562	77.12
364.788	94.12
365.015	83.12
365.241	91.12
365.468	95.12
365.694	91.12
365.92	90.12
366.147	78.12
366.373	102.12
366.599	100.12
366.826	91.12
367.052	72.12
367.278	90.12
367.505	91.12
367.731	91.12
367.957	87.12
368.184	85.12
368.41	96.12
368.636	109.12
368.862	119.12
369.089	102.12
369.315	97.12
369.541	99.12
369.767	92.12
369.993	111.12
370.219	93.12
370.445	93.12
370.672	91.12
370.898	84.12
371.124	83.12
371.35	86.12
371.576	80.12
371.802	94.12
372.028	98.12
372.254	89.12
372.48	95.12
372.706	84.12
372.932	91.12
373.158	86.12
373.384	89.12
373.61	92.12
373.835	110.12
374.061	86.12
374.287	108.12
374.513	93.12
374.739	96.12
374.965	86.12
375.191	91.12
375.416	91.12
375.642	91.12
375.868	84.12
376.094	81.12
376.319	70.12
376.545	100.12
376.771	78.12
376.997	87.12
377.222	78.12
377.448	101.12
377.674	101.12
377.899	96.12
378.125	93.12
378.35	102.12
378.576	86.12
378.802	79.12
379.027	101.12
379.253	92.12
379.478	106.12
379.704	95.12
379.929	82.12
380.155	101.12
380.38	103.12
380.606	102.12
380.831	91.12
381.057	102.12
381.282	96.12
381.507	106.12
381.733	99.12
381.958	104.12
382.184	101.12
382.409	90.12
382.634	107.12
382.86	87.12
383.085	86.12
383.31	116.12
383.535	103.12
383.761	104.12
383.986	92.12
384.211	115.12
384.436	97.12
384.662	98.12
384.887	107.12
385.112	118.12
385.337	110.12
385.562	109.12
385.787	114.12
386.013	121.12
386.238	121.12
386.463	107.12
386.688	107.12
386.913	109.12
387.138	115.12
387.363	108.12
387.588	107.12
387.813	100.12
388.038	104.12
388.263	119.12
388.488	112.12
388.713	95.12
388.938	90.12
389.163	77.12
389.387	83.12
389.612	91.12
389.837	85.12
390.062	100.12
390.287	74.12
390.512	98.12
390.736	88.12
390.961	84.12
391.186	89.12
391.411	80.12
391.636	98.12
391.86	72.12
392.085	100.12
392.31	86.12
392.534	90.12
392.759	101.12
392.984	75.12
393.208	92.12
393.433	77.12
393.658	74.12
393.882	101.12
394.107	105.12
394.331	96.12
394.556	86.12
394.78	93.12
395.005	64.12
395.229	96.12
395.454	88.12
395.678	72.12
395.903	95.12
396.127	93.12
396.352	88.12
396.576	87.12
396.801	78.12
397.025	92.12
397.249	93.12
397.474	92.12
397.698	84.12
397.922	84.12
398.147	88.12
398.371	87.12
398.595	93.12
398.82	86.12
399.044	79.12
399.268	81.12
399.492	104.12
399.717	82.12
399.941	81.12
400.165	102.12
400.389	94.12
400.613	96.12
400.837	90.12
401.062	100.12
401.286	94.12
401.51	85.12
401.734	75.12
401.958	107.12
402.182	125.12
402.406	152.12
402.63	102.12
402.854	79.12
403.078	79.12
403.302	84.12
403.526	99.12
403.75	81.12
403.974	83.12
404.198	98.12
404.422	85.12
404.645	73.12
404.869	96.12
405.093	93.12
405.317	132.12
405.541	118.12
405.765	101.12
405.988	116.12
406.212	159.12
406.436	218.12
406.66	146.12
406.883	102.12
407.107	99.12
407.331	83.12
407.555	97.12
407.778	108.12
408.002	83.12
408.226	86.12
408.449	82.12
408.673	89.12
408.896	94.12
409.12	96.12
409.344	85.12
409.567	86.12
409.791	98.12
410.014	87.12
410.238	88.12
410.461	88.12
410.685	96.12
410.908	86.12
411.132	90.12
411.355	105.12
411.578	99.12
411.802	91.12
412.025	97.12
412.249	96.12
412.472	98.12
412.695	102.12
412.919	95.12
413.142	90.12
413.365	87.12
413.589	75.12
413.812	88.12
414.035	86.12
414.258	104.12
414.482	87.12
414.705	93.12
414.928	98.12
415.151	99.12
415.374	96.12
415.597	95.12
415.821	101.12
416.044	92.12
416.267	84.12
416.49	86.12
416.713	82.12
416.936	91.12
417.159	96.12
417.382	112.12
417.605	93.12
417.828	104.12
418.051	91.12
418.274	103.12
418.497	83.12
418.72	80.12
418.943	85.12
419.166	84.12
419.389	90.12
419.611	88.12
419.834	80.12
420.057	85.12
420.28	89.12
420.503	84.12
420.726	83.12
420.948	102.12
421.171	92.12
421.394	104.12
421.617	78.12
421.839	89.12
422.062	102.12
422.285	85.12
422.507	96.12
422.73	100.12
422.953	83.12
423.175	89.12
423.398	79.12
423.621	98.12
423.843	89.12
424.066	96.12
424.288	99.12
424.511	84.12
424.733	88.12
424.956	102.12
425.178	102.12
425.401	101.12
425.623	97.12
425.846	77.12
426.068	96.12
426.291	87.12
426.513	93.12
426.735	104.12
426.958	92.12
427.18	97.12
427.402	129.12
427.625	176.12
427.847	157.12
428.069	151.12
428.292	97.12
428.514	110.12
428.736	102.12
428.958	82.12
429.181	82.12
429.403	90.12
429.625	92.12
429.847	95.12
430.069	106.12
430.292	92.12
430.514	78.12
430.736	89.12
430.958	75.12
431.18	84.12
431.402	95.12
431.624	87.12
431.846	94.12
432.068	81.12
432.29	81.12
432.512	83.12
432.734	92.12
432.956	89.12
433.178	103.12
433.4	99.12
433.622	95.12
433.844	84.12
434.066	93.12
434.287	104.12
434.509	93.12
434.731	87.12
434.953	93.12
435.175	91.12
435.397	95.12
435.618	102.12
435.84	97.12
436.062	124.12
436.284	112.12
436.505	88.12
436.727	108.12
436.949	100.12
437.17	95.12
437.392	92.12
437.614	95.12
437.835	115.12
438.057	128.12
438.278	95.12
438.5	105.12
438.721	128.12
438.943	95.12
439.165	83.12
439.386	87.12
439.608	98.12
439.829	100.12
440.05	134.12
440.272	152.12
440.493	103.12
440.715	83.12
440.936	91.12
441.158	89.12
441.379	95.12
441.6	101.12
441.822	103.12
442.043	95.12
442.264	108.12
442.486	103.12
442.707	103.12
442.928	87.12
443.149	126.12
443.371	119.12
443.592	104.12
443.813	115.12
444.034	111.12
444.255	95.12
444.476	88.12
444.698	89.12
444.919	95.12
445.14	129.12
445.361	116.12
445.582	129.12
445.803	155.12
446.024	165.12
446.245	134.12
446.466	99.12
446.687	98.12
446.908	86.12
447.129	77.12
447.35	84.12
447.571	100.12
447.792	94.12
448.013	91.12
448.234	98.12
448.455	104.12
448.675	113.12
448.896	136.12
449.117	81.12
449.338	109.12
449.559	136.12
449.779	139.12
450	95.12
450.221	96.12
450.442	88.12
450.662	102.12
450.883	109.12
451.104	117.12
451.324	90.12
451.545	77.12
451.766	93.12
451.986	100.12
452.207	101.12
452.428	91.12
452.648	100.12
452.869	102.12
453.089	111.12
453.31	108.12
453.53	104.12
453.751	85.12
453.971	109.12
454.192	122.12
454.412	91.12
454.633	91.12
454.853	100.12
455.073	90.12
455.294	89.12
455.514	105.12
455.734	80.12
455.955	79.12
456.175	82.12
456.395	86.12
456.616	91.12
456.836	95.12
457.056	92.12
457.276	92.12
457.497	79.12
457.717	94.12
457.937	87.12
458.157	92.12
458.377	97.12
458.598	112.12
458.818	160.12
459.038	180.12
459.258	116.12
459.478	105.12
459.698	94.12
459.918	103.12
460.138	85.12
460.358	86.12
460.578	87.12
460.798	104.12
461.018	89.12
461.238	86.12
461.458	87.12
461.678	88.12
461.898	92.12
462.118	80.12
462.338	93.12
462.558	92.12
462.777	79.12
462.997	82.12
463.217	89.12
463.437	89.12
463.657	87.12
463.876	95.12
464.096	92.12
464.316	101.12
464.536	96.12
464.755	95.12
464.975	118.12
465.195	167.12
465.414	168.12
465.634	112.12
465.854	96.12
466.073	80.12
466.293	88.12
466.512	87.12
466.732	80.12
466.951	93.12
467.171	87.12
467.391	91.12
467.61	120.12
467.829	127.12
468.049	251.12
468.268	343.12
468.488	125.12
468.707	67.12
468.927	79.12
469.146	91.12
469.365	79.12
469.585	107.12
469.804	106.12
470.023	94.12
470.243	91.12
470.462	91.12
470.681	104.12
470.901	92.12
471.12	94.12
471.339	86.12
471.558	87.12
471.777	120.12
471.997	166.12
472.216	451.12
472.435	907.12
472.654	267.12
472.873	110.12
473.092	93.12
473.311	87.12
473.53	83.12
473.749	104.12
473.968	93.12
474.187	111.12
474.406	109.12
474.625	95.12
474.844	94.12
475.063	85.12
475.282	82.12
475.501	85.12
475.72	94.12
475.939	87.12
476.158	89.12
476.377	104.12
476.596	94.12
476.814	90.12
477.033	80.12
477.252	100.12
477.471	92.12
477.69	92.12
477.908	101.12
478.127	97.12
478.346	75.12
478.564	72.12
478.783	87.12
479.002	103.12
479.22	94.12
479.439	102.12
479.658	117.12
479.876	98.12
480.095	107.12
480.313	110.12
480.532	117.12
480.751	168.12
480.969	417.12
481.188	1605.12
481.406	950.12
481.624	203.12
481.843	112.12
482.061	93.12
482.28	92.12
482.498	76.12
482.717	88.12
482.935	92.12
483.153	80.12
483.372	81.12
483.59	98.12
483.808	88.12
484.027	97.12
484.245	86.12
484.463	100.12
484.681	99.12
484.9	92.12
485.118	106.12
485.336	88.12
485.554	98.12
485.772	102.12
485.99	103.12
486.209	115.12
486.427	107.12
486.645	108.12
486.863	118.12
487.081	108.12
487.299	105.12
487.517	84.12
487.735	100.12
487.953	84.12
488.171	105.12
488.389	89.12
488.607	98.12
488.825	99.12
489.043	95.12
489.261	101.12
489.479	81.12
489.696	97.12
489.914	83.12
490.132	95.12
490.35	94.12
490.568	77.12
490.786	89.12
491.003	88.12
491.221	91.12
491.439	84.12
491.657	94.12
491.874	96.12
492.092	97.12
492.31	93.12
492.527	94.12
492.745	105.12
492.963	92.12
493.18	87.12
493.398	85.12
493.615	92.12
493.833	94.12
494.05	93.12
494.268	79.12
494.485	85.12
494.703	96.12
494.92	109.12
495.138	89.12
495.355	91.12
495.573	79.12
495.79	87.12
496.008	81.12
496.225	84.12
496.442	79.12
496.66	72.12
496.877	83.12
497.094	96.12
497.312	99.12
497.529	104.12
497.746	96.12
497.963	85.12
498.181	103.12
498.398	95.12
498.615	110.12
498.832	96.12
499.049	79.12
499.267	90.12
499.484	84.12
499.701	85.12
499.918	100.12
500.135	69.12
500.352	87.12
500.569	86.12
500.786	86.12
501.003	96.12
501.22	86.12
501.437	79.12
501.654	87.12
501.871	108.12
502.088	85.12
502.305	87.12
502.522	84.12
502.739	105.12
502.956	88.12
503.172	77.12
503.389	101.12
503.606	105.12
503.823	82.12
504.04	85.12
504.256	103.12
504.473	78.12
504.69	81.12
504.907	99.12
505.123	88.12
505.34	85.12
505.557	97.12
505.773	101.12
505.99	80.12
506.207	96.12
506.423	98.12
506.64	95.12
506.856	106.12
507.073	79.12
507.289	100.12
507.506	95.12
507.722	124.12
507.939	118.12
508.155	111.12
508.372	92.12
508.588	94.12
508.805	99.12
509.021	92.12
509.238	110.12
509.454	105.12
509.67	100.12
509.887	100.12
510.103	124.12
510.319	207.12
510.536	694.12
510.752	2175.12
510.968	591.12
511.184	158.12
511.401	113.12
511.617	100.12
511.833	105.12
512.049	94.12
512.265	101.12
512.481	87.12
512.698	106.12
512.914	88.12
513.13	100.12
513.346	84.12
513.562	95.12
513.778	98.12
513.994	100.12
514.21	96.12
514.426	133.12
514.642	139.12
