Data from Circ_1990_H10_HRD10591_00087.txt Node
Date: Wed Jan 03 11:55:21 EST 2024
User: Yrep
Spectrometer: HR+D1059
Trigger mode: 1
Integration Time (sec): 1.000000E-1
Scans to average: 1
Electric dark correction enabled: true
Nonlinearity correction enabled: false
Boxcar width: 0
XAxis mode: Wavelengths
Number of Pixels in Spectrum: 2048
>>>>>Begin Spectral Data<<<<<
223.165	-13.75
223.4	-13.75
223.635	-13.75
223.869	-23.75
224.104	-29.75
224.338	-11.75
224.573	-6.75
224.808	-13.75
225.042	-12.75
225.277	-9.75
225.511	1.25
225.746	2.25
225.98	6.25
226.215	6.25
226.449	21.25
226.683	25.25
226.918	28.25
227.152	31.25
227.387	41.25
227.621	36.25
227.856	54.25
228.09	43.25
228.324	42.25
228.559	55.25
228.793	61.25
229.027	81.25
229.262	56.25
229.496	64.25
229.73	82.25
229.964	103.25
230.199	70.25
230.433	77.25
230.667	77.25
230.901	86.25
231.136	77.25
231.37	74.25
231.604	86.25
231.838	90.25
232.072	84.25
232.306	72.25
232.541	83.25
232.775	82.25
233.009	88.25
233.243	73.25
233.477	99.25
233.711	97.25
233.945	79.25
234.179	74.25
234.413	83.25
234.647	83.25
234.881	83.25
235.115	77.25
235.349	75.25
235.583	94.25
235.817	102.25
236.051	86.25
236.285	88.25
236.519	82.25
236.753	85.25
236.987	75.25
237.221	74.25
237.455	87.25
237.689	74.25
237.922	87.25
238.156	83.25
238.39	77.25
238.624	90.25
238.858	81.25
239.091	94.25
239.325	93.25
239.559	87.25
239.793	85.25
240.027	86.25
240.26	88.25
240.494	95.25
240.728	94.25
240.961	81.25
241.195	79.25
241.429	92.25
241.662	88.25
241.896	73.25
242.13	82.25
242.363	81.25
242.597	59.25
242.83	74.25
243.064	85.25
243.298	93.25
243.531	78.25
243.765	86.25
243.998	78.25
244.232	75.25
244.465	87.25
244.699	97.25
244.932	81.25
245.166	74.25
245.399	83.25
245.633	73.25
245.866	87.25
246.099	91.25
246.333	82.25
246.566	82.25
246.8	84.25
247.033	74.25
247.266	74.25
247.5	73.25
247.733	86.25
247.966	77.25
248.2	87.25
248.433	76.25
248.666	81.25
248.899	67.25
249.133	100.25
249.366	99.25
249.599	94.25
249.832	87.25
250.066	91.25
250.299	77.25
250.532	73.25
250.765	69.25
250.998	67.25
251.231	69.25
251.465	81.25
251.698	95.25
251.931	78.25
252.164	87.25
252.397	70.25
252.63	78.25
252.863	79.25
253.096	83.25
253.329	75.25
253.562	79.25
253.795	89.25
254.028	57.25
254.261	91.25
254.494	98.25
254.727	73.25
254.96	79.25
255.193	93.25
255.426	94.25
255.659	72.25
255.892	95.25
256.124	87.25
256.357	96.25
256.59	91.25
256.823	99.25
257.056	94.25
257.289	74.25
257.521	90.25
257.754	87.25
257.987	91.25
258.22	88.25
258.452	89.25
258.685	96.25
258.918	88.25
259.151	70.25
259.383	79.25
259.616	85.25
259.849	99.25
260.081	81.25
260.314	79.25
260.547	90.25
260.779	86.25
261.012	75.25
261.244	101.25
261.477	97.25
261.71	81.25
261.942	107.25
262.175	126.25
262.407	90.25
262.64	84.25
262.872	86.25
263.105	81.25
263.337	89.25
263.57	91.25
263.802	89.25
264.035	83.25
264.267	93.25
264.499	94.25
264.732	95.25
264.964	93.25
265.197	69.25
265.429	85.25
265.661	93.25
265.894	92.25
266.126	90.25
266.358	85.25
266.591	86.25
266.823	97.25
267.055	85.25
267.287	89.25
267.52	101.25
267.752	97.25
267.984	86.25
268.216	79.25
268.448	105.25
268.681	81.25
268.913	79.25
269.145	103.25
269.377	103.25
269.609	98.25
269.841	87.25
270.073	79.25
270.306	87.25
270.538	100.25
270.77	82.25
271.002	96.25
271.234	88.25
271.466	92.25
271.698	86.25
271.93	90.25
272.162	100.25
272.394	95.25
272.626	83.25
272.858	72.25
273.09	105.25
273.322	90.25
273.553	67.25
273.785	89.25
274.017	83.25
274.249	89.25
274.481	102.25
274.713	87.25
274.945	91.25
275.176	81.25
275.408	85.25
275.64	95.25
275.872	99.25
276.104	101.25
276.335	91.25
276.567	94.25
276.799	115.25
277.031	130.25
277.262	115.25
277.494	109.25
277.726	98.25
277.957	94.25
278.189	99.25
278.421	95.25
278.652	85.25
278.884	79.25
279.115	85.25
279.347	91.25
279.579	86.25
279.81	86.25
280.042	126.25
280.273	140.25
280.505	109.25
280.736	87.25
280.968	89.25
281.199	91.25
281.431	94.25
281.662	94.25
281.894	86.25
282.125	87.25
282.356	113.25
282.588	125.25
282.819	106.25
283.051	101.25
283.282	88.25
283.513	83.25
283.745	88.25
283.976	87.25
284.207	83.25
284.439	81.25
284.67	90.25
284.901	98.25
285.132	90.25
285.364	92.25
285.595	88.25
285.826	87.25
286.057	97.25
286.288	99.25
286.52	88.25
286.751	95.25
286.982	78.25
287.213	89.25
287.444	102.25
287.675	98.25
287.906	98.25
288.138	102.25
288.369	102.25
288.6	86.25
288.831	99.25
289.062	87.25
289.293	89.25
289.524	82.25
289.755	72.25
289.986	85.25
290.217	82.25
290.448	84.25
290.679	77.25
290.91	79.25
291.141	85.25
291.371	95.25
291.602	96.25
291.833	89.25
292.064	87.25
292.295	96.25
292.526	98.25
292.757	79.25
292.987	83.25
293.218	89.25
293.449	95.25
293.68	90.25
293.91	77.25
294.141	96.25
294.372	85.25
294.603	81.25
294.833	99.25
295.064	93.25
295.295	96.25
295.525	95.25
295.756	98.25
295.987	107.25
296.217	132.25
296.448	134.25
296.679	101.25
296.909	101.25
297.14	76.25
297.37	96.25
297.601	95.25
297.831	89.25
298.062	103.25
298.292	91.25
298.523	92.25
298.753	101.25
298.984	85.25
299.214	102.25
299.445	105.25
299.675	90.25
299.905	97.25
300.136	105.25
300.366	102.25
300.597	93.25
300.827	88.25
301.057	114.25
301.288	101.25
301.518	97.25
301.748	92.25
301.979	102.25
302.209	83.25
302.439	96.25
302.669	84.25
302.9	90.25
303.13	97.25
303.36	97.25
303.59	115.25
303.82	122.25
304.051	105.25
304.281	101.25
304.511	85.25
304.741	89.25
304.971	95.25
305.201	83.25
305.431	99.25
305.661	102.25
305.891	105.25
306.121	93.25
306.352	111.25
306.582	115.25
306.812	105.25
307.042	118.25
307.272	115.25
307.502	127.25
307.731	137.25
307.961	119.25
308.191	82.25
308.421	89.25
308.651	102.25
308.881	107.25
309.111	86.25
309.341	98.25
309.571	94.25
309.8	106.25
310.03	87.25
310.26	102.25
310.49	86.25
310.72	101.25
310.949	121.25
311.179	94.25
311.409	94.25
311.639	97.25
311.868	116.25
312.098	102.25
312.328	104.25
312.557	115.25
312.787	98.25
313.017	112.25
313.246	91.25
313.476	99.25
313.706	91.25
313.935	101.25
314.165	116.25
314.394	101.25
314.624	117.25
314.853	89.25
315.083	93.25
315.312	102.25
315.542	99.25
315.771	98.25
316.001	93.25
316.23	95.25
316.46	100.25
316.689	94.25
316.919	100.25
317.148	100.25
317.377	106.25
317.607	105.25
317.836	94.25
318.065	98.25
318.295	85.25
318.524	93.25
318.753	95.25
318.983	100.25
319.212	99.25
319.441	99.25
319.67	109.25
319.9	91.25
320.129	94.25
320.358	118.25
320.587	91.25
320.816	110.25
321.046	113.25
321.275	101.25
321.504	98.25
321.733	111.25
321.962	96.25
322.191	108.25
322.42	111.25
322.649	106.25
322.878	112.25
323.108	138.25
323.337	152.25
323.566	132.25
323.795	164.25
324.024	196.25
324.253	392.25
324.482	833.25
324.71	1701.25
324.939	2276.25
325.168	825.25
325.397	264.25
325.626	161.25
325.855	150.25
326.084	144.25
326.313	146.25
326.542	150.25
326.77	224.25
326.999	447.25
327.228	949.25
327.457	1735.25
327.686	1386.25
327.914	425.25
328.143	276.25
328.372	300.25
328.6	216.25
328.829	128.25
329.058	168.25
329.287	146.25
329.515	134.25
329.744	164.25
329.972	246.25
330.201	425.25
330.43	595.25
330.658	300.25
330.887	189.25
331.115	140.25
331.344	104.25
331.572	109.25
331.801	112.25
332.03	100.25
332.258	116.25
332.486	101.25
332.715	95.25
332.943	105.25
333.172	102.25
333.4	121.25
333.629	143.25
333.857	160.25
334.085	213.25
334.314	414.25
334.542	740.25
334.771	694.25
334.999	224.25
335.227	120.25
335.455	109.25
335.684	102.25
335.912	103.25
336.14	106.25
336.369	105.25
336.597	112.25
336.825	105.25
337.053	98.25
337.281	102.25
337.51	107.25
337.738	100.25
337.966	79.25
338.194	94.25
338.422	101.25
338.65	95.25
338.878	95.25
339.106	69.25
339.334	101.25
339.562	100.25
339.79	85.25
340.018	97.25
340.246	81.25
340.474	89.25
340.702	92.25
340.93	83.25
341.158	100.25
341.386	102.25
341.614	99.25
341.842	98.25
342.07	91.25
342.298	90.25
342.526	93.25
342.754	90.25
342.981	98.25
343.209	100.25
343.437	97.25
343.665	88.25
343.893	90.25
344.12	98.25
344.348	92.25
344.576	98.25
344.804	98.25
345.031	112.25
345.259	97.25
345.487	93.25
345.714	95.25
345.942	96.25
346.17	97.25
346.397	94.25
346.625	98.25
346.853	99.25
347.08	91.25
347.308	94.25
347.535	104.25
347.763	93.25
347.99	92.25
348.218	101.25
348.445	116.25
348.673	97.25
348.9	83.25
349.128	101.25
349.355	107.25
349.583	99.25
349.81	97.25
350.037	86.25
350.265	93.25
350.492	81.25
350.72	103.25
350.947	102.25
351.174	111.25
351.402	117.25
351.629	111.25
351.856	109.25
352.083	116.25
352.311	96.25
352.538	113.25
352.765	118.25
352.992	123.25
353.22	108.25
353.447	91.25
353.674	116.25
353.901	106.25
354.128	104.25
354.355	112.25
354.583	110.25
354.81	108.25
355.037	97.25
355.264	106.25
355.491	95.25
355.718	99.25
355.945	107.25
356.172	91.25
356.399	103.25
356.626	104.25
356.853	102.25
357.08	101.25
357.307	83.25
357.534	93.25
357.761	97.25
357.988	99.25
358.215	100.25
358.441	108.25
358.668	99.25
358.895	88.25
359.122	87.25
359.349	83.25
359.576	87.25
359.802	120.25
360.029	119.25
360.256	115.25
360.483	112.25
360.709	90.25
360.936	96.25
361.163	98.25
361.39	108.25
361.616	105.25
361.843	83.25
362.07	96.25
362.296	106.25
362.523	98.25
362.749	91.25
362.976	94.25
363.203	106.25
363.429	103.25
363.656	100.25
363.882	81.25
364.109	110.25
364.335	78.25
364.562	90.25
364.788	98.25
365.015	100.25
365.241	103.25
365.468	119.25
365.694	114.25
365.92	109.25
366.147	107.25
366.373	90.25
366.599	94.25
366.826	91.25
367.052	104.25
367.278	78.25
367.505	90.25
367.731	89.25
367.957	90.25
368.184	96.25
368.41	102.25
368.636	135.25
368.862	128.25
369.089	113.25
369.315	104.25
369.541	90.25
369.767	80.25
369.993	110.25
370.219	103.25
370.445	74.25
370.672	103.25
370.898	93.25
371.124	92.25
371.35	94.25
371.576	92.25
371.802	88.25
372.028	84.25
372.254	91.25
372.48	94.25
372.706	89.25
372.932	103.25
373.158	86.25
373.384	89.25
373.61	97.25
373.835	98.25
374.061	89.25
374.287	85.25
374.513	89.25
374.739	88.25
374.965	86.25
375.191	95.25
375.416	102.25
375.642	94.25
375.868	103.25
376.094	87.25
376.319	88.25
376.545	98.25
376.771	93.25
376.997	105.25
377.222	100.25
377.448	100.25
377.674	92.25
377.899	87.25
378.125	87.25
378.35	86.25
378.576	89.25
378.802	82.25
379.027	93.25
379.253	96.25
379.478	89.25
379.704	99.25
379.929	92.25
380.155	105.25
380.38	91.25
380.606	105.25
380.831	102.25
381.057	116.25
381.282	102.25
381.507	99.25
381.733	98.25
381.958	108.25
382.184	104.25
382.409	97.25
382.634	87.25
382.86	103.25
383.085	107.25
383.31	104.25
383.535	104.25
383.761	93.25
383.986	114.25
384.211	95.25
384.436	107.25
384.662	114.25
384.887	104.25
385.112	114.25
385.337	100.25
385.562	111.25
385.787	116.25
386.013	115.25
386.238	142.25
386.463	138.25
386.688	122.25
386.913	114.25
387.138	117.25
387.363	109.25
387.588	102.25
387.813	103.25
388.038	102.25
388.263	115.25
388.488	117.25
388.713	102.25
388.938	84.25
389.163	103.25
389.387	81.25
389.612	106.25
389.837	104.25
390.062	97.25
390.287	108.25
390.512	90.25
390.736	89.25
390.961	86.25
391.186	88.25
391.411	91.25
391.636	78.25
391.86	92.25
392.085	88.25
392.31	87.25
392.534	82.25
392.759	107.25
392.984	83.25
393.208	91.25
393.433	85.25
393.658	89.25
393.882	80.25
394.107	79.25
394.331	88.25
394.556	91.25
394.78	96.25
395.005	112.25
395.229	86.25
395.454	94.25
395.678	84.25
395.903	96.25
396.127	96.25
396.352	81.25
396.576	89.25
396.801	86.25
397.025	101.25
397.249	96.25
397.474	98.25
397.698	90.25
397.922	104.25
398.147	107.25
398.371	86.25
398.595	68.25
398.82	98.25
399.044	83.25
399.268	86.25
399.492	82.25
399.717	95.25
399.941	100.25
400.165	99.25
400.389	103.25
400.613	89.25
400.837	88.25
401.062	103.25
401.286	102.25
401.51	98.25
401.734	89.25
401.958	101.25
402.182	132.25
402.406	162.25
402.63	140.25
402.854	107.25
403.078	91.25
403.302	93.25
403.526	103.25
403.75	85.25
403.974	90.25
404.198	73.25
404.422	90.25
404.645	89.25
404.869	110.25
405.093	103.25
405.317	117.25
405.541	118.25
405.765	105.25
405.988	105.25
406.212	178.25
406.436	219.25
406.66	162.25
406.883	115.25
407.107	112.25
407.331	104.25
407.555	106.25
407.778	110.25
408.002	98.25
408.226	96.25
408.449	85.25
408.673	89.25
408.896	95.25
409.12	93.25
409.344	95.25
409.567	86.25
409.791	89.25
410.014	97.25
410.238	106.25
410.461	89.25
410.685	109.25
410.908	104.25
411.132	102.25
411.355	103.25
411.578	83.25
411.802	107.25
412.025	88.25
412.249	101.25
412.472	122.25
412.695	119.25
412.919	101.25
413.142	105.25
413.365	95.25
413.589	89.25
413.812	109.25
414.035	95.25
414.258	94.25
414.482	105.25
414.705	92.25
414.928	101.25
415.151	86.25
415.374	97.25
415.597	98.25
415.821	93.25
416.044	101.25
416.267	99.25
416.49	92.25
416.713	89.25
416.936	87.25
417.159	101.25
417.382	89.25
417.605	103.25
417.828	113.25
418.051	90.25
418.274	97.25
418.497	81.25
418.72	91.25
418.943	93.25
419.166	82.25
419.389	111.25
419.611	104.25
419.834	84.25
420.057	94.25
420.28	96.25
420.503	99.25
420.726	92.25
420.948	93.25
421.171	92.25
421.394	106.25
421.617	78.25
421.839	98.25
422.062	93.25
422.285	97.25
422.507	103.25
422.73	98.25
422.953	91.25
423.175	97.25
423.398	108.25
423.621	91.25
423.843	92.25
424.066	94.25
424.288	85.25
424.511	99.25
424.733	90.25
424.956	104.25
425.178	99.25
425.401	107.25
425.623	99.25
425.846	110.25
426.068	102.25
426.291	89.25
426.513	93.25
426.735	97.25
426.958	102.25
427.18	109.25
427.402	141.25
427.625	195.25
427.847	164.25
428.069	178.25
428.292	98.25
428.514	114.25
428.736	103.25
428.958	94.25
429.181	102.25
429.403	83.25
429.625	89.25
429.847	94.25
430.069	98.25
430.292	100.25
430.514	92.25
430.736	74.25
430.958	73.25
431.18	102.25
431.402	83.25
431.624	93.25
431.846	97.25
432.068	85.25
432.29	89.25
432.512	99.25
432.734	90.25
432.956	100.25
433.178	91.25
433.4	101.25
433.622	84.25
433.844	89.25
434.066	79.25
434.287	88.25
434.509	96.25
434.731	94.25
434.953	93.25
435.175	96.25
435.397	116.25
435.618	84.25
435.84	104.25
436.062	105.25
436.284	116.25
436.505	104.25
436.727	104.25
436.949	87.25
437.17	89.25
437.392	101.25
437.614	101.25
437.835	105.25
438.057	122.25
438.278	133.25
438.5	102.25
438.721	127.25
438.943	105.25
439.165	101.25
439.386	85.25
439.608	99.25
439.829	112.25
440.05	133.25
440.272	145.25
440.493	106.25
440.715	91.25
440.936	79.25
441.158	92.25
441.379	95.25
441.6	89.25
441.822	75.25
442.043	91.25
442.264	111.25
442.486	114.25
442.707	88.25
442.928	104.25
443.149	131.25
443.371	156.25
443.592	115.25
443.813	114.25
444.034	120.25
444.255	96.25
444.476	87.25
444.698	89.25
444.919	96.25
445.14	136.25
445.361	133.25
445.582	139.25
445.803	144.25
446.024	131.25
446.245	123.25
446.466	118.25
446.687	98.25
446.908	88.25
447.129	93.25
447.35	110.25
447.571	93.25
447.792	98.25
448.013	98.25
448.234	93.25
448.455	97.25
448.675	113.25
448.896	120.25
449.117	114.25
449.338	118.25
449.559	145.25
449.779	136.25
450	106.25
450.221	95.25
450.442	96.25
450.662	105.25
450.883	126.25
451.104	108.25
451.324	91.25
451.545	101.25
451.766	79.25
451.986	87.25
452.207	99.25
452.428	86.25
452.648	101.25
452.869	99.25
453.089	106.25
453.31	115.25
453.53	103.25
453.751	91.25
453.971	102.25
454.192	120.25
454.412	102.25
454.633	93.25
454.853	100.25
455.073	93.25
455.294	93.25
455.514	94.25
455.734	89.25
455.955	87.25
456.175	102.25
456.395	95.25
456.616	93.25
456.836	94.25
457.056	83.25
457.276	91.25
457.497	100.25
457.717	89.25
457.937	98.25
458.157	84.25
458.377	85.25
458.598	105.25
458.818	137.25
459.038	161.25
459.258	118.25
459.478	93.25
459.698	101.25
459.918	103.25
460.138	85.25
460.358	93.25
460.578	90.25
460.798	96.25
461.018	97.25
461.238	89.25
461.458	92.25
461.678	94.25
461.898	78.25
462.118	94.25
462.338	87.25
462.558	93.25
462.777	87.25
462.997	91.25
463.217	95.25
463.437	88.25
463.657	91.25
463.876	91.25
464.096	94.25
464.316	90.25
464.536	106.25
464.755	107.25
464.975	107.25
465.195	174.25
465.414	165.25
465.634	102.25
465.854	92.25
466.073	83.25
466.293	77.25
466.512	88.25
466.732	96.25
466.951	82.25
467.171	85.25
467.391	85.25
467.61	117.25
467.829	134.25
468.049	261.25
468.268	343.25
468.488	142.25
468.707	111.25
468.927	97.25
469.146	87.25
469.365	87.25
469.585	100.25
469.804	95.25
470.023	103.25
470.243	104.25
470.462	118.25
470.681	115.25
470.901	102.25
471.12	89.25
471.339	102.25
471.558	109.25
471.777	122.25
471.997	185.25
472.216	501.25
472.435	1024.25
472.654	293.25
472.873	114.25
473.092	101.25
473.311	102.25
473.53	90.25
473.749	103.25
473.968	100.25
474.187	106.25
474.406	84.25
474.625	95.25
474.844	91.25
475.063	89.25
475.282	91.25
475.501	80.25
475.72	88.25
475.939	85.25
476.158	87.25
476.377	95.25
476.596	81.25
476.814	93.25
477.033	103.25
477.252	93.25
477.471	92.25
477.69	94.25
477.908	95.25
478.127	89.25
478.346	93.25
478.564	103.25
478.783	103.25
479.002	103.25
479.22	96.25
479.439	111.25
479.658	106.25
479.876	112.25
480.095	99.25
480.313	117.25
480.532	106.25
480.751	180.25
480.969	465.25
481.188	1776.25
481.406	1015.25
481.624	209.25
481.843	119.25
482.061	107.25
482.28	87.25
482.498	96.25
482.717	89.25
482.935	97.25
483.153	75.25
483.372	86.25
483.59	88.25
483.808	104.25
484.027	112.25
484.245	108.25
484.463	94.25
484.681	107.25
484.9	100.25
485.118	97.25
485.336	97.25
485.554	93.25
485.772	104.25
485.99	123.25
486.209	105.25
486.427	102.25
486.645	112.25
486.863	111.25
487.081	107.25
487.299	93.25
487.517	101.25
487.735	103.25
487.953	100.25
488.171	102.25
488.389	107.25
488.607	89.25
488.825	83.25
489.043	96.25
489.261	99.25
489.479	80.25
489.696	79.25
489.914	84.25
490.132	97.25
490.35	83.25
490.568	93.25
490.786	77.25
491.003	84.25
491.221	98.25
491.439	89.25
491.657	90.25
491.874	102.25
492.092	96.25
492.31	96.25
492.527	93.25
492.745	110.25
492.963	95.25
493.18	94.25
493.398	100.25
493.615	93.25
493.833	99.25
494.05	99.25
494.268	85.25
494.485	90.25
494.703	100.25
494.92	102.25
495.138	88.25
495.355	82.25
495.573	95.25
495.79	101.25
496.008	105.25
496.225	97.25
496.442	101.25
496.66	98.25
496.877	97.25
497.094	93.25
497.312	99.25
497.529	99.25
497.746	102.25
497.963	93.25
498.181	107.25
498.398	90.25
498.615	107.25
498.832	89.25
499.049	99.25
499.267	93.25
499.484	88.25
499.701	83.25
499.918	80.25
500.135	90.25
500.352	94.25
500.569	89.25
500.786	95.25
501.003	87.25
501.22	93.25
501.437	91.25
501.654	94.25
501.871	112.25
502.088	93.25
502.305	92.25
502.522	83.25
502.739	85.25
502.956	95.25
503.172	98.25
503.389	100.25
503.606	115.25
503.823	106.25
504.04	106.25
504.256	78.25
504.473	89.25
504.69	102.25
504.907	93.25
505.123	91.25
505.34	94.25
505.557	91.25
505.773	88.25
505.99	74.25
506.207	94.25
506.423	97.25
506.64	112.25
506.856	103.25
507.073	97.25
507.289	98.25
507.506	110.25
507.722	106.25
507.939	116.25
508.155	102.25
508.372	88.25
508.588	101.25
508.805	79.25
509.021	91.25
509.238	107.25
509.454	99.25
509.67	97.25
509.887	114.25
510.103	125.25
510.319	210.25
510.536	687.25
510.752	2087.25
510.968	591.25
511.184	137.25
511.401	113.25
511.617	107.25
511.833	106.25
512.049	103.25
512.265	83.25
512.481	93.25
512.698	85.25
512.914	85.25
513.13	107.25
