Data from Circ_1990_H10_HRD10591_00054.txt Node
Date: Wed Jan 03 11:55:14 EST 2024
User: Yrep
Spectrometer: HR+D1059
Trigger mode: 1
Integration Time (sec): 1.000000E-1
Scans to average: 1
Electric dark correction enabled: true
Nonlinearity correction enabled: false
Boxcar width: 0
XAxis mode: Wavelengths
Number of Pixels in Spectrum: 2048
>>>>>Begin Spectral Data<<<<<
223.165	-16.62
223.4	-16.62
223.635	-16.62
223.869	-15.62
224.104	-18.62
224.338	-1.62
224.573	-13.62
224.808	-8.62
225.042	-18.62
225.277	-10.62
225.511	3.38
225.746	-0.62
225.98	6.38
226.215	23.38
226.449	14.38
226.683	8.38
226.918	25.38
227.152	23.38
227.387	28.38
227.621	28.38
227.856	44.38
228.09	52.38
228.324	53.38
228.559	50.38
228.793	63.38
229.027	59.38
229.262	75.38
229.496	92.38
229.73	77.38
229.964	87.38
230.199	80.38
230.433	70.38
230.667	65.38
230.901	84.38
231.136	82.38
231.37	72.38
231.604	93.38
231.838	80.38
232.072	73.38
232.306	83.38
232.541	68.38
232.775	78.38
233.009	89.38
233.243	88.38
233.477	91.38
233.711	77.38
233.945	83.38
234.179	82.38
234.413	85.38
234.647	81.38
234.881	86.38
235.115	75.38
235.349	86.38
235.583	73.38
235.817	79.38
236.051	87.38
236.285	79.38
236.519	83.38
236.753	73.38
236.987	72.38
237.221	81.38
237.455	98.38
237.689	80.38
237.922	65.38
238.156	76.38
238.39	79.38
238.624	79.38
238.858	79.38
239.091	79.38
239.325	95.38
239.559	77.38
239.793	78.38
240.027	92.38
240.26	73.38
240.494	81.38
240.728	75.38
240.961	81.38
241.195	71.38
241.429	69.38
241.662	71.38
241.896	82.38
242.13	69.38
242.363	90.38
242.597	81.38
242.83	68.38
243.064	85.38
243.298	92.38
243.531	88.38
243.765	77.38
243.998	75.38
244.232	69.38
244.465	94.38
244.699	68.38
244.932	73.38
245.166	87.38
245.399	79.38
245.633	75.38
245.866	90.38
246.099	80.38
246.333	86.38
246.566	86.38
246.8	92.38
247.033	70.38
247.266	80.38
247.5	93.38
247.733	72.38
247.966	77.38
248.2	73.38
248.433	80.38
248.666	80.38
248.899	86.38
249.133	93.38
249.366	95.38
249.599	88.38
249.832	89.38
250.066	77.38
250.299	90.38
250.532	76.38
250.765	90.38
250.998	71.38
251.231	76.38
251.465	72.38
251.698	77.38
251.931	73.38
252.164	85.38
252.397	87.38
252.63	84.38
252.863	73.38
253.096	84.38
253.329	71.38
253.562	89.38
253.795	94.38
254.028	87.38
254.261	86.38
254.494	84.38
254.727	93.38
254.96	75.38
255.193	84.38
255.426	79.38
255.659	79.38
255.892	87.38
256.124	84.38
256.357	97.38
256.59	80.38
256.823	86.38
257.056	80.38
257.289	89.38
257.521	72.38
257.754	79.38
257.987	88.38
258.22	88.38
258.452	87.38
258.685	89.38
258.918	87.38
259.151	76.38
259.383	71.38
259.616	67.38
259.849	66.38
260.081	75.38
260.314	91.38
260.547	86.38
260.779	81.38
261.012	76.38
261.244	99.38
261.477	88.38
261.71	91.38
261.942	115.38
262.175	114.38
262.407	90.38
262.64	92.38
262.872	89.38
263.105	60.38
263.337	83.38
263.57	79.38
263.802	81.38
264.035	89.38
264.267	81.38
264.499	91.38
264.732	86.38
264.964	88.38
265.197	79.38
265.429	81.38
265.661	91.38
265.894	86.38
266.126	97.38
266.358	78.38
266.591	87.38
266.823	85.38
267.055	85.38
267.287	81.38
267.52	88.38
267.752	86.38
267.984	83.38
268.216	91.38
268.448	81.38
268.681	99.38
268.913	91.38
269.145	83.38
269.377	81.38
269.609	78.38
269.841	84.38
270.073	77.38
270.306	89.38
270.538	82.38
270.77	83.38
271.002	91.38
271.234	91.38
271.466	84.38
271.698	110.38
271.93	94.38
272.162	87.38
272.394	83.38
272.626	91.38
272.858	84.38
273.09	79.38
273.322	78.38
273.553	87.38
273.785	87.38
274.017	86.38
274.249	87.38
274.481	103.38
274.713	79.38
274.945	78.38
275.176	79.38
275.408	102.38
275.64	104.38
275.872	92.38
276.104	94.38
276.335	106.38
276.567	92.38
276.799	115.38
277.031	117.38
277.262	122.38
277.494	108.38
277.726	88.38
277.957	87.38
278.189	90.38
278.421	95.38
278.652	85.38
278.884	88.38
279.115	86.38
279.347	82.38
279.579	95.38
279.81	110.38
280.042	111.38
280.273	150.38
280.505	118.38
280.736	87.38
280.968	92.38
281.199	91.38
281.431	101.38
281.662	79.38
281.894	92.38
282.125	106.38
282.356	124.38
282.588	153.38
282.819	114.38
283.051	83.38
283.282	92.38
283.513	91.38
283.745	101.38
283.976	96.38
284.207	92.38
284.439	96.38
284.67	81.38
284.901	85.38
285.132	91.38
285.364	86.38
285.595	81.38
285.826	72.38
286.057	88.38
286.288	79.38
286.52	79.38
286.751	87.38
286.982	85.38
287.213	85.38
287.444	91.38
287.675	87.38
287.906	93.38
288.138	101.38
288.369	91.38
288.6	100.38
288.831	101.38
289.062	82.38
289.293	87.38
289.524	89.38
289.755	82.38
289.986	96.38
290.217	94.38
290.448	95.38
290.679	81.38
290.91	92.38
291.141	95.38
291.371	98.38
291.602	99.38
291.833	83.38
292.064	96.38
292.295	88.38
292.526	91.38
292.757	85.38
292.987	100.38
293.218	99.38
293.449	85.38
293.68	101.38
293.91	83.38
294.141	84.38
294.372	84.38
294.603	75.38
294.833	87.38
295.064	83.38
295.295	83.38
295.525	89.38
295.756	117.38
295.987	118.38
296.217	143.38
296.448	123.38
296.679	102.38
296.909	110.38
297.14	83.38
297.37	92.38
297.601	99.38
297.831	92.38
298.062	83.38
298.292	94.38
298.523	90.38
298.753	87.38
298.984	91.38
299.214	89.38
299.445	103.38
299.675	85.38
299.905	94.38
300.136	91.38
300.366	81.38
300.597	100.38
300.827	91.38
301.057	102.38
301.288	103.38
301.518	96.38
301.748	93.38
301.979	97.38
302.209	69.38
302.439	84.38
302.669	98.38
302.9	97.38
303.13	99.38
303.36	106.38
303.59	104.38
303.82	111.38
304.051	95.38
304.281	81.38
304.511	89.38
304.741	79.38
304.971	76.38
305.201	104.38
305.431	106.38
305.661	96.38
305.891	89.38
306.121	89.38
306.352	111.38
306.582	119.38
306.812	97.38
307.042	107.38
307.272	113.38
307.502	116.38
307.731	132.38
307.961	92.38
308.191	73.38
308.421	89.38
308.651	106.38
308.881	96.38
309.111	102.38
309.341	112.38
309.571	101.38
309.8	90.38
310.03	95.38
310.26	102.38
310.49	98.38
310.72	99.38
310.949	88.38
311.179	105.38
311.409	93.38
311.639	100.38
311.868	87.38
312.098	97.38
312.328	91.38
312.557	112.38
312.787	107.38
313.017	96.38
313.246	95.38
313.476	96.38
313.706	107.38
313.935	97.38
314.165	105.38
314.394	111.38
314.624	98.38
314.853	95.38
315.083	91.38
315.312	92.38
315.542	96.38
315.771	90.38
316.001	102.38
316.23	95.38
316.46	83.38
316.689	80.38
316.919	98.38
317.148	97.38
317.377	109.38
317.607	104.38
317.836	84.38
318.065	70.38
318.295	76.38
318.524	98.38
318.753	99.38
318.983	96.38
319.212	93.38
319.441	109.38
319.67	104.38
319.9	93.38
320.129	102.38
320.358	96.38
320.587	96.38
320.816	95.38
321.046	88.38
321.275	84.38
321.504	91.38
321.733	104.38
321.962	104.38
322.191	88.38
322.42	100.38
322.649	104.38
322.878	124.38
323.108	129.38
323.337	126.38
323.566	136.38
323.795	173.38
324.024	200.38
324.253	407.38
324.482	881.38
324.71	1833.38
324.939	2407.38
325.168	867.38
325.397	252.38
325.626	166.38
325.855	131.38
326.084	133.38
326.313	131.38
326.542	170.38
326.77	240.38
326.999	482.38
327.228	961.38
327.457	1777.38
327.686	1427.38
327.914	437.38
328.143	306.38
328.372	342.38
328.6	217.38
328.829	148.38
329.058	156.38
329.287	157.38
329.515	131.38
329.744	156.38
329.972	255.38
330.201	457.38
330.43	637.38
330.658	341.38
330.887	191.38
331.115	160.38
331.344	120.38
331.572	115.38
331.801	111.38
332.03	120.38
332.258	111.38
332.486	97.38
332.715	97.38
332.943	121.38
333.172	110.38
333.4	124.38
333.629	141.38
333.857	165.38
334.085	237.38
334.314	436.38
334.542	799.38
334.771	749.38
334.999	231.38
335.227	124.38
335.455	113.38
335.684	92.38
335.912	111.38
336.14	93.38
336.369	103.38
336.597	104.38
336.825	109.38
337.053	95.38
337.281	92.38
337.51	95.38
337.738	102.38
337.966	99.38
338.194	106.38
338.422	115.38
338.65	95.38
338.878	82.38
339.106	106.38
339.334	103.38
339.562	99.38
339.79	95.38
340.018	82.38
340.246	95.38
340.474	87.38
340.702	101.38
340.93	93.38
341.158	106.38
341.386	105.38
341.614	101.38
341.842	94.38
342.07	91.38
342.298	98.38
342.526	97.38
342.754	89.38
342.981	81.38
343.209	104.38
343.437	110.38
343.665	92.38
343.893	91.38
344.12	87.38
344.348	85.38
344.576	87.38
344.804	82.38
345.031	106.38
345.259	100.38
345.487	96.38
345.714	104.38
345.942	95.38
346.17	93.38
346.397	92.38
346.625	104.38
346.853	84.38
347.08	87.38
347.308	102.38
347.535	85.38
347.763	97.38
347.99	89.38
348.218	104.38
348.445	96.38
348.673	98.38
348.9	86.38
349.128	83.38
349.355	88.38
349.583	94.38
349.81	93.38
350.037	85.38
350.265	88.38
350.492	102.38
350.72	96.38
350.947	100.38
351.174	109.38
351.402	118.38
351.629	109.38
351.856	100.38
352.083	103.38
352.311	100.38
352.538	130.38
352.765	105.38
352.992	110.38
353.22	116.38
353.447	101.38
353.674	104.38
353.901	102.38
354.128	94.38
354.355	105.38
354.583	94.38
354.81	113.38
355.037	98.38
355.264	102.38
355.491	102.38
355.718	97.38
355.945	97.38
356.172	103.38
356.399	96.38
356.626	102.38
356.853	91.38
357.08	91.38
357.307	99.38
357.534	89.38
357.761	108.38
357.988	90.38
358.215	90.38
358.441	98.38
358.668	79.38
358.895	95.38
359.122	95.38
359.349	92.38
359.576	84.38
359.802	119.38
360.029	126.38
360.256	108.38
360.483	91.38
360.709	97.38
360.936	105.38
361.163	108.38
361.39	89.38
361.616	100.38
361.843	87.38
362.07	103.38
362.296	86.38
362.523	75.38
362.749	97.38
362.976	95.38
363.203	102.38
363.429	94.38
363.656	95.38
363.882	86.38
364.109	95.38
364.335	93.38
364.562	81.38
364.788	87.38
365.015	99.38
365.241	97.38
365.468	105.38
365.694	113.38
365.92	105.38
366.147	101.38
366.373	71.38
366.599	92.38
366.826	96.38
367.052	98.38
367.278	105.38
367.505	94.38
367.731	111.38
367.957	100.38
368.184	99.38
368.41	98.38
368.636	109.38
368.862	93.38
369.089	110.38
369.315	101.38
369.541	100.38
369.767	90.38
369.993	90.38
370.219	92.38
370.445	90.38
370.672	82.38
370.898	104.38
371.124	103.38
371.35	95.38
371.576	105.38
371.802	88.38
372.028	89.38
372.254	80.38
372.48	80.38
372.706	87.38
372.932	83.38
373.158	89.38
373.384	90.38
373.61	87.38
373.835	88.38
374.061	92.38
374.287	92.38
374.513	96.38
374.739	92.38
374.965	84.38
375.191	97.38
375.416	102.38
375.642	85.38
375.868	90.38
376.094	91.38
376.319	99.38
376.545	92.38
376.771	92.38
376.997	95.38
377.222	93.38
377.448	88.38
377.674	96.38
377.899	95.38
378.125	100.38
378.35	84.38
378.576	99.38
378.802	104.38
379.027	110.38
379.253	93.38
379.478	97.38
379.704	102.38
379.929	100.38
380.155	100.38
380.38	108.38
380.606	99.38
380.831	101.38
381.057	104.38
381.282	97.38
381.507	100.38
381.733	108.38
381.958	109.38
382.184	87.38
382.409	93.38
382.634	116.38
382.86	105.38
383.085	104.38
383.31	96.38
383.535	104.38
383.761	101.38
383.986	97.38
384.211	97.38
384.436	111.38
384.662	96.38
384.887	108.38
385.112	116.38
385.337	124.38
385.562	101.38
385.787	123.38
386.013	130.38
386.238	114.38
386.463	116.38
386.688	120.38
386.913	112.38
387.138	122.38
387.363	111.38
387.588	102.38
387.813	100.38
388.038	124.38
388.263	120.38
388.488	115.38
388.713	99.38
388.938	84.38
389.163	95.38
389.387	100.38
389.612	95.38
389.837	99.38
390.062	88.38
390.287	86.38
390.512	92.38
390.736	91.38
390.961	92.38
391.186	87.38
391.411	100.38
391.636	95.38
391.86	73.38
392.085	83.38
392.31	87.38
392.534	79.38
392.759	89.38
392.984	109.38
393.208	97.38
393.433	94.38
393.658	84.38
393.882	81.38
394.107	67.38
394.331	90.38
394.556	83.38
394.78	98.38
395.005	76.38
395.229	87.38
395.454	99.38
395.678	86.38
395.903	88.38
396.127	83.38
396.352	78.38
396.576	88.38
396.801	95.38
397.025	95.38
397.249	91.38
397.474	81.38
397.698	96.38
397.922	85.38
398.147	91.38
398.371	91.38
398.595	85.38
398.82	69.38
399.044	82.38
399.268	77.38
399.492	103.38
399.717	86.38
399.941	97.38
400.165	105.38
400.389	91.38
400.613	79.38
400.837	102.38
401.062	71.38
401.286	97.38
401.51	82.38
401.734	84.38
401.958	104.38
402.182	126.38
402.406	190.38
402.63	133.38
402.854	113.38
403.078	101.38
403.302	96.38
403.526	91.38
403.75	97.38
403.974	84.38
404.198	78.38
404.422	87.38
404.645	86.38
404.869	87.38
405.093	106.38
405.317	117.38
405.541	120.38
405.765	111.38
405.988	131.38
406.212	188.38
406.436	259.38
406.66	156.38
406.883	126.38
407.107	103.38
407.331	100.38
407.555	103.38
407.778	101.38
408.002	91.38
408.226	100.38
408.449	94.38
408.673	86.38
408.896	89.38
409.12	95.38
409.344	102.38
409.567	89.38
409.791	102.38
410.014	78.38
410.238	96.38
410.461	88.38
410.685	94.38
410.908	102.38
411.132	102.38
411.355	94.38
411.578	93.38
411.802	95.38
412.025	92.38
412.249	93.38
412.472	103.38
412.695	120.38
412.919	109.38
413.142	90.38
413.365	87.38
413.589	90.38
413.812	86.38
414.035	94.38
414.258	91.38
414.482	90.38
414.705	108.38
414.928	109.38
415.151	87.38
415.374	98.38
415.597	93.38
415.821	91.38
416.044	79.38
416.267	106.38
416.49	105.38
416.713	98.38
416.936	86.38
417.159	96.38
417.382	86.38
417.605	101.38
417.828	99.38
418.051	97.38
418.274	86.38
418.497	93.38
418.72	91.38
418.943	99.38
419.166	89.38
419.389	97.38
419.611	98.38
419.834	86.38
420.057	89.38
420.28	92.38
420.503	79.38
420.726	81.38
420.948	94.38
421.171	95.38
421.394	98.38
421.617	92.38
421.839	97.38
422.062	94.38
422.285	105.38
422.507	92.38
422.73	93.38
422.953	91.38
423.175	93.38
423.398	87.38
423.621	79.38
423.843	91.38
424.066	68.38
424.288	79.38
424.511	105.38
424.733	100.38
424.956	122.38
425.178	118.38
425.401	107.38
425.623	104.38
425.846	82.38
426.068	92.38
426.291	93.38
426.513	75.38
426.735	86.38
426.958	84.38
427.18	104.38
427.402	145.38
427.625	207.38
427.847	183.38
428.069	178.38
428.292	96.38
428.514	98.38
428.736	93.38
428.958	89.38
429.181	87.38
429.403	83.38
429.625	81.38
429.847	93.38
430.069	108.38
430.292	90.38
430.514	88.38
430.736	83.38
430.958	81.38
431.18	86.38
431.402	100.38
431.624	80.38
431.846	78.38
432.068	96.38
432.29	87.38
432.512	80.38
432.734	87.38
432.956	93.38
433.178	86.38
433.4	90.38
433.622	86.38
433.844	93.38
434.066	103.38
434.287	104.38
434.509	90.38
434.731	101.38
434.953	107.38
435.175	80.38
435.397	85.38
435.618	99.38
435.84	114.38
436.062	123.38
436.284	109.38
436.505	101.38
436.727	100.38
436.949	95.38
437.17	91.38
437.392	82.38
437.614	87.38
437.835	122.38
438.057	126.38
438.278	117.38
438.5	97.38
438.721	134.38
438.943	104.38
439.165	89.38
439.386	86.38
439.608	97.38
439.829	110.38
440.05	142.38
440.272	166.38
440.493	119.38
440.715	108.38
440.936	101.38
441.158	91.38
441.379	94.38
441.6	99.38
441.822	99.38
442.043	87.38
442.264	119.38
442.486	108.38
442.707	94.38
442.928	110.38
443.149	157.38
443.371	155.38
443.592	118.38
443.813	131.38
444.034	111.38
444.255	89.38
444.476	83.38
444.698	90.38
444.919	84.38
445.14	119.38
445.361	136.38
445.582	126.38
445.803	172.38
446.024	147.38
446.245	142.38
446.466	113.38
446.687	93.38
446.908	99.38
447.129	90.38
447.35	92.38
447.571	94.38
447.792	103.38
448.013	95.38
448.234	101.38
448.455	104.38
448.675	110.38
448.896	132.38
449.117	105.38
449.338	115.38
449.559	158.38
449.779	164.38
450	92.38
450.221	89.38
450.442	77.38
450.662	87.38
450.883	113.38
451.104	121.38
451.324	96.38
451.545	92.38
451.766	80.38
451.986	82.38
452.207	94.38
452.428	97.38
452.648	100.38
452.869	148.38
453.089	111.38
453.31	122.38
453.53	100.38
453.751	104.38
453.971	110.38
454.192	117.38
454.412	96.38
454.633	75.38
454.853	85.38
455.073	83.38
455.294	88.38
455.514	108.38
455.734	99.38
455.955	85.38
456.175	97.38
456.395	68.38
456.616	77.38
456.836	85.38
457.056	87.38
457.276	86.38
457.497	85.38
457.717	86.38
457.937	83.38
458.157	93.38
458.377	87.38
458.598	121.38
458.818	185.38
459.038	201.38
459.258	152.38
459.478	111.38
459.698	89.38
459.918	98.38
460.138	88.38
460.358	87.38
460.578	97.38
460.798	91.38
461.018	98.38
461.238	94.38
461.458	96.38
461.678	97.38
461.898	89.38
462.118	81.38
462.338	97.38
462.558	85.38
462.777	94.38
462.997	89.38
463.217	86.38
463.437	101.38
463.657	85.38
463.876	91.38
464.096	78.38
464.316	92.38
464.536	108.38
464.755	103.38
464.975	120.38
465.195	188.38
465.414	179.38
465.634	111.38
465.854	94.38
466.073	90.38
466.293	96.38
466.512	76.38
466.732	83.38
466.951	88.38
467.171	82.38
467.391	96.38
467.61	139.38
467.829	149.38
468.049	275.38
468.268	358.38
468.488	128.38
468.707	104.38
468.927	97.38
469.146	79.38
469.365	93.38
469.585	94.38
469.804	92.38
470.023	101.38
470.243	109.38
470.462	110.38
470.681	135.38
470.901	100.38
471.12	86.38
471.339	88.38
471.558	114.38
471.777	122.38
471.997	175.38
472.216	493.38
472.435	1030.38
472.654	287.38
472.873	117.38
473.092	91.38
473.311	85.38
473.53	100.38
473.749	94.38
473.968	111.38
474.187	109.38
474.406	95.38
474.625	83.38
474.844	92.38
475.063	89.38
475.282	80.38
475.501	92.38
475.72	92.38
475.939	101.38
476.158	94.38
476.377	79.38
476.596	78.38
476.814	98.38
477.033	105.38
477.252	85.38
477.471	78.38
477.69	93.38
477.908	85.38
478.127	101.38
478.346	100.38
478.564	96.38
478.783	97.38
479.002	94.38
479.22	101.38
479.439	116.38
479.658	112.38
479.876	110.38
480.095	95.38
480.313	110.38
480.532	129.38
480.751	170.38
480.969	484.38
481.188	1822.38
481.406	1063.38
481.624	201.38
481.843	125.38
482.061	90.38
482.28	85.38
482.498	85.38
482.717	95.38
482.935	96.38
483.153	96.38
483.372	89.38
483.59	100.38
483.808	84.38
484.027	83.38
484.245	105.38
484.463	95.38
484.681	97.38
484.9	88.38
485.118	101.38
485.336	85.38
485.554	97.38
485.772	100.38
485.99	94.38
486.209	111.38
486.427	114.38
486.645	118.38
486.863	127.38
487.081	105.38
487.299	120.38
487.517	87.38
487.735	105.38
487.953	99.38
488.171	95.38
488.389	102.38
488.607	96.38
488.825	97.38
489.043	100.38
489.261	97.38
489.479	79.38
489.696	100.38
489.914	104.38
490.132	88.38
490.35	91.38
490.568	86.38
490.786	91.38
491.003	88.38
491.221	94.38
491.439	92.38
491.657	93.38
491.874	92.38
492.092	84.38
492.31	94.38
492.527	94.38
492.745	97.38
492.963	101.38
493.18	101.38
493.398	96.38
493.615	90.38
493.833	99.38
494.05	103.38
494.268	87.38
494.485	82.38
494.703	81.38
494.92	106.38
495.138	100.38
495.355	96.38
495.573	99.38
495.79	92.38
496.008	91.38
496.225	98.38
496.442	87.38
496.66	84.38
496.877	87.38
497.094	87.38
497.312	102.38
497.529	93.38
497.746	99.38
497.963	80.38
498.181	100.38
498.398	85.38
498.615	108.38
498.832	103.38
499.049	94.38
499.267	100.38
499.484	92.38
499.701	87.38
499.918	81.38
500.135	89.38
500.352	90.38
500.569	91.38
500.786	108.38
501.003	93.38
501.22	86.38
501.437	86.38
501.654	96.38
501.871	117.38
502.088	95.38
502.305	94.38
502.522	83.38
502.739	103.38
502.956	88.38
503.172	104.38
503.389	97.38
503.606	103.38
503.823	81.38
504.04	101.38
504.256	85.38
504.473	84.38
504.69	85.38
504.907	103.38
505.123	94.38
505.34	95.38
505.557	94.38
505.773	115.38
505.99	89.38
506.207	96.38
506.423	92.38
506.64	94.38
506.856	80.38
507.073	100.38
507.289	92.38
507.506	106.38
507.722	110.38
507.939	124.38
508.155	119.38
508.372	103.38
508.588	97.38
508.805	93.38
509.021	91.38
509.238	109.38
509.454	112.38
509.67	113.38
509.887	124.38
510.103	134.38
510.319	209.38
510.536	772.38
510.752	2537.38
510.968	698.38
511.184	179.38
511.401	120.38
511.617	119.38
511.833	92.38
512.049	98.38
512.265	93.38
512.481	88.38
512.698	98.38
512.914	95.38
513.13	83.38
513.346	86.38
513.562	95.38
513.778	89.38
