Data from Circ_1990_H10_HRD10591_00026.txt Node
Date: Wed Jan 03 11:55:09 EST 2024
User: Yrep
Spectrometer: HR+D1059
Trigger mode: 1
Integration Time (sec): 1.000000E-1
Scans to average: 1
Electric dark correction enabled: true
Nonlinearity correction enabled: false
Boxcar width: 0
XAxis mode: Wavelengths
Number of Pixels in Spectrum: 2048
>>>>>Begin Spectral Data<<<<<
223.165	-16.06
223.4	-16.06
223.635	-16.06
223.869	-18.06
224.104	-33.06
224.338	-19.06
224.573	-3.06
224.808	-14.06
225.042	-8.06
225.277	3.94
225.511	-1.06
225.746	10.94
225.98	-1.06
226.215	16.94
226.449	9.94
226.683	13.94
226.918	32.94
227.152	24.94
227.387	34.94
227.621	41.94
227.856	47.94
228.09	52.94
228.324	59.94
228.559	56.94
228.793	59.94
229.027	65.94
229.262	79.94
229.496	75.94
229.73	78.94
229.964	74.94
230.199	62.94
230.433	64.94
230.667	82.94
230.901	76.94
231.136	59.94
231.37	67.94
231.604	80.94
231.838	79.94
232.072	85.94
232.306	91.94
232.541	78.94
232.775	78.94
233.009	95.94
233.243	76.94
233.477	79.94
233.711	85.94
233.945	83.94
234.179	72.94
234.413	70.94
234.647	89.94
234.881	76.94
235.115	84.94
235.349	78.94
235.583	84.94
235.817	77.94
236.051	84.94
236.285	85.94
236.519	94.94
236.753	83.94
236.987	91.94
237.221	87.94
237.455	80.94
237.689	79.94
237.922	79.94
238.156	70.94
238.39	63.94
238.624	90.94
238.858	82.94
239.091	69.94
239.325	88.94
239.559	75.94
239.793	69.94
240.027	63.94
240.26	67.94
240.494	74.94
240.728	91.94
240.961	70.94
241.195	78.94
241.429	86.94
241.662	67.94
241.896	65.94
242.13	70.94
242.363	83.94
242.597	84.94
242.83	75.94
243.064	75.94
243.298	61.94
243.531	63.94
243.765	80.94
243.998	73.94
244.232	77.94
244.465	92.94
244.699	81.94
244.932	95.94
245.166	81.94
245.399	78.94
245.633	77.94
245.866	78.94
246.099	78.94
246.333	77.94
246.566	68.94
246.8	74.94
247.033	79.94
247.266	92.94
247.5	84.94
247.733	74.94
247.966	88.94
248.2	84.94
248.433	78.94
248.666	75.94
248.899	76.94
249.133	77.94
249.366	82.94
249.599	83.94
249.832	94.94
250.066	71.94
250.299	85.94
250.532	85.94
250.765	82.94
250.998	67.94
251.231	77.94
251.465	89.94
251.698	81.94
251.931	91.94
252.164	85.94
252.397	67.94
252.63	79.94
252.863	79.94
253.096	87.94
253.329	82.94
253.562	67.94
253.795	85.94
254.028	81.94
254.261	63.94
254.494	53.94
254.727	89.94
254.96	90.94
255.193	68.94
255.426	70.94
255.659	73.94
255.892	81.94
256.124	90.94
256.357	81.94
256.59	84.94
256.823	90.94
257.056	89.94
257.289	89.94
257.521	83.94
257.754	77.94
257.987	86.94
258.22	86.94
258.452	82.94
258.685	91.94
258.918	83.94
259.151	86.94
259.383	81.94
259.616	81.94
259.849	79.94
260.081	86.94
260.314	69.94
260.547	91.94
260.779	92.94
261.012	77.94
261.244	83.94
261.477	93.94
261.71	91.94
261.942	124.94
262.175	115.94
262.407	74.94
262.64	89.94
262.872	94.94
263.105	93.94
263.337	84.94
263.57	70.94
263.802	82.94
264.035	77.94
264.267	86.94
264.499	82.94
264.732	93.94
264.964	84.94
265.197	78.94
265.429	77.94
265.661	94.94
265.894	77.94
266.126	79.94
266.358	89.94
266.591	79.94
266.823	90.94
267.055	94.94
267.287	92.94
267.52	87.94
267.752	69.94
267.984	93.94
268.216	82.94
268.448	85.94
268.681	75.94
268.913	82.94
269.145	98.94
269.377	89.94
269.609	85.94
269.841	77.94
270.073	75.94
270.306	66.94
270.538	87.94
270.77	68.94
271.002	94.94
271.234	98.94
271.466	91.94
271.698	91.94
271.93	86.94
272.162	78.94
272.394	75.94
272.626	95.94
272.858	93.94
273.09	84.94
273.322	86.94
273.553	91.94
273.785	81.94
274.017	77.94
274.249	70.94
274.481	88.94
274.713	85.94
274.945	86.94
275.176	72.94
275.408	85.94
275.64	74.94
275.872	85.94
276.104	97.94
276.335	86.94
276.567	95.94
276.799	108.94
277.031	96.94
277.262	105.94
277.494	101.94
277.726	91.94
277.957	85.94
278.189	77.94
278.421	96.94
278.652	75.94
278.884	84.94
279.115	96.94
279.347	87.94
279.579	90.94
279.81	100.94
280.042	108.94
280.273	119.94
280.505	99.94
280.736	97.94
280.968	88.94
281.199	77.94
281.431	83.94
281.662	98.94
281.894	93.94
282.125	88.94
282.356	114.94
282.588	129.94
282.819	111.94
283.051	98.94
283.282	94.94
283.513	94.94
283.745	89.94
283.976	77.94
284.207	94.94
284.439	98.94
284.67	81.94
284.901	90.94
285.132	86.94
285.364	92.94
285.595	84.94
285.826	85.94
286.057	87.94
286.288	85.94
286.52	83.94
286.751	89.94
286.982	95.94
287.213	74.94
287.444	77.94
287.675	84.94
287.906	85.94
288.138	85.94
288.369	92.94
288.6	98.94
288.831	91.94
289.062	96.94
289.293	95.94
289.524	72.94
289.755	87.94
289.986	85.94
290.217	78.94
290.448	77.94
290.679	90.94
290.91	91.94
291.141	80.94
291.371	79.94
291.602	94.94
291.833	100.94
292.064	75.94
292.295	91.94
292.526	93.94
292.757	104.94
292.987	90.94
293.218	80.94
293.449	99.94
293.68	78.94
293.91	81.94
294.141	94.94
294.372	83.94
294.603	84.94
294.833	97.94
295.064	97.94
295.295	93.94
295.525	91.94
295.756	96.94
295.987	106.94
296.217	132.94
296.448	118.94
296.679	82.94
296.909	91.94
297.14	86.94
297.37	85.94
297.601	92.94
297.831	89.94
298.062	90.94
298.292	89.94
298.523	88.94
298.753	108.94
298.984	85.94
299.214	70.94
299.445	98.94
299.675	95.94
299.905	98.94
300.136	91.94
300.366	87.94
300.597	92.94
300.827	94.94
301.057	114.94
301.288	101.94
301.518	91.94
301.748	96.94
301.979	86.94
302.209	92.94
302.439	95.94
302.669	89.94
302.9	94.94
303.13	95.94
303.36	108.94
303.59	109.94
303.82	98.94
304.051	98.94
304.281	86.94
304.511	90.94
304.741	85.94
304.971	83.94
305.201	90.94
305.431	84.94
305.661	84.94
305.891	110.94
306.121	119.94
306.352	108.94
306.582	108.94
306.812	101.94
307.042	87.94
307.272	107.94
307.502	102.94
307.731	99.94
307.961	83.94
308.191	80.94
308.421	89.94
308.651	73.94
308.881	103.94
309.111	91.94
309.341	105.94
309.571	96.94
309.8	94.94
310.03	94.94
310.26	92.94
310.49	113.94
310.72	95.94
310.949	99.94
311.179	114.94
311.409	91.94
311.639	85.94
311.868	96.94
312.098	107.94
312.328	90.94
312.557	89.94
312.787	101.94
313.017	77.94
313.246	87.94
313.476	86.94
313.706	84.94
313.935	114.94
314.165	89.94
314.394	103.94
314.624	87.94
314.853	97.94
315.083	109.94
315.312	81.94
315.542	83.94
315.771	90.94
316.001	89.94
316.23	89.94
316.46	94.94
316.689	86.94
316.919	84.94
317.148	98.94
317.377	81.94
317.607	91.94
317.836	98.94
318.065	102.94
318.295	91.94
318.524	75.94
318.753	94.94
318.983	97.94
319.212	100.94
319.441	103.94
319.67	99.94
319.9	84.94
320.129	107.94
320.358	85.94
320.587	82.94
320.816	93.94
321.046	89.94
321.275	110.94
321.504	94.94
321.733	101.94
321.962	91.94
322.191	101.94
322.42	106.94
322.649	94.94
322.878	111.94
323.108	120.94
323.337	103.94
323.566	121.94
323.795	150.94
324.024	196.94
324.253	356.94
324.482	753.94
324.71	1584.94
324.939	2007.94
325.168	737.94
325.397	214.94
325.626	148.94
325.855	129.94
326.084	128.94
326.313	134.94
326.542	128.94
326.77	217.94
326.999	428.94
327.228	850.94
327.457	1567.94
327.686	1276.94
327.914	367.94
328.143	219.94
328.372	225.94
328.6	157.94
328.829	130.94
329.058	142.94
329.287	137.94
329.515	128.94
329.744	143.94
329.972	156.94
330.201	278.94
330.43	353.94
330.658	203.94
330.887	150.94
331.115	138.94
331.344	101.94
331.572	114.94
331.801	100.94
332.03	94.94
332.258	97.94
332.486	80.94
332.715	96.94
332.943	92.94
333.172	93.94
333.4	101.94
333.629	118.94
333.857	118.94
334.085	172.94
334.314	261.94
334.542	436.94
334.771	412.94
334.999	161.94
335.227	103.94
335.455	110.94
335.684	98.94
335.912	93.94
336.14	105.94
336.369	98.94
336.597	79.94
336.825	99.94
337.053	94.94
337.281	86.94
337.51	84.94
337.738	111.94
337.966	92.94
338.194	89.94
338.422	94.94
338.65	93.94
338.878	102.94
339.106	87.94
339.334	97.94
339.562	81.94
339.79	101.94
340.018	92.94
340.246	87.94
340.474	95.94
340.702	104.94
340.93	80.94
341.158	85.94
341.386	86.94
341.614	108.94
341.842	102.94
342.07	91.94
342.298	90.94
342.526	101.94
342.754	77.94
342.981	83.94
343.209	95.94
343.437	101.94
343.665	71.94
343.893	67.94
344.12	105.94
344.348	84.94
344.576	84.94
344.804	62.94
345.031	102.94
345.259	112.94
345.487	80.94
345.714	93.94
345.942	109.94
346.17	91.94
346.397	91.94
346.625	85.94
346.853	92.94
347.08	95.94
347.308	92.94
347.535	94.94
347.763	99.94
347.99	100.94
348.218	105.94
348.445	107.94
348.673	102.94
348.9	87.94
349.128	84.94
349.355	73.94
349.583	84.94
349.81	79.94
350.037	99.94
350.265	97.94
350.492	77.94
350.72	92.94
350.947	93.94
351.174	97.94
351.402	94.94
351.629	99.94
351.856	92.94
352.083	97.94
352.311	93.94
352.538	106.94
352.765	95.94
352.992	114.94
353.22	113.94
353.447	108.94
353.674	107.94
353.901	96.94
354.128	91.94
354.355	100.94
354.583	101.94
354.81	109.94
355.037	87.94
355.264	85.94
355.491	101.94
355.718	101.94
355.945	100.94
356.172	95.94
356.399	86.94
356.626	102.94
356.853	85.94
357.08	83.94
357.307	79.94
357.534	90.94
357.761	87.94
357.988	87.94
358.215	90.94
358.441	98.94
358.668	96.94
358.895	102.94
359.122	80.94
359.349	100.94
359.576	75.94
359.802	107.94
360.029	109.94
360.256	119.94
360.483	103.94
360.709	82.94
360.936	91.94
361.163	104.94
361.39	106.94
361.616	88.94
361.843	90.94
362.07	103.94
362.296	85.94
362.523	90.94
362.749	66.94
362.976	83.94
363.203	80.94
363.429	83.94
363.656	92.94
363.882	89.94
364.109	89.94
364.335	101.94
364.562	79.94
364.788	84.94
365.015	106.94
365.241	98.94
365.468	106.94
365.694	98.94
365.92	92.94
366.147	115.94
366.373	85.94
366.599	97.94
366.826	86.94
367.052	77.94
367.278	92.94
367.505	85.94
367.731	95.94
367.957	92.94
368.184	85.94
368.41	96.94
368.636	119.94
368.862	113.94
369.089	108.94
369.315	86.94
369.541	99.94
369.767	91.94
369.993	96.94
370.219	92.94
370.445	91.94
370.672	86.94
370.898	87.94
371.124	85.94
371.35	83.94
371.576	69.94
371.802	81.94
372.028	88.94
372.254	79.94
372.48	68.94
372.706	89.94
372.932	90.94
373.158	85.94
373.384	79.94
373.61	92.94
373.835	85.94
374.061	96.94
374.287	91.94
374.513	74.94
374.739	76.94
374.965	92.94
375.191	80.94
375.416	91.94
375.642	79.94
375.868	101.94
376.094	104.94
376.319	80.94
376.545	80.94
376.771	81.94
376.997	80.94
377.222	91.94
377.448	97.94
377.674	89.94
377.899	88.94
378.125	91.94
378.35	103.94
378.576	87.94
378.802	91.94
379.027	87.94
379.253	103.94
379.478	93.94
379.704	103.94
379.929	94.94
380.155	92.94
380.38	99.94
380.606	101.94
380.831	99.94
381.057	105.94
381.282	104.94
381.507	108.94
381.733	106.94
381.958	120.94
382.184	120.94
382.409	106.94
382.634	112.94
382.86	106.94
383.085	115.94
383.31	114.94
383.535	103.94
383.761	113.94
383.986	115.94
384.211	106.94
384.436	108.94
384.662	119.94
384.887	126.94
385.112	109.94
385.337	117.94
385.562	134.94
385.787	108.94
386.013	134.94
386.238	135.94
386.463	113.94
386.688	109.94
386.913	126.94
387.138	133.94
387.363	126.94
387.588	112.94
387.813	123.94
388.038	129.94
388.263	145.94
388.488	133.94
388.713	98.94
388.938	103.94
389.163	84.94
389.387	80.94
389.612	83.94
389.837	117.94
390.062	92.94
390.287	91.94
390.512	87.94
390.736	83.94
390.961	106.94
391.186	80.94
391.411	86.94
391.636	84.94
391.86	80.94
392.085	98.94
392.31	93.94
392.534	99.94
392.759	81.94
392.984	80.94
393.208	97.94
393.433	95.94
393.658	97.94
393.882	90.94
394.107	84.94
394.331	81.94
394.556	90.94
394.78	91.94
395.005	84.94
395.229	81.94
395.454	93.94
395.678	73.94
395.903	78.94
396.127	85.94
396.352	98.94
396.576	95.94
396.801	79.94
397.025	93.94
397.249	101.94
397.474	97.94
397.698	86.94
397.922	81.94
398.147	89.94
398.371	89.94
398.595	77.94
398.82	91.94
399.044	74.94
399.268	98.94
399.492	99.94
399.717	94.94
399.941	100.94
400.165	96.94
400.389	89.94
400.613	78.94
400.837	83.94
401.062	93.94
401.286	71.94
401.51	93.94
401.734	101.94
401.958	88.94
402.182	118.94
402.406	143.94
402.63	116.94
402.854	109.94
403.078	80.94
403.302	81.94
403.526	90.94
403.75	87.94
403.974	89.94
404.198	85.94
404.422	84.94
404.645	93.94
404.869	93.94
405.093	110.94
405.317	92.94
405.541	116.94
405.765	102.94
405.988	103.94
406.212	165.94
406.436	228.94
406.66	125.94
406.883	92.94
407.107	104.94
407.331	100.94
407.555	97.94
407.778	97.94
408.002	83.94
408.226	99.94
408.449	86.94
408.673	86.94
408.896	102.94
409.12	100.94
409.344	70.94
409.567	92.94
409.791	89.94
410.014	94.94
410.238	97.94
410.461	75.94
410.685	102.94
410.908	89.94
411.132	107.94
411.355	96.94
411.578	97.94
411.802	92.94
412.025	97.94
412.249	114.94
412.472	103.94
412.695	102.94
412.919	97.94
413.142	92.94
413.365	83.94
413.589	84.94
413.812	91.94
414.035	100.94
414.258	77.94
414.482	93.94
414.705	79.94
414.928	95.94
415.151	99.94
415.374	91.94
415.597	98.94
415.821	100.94
416.044	80.94
416.267	81.94
416.49	79.94
416.713	94.94
416.936	83.94
417.159	78.94
417.382	89.94
417.605	95.94
417.828	101.94
418.051	92.94
418.274	90.94
418.497	99.94
418.72	82.94
418.943	92.94
419.166	88.94
419.389	87.94
419.611	77.94
419.834	97.94
420.057	84.94
420.28	82.94
420.503	90.94
420.726	96.94
420.948	96.94
421.171	101.94
421.394	99.94
421.617	86.94
421.839	96.94
422.062	77.94
422.285	77.94
422.507	104.94
422.73	97.94
422.953	94.94
423.175	97.94
423.398	96.94
423.621	97.94
423.843	76.94
424.066	85.94
424.288	82.94
424.511	85.94
424.733	104.94
424.956	111.94
425.178	99.94
425.401	101.94
425.623	101.94
425.846	95.94
426.068	100.94
426.291	99.94
426.513	84.94
426.735	92.94
426.958	103.94
427.18	114.94
427.402	126.94
427.625	173.94
427.847	144.94
428.069	115.94
428.292	103.94
428.514	100.94
428.736	93.94
428.958	90.94
429.181	92.94
429.403	83.94
429.625	71.94
429.847	83.94
430.069	109.94
430.292	95.94
430.514	76.94
430.736	92.94
430.958	81.94
431.18	91.94
431.402	78.94
431.624	83.94
431.846	92.94
432.068	83.94
432.29	77.94
432.512	94.94
432.734	96.94
432.956	86.94
433.178	95.94
433.4	97.94
433.622	83.94
433.844	74.94
434.066	84.94
434.287	91.94
434.509	79.94
434.731	93.94
434.953	85.94
435.175	86.94
435.397	94.94
435.618	90.94
435.84	98.94
436.062	121.94
436.284	113.94
436.505	101.94
436.727	100.94
436.949	93.94
437.17	99.94
437.392	90.94
437.614	93.94
437.835	99.94
438.057	115.94
438.278	118.94
438.5	114.94
438.721	125.94
438.943	93.94
439.165	77.94
439.386	85.94
439.608	91.94
439.829	108.94
440.05	122.94
440.272	129.94
440.493	86.94
440.715	102.94
440.936	85.94
441.158	82.94
441.379	83.94
441.6	87.94
441.822	91.94
442.043	95.94
442.264	113.94
442.486	104.94
442.707	100.94
442.928	102.94
443.149	125.94
443.371	126.94
443.592	124.94
443.813	104.94
444.034	116.94
444.255	97.94
444.476	85.94
444.698	94.94
444.919	81.94
445.14	124.94
445.361	127.94
445.582	108.94
445.803	136.94
446.024	134.94
446.245	138.94
446.466	111.94
446.687	95.94
446.908	93.94
447.129	92.94
447.35	94.94
447.571	100.94
447.792	92.94
448.013	106.94
448.234	100.94
448.455	105.94
448.675	122.94
448.896	115.94
449.117	100.94
449.338	102.94
449.559	116.94
449.779	132.94
450	103.94
450.221	86.94
450.442	85.94
450.662	101.94
450.883	112.94
451.104	117.94
451.324	96.94
451.545	100.94
451.766	83.94
451.986	73.94
452.207	93.94
452.428	72.94
452.648	106.94
452.869	101.94
453.089	106.94
453.31	93.94
453.53	84.94
453.751	98.94
453.971	108.94
454.192	115.94
454.412	81.94
454.633	77.94
454.853	90.94
455.073	65.94
455.294	73.94
455.514	101.94
455.734	81.94
455.955	84.94
456.175	81.94
456.395	80.94
456.616	91.94
456.836	94.94
457.056	85.94
457.276	100.94
457.497	84.94
457.717	90.94
457.937	89.94
458.157	89.94
458.377	93.94
458.598	103.94
458.818	139.94
459.038	141.94
459.258	98.94
459.478	87.94
459.698	82.94
459.918	86.94
460.138	85.94
460.358	89.94
460.578	83.94
460.798	84.94
461.018	99.94
461.238	102.94
461.458	86.94
461.678	78.94
461.898	85.94
462.118	79.94
462.338	84.94
462.558	83.94
462.777	71.94
462.997	83.94
463.217	85.94
463.437	97.94
463.657	93.94
463.876	87.94
464.096	105.94
464.316	103.94
464.536	92.94
464.755	79.94
464.975	97.94
465.195	141.94
465.414	161.94
465.634	87.94
465.854	85.94
466.073	78.94
466.293	81.94
466.512	90.94
466.732	99.94
466.951	96.94
467.171	90.94
467.391	93.94
467.61	106.94
467.829	109.94
468.049	193.94
468.268	221.94
468.488	106.94
468.707	89.94
468.927	87.94
469.146	78.94
469.365	85.94
469.585	97.94
469.804	107.94
470.023	104.94
470.243	103.94
470.462	102.94
470.681	113.94
470.901	97.94
471.12	67.94
471.339	100.94
471.558	104.94
471.777	90.94
471.997	137.94
472.216	296.94
472.435	552.94
472.654	189.94
472.873	104.94
473.092	86.94
473.311	87.94
473.53	86.94
473.749	84.94
473.968	93.94
474.187	99.94
474.406	93.94
474.625	77.94
474.844	93.94
475.063	97.94
475.282	87.94
475.501	87.94
475.72	97.94
475.939	82.94
476.158	94.94
476.377	81.94
476.596	87.94
476.814	87.94
477.033	94.94
477.252	79.94
477.471	79.94
477.69	98.94
477.908	85.94
478.127	95.94
478.346	85.94
478.564	74.94
478.783	95.94
479.002	99.94
479.22	96.94
479.439	94.94
479.658	106.94
479.876	101.94
480.095	91.94
480.313	98.94
480.532	99.94
480.751	129.94
480.969	283.94
481.188	921.94
481.406	575.94
481.624	143.94
481.843	108.94
482.061	83.94
482.28	89.94
482.498	95.94
482.717	79.94
482.935	94.94
483.153	87.94
483.372	81.94
483.59	85.94
483.808	82.94
484.027	99.94
484.245	94.94
484.463	92.94
484.681	102.94
484.9	95.94
485.118	105.94
485.336	97.94
485.554	98.94
485.772	109.94
485.99	102.94
486.209	109.94
486.427	95.94
486.645	109.94
486.863	112.94
487.081	100.94
487.299	106.94
487.517	87.94
487.735	100.94
487.953	106.94
488.171	90.94
488.389	87.94
488.607	102.94
488.825	82.94
489.043	96.94
489.261	85.94
489.479	95.94
489.696	70.94
489.914	91.94
490.132	77.94
490.35	97.94
490.568	90.94
490.786	92.94
491.003	87.94
491.221	103.94
491.439	83.94
491.657	99.94
491.874	96.94
492.092	97.94
492.31	85.94
492.527	100.94
492.745	83.94
492.963	94.94
493.18	76.94
493.398	91.94
493.615	92.94
493.833	101.94
494.05	95.94
494.268	91.94
494.485	81.94
494.703	86.94
494.92	91.94
495.138	91.94
495.355	83.94
495.573	92.94
495.79	86.94
496.008	93.94
496.225	90.94
496.442	91.94
496.66	97.94
496.877	98.94
497.094	91.94
497.312	92.94
497.529	81.94
497.746	90.94
497.963	85.94
498.181	90.94
498.398	87.94
498.615	104.94
498.832	98.94
499.049	100.94
499.267	88.94
499.484	94.94
499.701	92.94
499.918	102.94
500.135	88.94
500.352	90.94
500.569	83.94
500.786	94.94
501.003	93.94
501.22	83.94
501.437	97.94
501.654	97.94
501.871	97.94
502.088	90.94
502.305	97.94
502.522	100.94
502.739	81.94
502.956	92.94
503.172	78.94
503.389	97.94
503.606	111.94
503.823	97.94
504.04	75.94
504.256	77.94
504.473	93.94
504.69	110.94
504.907	89.94
505.123	96.94
505.34	93.94
505.557	88.94
505.773	78.94
505.99	81.94
506.207	96.94
506.423	97.94
506.64	81.94
506.856	93.94
507.073	96.94
507.289	101.94
507.506	93.94
507.722	105.94
507.939	101.94
508.155	94.94
508.372	107.94
508.588	86.94
508.805	85.94
509.021	90.94
509.238	92.94
509.454	91.94
509.67	106.94
509.887	95.94
510.103	119.94
510.319	192.94
510.536	712.94
510.752	2133.94
510.968	591.94
511.184	147.94
511.401	119.94
511.617	120.94
511.833	102.94
512.049	91.94
512.265	97.94
512.481	86.94
512.698	73.94
512.914	95.94
513.13	95.94
513.346	99.94
513.562	86.94
513.778	104.94
513.994	103.94
514.21	107.94
514.426	110.94
514.642	134.94
514.858	114.94
515.074	166.94
