Data from Circ_1990_H10_HRD10591_00010.txt Node
Date: Wed Jan 03 11:55:06 EST 2024
User: Yrep
Spectrometer: HR+D1059
Trigger mode: 1
Integration Time (sec): 1.000000E-1
Scans to average: 1
Electric dark correction enabled: true
Nonlinearity correction enabled: false
Boxcar width: 0
XAxis mode: Wavelengths
Number of Pixels in Spectrum: 2048
>>>>>Begin Spectral Data<<<<<
223.165	-19.62
223.4	-19.62
223.635	-19.62
223.869	-20.62
224.104	-31.62
224.338	-12.62
224.573	-28.62
224.808	-0.62
225.042	-15.62
225.277	1.38
225.511	-6.62
225.746	10.38
225.98	11.38
226.215	4.38
226.449	31.38
226.683	31.38
226.918	18.38
227.152	27.38
227.387	26.38
227.621	37.38
227.856	24.38
228.09	36.38
228.324	52.38
228.559	60.38
228.793	49.38
229.027	62.38
229.262	54.38
229.496	74.38
229.73	83.38
229.964	77.38
230.199	70.38
230.433	57.38
230.667	65.38
230.901	78.38
231.136	71.38
231.37	73.38
231.604	78.38
231.838	74.38
232.072	82.38
232.306	75.38
232.541	64.38
232.775	66.38
233.009	66.38
233.243	73.38
233.477	58.38
233.711	73.38
233.945	81.38
234.179	71.38
234.413	75.38
234.647	70.38
234.881	77.38
235.115	66.38
235.349	68.38
235.583	63.38
235.817	73.38
236.051	70.38
236.285	79.38
236.519	80.38
236.753	58.38
236.987	78.38
237.221	90.38
237.455	81.38
237.689	73.38
237.922	77.38
238.156	68.38
238.39	78.38
238.624	80.38
238.858	67.38
239.091	66.38
239.325	62.38
239.559	70.38
239.793	86.38
240.027	87.38
240.26	67.38
240.494	78.38
240.728	61.38
240.961	75.38
241.195	78.38
241.429	65.38
241.662	74.38
241.896	89.38
242.13	50.38
242.363	63.38
242.597	64.38
242.83	72.38
243.064	80.38
243.298	64.38
243.531	69.38
243.765	82.38
243.998	73.38
244.232	78.38
244.465	71.38
244.699	56.38
244.932	79.38
245.166	83.38
245.399	66.38
245.633	70.38
245.866	78.38
246.099	73.38
246.333	72.38
246.566	73.38
246.8	83.38
247.033	88.38
247.266	63.38
247.5	79.38
247.733	60.38
247.966	77.38
248.2	86.38
248.433	82.38
248.666	80.38
248.899	80.38
249.133	71.38
249.366	77.38
249.599	92.38
249.832	82.38
250.066	84.38
250.299	74.38
250.532	71.38
250.765	74.38
250.998	65.38
251.231	76.38
251.465	74.38
251.698	88.38
251.931	67.38
252.164	83.38
252.397	69.38
252.63	81.38
252.863	67.38
253.096	78.38
253.329	61.38
253.562	82.38
253.795	68.38
254.028	67.38
254.261	79.38
254.494	97.38
254.727	70.38
254.96	67.38
255.193	74.38
255.426	74.38
255.659	83.38
255.892	80.38
256.124	91.38
256.357	76.38
256.59	79.38
256.823	74.38
257.056	79.38
257.289	63.38
257.521	79.38
257.754	92.38
257.987	72.38
258.22	85.38
258.452	83.38
258.685	72.38
258.918	73.38
259.151	76.38
259.383	90.38
259.616	75.38
259.849	71.38
260.081	74.38
260.314	67.38
260.547	64.38
260.779	91.38
261.012	95.38
261.244	75.38
261.477	90.38
261.71	85.38
261.942	95.38
262.175	100.38
262.407	82.38
262.64	85.38
262.872	72.38
263.105	84.38
263.337	67.38
263.57	84.38
263.802	64.38
264.035	78.38
264.267	66.38
264.499	74.38
264.732	67.38
264.964	74.38
265.197	84.38
265.429	75.38
265.661	80.38
265.894	64.38
266.126	67.38
266.358	86.38
266.591	74.38
266.823	83.38
267.055	83.38
267.287	70.38
267.52	83.38
267.752	77.38
267.984	70.38
268.216	66.38
268.448	59.38
268.681	85.38
268.913	72.38
269.145	90.38
269.377	78.38
269.609	65.38
269.841	73.38
270.073	85.38
270.306	66.38
270.538	79.38
270.77	82.38
271.002	84.38
271.234	96.38
271.466	86.38
271.698	56.38
271.93	90.38
272.162	80.38
272.394	81.38
272.626	70.38
272.858	86.38
273.09	85.38
273.322	81.38
273.553	74.38
273.785	66.38
274.017	88.38
274.249	70.38
274.481	82.38
274.713	81.38
274.945	82.38
275.176	79.38
275.408	86.38
275.64	87.38
275.872	83.38
276.104	80.38
276.335	78.38
276.567	96.38
276.799	92.38
277.031	102.38
277.262	94.38
277.494	83.38
277.726	78.38
277.957	78.38
278.189	87.38
278.421	87.38
278.652	86.38
278.884	75.38
279.115	76.38
279.347	84.38
279.579	81.38
279.81	92.38
280.042	96.38
280.273	86.38
280.505	83.38
280.736	83.38
280.968	74.38
281.199	81.38
281.431	79.38
281.662	83.38
281.894	84.38
282.125	79.38
282.356	105.38
282.588	120.38
282.819	94.38
283.051	74.38
283.282	86.38
283.513	83.38
283.745	79.38
283.976	74.38
284.207	89.38
284.439	67.38
284.67	91.38
284.901	90.38
285.132	89.38
285.364	87.38
285.595	83.38
285.826	91.38
286.057	77.38
286.288	87.38
286.52	84.38
286.751	72.38
286.982	91.38
287.213	94.38
287.444	83.38
287.675	80.38
287.906	83.38
288.138	84.38
288.369	90.38
288.6	89.38
288.831	77.38
289.062	84.38
289.293	87.38
289.524	88.38
289.755	79.38
289.986	70.38
290.217	83.38
290.448	96.38
290.679	83.38
290.91	78.38
291.141	80.38
291.371	92.38
291.602	82.38
291.833	88.38
292.064	79.38
292.295	87.38
292.526	78.38
292.757	84.38
292.987	95.38
293.218	94.38
293.449	85.38
293.68	94.38
293.91	93.38
294.141	97.38
294.372	88.38
294.603	79.38
294.833	81.38
295.064	80.38
295.295	89.38
295.525	98.38
295.756	89.38
295.987	102.38
296.217	108.38
296.448	108.38
296.679	92.38
296.909	92.38
297.14	93.38
297.37	89.38
297.601	91.38
297.831	90.38
298.062	95.38
298.292	94.38
298.523	83.38
298.753	84.38
298.984	80.38
299.214	78.38
299.445	94.38
299.675	89.38
299.905	80.38
300.136	91.38
300.366	88.38
300.597	70.38
300.827	92.38
301.057	80.38
301.288	105.38
301.518	90.38
301.748	91.38
301.979	109.38
302.209	95.38
302.439	81.38
302.669	74.38
302.9	88.38
303.13	81.38
303.36	79.38
303.59	95.38
303.82	97.38
304.051	89.38
304.281	80.38
304.511	87.38
304.741	82.38
304.971	86.38
305.201	86.38
305.431	80.38
305.661	103.38
305.891	83.38
306.121	80.38
306.352	88.38
306.582	94.38
306.812	94.38
307.042	87.38
307.272	91.38
307.502	88.38
307.731	88.38
307.961	84.38
308.191	71.38
308.421	78.38
308.651	81.38
308.881	86.38
309.111	94.38
309.341	94.38
309.571	111.38
309.8	90.38
310.03	91.38
310.26	79.38
310.49	81.38
310.72	103.38
310.949	94.38
311.179	79.38
311.409	92.38
311.639	81.38
311.868	87.38
312.098	82.38
312.328	91.38
312.557	87.38
312.787	100.38
313.017	89.38
313.246	81.38
313.476	86.38
313.706	87.38
313.935	92.38
314.165	96.38
314.394	83.38
314.624	88.38
314.853	104.38
315.083	74.38
315.312	86.38
315.542	92.38
315.771	87.38
316.001	74.38
316.23	79.38
316.46	85.38
316.689	84.38
316.919	92.38
317.148	90.38
317.377	87.38
317.607	90.38
317.836	74.38
318.065	93.38
318.295	93.38
318.524	83.38
318.753	82.38
318.983	85.38
319.212	90.38
319.441	95.38
319.67	104.38
319.9	89.38
320.129	78.38
320.358	82.38
320.587	90.38
320.816	74.38
321.046	95.38
321.275	105.38
321.504	92.38
321.733	99.38
321.962	90.38
322.191	85.38
322.42	89.38
322.649	107.38
322.878	103.38
323.108	99.38
323.337	102.38
323.566	111.38
323.795	131.38
324.024	173.38
324.253	290.38
324.482	603.38
324.71	1214.38
324.939	1600.38
325.168	611.38
325.397	175.38
325.626	135.38
325.855	109.38
326.084	119.38
326.313	100.38
326.542	144.38
326.77	187.38
326.999	363.38
327.228	706.38
327.457	1249.38
327.686	1006.38
327.914	284.38
328.143	155.38
328.372	152.38
328.6	117.38
328.829	107.38
329.058	98.38
329.287	111.38
329.515	90.38
329.744	98.38
329.972	111.38
330.201	152.38
330.43	137.38
330.658	120.38
330.887	111.38
331.115	107.38
331.344	105.38
331.572	83.38
331.801	105.38
332.03	90.38
332.258	96.38
332.486	96.38
332.715	85.38
332.943	82.38
333.172	87.38
333.4	86.38
333.629	98.38
333.857	110.38
334.085	102.38
334.314	129.38
334.542	182.38
334.771	174.38
334.999	102.38
335.227	86.38
335.455	92.38
335.684	100.38
335.912	96.38
336.14	88.38
336.369	84.38
336.597	84.38
336.825	78.38
337.053	81.38
337.281	92.38
337.51	80.38
337.738	97.38
337.966	91.38
338.194	87.38
338.422	89.38
338.65	90.38
338.878	83.38
339.106	87.38
339.334	82.38
339.562	86.38
339.79	87.38
340.018	92.38
340.246	79.38
340.474	96.38
340.702	88.38
340.93	72.38
341.158	90.38
341.386	85.38
341.614	88.38
341.842	87.38
342.07	94.38
342.298	95.38
342.526	95.38
342.754	91.38
342.981	102.38
343.209	80.38
343.437	99.38
343.665	92.38
343.893	86.38
344.12	90.38
344.348	83.38
344.576	78.38
344.804	76.38
345.031	87.38
345.259	88.38
345.487	90.38
345.714	73.38
345.942	70.38
346.17	88.38
346.397	72.38
346.625	85.38
346.853	87.38
347.08	86.38
347.308	100.38
347.535	85.38
347.763	95.38
347.99	89.38
348.218	96.38
348.445	97.38
348.673	96.38
348.9	88.38
349.128	74.38
349.355	97.38
349.583	89.38
349.81	98.38
350.037	86.38
350.265	91.38
350.492	78.38
350.72	91.38
350.947	91.38
351.174	91.38
351.402	103.38
351.629	88.38
351.856	110.38
352.083	92.38
352.311	102.38
352.538	99.38
352.765	94.38
352.992	88.38
353.22	115.38
353.447	102.38
353.674	112.38
353.901	83.38
354.128	102.38
354.355	99.38
354.583	104.38
354.81	88.38
355.037	95.38
355.264	88.38
355.491	80.38
355.718	88.38
355.945	98.38
356.172	100.38
356.399	96.38
356.626	95.38
356.853	87.38
357.08	96.38
357.307	86.38
357.534	90.38
357.761	92.38
357.988	98.38
358.215	97.38
358.441	104.38
358.668	100.38
358.895	97.38
359.122	86.38
359.349	90.38
359.576	89.38
359.802	97.38
360.029	100.38
360.256	97.38
360.483	96.38
360.709	82.38
360.936	74.38
361.163	84.38
361.39	90.38
361.616	89.38
361.843	82.38
362.07	101.38
362.296	94.38
362.523	86.38
362.749	82.38
362.976	96.38
363.203	76.38
363.429	75.38
363.656	83.38
363.882	68.38
364.109	92.38
364.335	66.38
364.562	97.38
364.788	87.38
365.015	88.38
365.241	99.38
365.468	93.38
365.694	104.38
365.92	74.38
366.147	90.38
366.373	81.38
366.599	79.38
366.826	92.38
367.052	84.38
367.278	98.38
367.505	88.38
367.731	81.38
367.957	97.38
368.184	78.38
368.41	88.38
368.636	100.38
368.862	98.38
369.089	94.38
369.315	90.38
369.541	81.38
369.767	92.38
369.993	82.38
370.219	80.38
370.445	82.38
370.672	78.38
370.898	80.38
371.124	82.38
371.35	83.38
371.576	77.38
371.802	89.38
372.028	85.38
372.254	72.38
372.48	71.38
372.706	86.38
372.932	79.38
373.158	94.38
373.384	74.38
373.61	82.38
373.835	86.38
374.061	84.38
374.287	98.38
374.513	92.38
374.739	77.38
374.965	99.38
375.191	89.38
375.416	98.38
375.642	90.38
375.868	91.38
376.094	89.38
376.319	82.38
376.545	102.38
376.771	84.38
376.997	100.38
377.222	104.38
377.448	88.38
377.674	92.38
377.899	95.38
378.125	93.38
378.35	71.38
378.576	92.38
378.802	93.38
379.027	99.38
379.253	108.38
379.478	110.38
379.704	102.38
379.929	112.38
380.155	103.38
380.38	115.38
380.606	94.38
380.831	97.38
381.057	99.38
381.282	100.38
381.507	86.38
381.733	98.38
381.958	104.38
382.184	124.38
382.409	106.38
382.634	106.38
382.86	108.38
383.085	133.38
383.31	120.38
383.535	125.38
383.761	138.38
383.986	106.38
384.211	118.38
384.436	123.38
384.662	133.38
384.887	127.38
385.112	138.38
385.337	148.38
385.562	134.38
385.787	146.38
386.013	141.38
386.238	141.38
386.463	142.38
386.688	159.38
386.913	149.38
387.138	157.38
387.363	141.38
387.588	119.38
387.813	135.38
388.038	147.38
388.263	168.38
388.488	161.38
388.713	104.38
388.938	99.38
389.163	81.38
389.387	89.38
389.612	89.38
389.837	87.38
390.062	90.38
390.287	89.38
390.512	91.38
390.736	87.38
390.961	92.38
391.186	95.38
391.411	97.38
391.636	79.38
391.86	79.38
392.085	100.38
392.31	80.38
392.534	79.38
392.759	84.38
392.984	87.38
393.208	86.38
393.433	92.38
393.658	102.38
393.882	65.38
394.107	74.38
394.331	86.38
394.556	98.38
394.78	81.38
395.005	92.38
395.229	89.38
395.454	95.38
395.678	86.38
395.903	79.38
396.127	100.38
396.352	91.38
396.576	83.38
396.801	78.38
397.025	88.38
397.249	81.38
397.474	91.38
397.698	88.38
397.922	63.38
398.147	76.38
398.371	75.38
398.595	82.38
398.82	90.38
399.044	84.38
399.268	77.38
399.492	82.38
399.717	86.38
399.941	67.38
400.165	81.38
400.389	94.38
400.613	77.38
400.837	90.38
401.062	82.38
401.286	80.38
401.51	74.38
401.734	79.38
401.958	79.38
402.182	109.38
402.406	120.38
402.63	102.38
402.854	82.38
403.078	94.38
403.302	94.38
403.526	87.38
403.75	96.38
403.974	80.38
404.198	77.38
404.422	85.38
404.645	76.38
404.869	83.38
405.093	96.38
405.317	99.38
405.541	103.38
405.765	106.38
405.988	93.38
406.212	140.38
406.436	179.38
406.66	122.38
406.883	84.38
407.107	78.38
407.331	82.38
407.555	88.38
407.778	90.38
408.002	78.38
408.226	76.38
408.449	92.38
408.673	89.38
408.896	81.38
409.12	82.38
409.344	89.38
409.567	86.38
409.791	88.38
410.014	87.38
410.238	91.38
410.461	86.38
410.685	93.38
410.908	88.38
411.132	105.38
411.355	75.38
411.578	82.38
411.802	103.38
412.025	76.38
412.249	80.38
412.472	88.38
412.695	100.38
412.919	91.38
413.142	90.38
413.365	96.38
413.589	75.38
413.812	87.38
414.035	100.38
414.258	77.38
414.482	86.38
414.705	89.38
414.928	80.38
415.151	100.38
415.374	109.38
415.597	86.38
415.821	89.38
416.044	103.38
416.267	81.38
416.49	87.38
416.713	79.38
416.936	88.38
417.159	95.38
417.382	90.38
417.605	81.38
417.828	85.38
418.051	90.38
418.274	84.38
418.497	90.38
418.72	76.38
418.943	100.38
419.166	97.38
419.389	98.38
419.611	93.38
419.834	89.38
420.057	83.38
420.28	98.38
420.503	82.38
420.726	83.38
420.948	89.38
421.171	81.38
421.394	83.38
421.617	89.38
421.839	101.38
422.062	97.38
422.285	88.38
422.507	97.38
422.73	109.38
422.953	76.38
423.175	73.38
423.398	63.38
423.621	83.38
423.843	66.38
424.066	73.38
424.288	84.38
424.511	100.38
424.733	89.38
424.956	95.38
425.178	78.38
425.401	92.38
425.623	91.38
425.846	89.38
426.068	93.38
426.291	78.38
426.513	82.38
426.735	88.38
426.958	78.38
427.18	96.38
427.402	111.38
427.625	139.38
427.847	98.38
428.069	120.38
428.292	86.38
428.514	88.38
428.736	89.38
428.958	65.38
429.181	58.38
429.403	95.38
429.625	83.38
429.847	74.38
430.069	87.38
430.292	73.38
430.514	81.38
430.736	82.38
430.958	76.38
431.18	81.38
431.402	78.38
431.624	80.38
431.846	87.38
432.068	88.38
432.29	91.38
432.512	79.38
432.734	92.38
432.956	76.38
433.178	87.38
433.4	91.38
433.622	72.38
433.844	91.38
434.066	87.38
434.287	101.38
434.509	83.38
434.731	93.38
434.953	94.38
435.175	92.38
435.397	86.38
435.618	84.38
435.84	94.38
436.062	95.38
436.284	101.38
436.505	87.38
436.727	92.38
436.949	86.38
437.17	78.38
437.392	66.38
437.614	86.38
437.835	98.38
438.057	111.38
438.278	93.38
438.5	95.38
438.721	116.38
438.943	91.38
439.165	74.38
439.386	77.38
439.608	90.38
439.829	88.38
440.05	107.38
440.272	110.38
440.493	90.38
440.715	74.38
440.936	98.38
441.158	80.38
441.379	77.38
441.6	90.38
441.822	86.38
442.043	86.38
442.264	98.38
442.486	94.38
442.707	78.38
442.928	74.38
443.149	104.38
443.371	118.38
443.592	83.38
443.813	105.38
444.034	84.38
444.255	93.38
444.476	74.38
444.698	84.38
444.919	76.38
445.14	128.38
445.361	109.38
445.582	98.38
445.803	115.38
446.024	101.38
446.245	116.38
446.466	108.38
446.687	77.38
446.908	73.38
447.129	89.38
447.35	75.38
447.571	88.38
447.792	91.38
448.013	88.38
448.234	92.38
448.455	93.38
448.675	91.38
448.896	93.38
449.117	82.38
449.338	79.38
449.559	94.38
449.779	111.38
450	87.38
450.221	93.38
450.442	86.38
450.662	89.38
450.883	84.38
451.104	92.38
451.324	90.38
451.545	88.38
451.766	90.38
451.986	64.38
452.207	76.38
452.428	67.38
452.648	94.38
452.869	103.38
453.089	92.38
453.31	100.38
453.53	89.38
453.751	83.38
453.971	88.38
454.192	90.38
454.412	82.38
454.633	99.38
454.853	71.38
455.073	75.38
455.294	68.38
455.514	96.38
455.734	86.38
455.955	81.38
456.175	68.38
456.395	82.38
456.616	87.38
456.836	86.38
457.056	80.38
457.276	78.38
457.497	85.38
457.717	77.38
457.937	70.38
458.157	76.38
458.377	93.38
458.598	104.38
458.818	118.38
459.038	126.38
459.258	92.38
459.478	77.38
459.698	76.38
459.918	71.38
460.138	71.38
460.358	83.38
460.578	84.38
460.798	98.38
461.018	74.38
461.238	95.38
461.458	92.38
461.678	83.38
461.898	70.38
462.118	88.38
462.338	85.38
462.558	85.38
462.777	65.38
462.997	87.38
463.217	83.38
463.437	74.38
463.657	76.38
463.876	86.38
464.096	69.38
464.316	86.38
464.536	91.38
464.755	100.38
464.975	98.38
465.195	130.38
465.414	126.38
465.634	75.38
465.854	90.38
466.073	80.38
466.293	84.38
466.512	71.38
466.732	75.38
466.951	79.38
467.171	67.38
467.391	95.38
467.61	107.38
467.829	84.38
468.049	106.38
468.268	134.38
468.488	91.38
468.707	86.38
468.927	80.38
469.146	88.38
469.365	73.38
469.585	76.38
469.804	81.38
470.023	96.38
470.243	84.38
470.462	96.38
470.681	80.38
470.901	83.38
471.12	83.38
471.339	82.38
471.558	87.38
471.777	89.38
471.997	94.38
472.216	130.38
472.435	209.38
472.654	114.38
472.873	97.38
473.092	82.38
473.311	78.38
473.53	84.38
473.749	95.38
473.968	89.38
474.187	92.38
474.406	100.38
474.625	79.38
474.844	88.38
475.063	91.38
475.282	87.38
475.501	80.38
475.72	76.38
475.939	77.38
476.158	76.38
476.377	64.38
476.596	87.38
476.814	86.38
477.033	96.38
477.252	81.38
477.471	78.38
477.69	81.38
477.908	74.38
478.127	92.38
478.346	78.38
478.564	91.38
478.783	77.38
479.002	93.38
479.22	82.38
479.439	95.38
479.658	85.38
479.876	83.38
480.095	88.38
480.313	89.38
480.532	99.38
480.751	100.38
480.969	141.38
481.188	340.38
481.406	208.38
481.624	92.38
481.843	80.38
482.061	87.38
482.28	99.38
482.498	89.38
482.717	82.38
482.935	84.38
483.153	78.38
483.372	86.38
483.59	68.38
483.808	79.38
484.027	83.38
484.245	85.38
484.463	84.38
484.681	96.38
484.9	88.38
485.118	92.38
485.336	80.38
485.554	91.38
485.772	99.38
485.99	98.38
486.209	102.38
486.427	105.38
486.645	104.38
486.863	102.38
487.081	106.38
487.299	90.38
487.517	82.38
487.735	92.38
487.953	95.38
488.171	91.38
488.389	97.38
488.607	102.38
488.825	88.38
489.043	100.38
489.261	82.38
489.479	79.38
489.696	89.38
489.914	93.38
490.132	93.38
490.35	77.38
490.568	83.38
490.786	89.38
491.003	91.38
491.221	90.38
491.439	98.38
491.657	89.38
491.874	93.38
492.092	98.38
492.31	85.38
492.527	82.38
492.745	97.38
492.963	89.38
493.18	86.38
493.398	78.38
493.615	82.38
493.833	88.38
494.05	96.38
494.268	94.38
494.485	97.38
494.703	66.38
494.92	76.38
495.138	74.38
495.355	83.38
495.573	98.38
495.79	86.38
496.008	100.38
496.225	98.38
496.442	78.38
496.66	79.38
496.877	80.38
497.094	82.38
497.312	95.38
497.529	92.38
497.746	82.38
497.963	81.38
498.181	87.38
498.398	90.38
498.615	80.38
498.832	98.38
499.049	92.38
499.267	86.38
499.484	80.38
499.701	94.38
499.918	103.38
500.135	83.38
500.352	86.38
500.569	87.38
500.786	79.38
501.003	90.38
501.22	89.38
501.437	89.38
501.654	94.38
501.871	94.38
502.088	83.38
502.305	77.38
502.522	89.38
502.739	82.38
502.956	85.38
503.172	93.38
503.389	90.38
503.606	92.38
503.823	82.38
504.04	97.38
504.256	78.38
504.473	83.38
504.69	90.38
504.907	82.38
505.123	103.38
505.34	76.38
505.557	81.38
505.773	92.38
505.99	80.38
506.207	81.38
506.423	72.38
506.64	93.38
506.856	88.38
507.073	92.38
507.289	100.38
507.506	92.38
507.722	113.38
507.939	89.38
508.155	84.38
508.372	76.38
508.588	92.38
508.805	94.38
509.021	90.38
509.238	95.38
509.454	102.38
509.67	90.38
509.887	96.38
510.103	127.38
510.319	164.38
510.536	578.38
510.752	1731.38
510.968	502.38
511.184	130.38
511.401	106.38
511.617	100.38
511.833	80.38
512.049	83.38
512.265	91.38
512.481	82.38
512.698	84.38
512.914	82.38
513.13	87.38
513.346	88.38
513.562	70.38
513.778	95.38
513.994	95.38
514.21	83.38
514.426	110.38
514.642	114.38
514.858	121.38
515.074	147.38
515.29	348.38
515.506	1006.38
515.721	362.38
515.937	122.38
516.153	99.38
516.369	96.38
516.585	92.38
516.801	94.38
517.016	72.38
517.232	78.38
