Data from Circ_1990_H10_HRD10591_00002.txt Node
Date: Wed Jan 03 11:55:04 EST 2024
User: Yrep
Spectrometer: HR+D1059
Trigger mode: 1
Integration Time (sec): 1.000000E-1
Scans to average: 1
Electric dark correction enabled: true
Nonlinearity correction enabled: false
Boxcar width: 0
XAxis mode: Wavelengths
Number of Pixels in Spectrum: 2048
>>>>>Begin Spectral Data<<<<<
223.165	-13.19
223.4	-13.19
223.635	-13.19
223.869	-19.19
224.104	-26.19
224.338	-26.19
224.573	-13.19
224.808	-2.19
225.042	-1.19
225.277	-4.19
225.511	-0.19
225.746	9.81
225.98	-1.19
226.215	9.81
226.449	23.81
226.683	24.81
226.918	21.81
227.152	16.81
227.387	21.81
227.621	32.81
227.856	35.81
228.09	41.81
228.324	63.81
228.559	50.81
228.793	53.81
229.027	61.81
229.262	59.81
229.496	77.81
229.73	75.81
229.964	74.81
230.199	68.81
230.433	84.81
230.667	80.81
230.901	58.81
231.136	84.81
231.37	68.81
231.604	81.81
231.838	86.81
232.072	67.81
232.306	82.81
232.541	82.81
232.775	72.81
233.009	77.81
233.243	85.81
233.477	84.81
233.711	80.81
233.945	83.81
234.179	82.81
234.413	78.81
234.647	78.81
234.881	92.81
235.115	76.81
235.349	90.81
235.583	74.81
235.817	69.81
236.051	81.81
236.285	66.81
236.519	65.81
236.753	66.81
236.987	77.81
237.221	83.81
237.455	84.81
237.689	59.81
237.922	85.81
238.156	70.81
238.39	77.81
238.624	85.81
238.858	77.81
239.091	71.81
239.325	76.81
239.559	83.81
239.793	87.81
240.027	65.81
240.26	64.81
240.494	70.81
240.728	77.81
240.961	80.81
241.195	85.81
241.429	77.81
241.662	77.81
241.896	77.81
242.13	75.81
242.363	68.81
242.597	75.81
242.83	77.81
243.064	75.81
243.298	71.81
243.531	71.81
243.765	83.81
243.998	83.81
244.232	91.81
244.465	80.81
244.699	73.81
244.932	69.81
245.166	73.81
245.399	75.81
245.633	65.81
245.866	96.81
246.099	66.81
246.333	73.81
246.566	83.81
246.8	93.81
247.033	65.81
247.266	78.81
247.5	76.81
247.733	81.81
247.966	75.81
248.2	79.81
248.433	78.81
248.666	83.81
248.899	73.81
249.133	77.81
249.366	92.81
249.599	82.81
249.832	75.81
250.066	78.81
250.299	69.81
250.532	89.81
250.765	79.81
250.998	81.81
251.231	79.81
251.465	84.81
251.698	78.81
251.931	54.81
252.164	78.81
252.397	68.81
252.63	94.81
252.863	74.81
253.096	80.81
253.329	83.81
253.562	87.81
253.795	89.81
254.028	71.81
254.261	78.81
254.494	85.81
254.727	82.81
254.96	84.81
255.193	86.81
255.426	78.81
255.659	66.81
255.892	81.81
256.124	81.81
256.357	84.81
256.59	86.81
256.823	76.81
257.056	75.81
257.289	74.81
257.521	63.81
257.754	76.81
257.987	65.81
258.22	75.81
258.452	80.81
258.685	75.81
258.918	74.81
259.151	77.81
259.383	66.81
259.616	77.81
259.849	67.81
260.081	81.81
260.314	70.81
260.547	82.81
260.779	80.81
261.012	84.81
261.244	74.81
261.477	81.81
261.71	85.81
261.942	74.81
262.175	93.81
262.407	73.81
262.64	77.81
262.872	78.81
263.105	93.81
263.337	90.81
263.57	73.81
263.802	86.81
264.035	93.81
264.267	84.81
264.499	76.81
264.732	93.81
264.964	86.81
265.197	93.81
265.429	89.81
265.661	88.81
265.894	82.81
266.126	79.81
266.358	81.81
266.591	74.81
266.823	62.81
267.055	73.81
267.287	81.81
267.52	71.81
267.752	78.81
267.984	84.81
268.216	79.81
268.448	81.81
268.681	82.81
268.913	87.81
269.145	79.81
269.377	79.81
269.609	86.81
269.841	86.81
270.073	93.81
270.306	75.81
270.538	85.81
270.77	73.81
271.002	80.81
271.234	73.81
271.466	83.81
271.698	77.81
271.93	87.81
272.162	89.81
272.394	83.81
272.626	98.81
272.858	77.81
273.09	78.81
273.322	79.81
273.553	78.81
273.785	75.81
274.017	85.81
274.249	85.81
274.481	89.81
274.713	70.81
274.945	75.81
275.176	87.81
275.408	88.81
275.64	80.81
275.872	80.81
276.104	86.81
276.335	93.81
276.567	98.81
276.799	79.81
277.031	94.81
277.262	90.81
277.494	66.81
277.726	81.81
277.957	88.81
278.189	71.81
278.421	72.81
278.652	73.81
278.884	91.81
279.115	87.81
279.347	79.81
279.579	67.81
279.81	73.81
280.042	81.81
280.273	82.81
280.505	82.81
280.736	77.81
280.968	98.81
281.199	87.81
281.431	79.81
281.662	76.81
281.894	77.81
282.125	98.81
282.356	98.81
282.588	127.81
282.819	87.81
283.051	85.81
283.282	87.81
283.513	78.81
283.745	78.81
283.976	93.81
284.207	84.81
284.439	75.81
284.67	89.81
284.901	73.81
285.132	86.81
285.364	93.81
285.595	93.81
285.826	83.81
286.057	90.81
286.288	95.81
286.52	103.81
286.751	79.81
286.982	89.81
287.213	88.81
287.444	74.81
287.675	86.81
287.906	86.81
288.138	89.81
288.369	84.81
288.6	83.81
288.831	87.81
289.062	82.81
289.293	86.81
289.524	84.81
289.755	76.81
289.986	76.81
290.217	83.81
290.448	85.81
290.679	75.81
290.91	102.81
291.141	81.81
291.371	93.81
291.602	83.81
291.833	92.81
292.064	93.81
292.295	93.81
292.526	90.81
292.757	93.81
292.987	98.81
293.218	78.81
293.449	84.81
293.68	82.81
293.91	93.81
294.141	86.81
294.372	75.81
294.603	85.81
294.833	83.81
295.064	71.81
295.295	86.81
295.525	87.81
295.756	89.81
295.987	117.81
296.217	130.81
296.448	111.81
296.679	77.81
296.909	81.81
297.14	88.81
297.37	90.81
297.601	89.81
297.831	93.81
298.062	85.81
298.292	86.81
298.523	92.81
298.753	82.81
298.984	98.81
299.214	90.81
299.445	93.81
299.675	82.81
299.905	89.81
300.136	87.81
300.366	75.81
300.597	82.81
300.827	82.81
301.057	90.81
301.288	86.81
301.518	90.81
301.748	86.81
301.979	90.81
302.209	92.81
302.439	93.81
302.669	87.81
302.9	85.81
303.13	107.81
303.36	75.81
303.59	84.81
303.82	87.81
304.051	98.81
304.281	78.81
304.511	93.81
304.741	76.81
304.971	87.81
305.201	86.81
305.431	95.81
305.661	91.81
305.891	85.81
306.121	93.81
306.352	86.81
306.582	92.81
306.812	98.81
307.042	100.81
307.272	95.81
307.502	93.81
307.731	107.81
307.961	92.81
308.191	90.81
308.421	89.81
308.651	90.81
308.881	89.81
309.111	90.81
309.341	91.81
309.571	91.81
309.8	91.81
310.03	88.81
310.26	84.81
310.49	80.81
310.72	86.81
310.949	94.81
311.179	99.81
311.409	89.81
311.639	89.81
311.868	78.81
312.098	91.81
312.328	77.81
312.557	87.81
312.787	100.81
313.017	110.81
313.246	93.81
313.476	96.81
313.706	91.81
313.935	91.81
314.165	93.81
314.394	100.81
314.624	105.81
314.853	85.81
315.083	95.81
315.312	86.81
315.542	83.81
315.771	86.81
316.001	114.81
316.23	100.81
316.46	96.81
316.689	91.81
316.919	87.81
317.148	84.81
317.377	82.81
317.607	86.81
317.836	91.81
318.065	91.81
318.295	76.81
318.524	95.81
318.753	75.81
318.983	95.81
319.212	96.81
319.441	98.81
319.67	105.81
319.9	98.81
320.129	97.81
320.358	98.81
320.587	93.81
320.816	87.81
321.046	97.81
321.275	85.81
321.504	90.81
321.733	85.81
321.962	87.81
322.191	92.81
322.42	86.81
322.649	91.81
322.878	101.81
323.108	107.81
323.337	108.81
323.566	110.81
323.795	115.81
324.024	171.81
324.253	295.81
324.482	607.81
324.71	1242.81
324.939	1613.81
325.168	619.81
325.397	194.81
325.626	136.81
325.855	108.81
326.084	122.81
326.313	120.81
326.542	122.81
326.77	197.81
326.999	335.81
327.228	711.81
327.457	1301.81
327.686	1063.81
327.914	294.81
328.143	163.81
328.372	137.81
328.6	121.81
328.829	104.81
329.058	116.81
329.287	113.81
329.515	106.81
329.744	103.81
329.972	109.81
330.201	113.81
330.43	142.81
330.658	117.81
330.887	99.81
331.115	97.81
331.344	94.81
331.572	93.81
331.801	94.81
332.03	97.81
332.258	88.81
332.486	84.81
332.715	83.81
332.943	83.81
333.172	93.81
333.4	95.81
333.629	103.81
333.857	100.81
334.085	110.81
334.314	128.81
334.542	161.81
334.771	141.81
334.999	110.81
335.227	79.81
335.455	93.81
335.684	93.81
335.912	111.81
336.14	101.81
336.369	89.81
336.597	97.81
336.825	77.81
337.053	85.81
337.281	91.81
337.51	77.81
337.738	90.81
337.966	100.81
338.194	91.81
338.422	104.81
338.65	77.81
338.878	80.81
339.106	78.81
339.334	95.81
339.562	77.81
339.79	75.81
340.018	79.81
340.246	82.81
340.474	91.81
340.702	96.81
340.93	103.81
341.158	85.81
341.386	82.81
341.614	88.81
341.842	98.81
342.07	102.81
342.298	98.81
342.526	97.81
342.754	73.81
342.981	79.81
343.209	83.81
343.437	91.81
343.665	98.81
343.893	88.81
344.12	93.81
344.348	86.81
344.576	97.81
344.804	93.81
345.031	85.81
345.259	87.81
345.487	104.81
345.714	91.81
345.942	87.81
346.17	88.81
346.397	76.81
346.625	86.81
346.853	82.81
347.08	81.81
347.308	91.81
347.535	106.81
347.763	98.81
347.99	90.81
348.218	94.81
348.445	103.81
348.673	87.81
348.9	91.81
349.128	105.81
349.355	91.81
349.583	100.81
349.81	85.81
350.037	102.81
350.265	95.81
350.492	85.81
350.72	94.81
350.947	96.81
351.174	98.81
351.402	103.81
351.629	103.81
351.856	94.81
352.083	94.81
352.311	99.81
352.538	109.81
352.765	99.81
352.992	104.81
353.22	111.81
353.447	112.81
353.674	109.81
353.901	109.81
354.128	97.81
354.355	109.81
354.583	104.81
354.81	91.81
355.037	105.81
355.264	105.81
355.491	86.81
355.718	80.81
355.945	98.81
356.172	100.81
356.399	105.81
356.626	92.81
356.853	94.81
357.08	101.81
357.307	105.81
357.534	95.81
357.761	94.81
357.988	103.81
358.215	119.81
358.441	121.81
358.668	121.81
358.895	111.81
359.122	87.81
359.349	92.81
359.576	88.81
359.802	101.81
360.029	102.81
360.256	114.81
360.483	78.81
360.709	103.81
360.936	102.81
361.163	93.81
361.39	95.81
361.616	73.81
361.843	78.81
362.07	96.81
362.296	92.81
362.523	108.81
362.749	81.81
362.976	86.81
363.203	96.81
363.429	93.81
363.656	87.81
363.882	93.81
364.109	91.81
364.335	75.81
364.562	93.81
364.788	99.81
365.015	89.81
365.241	96.81
365.468	95.81
365.694	92.81
365.92	90.81
366.147	95.81
366.373	97.81
366.599	81.81
366.826	91.81
367.052	98.81
367.278	105.81
367.505	102.81
367.731	94.81
367.957	85.81
368.184	82.81
368.41	95.81
368.636	99.81
368.862	94.81
369.089	100.81
369.315	96.81
369.541	90.81
369.767	77.81
369.993	83.81
370.219	84.81
370.445	81.81
370.672	87.81
370.898	86.81
371.124	91.81
371.35	85.81
371.576	98.81
371.802	95.81
372.028	97.81
372.254	86.81
372.48	99.81
372.706	89.81
372.932	95.81
373.158	96.81
373.384	96.81
373.61	94.81
373.835	89.81
374.061	90.81
374.287	91.81
374.513	93.81
374.739	92.81
374.965	73.81
375.191	81.81
375.416	94.81
375.642	94.81
375.868	90.81
376.094	98.81
376.319	89.81
376.545	100.81
376.771	93.81
376.997	94.81
377.222	101.81
377.448	99.81
377.674	92.81
377.899	89.81
378.125	97.81
378.35	106.81
378.576	105.81
378.802	103.81
379.027	101.81
379.253	101.81
379.478	119.81
379.704	96.81
379.929	111.81
380.155	122.81
380.38	114.81
380.606	123.81
380.831	117.81
381.057	121.81
381.282	131.81
381.507	115.81
381.733	129.81
381.958	129.81
382.184	129.81
382.409	117.81
382.634	139.81
382.86	142.81
383.085	142.81
383.31	137.81
383.535	145.81
383.761	162.81
383.986	145.81
384.211	139.81
384.436	119.81
384.662	139.81
384.887	173.81
385.112	189.81
385.337	184.81
385.562	189.81
385.787	178.81
386.013	185.81
386.238	187.81
386.463	151.81
386.688	171.81
386.913	173.81
387.138	193.81
387.363	166.81
387.588	148.81
387.813	147.81
388.038	184.81
388.263	221.81
388.488	191.81
388.713	116.81
388.938	102.81
389.163	94.81
389.387	108.81
389.612	105.81
389.837	101.81
390.062	97.81
390.287	92.81
390.512	102.81
390.736	74.81
390.961	89.81
391.186	94.81
391.411	92.81
391.636	99.81
391.86	90.81
392.085	88.81
392.31	87.81
392.534	80.81
392.759	99.81
392.984	78.81
393.208	102.81
393.433	94.81
393.658	97.81
393.882	87.81
394.107	83.81
394.331	86.81
394.556	71.81
394.78	84.81
395.005	89.81
395.229	84.81
395.454	88.81
395.678	82.81
395.903	79.81
396.127	86.81
396.352	88.81
396.576	107.81
396.801	90.81
397.025	102.81
397.249	88.81
397.474	85.81
397.698	82.81
397.922	83.81
398.147	83.81
398.371	76.81
398.595	87.81
398.82	70.81
399.044	81.81
399.268	85.81
399.492	96.81
399.717	88.81
399.941	80.81
400.165	100.81
400.389	95.81
400.613	101.81
400.837	86.81
401.062	91.81
401.286	98.81
401.51	89.81
401.734	102.81
401.958	91.81
402.182	116.81
402.406	122.81
402.63	98.81
402.854	103.81
403.078	93.81
403.302	84.81
403.526	89.81
403.75	89.81
403.974	89.81
404.198	61.81
404.422	97.81
404.645	79.81
404.869	91.81
405.093	94.81
405.317	103.81
405.541	110.81
405.765	73.81
405.988	118.81
406.212	142.81
406.436	162.81
406.66	128.81
406.883	85.81
407.107	102.81
407.331	103.81
407.555	112.81
407.778	95.81
408.002	86.81
408.226	73.81
408.449	94.81
408.673	89.81
408.896	90.81
409.12	107.81
409.344	93.81
409.567	97.81
409.791	96.81
410.014	105.81
410.238	87.81
410.461	89.81
410.685	88.81
410.908	99.81
411.132	112.81
411.355	101.81
411.578	97.81
411.802	98.81
412.025	89.81
412.249	99.81
412.472	93.81
412.695	97.81
412.919	91.81
413.142	92.81
413.365	85.81
413.589	100.81
413.812	91.81
414.035	88.81
414.258	96.81
414.482	95.81
414.705	104.81
414.928	94.81
415.151	102.81
415.374	103.81
415.597	101.81
415.821	93.81
416.044	86.81
416.267	105.81
416.49	91.81
416.713	95.81
416.936	91.81
417.159	100.81
417.382	91.81
417.605	89.81
417.828	96.81
418.051	98.81
418.274	85.81
418.497	97.81
418.72	100.81
418.943	81.81
419.166	75.81
419.389	96.81
419.611	83.81
419.834	111.81
420.057	92.81
420.28	95.81
420.503	85.81
420.726	93.81
420.948	84.81
421.171	85.81
421.394	83.81
421.617	94.81
421.839	80.81
422.062	100.81
422.285	88.81
422.507	99.81
422.73	114.81
422.953	102.81
423.175	76.81
423.398	92.81
423.621	79.81
423.843	82.81
424.066	95.81
424.288	88.81
424.511	84.81
424.733	85.81
424.956	94.81
425.178	85.81
425.401	102.81
425.623	107.81
425.846	75.81
426.068	69.81
426.291	98.81
426.513	98.81
426.735	90.81
426.958	94.81
427.18	99.81
427.402	118.81
427.625	122.81
427.847	103.81
428.069	112.81
428.292	77.81
428.514	84.81
428.736	75.81
428.958	89.81
429.181	74.81
429.403	88.81
429.625	67.81
429.847	94.81
430.069	85.81
430.292	75.81
430.514	74.81
430.736	83.81
430.958	81.81
431.18	91.81
431.402	89.81
431.624	98.81
431.846	81.81
432.068	81.81
432.29	87.81
432.512	84.81
432.734	89.81
432.956	92.81
433.178	89.81
433.4	92.81
433.622	101.81
433.844	73.81
434.066	85.81
434.287	89.81
434.509	85.81
434.731	81.81
434.953	97.81
435.175	87.81
435.397	93.81
435.618	85.81
435.84	98.81
436.062	110.81
436.284	107.81
436.505	93.81
436.727	87.81
436.949	86.81
437.17	90.81
437.392	81.81
437.614	85.81
437.835	100.81
438.057	101.81
438.278	100.81
438.5	97.81
438.721	99.81
438.943	87.81
439.165	82.81
439.386	87.81
439.608	89.81
439.829	92.81
440.05	123.81
440.272	112.81
440.493	97.81
440.715	81.81
440.936	86.81
441.158	98.81
441.379	88.81
441.6	83.81
441.822	89.81
442.043	92.81
442.264	97.81
442.486	96.81
442.707	88.81
442.928	81.81
443.149	114.81
443.371	100.81
443.592	109.81
443.813	85.81
444.034	100.81
444.255	88.81
444.476	80.81
444.698	94.81
444.919	81.81
445.14	129.81
445.361	122.81
445.582	120.81
445.803	112.81
446.024	124.81
446.245	121.81
446.466	104.81
446.687	96.81
446.908	80.81
447.129	89.81
447.35	86.81
447.571	91.81
447.792	84.81
448.013	75.81
448.234	77.81
448.455	79.81
448.675	97.81
448.896	101.81
449.117	96.81
449.338	110.81
449.559	125.81
449.779	129.81
450	93.81
450.221	98.81
450.442	85.81
450.662	82.81
450.883	89.81
451.104	109.81
451.324	99.81
451.545	91.81
451.766	87.81
451.986	79.81
452.207	83.81
452.428	91.81
452.648	93.81
452.869	106.81
453.089	100.81
453.31	89.81
453.53	88.81
453.751	94.81
453.971	102.81
454.192	84.81
454.412	94.81
454.633	81.81
454.853	90.81
455.073	91.81
455.294	80.81
455.514	98.81
455.734	78.81
455.955	80.81
456.175	87.81
456.395	83.81
456.616	86.81
456.836	67.81
457.056	92.81
457.276	77.81
457.497	84.81
457.717	93.81
457.937	89.81
458.157	95.81
458.377	85.81
458.598	93.81
458.818	122.81
459.038	118.81
459.258	99.81
459.478	78.81
459.698	73.81
459.918	85.81
460.138	95.81
460.358	82.81
460.578	83.81
460.798	89.81
461.018	100.81
461.238	85.81
461.458	106.81
461.678	84.81
461.898	82.81
462.118	85.81
462.338	95.81
462.558	95.81
462.777	85.81
462.997	73.81
463.217	82.81
463.437	87.81
463.657	86.81
463.876	80.81
464.096	77.81
464.316	89.81
464.536	92.81
464.755	80.81
464.975	78.81
465.195	128.81
465.414	119.81
465.634	97.81
465.854	87.81
466.073	94.81
466.293	81.81
466.512	100.81
466.732	80.81
466.951	90.81
467.171	94.81
467.391	77.81
467.61	74.81
467.829	84.81
468.049	106.81
468.268	119.81
468.488	97.81
468.707	83.81
468.927	82.81
469.146	79.81
469.365	80.81
469.585	93.81
469.804	94.81
470.023	95.81
470.243	97.81
470.462	83.81
470.681	90.81
470.901	86.81
471.12	95.81
471.339	91.81
471.558	91.81
471.777	94.81
471.997	96.81
472.216	116.81
472.435	177.81
472.654	89.81
472.873	75.81
473.092	90.81
473.311	101.81
473.53	97.81
473.749	87.81
473.968	84.81
474.187	104.81
474.406	109.81
474.625	73.81
474.844	99.81
475.063	82.81
475.282	84.81
475.501	84.81
475.72	98.81
475.939	85.81
476.158	84.81
476.377	82.81
476.596	91.81
476.814	88.81
477.033	87.81
477.252	84.81
477.471	82.81
477.69	82.81
477.908	84.81
478.127	77.81
478.346	78.81
478.564	77.81
478.783	99.81
479.002	82.81
479.22	92.81
479.439	101.81
479.658	98.81
479.876	82.81
480.095	77.81
480.313	83.81
480.532	101.81
480.751	98.81
480.969	115.81
481.188	275.81
481.406	202.81
481.624	97.81
481.843	85.81
482.061	85.81
482.28	70.81
482.498	84.81
482.717	70.81
482.935	85.81
483.153	98.81
483.372	89.81
483.59	81.81
483.808	92.81
484.027	87.81
484.245	95.81
484.463	82.81
484.681	91.81
484.9	83.81
485.118	92.81
485.336	83.81
485.554	85.81
485.772	115.81
485.99	101.81
486.209	102.81
486.427	102.81
486.645	107.81
486.863	111.81
487.081	99.81
487.299	98.81
487.517	84.81
487.735	96.81
487.953	92.81
488.171	94.81
488.389	80.81
488.607	75.81
488.825	86.81
489.043	89.81
489.261	102.81
489.479	85.81
489.696	92.81
489.914	96.81
490.132	88.81
490.35	85.81
490.568	85.81
490.786	90.81
491.003	89.81
491.221	87.81
491.439	80.81
491.657	85.81
491.874	89.81
492.092	94.81
492.31	96.81
492.527	93.81
492.745	86.81
492.963	87.81
493.18	95.81
493.398	86.81
493.615	97.81
493.833	90.81
494.05	91.81
494.268	90.81
494.485	88.81
494.703	83.81
494.92	84.81
495.138	84.81
495.355	98.81
495.573	85.81
495.79	90.81
496.008	105.81
496.225	92.81
496.442	91.81
496.66	95.81
496.877	78.81
497.094	79.81
497.312	98.81
497.529	82.81
497.746	85.81
497.963	93.81
498.181	90.81
498.398	113.81
498.615	93.81
498.832	101.81
499.049	90.81
499.267	90.81
499.484	84.81
499.701	79.81
499.918	78.81
500.135	86.81
500.352	93.81
500.569	91.81
500.786	101.81
501.003	83.81
501.22	90.81
501.437	84.81
501.654	83.81
501.871	109.81
502.088	90.81
502.305	81.81
502.522	97.81
502.739	88.81
502.956	106.81
503.172	95.81
503.389	91.81
503.606	97.81
503.823	77.81
504.04	96.81
504.256	91.81
504.473	99.81
504.69	81.81
504.907	91.81
505.123	80.81
505.34	83.81
505.557	89.81
505.773	92.81
505.99	87.81
506.207	90.81
506.423	78.81
506.64	89.81
506.856	91.81
507.073	83.81
507.289	94.81
507.506	88.81
507.722	105.81
507.939	105.81
508.155	76.81
508.372	94.81
508.588	87.81
508.805	94.81
509.021	93.81
509.238	90.81
509.454	95.81
509.67	95.81
509.887	98.81
510.103	115.81
510.319	172.81
510.536	510.81
510.752	1504.81
510.968	445.81
511.184	127.81
511.401	103.81
511.617	100.81
511.833	81.81
512.049	86.81
512.265	75.81
512.481	85.81
512.698	88.81
512.914	75.81
513.13	85.81
513.346	79.81
513.562	85.81
513.778	102.81
513.994	84.81
514.21	101.81
514.426	104.81
514.642	105.81
514.858	99.81
515.074	115.81
515.29	290.81
515.506	890.81
515.721	343.81
515.937	125.81
516.153	94.81
