Data from Circ_1990_H10_HRD10591_00006.txt Node
Date: Wed Jan 03 11:55:05 EST 2024
User: Yrep
Spectrometer: HR+D1059
Trigger mode: 1
Integration Time (sec): 1.000000E-1
Scans to average: 1
Electric dark correction enabled: true
Nonlinearity correction enabled: false
Boxcar width: 0
XAxis mode: Wavelengths
Number of Pixels in Spectrum: 2048
>>>>>Begin Spectral Data<<<<<
223.165	-20.19
223.4	-20.19
223.635	-20.19
223.869	-12.19
224.104	-22.19
224.338	-20.19
224.573	-33.19
224.808	-10.19
225.042	-9.19
225.277	-9.19
225.511	1.81
225.746	6.81
225.98	17.81
226.215	15.81
226.449	14.81
226.683	20.81
226.918	28.81
227.152	29.81
227.387	29.81
227.621	48.81
227.856	54.81
228.09	43.81
228.324	46.81
228.559	59.81
228.793	51.81
229.027	63.81
229.262	74.81
229.496	56.81
229.73	67.81
229.964	81.81
230.199	53.81
230.433	57.81
230.667	73.81
230.901	82.81
231.136	66.81
231.37	73.81
231.604	76.81
231.838	73.81
232.072	82.81
232.306	76.81
232.541	77.81
232.775	67.81
233.009	70.81
233.243	65.81
233.477	68.81
233.711	79.81
233.945	68.81
234.179	82.81
234.413	88.81
234.647	77.81
234.881	70.81
235.115	90.81
235.349	69.81
235.583	85.81
235.817	74.81
236.051	83.81
236.285	69.81
236.519	90.81
236.753	80.81
236.987	75.81
237.221	90.81
237.455	80.81
237.689	82.81
237.922	68.81
238.156	74.81
238.39	67.81
238.624	72.81
238.858	60.81
239.091	65.81
239.325	67.81
239.559	68.81
239.793	91.81
240.027	77.81
240.26	68.81
240.494	83.81
240.728	67.81
240.961	66.81
241.195	95.81
241.429	75.81
241.662	77.81
241.896	70.81
242.13	78.81
242.363	65.81
242.597	73.81
242.83	76.81
243.064	52.81
243.298	76.81
243.531	69.81
243.765	76.81
243.998	62.81
244.232	72.81
244.465	78.81
244.699	76.81
244.932	75.81
245.166	64.81
245.399	76.81
245.633	88.81
245.866	79.81
246.099	72.81
246.333	76.81
246.566	77.81
246.8	83.81
247.033	84.81
247.266	80.81
247.5	79.81
247.733	79.81
247.966	86.81
248.2	94.81
248.433	77.81
248.666	78.81
248.899	81.81
249.133	74.81
249.366	77.81
249.599	84.81
249.832	93.81
250.066	72.81
250.299	63.81
250.532	81.81
250.765	72.81
250.998	76.81
251.231	89.81
251.465	84.81
251.698	73.81
251.931	70.81
252.164	82.81
252.397	72.81
252.63	91.81
252.863	81.81
253.096	77.81
253.329	80.81
253.562	75.81
253.795	78.81
254.028	89.81
254.261	83.81
254.494	87.81
254.727	81.81
254.96	71.81
255.193	75.81
255.426	74.81
255.659	81.81
255.892	82.81
256.124	90.81
256.357	80.81
256.59	78.81
256.823	79.81
257.056	85.81
257.289	76.81
257.521	73.81
257.754	74.81
257.987	81.81
258.22	85.81
258.452	74.81
258.685	80.81
258.918	66.81
259.151	80.81
259.383	69.81
259.616	66.81
259.849	77.81
260.081	74.81
260.314	85.81
260.547	83.81
260.779	85.81
261.012	81.81
261.244	72.81
261.477	70.81
261.71	74.81
261.942	91.81
262.175	100.81
262.407	80.81
262.64	86.81
262.872	85.81
263.105	84.81
263.337	84.81
263.57	80.81
263.802	75.81
264.035	94.81
264.267	92.81
264.499	87.81
264.732	78.81
264.964	76.81
265.197	76.81
265.429	75.81
265.661	98.81
265.894	73.81
266.126	84.81
266.358	83.81
266.591	89.81
266.823	81.81
267.055	80.81
267.287	82.81
267.52	77.81
267.752	80.81
267.984	96.81
268.216	70.81
268.448	82.81
268.681	70.81
268.913	90.81
269.145	80.81
269.377	65.81
269.609	83.81
269.841	76.81
270.073	93.81
270.306	73.81
270.538	81.81
270.77	85.81
271.002	91.81
271.234	82.81
271.466	77.81
271.698	81.81
271.93	87.81
272.162	84.81
272.394	88.81
272.626	83.81
272.858	81.81
273.09	69.81
273.322	90.81
273.553	72.81
273.785	91.81
274.017	83.81
274.249	94.81
274.481	82.81
274.713	83.81
274.945	83.81
275.176	91.81
275.408	82.81
275.64	76.81
275.872	84.81
276.104	81.81
276.335	80.81
276.567	89.81
276.799	90.81
277.031	93.81
277.262	97.81
277.494	84.81
277.726	78.81
277.957	80.81
278.189	94.81
278.421	72.81
278.652	84.81
278.884	76.81
279.115	80.81
279.347	73.81
279.579	73.81
279.81	68.81
280.042	101.81
280.273	83.81
280.505	83.81
280.736	85.81
280.968	86.81
281.199	78.81
281.431	81.81
281.662	99.81
281.894	86.81
282.125	90.81
282.356	104.81
282.588	119.81
282.819	98.81
283.051	97.81
283.282	93.81
283.513	73.81
283.745	90.81
283.976	98.81
284.207	82.81
284.439	88.81
284.67	95.81
284.901	83.81
285.132	92.81
285.364	78.81
285.595	75.81
285.826	86.81
286.057	94.81
286.288	87.81
286.52	76.81
286.751	85.81
286.982	84.81
287.213	78.81
287.444	90.81
287.675	86.81
287.906	78.81
288.138	86.81
288.369	80.81
288.6	72.81
288.831	92.81
289.062	81.81
289.293	85.81
289.524	87.81
289.755	79.81
289.986	91.81
290.217	83.81
290.448	65.81
290.679	79.81
290.91	84.81
291.141	82.81
291.371	85.81
291.602	80.81
291.833	73.81
292.064	92.81
292.295	88.81
292.526	81.81
292.757	96.81
292.987	87.81
293.218	99.81
293.449	94.81
293.68	89.81
293.91	68.81
294.141	86.81
294.372	82.81
294.603	85.81
294.833	78.81
295.064	89.81
295.295	78.81
295.525	76.81
295.756	99.81
295.987	104.81
296.217	116.81
296.448	110.81
296.679	83.81
296.909	74.81
297.14	73.81
297.37	88.81
297.601	92.81
297.831	85.81
298.062	80.81
298.292	102.81
298.523	86.81
298.753	82.81
298.984	89.81
299.214	100.81
299.445	73.81
299.675	96.81
299.905	80.81
300.136	95.81
300.366	94.81
300.597	98.81
300.827	80.81
301.057	99.81
301.288	106.81
301.518	98.81
301.748	88.81
301.979	104.81
302.209	91.81
302.439	90.81
302.669	80.81
302.9	83.81
303.13	83.81
303.36	88.81
303.59	81.81
303.82	107.81
304.051	99.81
304.281	82.81
304.511	83.81
304.741	87.81
304.971	87.81
305.201	89.81
305.431	86.81
305.661	83.81
305.891	78.81
306.121	81.81
306.352	99.81
306.582	102.81
306.812	78.81
307.042	93.81
307.272	88.81
307.502	90.81
307.731	87.81
307.961	83.81
308.191	79.81
308.421	87.81
308.651	87.81
308.881	87.81
309.111	78.81
309.341	83.81
309.571	94.81
309.8	102.81
310.03	91.81
310.26	96.81
310.49	96.81
310.72	100.81
310.949	98.81
311.179	93.81
311.409	93.81
311.639	94.81
311.868	87.81
312.098	90.81
312.328	76.81
312.557	90.81
312.787	102.81
313.017	96.81
313.246	90.81
313.476	93.81
313.706	102.81
313.935	94.81
314.165	103.81
314.394	80.81
314.624	98.81
314.853	100.81
315.083	98.81
315.312	78.81
315.542	88.81
315.771	79.81
316.001	88.81
316.23	76.81
316.46	76.81
316.689	89.81
316.919	99.81
317.148	99.81
317.377	83.81
317.607	81.81
317.836	98.81
318.065	86.81
318.295	84.81
318.524	87.81
318.753	95.81
318.983	69.81
319.212	94.81
319.441	104.81
319.67	96.81
319.9	88.81
320.129	93.81
320.358	91.81
320.587	84.81
320.816	88.81
321.046	79.81
321.275	101.81
321.504	101.81
321.733	87.81
321.962	94.81
322.191	97.81
322.42	99.81
322.649	97.81
322.878	105.81
323.108	100.81
323.337	98.81
323.566	116.81
323.795	136.81
324.024	170.81
324.253	314.81
324.482	641.81
324.71	1285.81
324.939	1676.81
325.168	626.81
325.397	212.81
325.626	140.81
325.855	114.81
326.084	111.81
326.313	122.81
326.542	138.81
326.77	202.81
326.999	349.81
327.228	710.81
327.457	1313.81
327.686	1076.81
327.914	309.81
328.143	180.81
328.372	142.81
328.6	112.81
328.829	111.81
329.058	133.81
329.287	123.81
329.515	108.81
329.744	93.81
329.972	107.81
330.201	130.81
330.43	168.81
330.658	133.81
330.887	128.81
331.115	109.81
331.344	100.81
331.572	90.81
331.801	85.81
332.03	98.81
332.258	88.81
332.486	91.81
332.715	92.81
332.943	82.81
333.172	97.81
333.4	110.81
333.629	106.81
333.857	96.81
334.085	122.81
334.314	129.81
334.542	181.81
334.771	157.81
334.999	115.81
335.227	90.81
335.455	99.81
335.684	123.81
335.912	107.81
336.14	100.81
336.369	92.81
336.597	98.81
336.825	95.81
337.053	86.81
337.281	87.81
337.51	84.81
337.738	87.81
337.966	88.81
338.194	97.81
338.422	81.81
338.65	84.81
338.878	94.81
339.106	86.81
339.334	84.81
339.562	76.81
339.79	73.81
340.018	90.81
340.246	102.81
340.474	97.81
340.702	100.81
340.93	96.81
341.158	76.81
341.386	95.81
341.614	102.81
341.842	86.81
342.07	106.81
342.298	103.81
342.526	79.81
342.754	102.81
342.981	82.81
343.209	88.81
343.437	101.81
343.665	96.81
343.893	82.81
344.12	98.81
344.348	84.81
344.576	86.81
344.804	95.81
345.031	81.81
345.259	87.81
345.487	99.81
345.714	93.81
345.942	84.81
346.17	77.81
346.397	85.81
346.625	82.81
346.853	93.81
347.08	84.81
347.308	101.81
347.535	100.81
347.763	92.81
347.99	85.81
348.218	89.81
348.445	100.81
348.673	100.81
348.9	99.81
349.128	86.81
349.355	90.81
349.583	82.81
349.81	95.81
350.037	94.81
350.265	100.81
350.492	81.81
350.72	97.81
350.947	92.81
351.174	102.81
351.402	109.81
351.629	110.81
351.856	112.81
352.083	110.81
352.311	92.81
352.538	96.81
352.765	92.81
352.992	98.81
353.22	97.81
353.447	97.81
353.674	98.81
353.901	91.81
354.128	102.81
354.355	89.81
354.583	102.81
354.81	103.81
355.037	92.81
355.264	93.81
355.491	93.81
355.718	108.81
355.945	99.81
356.172	98.81
356.399	86.81
356.626	103.81
356.853	98.81
357.08	95.81
357.307	97.81
357.534	96.81
357.761	96.81
357.988	98.81
358.215	112.81
358.441	108.81
358.668	118.81
358.895	111.81
359.122	97.81
359.349	94.81
359.576	97.81
359.802	92.81
360.029	106.81
360.256	97.81
360.483	85.81
360.709	82.81
360.936	78.81
361.163	85.81
361.39	93.81
361.616	109.81
361.843	85.81
362.07	95.81
362.296	81.81
362.523	94.81
362.749	84.81
362.976	99.81
363.203	87.81
363.429	94.81
363.656	99.81
363.882	78.81
364.109	91.81
364.335	95.81
364.562	96.81
364.788	96.81
365.015	94.81
365.241	86.81
365.468	99.81
365.694	105.81
365.92	82.81
366.147	96.81
366.373	104.81
366.599	88.81
366.826	90.81
367.052	80.81
367.278	88.81
367.505	85.81
367.731	96.81
367.957	92.81
368.184	85.81
368.41	94.81
368.636	96.81
368.862	97.81
369.089	100.81
369.315	101.81
369.541	91.81
369.767	91.81
369.993	95.81
370.219	86.81
370.445	77.81
370.672	92.81
370.898	81.81
371.124	79.81
371.35	86.81
371.576	92.81
371.802	82.81
372.028	77.81
372.254	86.81
372.48	89.81
372.706	80.81
372.932	84.81
373.158	98.81
373.384	98.81
373.61	86.81
373.835	85.81
374.061	75.81
374.287	77.81
374.513	90.81
374.739	86.81
374.965	90.81
375.191	105.81
375.416	87.81
375.642	89.81
375.868	101.81
376.094	96.81
376.319	92.81
376.545	106.81
376.771	86.81
376.997	88.81
377.222	92.81
377.448	101.81
377.674	87.81
377.899	91.81
378.125	94.81
378.35	97.81
378.576	106.81
378.802	100.81
379.027	107.81
379.253	104.81
379.478	115.81
379.704	100.81
379.929	100.81
380.155	116.81
380.38	113.81
380.606	112.81
380.831	120.81
381.057	114.81
381.282	102.81
381.507	109.81
381.733	131.81
381.958	101.81
382.184	114.81
382.409	131.81
382.634	122.81
382.86	117.81
383.085	146.81
383.31	136.81
383.535	125.81
383.761	117.81
383.986	121.81
384.211	131.81
384.436	131.81
384.662	148.81
384.887	157.81
385.112	174.81
385.337	173.81
385.562	171.81
385.787	165.81
386.013	165.81
386.238	175.81
386.463	166.81
386.688	159.81
386.913	156.81
387.138	176.81
387.363	157.81
387.588	133.81
387.813	130.81
388.038	150.81
388.263	189.81
388.488	168.81
388.713	104.81
388.938	98.81
389.163	89.81
389.387	102.81
389.612	99.81
389.837	95.81
390.062	90.81
390.287	94.81
390.512	88.81
390.736	89.81
390.961	91.81
391.186	99.81
391.411	95.81
391.636	83.81
391.86	90.81
392.085	85.81
392.31	83.81
392.534	79.81
392.759	78.81
392.984	94.81
393.208	91.81
393.433	104.81
393.658	92.81
393.882	77.81
394.107	82.81
394.331	78.81
394.556	89.81
394.78	87.81
395.005	89.81
395.229	75.81
395.454	86.81
395.678	87.81
395.903	86.81
396.127	92.81
396.352	92.81
396.576	77.81
396.801	92.81
397.025	88.81
397.249	103.81
397.474	102.81
397.698	84.81
397.922	90.81
398.147	83.81
398.371	80.81
398.595	88.81
398.82	85.81
399.044	76.81
399.268	79.81
399.492	77.81
399.717	75.81
399.941	85.81
400.165	94.81
400.389	77.81
400.613	84.81
400.837	68.81
401.062	77.81
401.286	96.81
401.51	85.81
401.734	81.81
401.958	83.81
402.182	105.81
402.406	132.81
402.63	108.81
402.854	87.81
403.078	84.81
403.302	79.81
403.526	87.81
403.75	102.81
403.974	90.81
404.198	84.81
404.422	86.81
404.645	92.81
404.869	97.81
405.093	98.81
405.317	91.81
405.541	92.81
405.765	94.81
405.988	97.81
406.212	140.81
406.436	178.81
406.66	124.81
406.883	98.81
407.107	90.81
407.331	87.81
407.555	102.81
407.778	99.81
408.002	89.81
408.226	86.81
408.449	94.81
408.673	79.81
408.896	94.81
409.12	100.81
409.344	85.81
409.567	97.81
409.791	79.81
410.014	99.81
410.238	95.81
410.461	100.81
410.685	101.81
410.908	86.81
411.132	100.81
411.355	84.81
411.578	101.81
411.802	96.81
412.025	82.81
412.249	90.81
412.472	105.81
412.695	92.81
412.919	97.81
413.142	99.81
413.365	96.81
413.589	102.81
413.812	100.81
414.035	92.81
414.258	92.81
414.482	94.81
414.705	93.81
414.928	98.81
415.151	83.81
415.374	96.81
415.597	92.81
415.821	97.81
416.044	94.81
416.267	68.81
416.49	110.81
416.713	96.81
416.936	92.81
417.159	82.81
417.382	94.81
417.605	82.81
417.828	93.81
418.051	91.81
418.274	94.81
418.497	83.81
418.72	85.81
418.943	89.81
419.166	80.81
419.389	80.81
419.611	95.81
419.834	95.81
420.057	98.81
420.28	91.81
420.503	87.81
420.726	99.81
420.948	106.81
421.171	96.81
421.394	91.81
421.617	97.81
421.839	85.81
422.062	97.81
422.285	91.81
422.507	109.81
422.73	100.81
422.953	96.81
423.175	99.81
423.398	76.81
423.621	88.81
423.843	87.81
424.066	76.81
424.288	82.81
424.511	97.81
424.733	91.81
424.956	100.81
425.178	79.81
425.401	84.81
425.623	90.81
425.846	94.81
426.068	86.81
426.291	89.81
426.513	95.81
426.735	80.81
426.958	84.81
427.18	96.81
427.402	117.81
427.625	139.81
427.847	126.81
428.069	110.81
428.292	86.81
428.514	99.81
428.736	94.81
428.958	74.81
429.181	71.81
429.403	86.81
429.625	94.81
429.847	68.81
430.069	95.81
430.292	82.81
430.514	89.81
430.736	82.81
430.958	85.81
431.18	89.81
431.402	68.81
431.624	93.81
431.846	90.81
432.068	96.81
432.29	83.81
432.512	100.81
432.734	93.81
432.956	90.81
433.178	93.81
433.4	86.81
433.622	87.81
433.844	95.81
434.066	86.81
434.287	89.81
434.509	80.81
434.731	72.81
434.953	84.81
435.175	83.81
435.397	99.81
435.618	94.81
435.84	96.81
436.062	104.81
436.284	101.81
436.505	99.81
436.727	100.81
436.949	78.81
437.17	73.81
437.392	85.81
437.614	91.81
437.835	92.81
438.057	95.81
438.278	102.81
438.5	80.81
438.721	121.81
438.943	90.81
439.165	82.81
439.386	73.81
439.608	90.81
439.829	90.81
440.05	107.81
440.272	110.81
440.493	108.81
440.715	79.81
440.936	82.81
441.158	88.81
441.379	83.81
441.6	81.81
441.822	99.81
442.043	92.81
442.264	107.81
442.486	82.81
442.707	80.81
442.928	98.81
443.149	120.81
443.371	120.81
443.592	93.81
443.813	102.81
444.034	97.81
444.255	89.81
444.476	85.81
444.698	82.81
444.919	82.81
445.14	127.81
445.361	121.81
445.582	96.81
445.803	129.81
446.024	117.81
446.245	122.81
446.466	106.81
446.687	93.81
446.908	94.81
447.129	84.81
447.35	90.81
447.571	83.81
447.792	88.81
448.013	89.81
448.234	103.81
448.455	93.81
448.675	117.81
448.896	108.81
449.117	94.81
449.338	107.81
449.559	115.81
449.779	105.81
450	95.81
450.221	85.81
450.442	84.81
450.662	86.81
450.883	100.81
451.104	106.81
451.324	94.81
451.545	93.81
451.766	76.81
451.986	95.81
452.207	89.81
452.428	92.81
452.648	98.81
452.869	103.81
453.089	105.81
453.31	124.81
453.53	89.81
453.751	83.81
453.971	100.81
454.192	105.81
454.412	84.81
454.633	83.81
454.853	82.81
455.073	88.81
455.294	91.81
455.514	100.81
455.734	85.81
455.955	86.81
456.175	74.81
456.395	69.81
456.616	80.81
456.836	72.81
457.056	79.81
457.276	85.81
457.497	82.81
457.717	74.81
457.937	82.81
458.157	77.81
458.377	62.81
458.598	110.81
458.818	115.81
459.038	129.81
459.258	93.81
459.478	85.81
459.698	89.81
459.918	94.81
460.138	72.81
460.358	87.81
460.578	92.81
460.798	89.81
461.018	83.81
461.238	94.81
461.458	84.81
461.678	74.81
461.898	93.81
462.118	82.81
462.338	72.81
462.558	81.81
462.777	70.81
462.997	93.81
463.217	97.81
463.437	88.81
463.657	74.81
463.876	85.81
464.096	91.81
464.316	97.81
464.536	88.81
464.755	86.81
464.975	97.81
465.195	140.81
465.414	117.81
465.634	89.81
465.854	106.81
466.073	92.81
466.293	89.81
466.512	84.81
466.732	83.81
466.951	84.81
467.171	95.81
467.391	95.81
467.61	96.81
467.829	92.81
468.049	107.81
468.268	126.81
468.488	97.81
468.707	77.81
468.927	82.81
469.146	85.81
469.365	84.81
469.585	79.81
469.804	97.81
470.023	84.81
470.243	84.81
470.462	92.81
470.681	98.81
470.901	89.81
471.12	83.81
471.339	86.81
471.558	84.81
471.777	84.81
471.997	93.81
472.216	139.81
472.435	204.81
472.654	107.81
472.873	90.81
473.092	77.81
473.311	86.81
473.53	91.81
473.749	79.81
473.968	84.81
474.187	97.81
474.406	100.81
474.625	83.81
474.844	76.81
475.063	98.81
475.282	82.81
475.501	91.81
475.72	92.81
475.939	79.81
476.158	76.81
476.377	92.81
476.596	84.81
476.814	99.81
477.033	76.81
477.252	96.81
477.471	78.81
477.69	80.81
477.908	80.81
478.127	81.81
478.346	88.81
478.564	78.81
478.783	83.81
479.002	88.81
479.22	97.81
479.439	94.81
479.658	96.81
479.876	90.81
480.095	81.81
480.313	89.81
480.532	98.81
480.751	99.81
480.969	140.81
481.188	334.81
481.406	227.81
481.624	99.81
481.843	84.81
482.061	82.81
482.28	89.81
482.498	92.81
482.717	93.81
482.935	86.81
483.153	74.81
483.372	88.81
483.59	82.81
483.808	81.81
484.027	88.81
484.245	79.81
484.463	98.81
484.681	79.81
484.9	92.81
485.118	89.81
485.336	85.81
485.554	90.81
485.772	103.81
485.99	114.81
486.209	105.81
486.427	116.81
486.645	108.81
486.863	120.81
487.081	100.81
487.299	102.81
487.517	85.81
487.735	98.81
487.953	94.81
488.171	90.81
488.389	98.81
488.607	88.81
488.825	83.81
489.043	87.81
489.261	87.81
489.479	80.81
489.696	80.81
489.914	88.81
490.132	77.81
490.35	74.81
490.568	92.81
490.786	86.81
491.003	84.81
491.221	82.81
491.439	90.81
491.657	87.81
491.874	88.81
492.092	99.81
492.31	98.81
492.527	84.81
492.745	84.81
492.963	74.81
493.18	90.81
493.398	93.81
493.615	98.81
493.833	85.81
494.05	84.81
494.268	81.81
494.485	90.81
494.703	77.81
494.92	82.81
495.138	96.81
495.355	89.81
495.573	93.81
495.79	84.81
496.008	97.81
496.225	102.81
496.442	77.81
496.66	84.81
496.877	80.81
497.094	91.81
497.312	82.81
497.529	80.81
497.746	73.81
497.963	83.81
498.181	80.81
498.398	88.81
498.615	94.81
498.832	85.81
499.049	90.81
499.267	80.81
499.484	84.81
499.701	93.81
499.918	92.81
500.135	72.81
500.352	92.81
500.569	97.81
500.786	75.81
501.003	73.81
501.22	88.81
501.437	86.81
501.654	94.81
501.871	99.81
502.088	94.81
502.305	90.81
502.522	83.81
502.739	85.81
502.956	76.81
503.172	94.81
503.389	93.81
503.606	99.81
503.823	82.81
504.04	91.81
504.256	84.81
504.473	92.81
504.69	82.81
504.907	84.81
505.123	90.81
505.34	84.81
505.557	96.81
505.773	86.81
505.99	90.81
506.207	72.81
506.423	93.81
506.64	92.81
506.856	89.81
507.073	75.81
507.289	93.81
507.506	93.81
507.722	101.81
507.939	102.81
508.155	93.81
508.372	81.81
508.588	96.81
508.805	90.81
509.021	103.81
509.238	92.81
509.454	104.81
509.67	99.81
509.887	100.81
510.103	90.81
510.319	183.81
510.536	560.81
510.752	1721.81
510.968	498.81
511.184	140.81
511.401	92.81
511.617	92.81
511.833	91.81
512.049	82.81
512.265	84.81
512.481	82.81
512.698	93.81
512.914	83.81
513.13	88.81
513.346	91.81
513.562	71.81
513.778	75.81
513.994	88.81
514.21	89.81
514.426	117.81
514.642	127.81
514.858	120.81
515.074	150.81
515.29	322.81
515.506	1042.81
515.721	401.81
515.937	135.81
516.153	109.81
516.369	109.81
