Data from Circ_1990_H10_HRD10591_00096.txt Node
Date: Wed Jan 03 11:55:23 EST 2024
User: Yrep
Spectrometer: HR+D1059
Trigger mode: 1
Integration Time (sec): 1.000000E-1
Scans to average: 1
Electric dark correction enabled: true
Nonlinearity correction enabled: false
Boxcar width: 0
XAxis mode: Wavelengths
Number of Pixels in Spectrum: 2048
>>>>>Begin Spectral Data<<<<<
223.165	-11.12
223.4	-11.12
223.635	-11.12
223.869	-27.12
224.104	-10.12
224.338	-14.12
224.573	-19.12
224.808	-13.12
225.042	-23.12
225.277	-0.12
225.511	-6.12
225.746	12.88
225.98	10.88
226.215	7.88
226.449	4.88
226.683	27.88
226.918	34.88
227.152	24.88
227.387	39.88
227.621	29.88
227.856	28.88
228.09	46.88
228.324	44.88
228.559	69.88
228.793	56.88
229.027	59.88
229.262	70.88
229.496	62.88
229.73	79.88
229.964	82.88
230.199	78.88
230.433	77.88
230.667	89.88
230.901	80.88
231.136	75.88
231.37	74.88
231.604	83.88
231.838	87.88
232.072	81.88
232.306	86.88
232.541	81.88
232.775	90.88
233.009	82.88
233.243	77.88
233.477	82.88
233.711	86.88
233.945	98.88
234.179	73.88
234.413	84.88
234.647	90.88
234.881	87.88
235.115	74.88
235.349	76.88
235.583	88.88
235.817	79.88
236.051	77.88
236.285	79.88
236.519	81.88
236.753	90.88
236.987	87.88
237.221	85.88
237.455	84.88
237.689	68.88
237.922	71.88
238.156	77.88
238.39	84.88
238.624	70.88
238.858	82.88
239.091	86.88
239.325	79.88
239.559	86.88
239.793	69.88
240.027	86.88
240.26	75.88
240.494	82.88
240.728	82.88
240.961	78.88
241.195	91.88
241.429	70.88
241.662	79.88
241.896	78.88
242.13	78.88
242.363	81.88
242.597	86.88
242.83	82.88
243.064	86.88
243.298	82.88
243.531	70.88
243.765	68.88
243.998	72.88
244.232	77.88
244.465	116.88
244.699	79.88
244.932	80.88
245.166	83.88
245.399	59.88
245.633	75.88
245.866	79.88
246.099	70.88
246.333	75.88
246.566	76.88
246.8	91.88
247.033	74.88
247.266	82.88
247.5	86.88
247.733	83.88
247.966	74.88
248.2	69.88
248.433	68.88
248.666	78.88
248.899	82.88
249.133	89.88
249.366	102.88
249.599	102.88
249.832	87.88
250.066	79.88
250.299	69.88
250.532	90.88
250.765	72.88
250.998	88.88
251.231	84.88
251.465	80.88
251.698	78.88
251.931	85.88
252.164	95.88
252.397	80.88
252.63	95.88
252.863	78.88
253.096	76.88
253.329	79.88
253.562	87.88
253.795	92.88
254.028	69.88
254.261	83.88
254.494	81.88
254.727	82.88
254.96	82.88
255.193	84.88
255.426	76.88
255.659	76.88
255.892	86.88
256.124	86.88
256.357	79.88
256.59	84.88
256.823	86.88
257.056	86.88
257.289	93.88
257.521	84.88
257.754	83.88
257.987	83.88
258.22	82.88
258.452	83.88
258.685	86.88
258.918	96.88
259.151	83.88
259.383	89.88
259.616	96.88
259.849	81.88
260.081	79.88
260.314	93.88
260.547	84.88
260.779	79.88
261.012	79.88
261.244	85.88
261.477	95.88
261.71	102.88
261.942	113.88
262.175	119.88
262.407	90.88
262.64	96.88
262.872	74.88
263.105	85.88
263.337	84.88
263.57	97.88
263.802	87.88
264.035	79.88
264.267	84.88
264.499	84.88
264.732	90.88
264.964	88.88
265.197	90.88
265.429	73.88
265.661	81.88
265.894	89.88
266.126	89.88
266.358	72.88
266.591	72.88
266.823	88.88
267.055	86.88
267.287	98.88
267.52	97.88
267.752	78.88
267.984	92.88
268.216	67.88
268.448	92.88
268.681	74.88
268.913	80.88
269.145	91.88
269.377	84.88
269.609	72.88
269.841	95.88
270.073	80.88
270.306	76.88
270.538	80.88
270.77	70.88
271.002	78.88
271.234	90.88
271.466	100.88
271.698	85.88
271.93	92.88
272.162	79.88
272.394	91.88
272.626	77.88
272.858	93.88
273.09	85.88
273.322	85.88
273.553	79.88
273.785	91.88
274.017	83.88
274.249	77.88
274.481	84.88
274.713	103.88
274.945	80.88
275.176	97.88
275.408	92.88
275.64	94.88
275.872	97.88
276.104	97.88
276.335	99.88
276.567	111.88
276.799	134.88
277.031	117.88
277.262	120.88
277.494	112.88
277.726	90.88
277.957	78.88
278.189	88.88
278.421	90.88
278.652	76.88
278.884	97.88
279.115	98.88
279.347	91.88
279.579	107.88
279.81	104.88
280.042	138.88
280.273	164.88
280.505	124.88
280.736	103.88
280.968	89.88
281.199	110.88
281.431	96.88
281.662	95.88
281.894	98.88
282.125	107.88
282.356	138.88
282.588	147.88
282.819	122.88
283.051	91.88
283.282	92.88
283.513	103.88
283.745	87.88
283.976	95.88
284.207	88.88
284.439	92.88
284.67	88.88
284.901	82.88
285.132	82.88
285.364	93.88
285.595	101.88
285.826	96.88
286.057	78.88
286.288	84.88
286.52	78.88
286.751	85.88
286.982	91.88
287.213	85.88
287.444	97.88
287.675	92.88
287.906	90.88
288.138	91.88
288.369	84.88
288.6	93.88
288.831	96.88
289.062	86.88
289.293	110.88
289.524	95.88
289.755	79.88
289.986	83.88
290.217	86.88
290.448	87.88
290.679	83.88
290.91	71.88
291.141	93.88
291.371	97.88
291.602	88.88
291.833	79.88
292.064	79.88
292.295	96.88
292.526	87.88
292.757	98.88
292.987	86.88
293.218	90.88
293.449	75.88
293.68	101.88
293.91	92.88
294.141	85.88
294.372	91.88
294.603	98.88
294.833	97.88
295.064	87.88
295.295	83.88
295.525	99.88
295.756	114.88
295.987	119.88
296.217	151.88
296.448	140.88
296.679	91.88
296.909	81.88
297.14	91.88
297.37	87.88
297.601	84.88
297.831	96.88
298.062	82.88
298.292	91.88
298.523	93.88
298.753	82.88
298.984	92.88
299.214	106.88
299.445	103.88
299.675	95.88
299.905	113.88
300.136	90.88
300.366	92.88
300.597	85.88
300.827	88.88
301.057	85.88
301.288	106.88
301.518	101.88
301.748	91.88
301.979	102.88
302.209	85.88
302.439	89.88
302.669	82.88
302.9	94.88
303.13	100.88
303.36	91.88
303.59	111.88
303.82	114.88
304.051	102.88
304.281	89.88
304.511	91.88
304.741	79.88
304.971	96.88
305.201	86.88
305.431	107.88
305.661	92.88
305.891	85.88
306.121	104.88
306.352	98.88
306.582	98.88
306.812	98.88
307.042	112.88
307.272	124.88
307.502	136.88
307.731	132.88
307.961	115.88
308.191	92.88
308.421	88.88
308.651	91.88
308.881	87.88
309.111	84.88
309.341	96.88
309.571	96.88
309.8	91.88
310.03	101.88
310.26	88.88
310.49	92.88
310.72	101.88
310.949	101.88
311.179	101.88
311.409	99.88
311.639	108.88
311.868	108.88
312.098	99.88
312.328	101.88
312.557	125.88
312.787	114.88
313.017	108.88
313.246	97.88
313.476	92.88
313.706	98.88
313.935	90.88
314.165	99.88
314.394	106.88
314.624	104.88
314.853	86.88
315.083	100.88
315.312	91.88
315.542	94.88
315.771	101.88
316.001	91.88
316.23	95.88
316.46	98.88
316.689	96.88
316.919	98.88
317.148	104.88
317.377	74.88
317.607	106.88
317.836	107.88
318.065	89.88
318.295	92.88
318.524	99.88
318.753	79.88
318.983	104.88
319.212	98.88
319.441	111.88
319.67	110.88
319.9	92.88
320.129	84.88
320.358	97.88
320.587	95.88
320.816	91.88
321.046	108.88
321.275	100.88
321.504	96.88
321.733	97.88
321.962	103.88
322.191	108.88
322.42	95.88
322.649	110.88
322.878	95.88
323.108	121.88
323.337	130.88
323.566	151.88
323.795	167.88
324.024	219.88
324.253	403.88
324.482	906.88
324.71	1902.88
324.939	2476.88
325.168	911.88
325.397	262.88
325.626	157.88
325.855	127.88
326.084	127.88
326.313	129.88
326.542	158.88
326.77	252.88
326.999	463.88
327.228	1020.88
327.457	1871.88
327.686	1504.88
327.914	478.88
328.143	344.88
328.372	361.88
328.6	222.88
328.829	154.88
329.058	144.88
329.287	167.88
329.515	128.88
329.744	174.88
329.972	261.88
330.201	509.88
330.43	718.88
330.658	355.88
330.887	196.88
331.115	151.88
331.344	107.88
331.572	109.88
331.801	111.88
332.03	123.88
332.258	99.88
332.486	93.88
332.715	108.88
332.943	101.88
333.172	118.88
333.4	120.88
333.629	128.88
333.857	175.88
334.085	252.88
334.314	488.88
334.542	909.88
334.771	857.88
334.999	259.88
335.227	135.88
335.455	121.88
335.684	109.88
335.912	114.88
336.14	109.88
336.369	108.88
336.597	99.88
336.825	101.88
337.053	106.88
337.281	86.88
337.51	92.88
337.738	97.88
337.966	98.88
338.194	104.88
338.422	94.88
338.65	116.88
338.878	98.88
339.106	95.88
339.334	86.88
339.562	96.88
339.79	93.88
340.018	84.88
340.246	83.88
340.474	110.88
340.702	97.88
340.93	92.88
341.158	93.88
341.386	81.88
341.614	99.88
341.842	104.88
342.07	90.88
342.298	87.88
342.526	91.88
342.754	95.88
342.981	98.88
343.209	107.88
343.437	92.88
343.665	104.88
343.893	81.88
344.12	98.88
344.348	96.88
344.576	92.88
344.804	84.88
345.031	102.88
345.259	100.88
345.487	101.88
345.714	102.88
345.942	86.88
346.17	88.88
346.397	86.88
346.625	98.88
346.853	92.88
347.08	95.88
347.308	94.88
347.535	106.88
347.763	100.88
347.99	90.88
348.218	93.88
348.445	101.88
348.673	99.88
348.9	94.88
349.128	87.88
349.355	88.88
349.583	96.88
349.81	93.88
350.037	98.88
350.265	104.88
350.492	92.88
350.72	103.88
350.947	118.88
351.174	104.88
351.402	112.88
351.629	108.88
351.856	115.88
352.083	112.88
352.311	116.88
352.538	93.88
352.765	122.88
352.992	126.88
353.22	119.88
353.447	110.88
353.674	99.88
353.901	107.88
354.128	107.88
354.355	91.88
354.583	92.88
354.81	96.88
355.037	98.88
355.264	86.88
355.491	93.88
355.718	85.88
355.945	92.88
356.172	98.88
356.399	103.88
356.626	108.88
356.853	78.88
357.08	101.88
357.307	95.88
357.534	90.88
357.761	98.88
357.988	92.88
358.215	86.88
358.441	106.88
358.668	93.88
358.895	86.88
359.122	100.88
359.349	74.88
359.576	87.88
359.802	112.88
360.029	118.88
360.256	117.88
360.483	109.88
360.709	97.88
360.936	99.88
361.163	93.88
361.39	98.88
361.616	87.88
361.843	95.88
362.07	114.88
362.296	111.88
362.523	114.88
362.749	115.88
362.976	93.88
363.203	102.88
363.429	88.88
363.656	89.88
363.882	100.88
364.109	91.88
364.335	90.88
364.562	91.88
364.788	87.88
365.015	91.88
365.241	82.88
365.468	96.88
365.694	100.88
365.92	83.88
366.147	92.88
366.373	102.88
366.599	87.88
366.826	98.88
367.052	77.88
367.278	97.88
367.505	87.88
367.731	84.88
367.957	92.88
368.184	107.88
368.41	104.88
368.636	111.88
368.862	124.88
369.089	114.88
369.315	98.88
369.541	93.88
369.767	89.88
369.993	79.88
370.219	97.88
370.445	88.88
370.672	81.88
370.898	96.88
371.124	96.88
371.35	95.88
371.576	100.88
371.802	71.88
372.028	94.88
372.254	77.88
372.48	77.88
372.706	83.88
372.932	88.88
373.158	77.88
373.384	75.88
373.61	89.88
373.835	93.88
374.061	85.88
374.287	93.88
374.513	99.88
374.739	102.88
374.965	96.88
375.191	91.88
375.416	78.88
375.642	101.88
375.868	108.88
376.094	101.88
376.319	85.88
376.545	94.88
376.771	91.88
376.997	92.88
377.222	92.88
377.448	91.88
377.674	91.88
377.899	95.88
378.125	84.88
378.35	84.88
378.576	89.88
378.802	75.88
379.027	90.88
379.253	81.88
379.478	88.88
379.704	92.88
379.929	101.88
380.155	86.88
380.38	83.88
380.606	91.88
380.831	79.88
381.057	87.88
381.282	89.88
381.507	95.88
381.733	88.88
381.958	96.88
382.184	98.88
382.409	94.88
382.634	98.88
382.86	91.88
383.085	90.88
383.31	114.88
383.535	109.88
383.761	91.88
383.986	81.88
384.211	87.88
384.436	105.88
384.662	90.88
384.887	93.88
385.112	100.88
385.337	103.88
385.562	102.88
385.787	104.88
386.013	103.88
386.238	105.88
386.463	110.88
386.688	108.88
386.913	99.88
387.138	93.88
387.363	101.88
387.588	83.88
387.813	99.88
388.038	101.88
388.263	110.88
388.488	88.88
388.713	87.88
388.938	93.88
389.163	118.88
389.387	88.88
389.612	99.88
389.837	101.88
390.062	90.88
390.287	88.88
390.512	79.88
390.736	92.88
390.961	109.88
391.186	104.88
391.411	94.88
391.636	96.88
391.86	88.88
392.085	89.88
392.31	86.88
392.534	89.88
392.759	85.88
392.984	86.88
393.208	74.88
393.433	90.88
393.658	96.88
393.882	98.88
394.107	95.88
394.331	82.88
394.556	68.88
394.78	84.88
395.005	82.88
395.229	94.88
395.454	93.88
395.678	81.88
395.903	84.88
396.127	86.88
396.352	90.88
396.576	82.88
396.801	88.88
397.025	87.88
397.249	86.88
397.474	92.88
397.698	84.88
397.922	87.88
398.147	79.88
398.371	77.88
398.595	92.88
398.82	82.88
399.044	76.88
399.268	79.88
399.492	87.88
399.717	104.88
399.941	81.88
400.165	96.88
400.389	98.88
400.613	79.88
400.837	100.88
401.062	104.88
401.286	84.88
401.51	94.88
401.734	97.88
401.958	101.88
402.182	131.88
402.406	158.88
402.63	128.88
402.854	92.88
403.078	97.88
403.302	86.88
403.526	94.88
403.75	106.88
403.974	87.88
404.198	85.88
404.422	90.88
404.645	98.88
404.869	91.88
405.093	105.88
405.317	136.88
405.541	121.88
405.765	107.88
405.988	117.88
406.212	177.88
406.436	266.88
406.66	168.88
406.883	103.88
407.107	108.88
407.331	102.88
407.555	108.88
407.778	98.88
408.002	90.88
408.226	92.88
408.449	80.88
408.673	84.88
408.896	91.88
409.12	106.88
409.344	101.88
409.567	86.88
409.791	84.88
410.014	87.88
410.238	79.88
410.461	98.88
410.685	103.88
410.908	103.88
411.132	102.88
411.355	99.88
411.578	101.88
411.802	99.88
412.025	91.88
412.249	102.88
412.472	115.88
412.695	107.88
412.919	100.88
413.142	104.88
413.365	89.88
413.589	87.88
413.812	94.88
414.035	93.88
414.258	82.88
414.482	97.88
414.705	79.88
414.928	95.88
415.151	95.88
415.374	95.88
415.597	85.88
415.821	85.88
416.044	96.88
416.267	85.88
416.49	82.88
416.713	85.88
416.936	91.88
417.159	71.88
417.382	85.88
417.605	76.88
417.828	92.88
418.051	94.88
418.274	94.88
418.497	85.88
418.72	88.88
418.943	94.88
419.166	81.88
419.389	94.88
419.611	86.88
419.834	89.88
420.057	90.88
420.28	82.88
420.503	79.88
420.726	88.88
420.948	83.88
421.171	78.88
421.394	98.88
421.617	92.88
421.839	84.88
422.062	95.88
422.285	95.88
422.507	99.88
422.73	96.88
422.953	87.88
423.175	80.88
423.398	96.88
423.621	93.88
423.843	86.88
424.066	89.88
424.288	91.88
424.511	92.88
424.733	90.88
424.956	115.88
425.178	92.88
425.401	113.88
425.623	105.88
425.846	89.88
426.068	94.88
426.291	92.88
426.513	98.88
426.735	86.88
426.958	97.88
427.18	123.88
427.402	136.88
427.625	190.88
427.847	198.88
428.069	168.88
428.292	102.88
428.514	87.88
428.736	75.88
428.958	86.88
429.181	94.88
429.403	97.88
429.625	77.88
429.847	93.88
430.069	101.88
430.292	105.88
430.514	87.88
430.736	79.88
430.958	87.88
431.18	68.88
431.402	87.88
431.624	82.88
431.846	85.88
432.068	80.88
432.29	101.88
432.512	92.88
432.734	80.88
432.956	90.88
433.178	105.88
433.4	104.88
433.622	78.88
433.844	90.88
434.066	84.88
434.287	75.88
434.509	109.88
434.731	104.88
434.953	83.88
435.175	101.88
435.397	85.88
435.618	94.88
435.84	87.88
436.062	132.88
436.284	108.88
436.505	101.88
436.727	99.88
436.949	90.88
437.17	93.88
437.392	87.88
437.614	96.88
437.835	108.88
438.057	119.88
438.278	114.88
438.5	104.88
438.721	130.88
438.943	102.88
439.165	94.88
439.386	101.88
439.608	100.88
439.829	97.88
440.05	137.88
440.272	150.88
440.493	104.88
440.715	88.88
440.936	81.88
441.158	90.88
441.379	91.88
441.6	90.88
441.822	99.88
442.043	106.88
442.264	110.88
442.486	95.88
442.707	96.88
442.928	103.88
443.149	143.88
443.371	148.88
443.592	118.88
443.813	118.88
444.034	103.88
444.255	98.88
444.476	91.88
444.698	95.88
444.919	86.88
445.14	152.88
445.361	136.88
445.582	119.88
445.803	167.88
446.024	151.88
446.245	153.88
446.466	124.88
446.687	105.88
446.908	90.88
447.129	98.88
447.35	95.88
447.571	87.88
447.792	85.88
448.013	93.88
448.234	123.88
448.455	119.88
448.675	115.88
448.896	126.88
449.117	110.88
449.338	103.88
449.559	136.88
449.779	140.88
450	92.88
450.221	86.88
450.442	85.88
450.662	100.88
450.883	108.88
451.104	119.88
451.324	94.88
451.545	104.88
451.766	86.88
451.986	89.88
452.207	100.88
452.428	102.88
452.648	93.88
452.869	117.88
453.089	115.88
453.31	124.88
453.53	99.88
453.751	100.88
453.971	107.88
454.192	120.88
454.412	102.88
454.633	81.88
454.853	87.88
455.073	92.88
455.294	95.88
455.514	91.88
455.734	94.88
455.955	90.88
456.175	86.88
456.395	95.88
456.616	68.88
456.836	76.88
457.056	91.88
457.276	82.88
457.497	71.88
457.717	74.88
457.937	74.88
458.157	82.88
458.377	100.88
458.598	104.88
458.818	164.88
459.038	179.88
459.258	130.88
459.478	68.88
459.698	90.88
459.918	86.88
460.138	87.88
460.358	102.88
460.578	86.88
460.798	97.88
461.018	82.88
461.238	91.88
461.458	82.88
461.678	76.88
461.898	91.88
462.118	84.88
462.338	96.88
462.558	84.88
462.777	98.88
462.997	78.88
463.217	84.88
463.437	86.88
463.657	99.88
463.876	89.88
464.096	94.88
464.316	96.88
464.536	85.88
464.755	93.88
464.975	119.88
465.195	187.88
465.414	188.88
465.634	97.88
465.854	82.88
466.073	93.88
466.293	94.88
466.512	86.88
466.732	90.88
466.951	90.88
467.171	86.88
467.391	107.88
467.61	108.88
467.829	154.88
468.049	318.88
468.268	436.88
468.488	146.88
468.707	97.88
468.927	92.88
469.146	97.88
469.365	87.88
469.585	91.88
469.804	97.88
470.023	102.88
470.243	88.88
470.462	107.88
470.681	118.88
470.901	103.88
471.12	98.88
471.339	96.88
471.558	110.88
471.777	126.88
471.997	187.88
472.216	570.88
472.435	1244.88
472.654	337.88
472.873	126.88
473.092	98.88
473.311	81.88
473.53	88.88
473.749	96.88
473.968	92.88
474.187	104.88
474.406	92.88
474.625	93.88
474.844	77.88
475.063	89.88
475.282	96.88
475.501	85.88
475.72	99.88
475.939	90.88
476.158	86.88
476.377	96.88
476.596	92.88
476.814	107.88
477.033	101.88
477.252	93.88
477.471	92.88
477.69	88.88
477.908	93.88
478.127	90.88
478.346	87.88
478.564	99.88
478.783	109.88
479.002	87.88
479.22	92.88
479.439	109.88
479.658	125.88
479.876	119.88
480.095	102.88
480.313	126.88
480.532	128.88
480.751	175.88
480.969	547.88
481.188	2103.88
481.406	1215.88
481.624	205.88
481.843	106.88
482.061	79.88
482.28	82.88
482.498	93.88
482.717	104.88
482.935	90.88
483.153	92.88
483.372	102.88
483.59	94.88
483.808	98.88
484.027	91.88
484.245	87.88
484.463	109.88
484.681	99.88
484.9	96.88
485.118	84.88
485.336	99.88
485.554	102.88
485.772	108.88
485.99	94.88
486.209	103.88
486.427	104.88
486.645	119.88
486.863	128.88
487.081	107.88
487.299	94.88
487.517	85.88
487.735	110.88
487.953	76.88
488.171	88.88
488.389	94.88
488.607	86.88
488.825	99.88
489.043	88.88
489.261	95.88
489.479	87.88
489.696	88.88
489.914	89.88
490.132	102.88
490.35	95.88
490.568	80.88
490.786	95.88
491.003	87.88
491.221	80.88
491.439	87.88
491.657	106.88
491.874	84.88
492.092	93.88
492.31	78.88
492.527	84.88
492.745	93.88
492.963	90.88
493.18	101.88
493.398	76.88
493.615	83.88
493.833	108.88
494.05	89.88
494.268	76.88
494.485	90.88
494.703	82.88
494.92	84.88
495.138	94.88
495.355	97.88
495.573	88.88
495.79	90.88
496.008	96.88
496.225	101.88
496.442	75.88
496.66	80.88
496.877	98.88
497.094	83.88
497.312	96.88
497.529	112.88
497.746	96.88
497.963	88.88
498.181	98.88
498.398	99.88
498.615	120.88
498.832	99.88
499.049	94.88
499.267	93.88
499.484	87.88
499.701	93.88
499.918	98.88
500.135	112.88
500.352	90.88
500.569	97.88
500.786	97.88
501.003	91.88
501.22	79.88
501.437	89.88
501.654	99.88
501.871	110.88
502.088	98.88
502.305	93.88
502.522	88.88
502.739	81.88
502.956	89.88
503.172	84.88
503.389	93.88
503.606	106.88
503.823	93.88
504.04	88.88
504.256	105.88
504.473	78.88
504.69	101.88
504.907	92.88
505.123	107.88
505.34	94.88
505.557	86.88
505.773	89.88
505.99	90.88
506.207	88.88
506.423	91.88
506.64	90.88
506.856	99.88
507.073	84.88
507.289	104.88
507.506	97.88
507.722	105.88
507.939	109.88
508.155	96.88
508.372	97.88
508.588	111.88
508.805	84.88
509.021	91.88
509.238	96.88
509.454	92.88
509.67	93.88
509.887	107.88
510.103	133.88
510.319	224.88
510.536	760.88
510.752	2448.88
510.968	672.88
511.184	159.88
511.401	122.88
511.617	101.88
511.833	107.88
512.049	97.88
512.265	101.88
512.481	78.88
512.698	87.88
512.914	106.88
513.13	82.88
513.346	105.88
513.562	110.88
513.778	104.88
513.994	110.88
514.21	100.88
514.426	125.88
