Data from Circ_1990_H10_HRD10591_00005.txt Node
Date: Wed Jan 03 11:55:05 EST 2024
User: Yrep
Spectrometer: HR+D1059
Trigger mode: 1
Integration Time (sec): 1.000000E-1
Scans to average: 1
Electric dark correction enabled: true
Nonlinearity correction enabled: false
Boxcar width: 0
XAxis mode: Wavelengths
Number of Pixels in Spectrum: 2048
>>>>>Begin Spectral Data<<<<<
223.165	-13.81
223.4	-13.81
223.635	-13.81
223.869	-18.81
224.104	-9.81
224.338	-14.81
224.573	-13.81
224.808	-8.81
225.042	2.19
225.277	4.19
225.511	-7.81
225.746	7.19
225.98	-0.81
226.215	-1.81
226.449	19.19
226.683	20.19
226.918	13.19
227.152	24.19
227.387	32.19
227.621	35.19
227.856	43.19
228.09	35.19
228.324	48.19
228.559	56.19
228.793	53.19
229.027	69.19
229.262	61.19
229.496	52.19
229.73	78.19
229.964	80.19
230.199	79.19
230.433	74.19
230.667	75.19
230.901	59.19
231.136	83.19
231.37	79.19
231.604	70.19
231.838	85.19
232.072	72.19
232.306	67.19
232.541	72.19
232.775	82.19
233.009	80.19
233.243	78.19
233.477	81.19
233.711	61.19
233.945	71.19
234.179	70.19
234.413	65.19
234.647	83.19
234.881	65.19
235.115	79.19
235.349	80.19
235.583	68.19
235.817	74.19
236.051	66.19
236.285	76.19
236.519	75.19
236.753	77.19
236.987	65.19
237.221	82.19
237.455	77.19
237.689	76.19
237.922	78.19
238.156	73.19
238.39	69.19
238.624	68.19
238.858	78.19
239.091	61.19
239.325	65.19
239.559	79.19
239.793	87.19
240.027	79.19
240.26	69.19
240.494	74.19
240.728	74.19
240.961	91.19
241.195	83.19
241.429	96.19
241.662	79.19
241.896	83.19
242.13	73.19
242.363	70.19
242.597	73.19
242.83	80.19
243.064	75.19
243.298	70.19
243.531	72.19
243.765	69.19
243.998	56.19
244.232	88.19
244.465	63.19
244.699	80.19
244.932	59.19
245.166	70.19
245.399	76.19
245.633	80.19
245.866	76.19
246.099	76.19
246.333	76.19
246.566	79.19
246.8	84.19
247.033	76.19
247.266	79.19
247.5	74.19
247.733	81.19
247.966	90.19
248.2	78.19
248.433	80.19
248.666	79.19
248.899	78.19
249.133	64.19
249.366	96.19
249.599	91.19
249.832	89.19
250.066	89.19
250.299	60.19
250.532	63.19
250.765	67.19
250.998	73.19
251.231	72.19
251.465	76.19
251.698	80.19
251.931	83.19
252.164	61.19
252.397	82.19
252.63	74.19
252.863	53.19
253.096	76.19
253.329	84.19
253.562	79.19
253.795	83.19
254.028	82.19
254.261	79.19
254.494	87.19
254.727	73.19
254.96	89.19
255.193	91.19
255.426	75.19
255.659	84.19
255.892	75.19
256.124	78.19
256.357	94.19
256.59	77.19
256.823	78.19
257.056	100.19
257.289	74.19
257.521	82.19
257.754	92.19
257.987	75.19
258.22	76.19
258.452	69.19
258.685	64.19
258.918	82.19
259.151	76.19
259.383	88.19
259.616	95.19
259.849	82.19
260.081	80.19
260.314	87.19
260.547	84.19
260.779	60.19
261.012	82.19
261.244	76.19
261.477	89.19
261.71	78.19
261.942	97.19
262.175	105.19
262.407	95.19
262.64	86.19
262.872	74.19
263.105	74.19
263.337	91.19
263.57	76.19
263.802	73.19
264.035	62.19
264.267	90.19
264.499	83.19
264.732	95.19
264.964	85.19
265.197	83.19
265.429	72.19
265.661	83.19
265.894	86.19
266.126	95.19
266.358	85.19
266.591	87.19
266.823	68.19
267.055	72.19
267.287	80.19
267.52	82.19
267.752	79.19
267.984	57.19
268.216	72.19
268.448	83.19
268.681	80.19
268.913	82.19
269.145	76.19
269.377	88.19
269.609	84.19
269.841	77.19
270.073	96.19
270.306	89.19
270.538	97.19
270.77	86.19
271.002	94.19
271.234	80.19
271.466	75.19
271.698	76.19
271.93	82.19
272.162	68.19
272.394	91.19
272.626	86.19
272.858	76.19
273.09	80.19
273.322	78.19
273.553	75.19
273.785	80.19
274.017	88.19
274.249	90.19
274.481	75.19
274.713	91.19
274.945	86.19
275.176	85.19
275.408	95.19
275.64	69.19
275.872	82.19
276.104	87.19
276.335	82.19
276.567	90.19
276.799	87.19
277.031	82.19
277.262	65.19
277.494	93.19
277.726	83.19
277.957	82.19
278.189	92.19
278.421	87.19
278.652	78.19
278.884	78.19
279.115	83.19
279.347	69.19
279.579	90.19
279.81	74.19
280.042	99.19
280.273	74.19
280.505	85.19
280.736	90.19
280.968	65.19
281.199	72.19
281.431	78.19
281.662	92.19
281.894	101.19
282.125	99.19
282.356	102.19
282.588	109.19
282.819	106.19
283.051	99.19
283.282	75.19
283.513	82.19
283.745	93.19
283.976	88.19
284.207	79.19
284.439	80.19
284.67	73.19
284.901	80.19
285.132	83.19
285.364	89.19
285.595	89.19
285.826	90.19
286.057	78.19
286.288	91.19
286.52	88.19
286.751	78.19
286.982	85.19
287.213	83.19
287.444	77.19
287.675	84.19
287.906	101.19
288.138	83.19
288.369	91.19
288.6	98.19
288.831	87.19
289.062	102.19
289.293	73.19
289.524	79.19
289.755	73.19
289.986	89.19
290.217	92.19
290.448	95.19
290.679	77.19
290.91	81.19
291.141	72.19
291.371	91.19
291.602	81.19
291.833	97.19
292.064	93.19
292.295	85.19
292.526	80.19
292.757	66.19
292.987	77.19
293.218	69.19
293.449	84.19
293.68	80.19
293.91	82.19
294.141	77.19
294.372	81.19
294.603	82.19
294.833	87.19
295.064	89.19
295.295	81.19
295.525	79.19
295.756	74.19
295.987	89.19
296.217	107.19
296.448	96.19
296.679	79.19
296.909	90.19
297.14	78.19
297.37	89.19
297.601	86.19
297.831	93.19
298.062	74.19
298.292	77.19
298.523	85.19
298.753	93.19
298.984	82.19
299.214	82.19
299.445	73.19
299.675	68.19
299.905	82.19
300.136	86.19
300.366	93.19
300.597	98.19
300.827	94.19
301.057	84.19
301.288	90.19
301.518	92.19
301.748	95.19
301.979	96.19
302.209	96.19
302.439	90.19
302.669	75.19
302.9	71.19
303.13	74.19
303.36	96.19
303.59	105.19
303.82	76.19
304.051	107.19
304.281	90.19
304.511	98.19
304.741	95.19
304.971	95.19
305.201	80.19
305.431	86.19
305.661	82.19
305.891	86.19
306.121	87.19
306.352	98.19
306.582	94.19
306.812	94.19
307.042	96.19
307.272	90.19
307.502	90.19
307.731	93.19
307.961	93.19
308.191	97.19
308.421	83.19
308.651	90.19
308.881	96.19
309.111	94.19
309.341	73.19
309.571	98.19
309.8	89.19
310.03	102.19
310.26	86.19
310.49	89.19
310.72	82.19
310.949	103.19
311.179	88.19
311.409	110.19
311.639	88.19
311.868	97.19
312.098	89.19
312.328	71.19
312.557	88.19
312.787	90.19
313.017	90.19
313.246	94.19
313.476	96.19
313.706	91.19
313.935	90.19
314.165	87.19
314.394	105.19
314.624	95.19
314.853	91.19
315.083	89.19
315.312	88.19
315.542	72.19
315.771	102.19
316.001	93.19
316.23	89.19
316.46	83.19
316.689	84.19
316.919	95.19
317.148	74.19
317.377	97.19
317.607	96.19
317.836	91.19
318.065	89.19
318.295	89.19
318.524	78.19
318.753	80.19
318.983	78.19
319.212	98.19
319.441	110.19
319.67	111.19
319.9	106.19
320.129	101.19
320.358	92.19
320.587	92.19
320.816	106.19
321.046	98.19
321.275	83.19
321.504	84.19
321.733	90.19
321.962	99.19
322.191	80.19
322.42	95.19
322.649	102.19
322.878	110.19
323.108	93.19
323.337	100.19
323.566	105.19
323.795	116.19
324.024	153.19
324.253	282.19
324.482	585.19
324.71	1138.19
324.939	1488.19
325.168	575.19
325.397	188.19
325.626	133.19
325.855	115.19
326.084	116.19
326.313	126.19
326.542	118.19
326.77	171.19
326.999	329.19
327.228	649.19
327.457	1172.19
327.686	946.19
327.914	264.19
328.143	165.19
328.372	136.19
328.6	119.19
328.829	107.19
329.058	104.19
329.287	113.19
329.515	94.19
329.744	101.19
329.972	95.19
330.201	112.19
330.43	129.19
330.658	117.19
330.887	111.19
331.115	107.19
331.344	97.19
331.572	100.19
331.801	81.19
332.03	101.19
332.258	94.19
332.486	91.19
332.715	85.19
332.943	86.19
333.172	91.19
333.4	83.19
333.629	101.19
333.857	106.19
334.085	103.19
334.314	114.19
334.542	122.19
334.771	136.19
334.999	109.19
335.227	84.19
335.455	97.19
335.684	90.19
335.912	78.19
336.14	90.19
336.369	110.19
336.597	79.19
336.825	93.19
337.053	87.19
337.281	94.19
337.51	77.19
337.738	88.19
337.966	102.19
338.194	69.19
338.422	83.19
338.65	88.19
338.878	81.19
339.106	91.19
339.334	80.19
339.562	95.19
339.79	86.19
340.018	83.19
340.246	74.19
340.474	92.19
340.702	90.19
340.93	83.19
341.158	99.19
341.386	90.19
341.614	81.19
341.842	84.19
342.07	86.19
342.298	96.19
342.526	95.19
342.754	92.19
342.981	89.19
343.209	74.19
343.437	91.19
343.665	85.19
343.893	97.19
344.12	93.19
344.348	80.19
344.576	79.19
344.804	76.19
345.031	89.19
345.259	93.19
345.487	83.19
345.714	93.19
345.942	84.19
346.17	82.19
346.397	98.19
346.625	83.19
346.853	96.19
347.08	85.19
347.308	81.19
347.535	80.19
347.763	98.19
347.99	93.19
348.218	107.19
348.445	97.19
348.673	82.19
348.9	91.19
349.128	89.19
349.355	97.19
349.583	74.19
349.81	79.19
350.037	99.19
350.265	111.19
350.492	83.19
350.72	107.19
350.947	97.19
351.174	97.19
351.402	98.19
351.629	100.19
351.856	92.19
352.083	106.19
352.311	101.19
352.538	90.19
352.765	96.19
352.992	110.19
353.22	96.19
353.447	99.19
353.674	107.19
353.901	87.19
354.128	102.19
354.355	98.19
354.583	94.19
354.81	102.19
355.037	96.19
355.264	91.19
355.491	97.19
355.718	105.19
355.945	89.19
356.172	95.19
356.399	109.19
356.626	84.19
356.853	85.19
357.08	96.19
357.307	90.19
357.534	97.19
357.761	92.19
357.988	98.19
358.215	98.19
358.441	102.19
358.668	108.19
358.895	116.19
359.122	94.19
359.349	79.19
359.576	88.19
359.802	90.19
360.029	94.19
360.256	98.19
360.483	104.19
360.709	86.19
360.936	95.19
361.163	88.19
361.39	88.19
361.616	89.19
361.843	82.19
362.07	79.19
362.296	99.19
362.523	91.19
362.749	94.19
362.976	93.19
363.203	96.19
363.429	88.19
363.656	85.19
363.882	96.19
364.109	90.19
364.335	88.19
364.562	85.19
364.788	77.19
365.015	89.19
365.241	94.19
365.468	78.19
365.694	95.19
365.92	87.19
366.147	83.19
366.373	90.19
366.599	88.19
366.826	85.19
367.052	85.19
367.278	82.19
367.505	68.19
367.731	84.19
367.957	78.19
368.184	88.19
368.41	92.19
368.636	90.19
368.862	100.19
369.089	92.19
369.315	83.19
369.541	89.19
369.767	96.19
369.993	74.19
370.219	68.19
370.445	80.19
370.672	86.19
370.898	67.19
371.124	91.19
371.35	91.19
371.576	78.19
371.802	80.19
372.028	62.19
372.254	83.19
372.48	90.19
372.706	88.19
372.932	92.19
373.158	93.19
373.384	83.19
373.61	99.19
373.835	98.19
374.061	92.19
374.287	88.19
374.513	100.19
374.739	94.19
374.965	91.19
375.191	93.19
375.416	107.19
375.642	90.19
375.868	86.19
376.094	97.19
376.319	89.19
376.545	88.19
376.771	92.19
376.997	93.19
377.222	96.19
377.448	96.19
377.674	97.19
377.899	113.19
378.125	99.19
378.35	88.19
378.576	96.19
378.802	93.19
379.027	86.19
379.253	92.19
379.478	101.19
379.704	115.19
379.929	109.19
380.155	107.19
380.38	103.19
380.606	99.19
380.831	112.19
381.057	100.19
381.282	97.19
381.507	114.19
381.733	126.19
381.958	120.19
382.184	137.19
382.409	117.19
382.634	141.19
382.86	122.19
383.085	117.19
383.31	137.19
383.535	129.19
383.761	124.19
383.986	125.19
384.211	149.19
384.436	112.19
384.662	128.19
384.887	148.19
385.112	171.19
385.337	163.19
385.562	145.19
385.787	143.19
386.013	154.19
386.238	157.19
386.463	154.19
386.688	156.19
386.913	175.19
387.138	171.19
387.363	154.19
387.588	129.19
387.813	129.19
388.038	160.19
388.263	175.19
388.488	183.19
388.713	110.19
388.938	95.19
389.163	105.19
389.387	96.19
389.612	89.19
389.837	85.19
390.062	86.19
390.287	91.19
390.512	100.19
390.736	90.19
390.961	92.19
391.186	89.19
391.411	94.19
391.636	85.19
391.86	79.19
392.085	83.19
392.31	65.19
392.534	91.19
392.759	85.19
392.984	95.19
393.208	94.19
393.433	114.19
393.658	106.19
393.882	87.19
394.107	85.19
394.331	90.19
394.556	87.19
394.78	82.19
395.005	104.19
395.229	76.19
395.454	81.19
395.678	82.19
395.903	86.19
396.127	88.19
396.352	92.19
396.576	88.19
396.801	84.19
397.025	94.19
397.249	83.19
397.474	77.19
397.698	84.19
397.922	91.19
398.147	82.19
398.371	83.19
398.595	76.19
398.82	74.19
399.044	78.19
399.268	81.19
399.492	102.19
399.717	93.19
399.941	96.19
400.165	78.19
400.389	64.19
400.613	89.19
400.837	85.19
401.062	94.19
401.286	82.19
401.51	87.19
401.734	77.19
401.958	87.19
402.182	114.19
402.406	113.19
402.63	112.19
402.854	97.19
403.078	69.19
403.302	92.19
403.526	97.19
403.75	92.19
403.974	82.19
404.198	91.19
404.422	82.19
404.645	79.19
404.869	82.19
405.093	106.19
405.317	93.19
405.541	85.19
405.765	86.19
405.988	96.19
406.212	131.19
406.436	155.19
406.66	123.19
406.883	89.19
407.107	88.19
407.331	84.19
407.555	89.19
407.778	93.19
408.002	77.19
408.226	91.19
408.449	101.19
408.673	89.19
408.896	96.19
409.12	88.19
409.344	93.19
409.567	94.19
409.791	93.19
410.014	95.19
410.238	89.19
410.461	90.19
410.685	95.19
410.908	98.19
411.132	100.19
411.355	92.19
411.578	95.19
411.802	94.19
412.025	80.19
412.249	101.19
412.472	99.19
412.695	83.19
412.919	82.19
413.142	94.19
413.365	93.19
413.589	91.19
413.812	89.19
414.035	82.19
414.258	93.19
414.482	85.19
414.705	93.19
414.928	109.19
415.151	98.19
415.374	106.19
415.597	94.19
415.821	98.19
416.044	86.19
416.267	91.19
416.49	82.19
416.713	100.19
416.936	92.19
417.159	84.19
417.382	91.19
417.605	88.19
417.828	93.19
418.051	93.19
418.274	106.19
418.497	91.19
418.72	94.19
418.943	98.19
419.166	85.19
419.389	92.19
419.611	90.19
419.834	90.19
420.057	99.19
420.28	94.19
420.503	92.19
420.726	92.19
420.948	85.19
421.171	81.19
421.394	98.19
421.617	109.19
421.839	96.19
422.062	72.19
422.285	78.19
422.507	88.19
422.73	97.19
422.953	104.19
423.175	96.19
423.398	95.19
423.621	84.19
423.843	92.19
424.066	94.19
424.288	87.19
424.511	75.19
424.733	80.19
424.956	89.19
425.178	92.19
425.401	92.19
425.623	106.19
425.846	103.19
426.068	88.19
426.291	92.19
426.513	86.19
426.735	90.19
426.958	93.19
427.18	100.19
427.402	108.19
427.625	119.19
427.847	112.19
428.069	111.19
428.292	91.19
428.514	85.19
428.736	81.19
428.958	87.19
429.181	86.19
429.403	87.19
429.625	88.19
429.847	73.19
430.069	90.19
430.292	89.19
430.514	86.19
430.736	81.19
430.958	78.19
431.18	80.19
431.402	82.19
431.624	83.19
431.846	80.19
432.068	88.19
432.29	78.19
432.512	89.19
432.734	95.19
432.956	79.19
433.178	107.19
433.4	92.19
433.622	102.19
433.844	101.19
434.066	83.19
434.287	87.19
434.509	94.19
434.731	96.19
434.953	90.19
435.175	73.19
435.397	92.19
435.618	92.19
435.84	93.19
436.062	109.19
436.284	102.19
436.505	95.19
436.727	72.19
436.949	81.19
437.17	80.19
437.392	85.19
437.614	88.19
437.835	93.19
438.057	106.19
438.278	92.19
438.5	106.19
438.721	84.19
438.943	85.19
439.165	78.19
439.386	96.19
439.608	78.19
439.829	84.19
440.05	96.19
440.272	117.19
440.493	88.19
440.715	82.19
440.936	77.19
441.158	86.19
441.379	83.19
441.6	83.19
441.822	101.19
442.043	88.19
442.264	77.19
442.486	97.19
442.707	75.19
442.928	89.19
443.149	104.19
443.371	108.19
443.592	96.19
443.813	98.19
444.034	86.19
444.255	80.19
444.476	73.19
444.698	89.19
444.919	65.19
445.14	134.19
445.361	107.19
445.582	90.19
445.803	118.19
446.024	108.19
446.245	116.19
446.466	107.19
446.687	80.19
446.908	95.19
447.129	81.19
447.35	73.19
447.571	78.19
447.792	93.19
448.013	94.19
448.234	95.19
448.455	88.19
448.675	99.19
448.896	97.19
449.117	95.19
449.338	102.19
449.559	106.19
449.779	100.19
450	74.19
450.221	91.19
450.442	83.19
450.662	85.19
450.883	108.19
451.104	95.19
451.324	89.19
451.545	84.19
451.766	69.19
451.986	80.19
452.207	82.19
452.428	97.19
452.648	80.19
452.869	88.19
453.089	93.19
453.31	97.19
453.53	85.19
453.751	90.19
453.971	88.19
454.192	102.19
454.412	92.19
454.633	82.19
454.853	97.19
455.073	86.19
455.294	96.19
455.514	92.19
455.734	86.19
455.955	85.19
456.175	75.19
456.395	85.19
456.616	86.19
456.836	86.19
457.056	81.19
457.276	89.19
457.497	76.19
457.717	86.19
457.937	87.19
458.157	83.19
458.377	79.19
458.598	108.19
458.818	106.19
459.038	121.19
459.258	102.19
459.478	89.19
459.698	62.19
459.918	70.19
460.138	89.19
460.358	93.19
460.578	82.19
460.798	87.19
461.018	86.19
461.238	87.19
461.458	72.19
461.678	90.19
461.898	83.19
462.118	97.19
462.338	82.19
462.558	93.19
462.777	82.19
462.997	83.19
463.217	88.19
463.437	84.19
463.657	69.19
463.876	80.19
464.096	91.19
464.316	91.19
464.536	91.19
464.755	88.19
464.975	91.19
465.195	121.19
465.414	126.19
465.634	84.19
465.854	83.19
466.073	90.19
466.293	78.19
466.512	92.19
466.732	94.19
466.951	93.19
467.171	96.19
467.391	86.19
467.61	84.19
467.829	96.19
468.049	91.19
468.268	102.19
468.488	81.19
468.707	90.19
468.927	91.19
469.146	84.19
469.365	81.19
469.585	88.19
469.804	77.19
470.023	85.19
470.243	96.19
470.462	102.19
470.681	90.19
470.901	80.19
471.12	62.19
471.339	84.19
471.558	67.19
471.777	81.19
471.997	115.19
472.216	110.19
472.435	161.19
472.654	91.19
472.873	88.19
473.092	91.19
473.311	85.19
473.53	77.19
473.749	78.19
473.968	85.19
474.187	93.19
474.406	90.19
474.625	75.19
474.844	82.19
475.063	82.19
475.282	83.19
475.501	94.19
475.72	88.19
475.939	77.19
476.158	83.19
476.377	79.19
476.596	95.19
476.814	76.19
477.033	77.19
477.252	77.19
477.471	82.19
477.69	99.19
477.908	81.19
478.127	85.19
478.346	87.19
478.564	82.19
478.783	92.19
479.002	81.19
479.22	70.19
479.439	92.19
479.658	94.19
479.876	88.19
480.095	93.19
480.313	95.19
480.532	97.19
480.751	76.19
480.969	106.19
481.188	233.19
481.406	172.19
481.624	96.19
481.843	98.19
482.061	79.19
482.28	82.19
482.498	80.19
482.717	86.19
482.935	83.19
483.153	93.19
483.372	92.19
483.59	70.19
483.808	80.19
484.027	67.19
484.245	100.19
484.463	84.19
484.681	82.19
484.9	91.19
485.118	92.19
485.336	108.19
485.554	90.19
485.772	91.19
485.99	104.19
486.209	121.19
486.427	116.19
486.645	102.19
486.863	107.19
487.081	95.19
487.299	91.19
487.517	100.19
487.735	93.19
487.953	101.19
488.171	91.19
488.389	93.19
488.607	99.19
488.825	97.19
489.043	88.19
489.261	100.19
489.479	80.19
489.696	79.19
489.914	80.19
490.132	85.19
490.35	95.19
490.568	78.19
490.786	95.19
491.003	84.19
491.221	96.19
491.439	92.19
491.657	90.19
491.874	101.19
492.092	88.19
492.31	94.19
492.527	84.19
492.745	85.19
492.963	80.19
493.18	84.19
493.398	97.19
493.615	89.19
493.833	94.19
494.05	89.19
494.268	87.19
494.485	89.19
494.703	91.19
494.92	78.19
495.138	93.19
495.355	88.19
495.573	102.19
495.79	100.19
496.008	92.19
496.225	81.19
496.442	80.19
496.66	95.19
496.877	91.19
497.094	94.19
497.312	95.19
497.529	93.19
497.746	77.19
497.963	83.19
498.181	83.19
498.398	97.19
498.615	96.19
498.832	92.19
499.049	89.19
499.267	91.19
499.484	86.19
499.701	90.19
499.918	90.19
500.135	87.19
500.352	91.19
500.569	84.19
500.786	89.19
501.003	85.19
501.22	84.19
501.437	90.19
501.654	93.19
501.871	91.19
502.088	83.19
502.305	87.19
502.522	93.19
502.739	84.19
502.956	99.19
503.172	92.19
503.389	96.19
503.606	98.19
503.823	89.19
504.04	90.19
504.256	92.19
504.473	80.19
504.69	75.19
504.907	87.19
505.123	88.19
505.34	89.19
505.557	88.19
505.773	101.19
505.99	93.19
506.207	82.19
506.423	86.19
506.64	88.19
506.856	89.19
507.073	100.19
507.289	98.19
507.506	90.19
507.722	98.19
507.939	109.19
508.155	100.19
508.372	99.19
508.588	80.19
508.805	97.19
509.021	95.19
509.238	92.19
509.454	88.19
509.67	99.19
509.887	95.19
510.103	101.19
510.319	173.19
510.536	507.19
510.752	1486.19
510.968	437.19
511.184	127.19
511.401	96.19
511.617	96.19
511.833	77.19
512.049	95.19
512.265	94.19
512.481	97.19
512.698	96.19
512.914	92.19
513.13	91.19
513.346	80.19
513.562	96.19
513.778	83.19
513.994	83.19
514.21	87.19
514.426	97.19
514.642	106.19
514.858	106.19
515.074	124.19
515.29	289.19
515.506	871.19
515.721	347.19
515.937	130.19
516.153	106.19
516.369	82.19
516.585	90.19
516.801	82.19
517.016	96.19
