Data from Circ_1990_H10_HRD10591_00017.txt Node
Date: Wed Jan 03 11:55:07 EST 2024
User: Yrep
Spectrometer: HR+D1059
Trigger mode: 1
Integration Time (sec): 1.000000E-1
Scans to average: 1
Electric dark correction enabled: true
Nonlinearity correction enabled: false
Boxcar width: 0
XAxis mode: Wavelengths
Number of Pixels in Spectrum: 2048
>>>>>Begin Spectral Data<<<<<
223.165	-12.75
223.4	-12.75
223.635	-12.75
223.869	-19.75
224.104	-40.75
224.338	-15.75
224.573	-6.75
224.808	-17.75
225.042	-12.75
225.277	-2.75
225.511	-4.75
225.746	3.25
225.98	5.25
226.215	7.25
226.449	31.25
226.683	19.25
226.918	23.25
227.152	44.25
227.387	32.25
227.621	40.25
227.856	52.25
228.09	37.25
228.324	56.25
228.559	55.25
228.793	56.25
229.027	67.25
229.262	65.25
229.496	63.25
229.73	84.25
229.964	79.25
230.199	79.25
230.433	70.25
230.667	83.25
230.901	83.25
231.136	83.25
231.37	84.25
231.604	76.25
231.838	86.25
232.072	73.25
232.306	85.25
232.541	82.25
232.775	80.25
233.009	77.25
233.243	78.25
233.477	81.25
233.711	81.25
233.945	82.25
234.179	85.25
234.413	96.25
234.647	91.25
234.881	74.25
235.115	85.25
235.349	89.25
235.583	82.25
235.817	89.25
236.051	70.25
236.285	97.25
236.519	87.25
236.753	70.25
236.987	80.25
237.221	91.25
237.455	88.25
237.689	77.25
237.922	93.25
238.156	78.25
238.39	72.25
238.624	77.25
238.858	69.25
239.091	79.25
239.325	77.25
239.559	70.25
239.793	78.25
240.027	72.25
240.26	85.25
240.494	81.25
240.728	82.25
240.961	84.25
241.195	75.25
241.429	83.25
241.662	80.25
241.896	84.25
242.13	86.25
242.363	78.25
242.597	74.25
242.83	66.25
243.064	93.25
243.298	89.25
243.531	74.25
243.765	77.25
243.998	72.25
244.232	78.25
244.465	92.25
244.699	86.25
244.932	83.25
245.166	86.25
245.399	77.25
245.633	87.25
245.866	80.25
246.099	99.25
246.333	70.25
246.566	74.25
246.8	77.25
247.033	93.25
247.266	78.25
247.5	84.25
247.733	89.25
247.966	70.25
248.2	92.25
248.433	77.25
248.666	87.25
248.899	81.25
249.133	79.25
249.366	85.25
249.599	86.25
249.832	77.25
250.066	85.25
250.299	83.25
250.532	95.25
250.765	84.25
250.998	99.25
251.231	84.25
251.465	95.25
251.698	95.25
251.931	82.25
252.164	75.25
252.397	95.25
252.63	87.25
252.863	92.25
253.096	81.25
253.329	86.25
253.562	84.25
253.795	83.25
254.028	83.25
254.261	70.25
254.494	75.25
254.727	71.25
254.96	94.25
255.193	95.25
255.426	74.25
255.659	88.25
255.892	99.25
256.124	83.25
256.357	101.25
256.59	104.25
256.823	80.25
257.056	94.25
257.289	80.25
257.521	66.25
257.754	90.25
257.987	84.25
258.22	82.25
258.452	77.25
258.685	81.25
258.918	74.25
259.151	82.25
259.383	81.25
259.616	66.25
259.849	75.25
260.081	84.25
260.314	81.25
260.547	82.25
260.779	77.25
261.012	76.25
261.244	89.25
261.477	84.25
261.71	86.25
261.942	93.25
262.175	106.25
262.407	95.25
262.64	93.25
262.872	77.25
263.105	82.25
263.337	87.25
263.57	87.25
263.802	100.25
264.035	86.25
264.267	91.25
264.499	81.25
264.732	95.25
264.964	78.25
265.197	73.25
265.429	75.25
265.661	94.25
265.894	87.25
266.126	81.25
266.358	85.25
266.591	78.25
266.823	92.25
267.055	73.25
267.287	73.25
267.52	77.25
267.752	82.25
267.984	86.25
268.216	82.25
268.448	88.25
268.681	94.25
268.913	87.25
269.145	90.25
269.377	80.25
269.609	80.25
269.841	98.25
270.073	91.25
270.306	77.25
270.538	86.25
270.77	97.25
271.002	64.25
271.234	92.25
271.466	96.25
271.698	86.25
271.93	82.25
272.162	80.25
272.394	72.25
272.626	100.25
272.858	73.25
273.09	77.25
273.322	86.25
273.553	79.25
273.785	73.25
274.017	85.25
274.249	82.25
274.481	81.25
274.713	85.25
274.945	95.25
275.176	90.25
275.408	91.25
275.64	101.25
275.872	100.25
276.104	89.25
276.335	83.25
276.567	88.25
276.799	94.25
277.031	86.25
277.262	96.25
277.494	92.25
277.726	87.25
277.957	83.25
278.189	86.25
278.421	92.25
278.652	77.25
278.884	91.25
279.115	95.25
279.347	100.25
279.579	89.25
279.81	97.25
280.042	106.25
280.273	109.25
280.505	81.25
280.736	85.25
280.968	82.25
281.199	99.25
281.431	89.25
281.662	85.25
281.894	93.25
282.125	105.25
282.356	129.25
282.588	129.25
282.819	110.25
283.051	93.25
283.282	90.25
283.513	79.25
283.745	87.25
283.976	96.25
284.207	86.25
284.439	85.25
284.67	91.25
284.901	95.25
285.132	103.25
285.364	87.25
285.595	86.25
285.826	95.25
286.057	102.25
286.288	81.25
286.52	91.25
286.751	70.25
286.982	86.25
287.213	86.25
287.444	86.25
287.675	101.25
287.906	82.25
288.138	97.25
288.369	89.25
288.6	98.25
288.831	90.25
289.062	105.25
289.293	82.25
289.524	91.25
289.755	89.25
289.986	97.25
290.217	93.25
290.448	97.25
290.679	97.25
290.91	99.25
291.141	97.25
291.371	97.25
291.602	100.25
291.833	93.25
292.064	96.25
292.295	94.25
292.526	96.25
292.757	74.25
292.987	81.25
293.218	91.25
293.449	81.25
293.68	82.25
293.91	90.25
294.141	91.25
294.372	86.25
294.603	96.25
294.833	78.25
295.064	90.25
295.295	87.25
295.525	96.25
295.756	114.25
295.987	119.25
296.217	116.25
296.448	123.25
296.679	91.25
296.909	99.25
297.14	102.25
297.37	93.25
297.601	87.25
297.831	97.25
298.062	85.25
298.292	95.25
298.523	85.25
298.753	97.25
298.984	91.25
299.214	100.25
299.445	87.25
299.675	89.25
299.905	97.25
300.136	96.25
300.366	98.25
300.597	84.25
300.827	85.25
301.057	95.25
301.288	103.25
301.518	90.25
301.748	72.25
301.979	111.25
302.209	99.25
302.439	98.25
302.669	94.25
302.9	87.25
303.13	81.25
303.36	94.25
303.59	98.25
303.82	97.25
304.051	83.25
304.281	106.25
304.511	94.25
304.741	83.25
304.971	101.25
305.201	85.25
305.431	92.25
305.661	91.25
305.891	98.25
306.121	90.25
306.352	96.25
306.582	109.25
306.812	94.25
307.042	88.25
307.272	88.25
307.502	112.25
307.731	86.25
307.961	92.25
308.191	90.25
308.421	98.25
308.651	83.25
308.881	89.25
309.111	84.25
309.341	96.25
309.571	90.25
309.8	93.25
310.03	91.25
310.26	89.25
310.49	97.25
310.72	80.25
310.949	102.25
311.179	97.25
311.409	106.25
311.639	107.25
311.868	94.25
312.098	112.25
312.328	90.25
312.557	99.25
312.787	97.25
313.017	97.25
313.246	95.25
313.476	91.25
313.706	98.25
313.935	95.25
314.165	94.25
314.394	83.25
314.624	81.25
314.853	88.25
315.083	98.25
315.312	88.25
315.542	98.25
315.771	96.25
316.001	85.25
316.23	97.25
316.46	97.25
316.689	88.25
316.919	89.25
317.148	81.25
317.377	95.25
317.607	83.25
317.836	95.25
318.065	88.25
318.295	98.25
318.524	86.25
318.753	93.25
318.983	99.25
319.212	98.25
319.441	114.25
319.67	102.25
319.9	91.25
320.129	93.25
320.358	109.25
320.587	98.25
320.816	96.25
321.046	110.25
321.275	94.25
321.504	102.25
321.733	94.25
321.962	106.25
322.191	102.25
322.42	97.25
322.649	96.25
322.878	114.25
323.108	103.25
323.337	112.25
323.566	121.25
323.795	129.25
324.024	192.25
324.253	322.25
324.482	666.25
324.71	1338.25
324.939	1775.25
325.168	682.25
325.397	213.25
325.626	149.25
325.855	121.25
326.084	129.25
326.313	123.25
326.542	144.25
326.77	197.25
326.999	384.25
327.228	783.25
327.457	1354.25
327.686	1100.25
327.914	317.25
328.143	183.25
328.372	163.25
328.6	149.25
328.829	104.25
329.058	96.25
329.287	117.25
329.515	119.25
329.744	117.25
329.972	139.25
330.201	167.25
330.43	226.25
330.658	163.25
330.887	132.25
331.115	106.25
331.344	97.25
331.572	98.25
331.801	120.25
332.03	108.25
332.258	111.25
332.486	83.25
332.715	84.25
332.943	105.25
333.172	103.25
333.4	95.25
333.629	115.25
333.857	119.25
334.085	146.25
334.314	185.25
334.542	251.25
334.771	240.25
334.999	128.25
335.227	107.25
335.455	105.25
335.684	112.25
335.912	104.25
336.14	95.25
336.369	107.25
336.597	88.25
336.825	111.25
337.053	101.25
337.281	98.25
337.51	97.25
337.738	99.25
337.966	87.25
338.194	89.25
338.422	91.25
338.65	95.25
338.878	96.25
339.106	99.25
339.334	97.25
339.562	94.25
339.79	88.25
340.018	100.25
340.246	95.25
340.474	94.25
340.702	90.25
340.93	101.25
341.158	95.25
341.386	109.25
341.614	97.25
341.842	85.25
342.07	86.25
342.298	105.25
342.526	98.25
342.754	100.25
342.981	85.25
343.209	86.25
343.437	101.25
343.665	90.25
343.893	97.25
344.12	89.25
344.348	105.25
344.576	97.25
344.804	76.25
345.031	103.25
345.259	113.25
345.487	89.25
345.714	90.25
345.942	94.25
346.17	96.25
346.397	81.25
346.625	100.25
346.853	96.25
347.08	88.25
347.308	114.25
347.535	103.25
347.763	111.25
347.99	104.25
348.218	109.25
348.445	100.25
348.673	112.25
348.9	101.25
349.128	110.25
349.355	92.25
349.583	93.25
349.81	103.25
350.037	101.25
350.265	89.25
350.492	92.25
350.72	85.25
350.947	100.25
351.174	90.25
351.402	104.25
351.629	106.25
351.856	99.25
352.083	95.25
352.311	103.25
352.538	96.25
352.765	121.25
352.992	103.25
353.22	127.25
353.447	111.25
353.674	87.25
353.901	110.25
354.128	113.25
354.355	102.25
354.583	92.25
354.81	100.25
355.037	106.25
355.264	97.25
355.491	101.25
355.718	105.25
355.945	99.25
356.172	105.25
356.399	111.25
356.626	99.25
356.853	95.25
357.08	94.25
357.307	104.25
357.534	96.25
357.761	97.25
357.988	107.25
358.215	105.25
358.441	125.25
358.668	109.25
358.895	92.25
359.122	110.25
359.349	79.25
359.576	97.25
359.802	105.25
360.029	113.25
360.256	111.25
360.483	100.25
360.709	97.25
360.936	96.25
361.163	104.25
361.39	90.25
361.616	85.25
361.843	93.25
362.07	88.25
362.296	90.25
362.523	101.25
362.749	99.25
362.976	86.25
363.203	88.25
363.429	95.25
363.656	82.25
363.882	88.25
364.109	84.25
364.335	94.25
364.562	95.25
364.788	102.25
365.015	90.25
365.241	105.25
365.468	103.25
365.694	93.25
365.92	105.25
366.147	95.25
366.373	103.25
366.599	90.25
366.826	95.25
367.052	92.25
367.278	93.25
367.505	85.25
367.731	86.25
367.957	99.25
368.184	99.25
368.41	98.25
368.636	97.25
368.862	99.25
369.089	97.25
369.315	96.25
369.541	83.25
369.767	95.25
369.993	98.25
370.219	85.25
370.445	103.25
370.672	99.25
370.898	95.25
371.124	99.25
371.35	89.25
371.576	96.25
371.802	78.25
372.028	98.25
372.254	88.25
372.48	101.25
372.706	89.25
372.932	91.25
373.158	91.25
373.384	97.25
373.61	91.25
373.835	119.25
374.061	87.25
374.287	91.25
374.513	99.25
374.739	105.25
374.965	101.25
375.191	98.25
375.416	83.25
375.642	83.25
375.868	90.25
376.094	88.25
376.319	98.25
376.545	85.25
376.771	91.25
376.997	93.25
377.222	95.25
377.448	94.25
377.674	102.25
377.899	88.25
378.125	96.25
378.35	103.25
378.576	116.25
378.802	104.25
379.027	106.25
379.253	100.25
379.478	95.25
379.704	109.25
379.929	120.25
380.155	113.25
380.38	97.25
380.606	113.25
380.831	123.25
381.057	116.25
381.282	110.25
381.507	115.25
381.733	105.25
381.958	103.25
382.184	112.25
382.409	113.25
382.634	110.25
382.86	124.25
383.085	127.25
383.31	114.25
383.535	125.25
383.761	136.25
383.986	129.25
384.211	122.25
384.436	120.25
384.662	134.25
384.887	127.25
385.112	146.25
385.337	148.25
385.562	130.25
385.787	136.25
386.013	156.25
386.238	159.25
386.463	134.25
386.688	147.25
386.913	139.25
387.138	138.25
387.363	142.25
387.588	133.25
387.813	130.25
388.038	145.25
388.263	168.25
388.488	161.25
388.713	113.25
388.938	98.25
389.163	83.25
389.387	91.25
389.612	79.25
389.837	106.25
390.062	89.25
390.287	101.25
390.512	97.25
390.736	94.25
390.961	104.25
391.186	101.25
391.411	92.25
391.636	99.25
391.86	93.25
392.085	81.25
392.31	85.25
392.534	85.25
392.759	101.25
392.984	97.25
393.208	92.25
393.433	110.25
393.658	103.25
393.882	101.25
394.107	93.25
394.331	96.25
394.556	102.25
394.78	95.25
395.005	87.25
395.229	100.25
395.454	93.25
395.678	86.25
395.903	82.25
396.127	83.25
396.352	87.25
396.576	99.25
396.801	99.25
397.025	97.25
397.249	87.25
397.474	83.25
397.698	91.25
397.922	88.25
398.147	93.25
398.371	93.25
398.595	81.25
398.82	89.25
399.044	102.25
399.268	73.25
399.492	74.25
399.717	91.25
399.941	81.25
400.165	95.25
400.389	87.25
400.613	94.25
400.837	88.25
401.062	98.25
401.286	86.25
401.51	97.25
401.734	95.25
401.958	106.25
402.182	106.25
402.406	150.25
402.63	95.25
402.854	96.25
403.078	80.25
403.302	95.25
403.526	86.25
403.75	106.25
403.974	85.25
404.198	88.25
404.422	94.25
404.645	87.25
404.869	92.25
405.093	109.25
405.317	110.25
405.541	102.25
405.765	101.25
405.988	113.25
406.212	149.25
406.436	185.25
406.66	122.25
406.883	111.25
407.107	91.25
407.331	96.25
407.555	99.25
407.778	98.25
408.002	95.25
408.226	87.25
408.449	103.25
408.673	81.25
408.896	87.25
409.12	101.25
409.344	99.25
409.567	78.25
409.791	87.25
410.014	110.25
410.238	105.25
410.461	107.25
410.685	101.25
410.908	94.25
411.132	106.25
411.355	99.25
411.578	96.25
411.802	104.25
412.025	104.25
412.249	99.25
412.472	109.25
412.695	111.25
412.919	95.25
413.142	98.25
413.365	84.25
413.589	83.25
413.812	89.25
414.035	109.25
414.258	93.25
414.482	85.25
414.705	100.25
414.928	100.25
415.151	100.25
415.374	102.25
415.597	102.25
415.821	94.25
416.044	92.25
416.267	96.25
416.49	98.25
416.713	97.25
416.936	98.25
417.159	95.25
417.382	95.25
417.605	93.25
417.828	88.25
418.051	94.25
418.274	106.25
418.497	91.25
418.72	87.25
418.943	96.25
419.166	92.25
419.389	97.25
419.611	88.25
419.834	103.25
420.057	89.25
420.28	96.25
420.503	98.25
420.726	96.25
420.948	89.25
421.171	103.25
421.394	96.25
421.617	86.25
421.839	96.25
422.062	86.25
422.285	107.25
422.507	102.25
422.73	91.25
422.953	85.25
423.175	99.25
423.398	95.25
423.621	97.25
423.843	99.25
424.066	96.25
424.288	95.25
424.511	87.25
424.733	90.25
424.956	95.25
425.178	89.25
425.401	106.25
425.623	104.25
425.846	88.25
426.068	91.25
426.291	91.25
426.513	98.25
426.735	93.25
426.958	86.25
427.18	100.25
427.402	135.25
427.625	149.25
427.847	131.25
428.069	125.25
428.292	90.25
428.514	92.25
428.736	78.25
428.958	108.25
429.181	93.25
429.403	93.25
429.625	101.25
429.847	95.25
430.069	96.25
430.292	72.25
430.514	87.25
430.736	89.25
430.958	81.25
431.18	76.25
431.402	86.25
431.624	87.25
431.846	84.25
432.068	97.25
432.29	97.25
432.512	94.25
432.734	91.25
432.956	100.25
433.178	93.25
433.4	108.25
433.622	103.25
433.844	96.25
434.066	98.25
434.287	102.25
434.509	81.25
434.731	103.25
434.953	100.25
435.175	100.25
435.397	98.25
435.618	91.25
435.84	97.25
436.062	106.25
436.284	112.25
436.505	105.25
436.727	104.25
436.949	97.25
437.17	75.25
437.392	89.25
437.614	81.25
437.835	93.25
438.057	102.25
438.278	90.25
438.5	110.25
438.721	123.25
438.943	97.25
439.165	85.25
439.386	96.25
439.608	85.25
439.829	94.25
440.05	103.25
440.272	110.25
440.493	82.25
440.715	85.25
440.936	101.25
441.158	89.25
441.379	91.25
441.6	99.25
441.822	83.25
442.043	96.25
442.264	97.25
442.486	89.25
442.707	95.25
442.928	103.25
443.149	104.25
443.371	105.25
443.592	107.25
443.813	114.25
444.034	113.25
444.255	109.25
444.476	89.25
444.698	80.25
444.919	96.25
445.14	133.25
445.361	129.25
445.582	109.25
445.803	129.25
446.024	129.25
446.245	123.25
446.466	114.25
446.687	88.25
446.908	96.25
447.129	83.25
447.35	86.25
447.571	83.25
447.792	87.25
448.013	98.25
448.234	103.25
448.455	114.25
448.675	98.25
448.896	103.25
449.117	102.25
449.338	103.25
449.559	115.25
449.779	106.25
450	85.25
450.221	92.25
450.442	93.25
450.662	84.25
450.883	87.25
451.104	100.25
451.324	93.25
451.545	85.25
451.766	103.25
451.986	90.25
452.207	90.25
452.428	90.25
452.648	98.25
452.869	103.25
453.089	112.25
453.31	100.25
453.53	94.25
453.751	101.25
453.971	100.25
454.192	100.25
454.412	105.25
454.633	94.25
454.853	95.25
455.073	84.25
455.294	102.25
455.514	92.25
455.734	91.25
455.955	99.25
456.175	90.25
456.395	86.25
456.616	77.25
456.836	86.25
457.056	96.25
457.276	83.25
457.497	82.25
457.717	95.25
457.937	95.25
458.157	90.25
458.377	105.25
458.598	106.25
458.818	130.25
459.038	131.25
459.258	110.25
459.478	91.25
459.698	85.25
459.918	93.25
460.138	89.25
460.358	98.25
460.578	82.25
460.798	94.25
461.018	91.25
461.238	93.25
461.458	81.25
461.678	82.25
461.898	98.25
462.118	94.25
462.338	96.25
462.558	80.25
462.777	81.25
462.997	98.25
463.217	74.25
463.437	106.25
463.657	73.25
463.876	77.25
464.096	94.25
464.316	82.25
464.536	100.25
464.755	98.25
464.975	113.25
465.195	138.25
465.414	144.25
465.634	102.25
465.854	95.25
466.073	77.25
466.293	86.25
466.512	90.25
466.732	96.25
466.951	80.25
467.171	95.25
467.391	106.25
467.61	106.25
467.829	106.25
468.049	152.25
468.268	148.25
468.488	100.25
468.707	99.25
468.927	84.25
469.146	83.25
469.365	91.25
469.585	93.25
469.804	103.25
470.023	102.25
470.243	102.25
470.462	82.25
470.681	99.25
470.901	82.25
471.12	90.25
471.339	81.25
471.558	98.25
471.777	98.25
471.997	110.25
472.216	206.25
472.435	327.25
472.654	138.25
472.873	88.25
473.092	79.25
473.311	95.25
473.53	91.25
473.749	82.25
473.968	78.25
474.187	106.25
474.406	105.25
474.625	83.25
474.844	103.25
475.063	87.25
475.282	78.25
475.501	96.25
475.72	95.25
475.939	79.25
476.158	86.25
476.377	86.25
476.596	82.25
476.814	88.25
477.033	74.25
477.252	92.25
477.471	93.25
477.69	88.25
477.908	81.25
478.127	89.25
478.346	101.25
478.564	104.25
478.783	102.25
479.002	96.25
479.22	101.25
479.439	100.25
479.658	92.25
479.876	100.25
480.095	88.25
480.313	87.25
480.532	92.25
480.751	116.25
480.969	192.25
481.188	521.25
481.406	341.25
481.624	126.25
481.843	103.25
482.061	96.25
482.28	102.25
482.498	94.25
482.717	85.25
482.935	96.25
483.153	88.25
483.372	84.25
483.59	81.25
483.808	97.25
484.027	95.25
484.245	93.25
484.463	87.25
484.681	102.25
484.9	93.25
485.118	97.25
485.336	100.25
485.554	97.25
485.772	106.25
485.99	105.25
486.209	115.25
486.427	98.25
486.645	126.25
486.863	118.25
487.081	113.25
487.299	85.25
487.517	92.25
487.735	115.25
487.953	97.25
488.171	98.25
488.389	109.25
488.607	105.25
488.825	102.25
489.043	102.25
489.261	89.25
489.479	83.25
489.696	89.25
489.914	93.25
490.132	102.25
490.35	83.25
490.568	88.25
490.786	80.25
491.003	94.25
491.221	100.25
491.439	90.25
491.657	87.25
491.874	88.25
492.092	88.25
492.31	87.25
492.527	89.25
492.745	90.25
492.963	96.25
493.18	99.25
493.398	96.25
493.615	104.25
493.833	85.25
494.05	88.25
494.268	91.25
494.485	98.25
494.703	104.25
494.92	100.25
495.138	103.25
495.355	93.25
495.573	83.25
495.79	93.25
496.008	113.25
496.225	95.25
496.442	101.25
496.66	105.25
496.877	100.25
497.094	104.25
497.312	94.25
497.529	93.25
497.746	97.25
497.963	78.25
498.181	96.25
498.398	105.25
498.615	112.25
498.832	117.25
499.049	102.25
499.267	99.25
499.484	96.25
499.701	89.25
499.918	94.25
500.135	101.25
500.352	91.25
500.569	90.25
500.786	92.25
501.003	98.25
501.22	94.25
501.437	78.25
501.654	82.25
501.871	105.25
502.088	100.25
502.305	95.25
502.522	99.25
502.739	86.25
502.956	89.25
503.172	85.25
503.389	90.25
503.606	99.25
503.823	94.25
504.04	94.25
504.256	99.25
504.473	87.25
504.69	82.25
504.907	91.25
505.123	93.25
505.34	104.25
505.557	86.25
505.773	91.25
505.99	96.25
506.207	91.25
506.423	83.25
506.64	86.25
506.856	90.25
507.073	87.25
507.289	98.25
507.506	100.25
507.722	105.25
507.939	115.25
508.155	104.25
508.372	92.25
508.588	102.25
508.805	106.25
509.021	93.25
509.238	100.25
509.454	106.25
509.67	88.25
509.887	107.25
510.103	118.25
510.319	169.25
510.536	636.25
510.752	1834.25
510.968	502.25
511.184	139.25
511.401	100.25
511.617	93.25
511.833	84.25
512.049	94.25
512.265	98.25
512.481	97.25
512.698	95.25
512.914	108.25
513.13	93.25
513.346	104.25
513.562	102.25
513.778	97.25
513.994	90.25
514.21	111.25
514.426	123.25
