Data from Circ_1990_H10_HRD10591_00028.txt Node
Date: Wed Jan 03 11:55:09 EST 2024
User: Yrep
Spectrometer: HR+D1059
Trigger mode: 1
Integration Time (sec): 1.000000E-1
Scans to average: 1
Electric dark correction enabled: true
Nonlinearity correction enabled: false
Boxcar width: 0
XAxis mode: Wavelengths
Number of Pixels in Spectrum: 2048
>>>>>Begin Spectral Data<<<<<
223.165	-23.44
223.4	-23.44
223.635	-23.44
223.869	-22.44
224.104	-20.44
224.338	-17.44
224.573	-20.44
224.808	-5.44
225.042	-8.44
225.277	-17.44
225.511	-4.44
225.746	-5.44
225.98	11.56
226.215	16.56
226.449	27.56
226.683	39.56
226.918	28.56
227.152	21.56
227.387	29.56
227.621	44.56
227.856	41.56
228.09	51.56
228.324	58.56
228.559	50.56
228.793	62.56
229.027	46.56
229.262	70.56
229.496	73.56
229.73	70.56
229.964	67.56
230.199	65.56
230.433	78.56
230.667	70.56
230.901	76.56
231.136	77.56
231.37	77.56
231.604	84.56
231.838	67.56
232.072	72.56
232.306	77.56
232.541	77.56
232.775	70.56
233.009	85.56
233.243	86.56
233.477	65.56
233.711	93.56
233.945	76.56
234.179	93.56
234.413	75.56
234.647	83.56
234.881	84.56
235.115	90.56
235.349	88.56
235.583	89.56
235.817	83.56
236.051	68.56
236.285	65.56
236.519	82.56
236.753	88.56
236.987	77.56
237.221	91.56
237.455	85.56
237.689	79.56
237.922	70.56
238.156	53.56
238.39	86.56
238.624	82.56
238.858	67.56
239.091	73.56
239.325	80.56
239.559	94.56
239.793	78.56
240.027	73.56
240.26	63.56
240.494	81.56
240.728	51.56
240.961	83.56
241.195	61.56
241.429	78.56
241.662	73.56
241.896	70.56
242.13	77.56
242.363	75.56
242.597	85.56
242.83	76.56
243.064	75.56
243.298	81.56
243.531	68.56
243.765	97.56
243.998	69.56
244.232	82.56
244.465	83.56
244.699	79.56
244.932	70.56
245.166	69.56
245.399	81.56
245.633	81.56
245.866	76.56
246.099	65.56
246.333	82.56
246.566	76.56
246.8	71.56
247.033	81.56
247.266	73.56
247.5	77.56
247.733	84.56
247.966	85.56
248.2	69.56
248.433	67.56
248.666	86.56
248.899	71.56
249.133	77.56
249.366	98.56
249.599	83.56
249.832	76.56
250.066	70.56
250.299	84.56
250.532	92.56
250.765	81.56
250.998	60.56
251.231	76.56
251.465	74.56
251.698	80.56
251.931	70.56
252.164	78.56
252.397	95.56
252.63	91.56
252.863	89.56
253.096	78.56
253.329	77.56
253.562	78.56
253.795	86.56
254.028	72.56
254.261	85.56
254.494	85.56
254.727	74.56
254.96	83.56
255.193	80.56
255.426	62.56
255.659	77.56
255.892	81.56
256.124	74.56
256.357	90.56
256.59	83.56
256.823	82.56
257.056	77.56
257.289	84.56
257.521	81.56
257.754	73.56
257.987	81.56
258.22	77.56
258.452	77.56
258.685	79.56
258.918	67.56
259.151	90.56
259.383	93.56
259.616	87.56
259.849	83.56
260.081	85.56
260.314	68.56
260.547	80.56
260.779	72.56
261.012	83.56
261.244	85.56
261.477	77.56
261.71	85.56
261.942	112.56
262.175	111.56
262.407	87.56
262.64	73.56
262.872	93.56
263.105	70.56
263.337	73.56
263.57	77.56
263.802	76.56
264.035	82.56
264.267	74.56
264.499	81.56
264.732	79.56
264.964	77.56
265.197	92.56
265.429	89.56
265.661	69.56
265.894	78.56
266.126	84.56
266.358	82.56
266.591	78.56
266.823	86.56
267.055	77.56
267.287	70.56
267.52	88.56
267.752	97.56
267.984	92.56
268.216	79.56
268.448	79.56
268.681	77.56
268.913	96.56
269.145	87.56
269.377	80.56
269.609	93.56
269.841	82.56
270.073	85.56
270.306	76.56
270.538	75.56
270.77	79.56
271.002	77.56
271.234	81.56
271.466	86.56
271.698	67.56
271.93	81.56
272.162	85.56
272.394	77.56
272.626	69.56
272.858	88.56
273.09	73.56
273.322	92.56
273.553	95.56
273.785	86.56
274.017	81.56
274.249	83.56
274.481	85.56
274.713	72.56
274.945	83.56
275.176	90.56
275.408	89.56
275.64	92.56
275.872	76.56
276.104	90.56
276.335	89.56
276.567	77.56
276.799	96.56
277.031	99.56
277.262	109.56
277.494	87.56
277.726	95.56
277.957	83.56
278.189	88.56
278.421	82.56
278.652	93.56
278.884	70.56
279.115	87.56
279.347	85.56
279.579	89.56
279.81	94.56
280.042	94.56
280.273	94.56
280.505	86.56
280.736	86.56
280.968	90.56
281.199	103.56
281.431	102.56
281.662	85.56
281.894	86.56
282.125	93.56
282.356	106.56
282.588	129.56
282.819	94.56
283.051	89.56
283.282	88.56
283.513	84.56
283.745	96.56
283.976	87.56
284.207	87.56
284.439	76.56
284.67	81.56
284.901	83.56
285.132	78.56
285.364	93.56
285.595	77.56
285.826	78.56
286.057	66.56
286.288	78.56
286.52	97.56
286.751	78.56
286.982	84.56
287.213	94.56
287.444	94.56
287.675	78.56
287.906	87.56
288.138	94.56
288.369	90.56
288.6	103.56
288.831	94.56
289.062	79.56
289.293	88.56
289.524	81.56
289.755	89.56
289.986	76.56
290.217	92.56
290.448	82.56
290.679	91.56
290.91	82.56
291.141	78.56
291.371	64.56
291.602	84.56
291.833	67.56
292.064	89.56
292.295	91.56
292.526	83.56
292.757	71.56
292.987	91.56
293.218	87.56
293.449	86.56
293.68	87.56
293.91	89.56
294.141	95.56
294.372	88.56
294.603	87.56
294.833	80.56
295.064	75.56
295.295	79.56
295.525	84.56
295.756	108.56
295.987	113.56
296.217	126.56
296.448	115.56
296.679	93.56
296.909	81.56
297.14	86.56
297.37	89.56
297.601	98.56
297.831	92.56
298.062	95.56
298.292	90.56
298.523	89.56
298.753	95.56
298.984	75.56
299.214	75.56
299.445	89.56
299.675	93.56
299.905	87.56
300.136	89.56
300.366	79.56
300.597	94.56
300.827	89.56
301.057	86.56
301.288	101.56
301.518	87.56
301.748	86.56
301.979	106.56
302.209	91.56
302.439	97.56
302.669	80.56
302.9	93.56
303.13	92.56
303.36	101.56
303.59	105.56
303.82	101.56
304.051	100.56
304.281	95.56
304.511	87.56
304.741	77.56
304.971	85.56
305.201	89.56
305.431	90.56
305.661	90.56
305.891	84.56
306.121	89.56
306.352	88.56
306.582	102.56
306.812	93.56
307.042	84.56
307.272	86.56
307.502	89.56
307.731	102.56
307.961	103.56
308.191	92.56
308.421	80.56
308.651	88.56
308.881	82.56
309.111	88.56
309.341	89.56
309.571	105.56
309.8	97.56
310.03	88.56
310.26	91.56
310.49	107.56
310.72	105.56
310.949	82.56
311.179	92.56
311.409	89.56
311.639	91.56
311.868	88.56
312.098	81.56
312.328	95.56
312.557	102.56
312.787	109.56
313.017	106.56
313.246	83.56
313.476	99.56
313.706	93.56
313.935	96.56
314.165	105.56
314.394	105.56
314.624	97.56
314.853	97.56
315.083	90.56
315.312	103.56
315.542	75.56
315.771	90.56
316.001	90.56
316.23	77.56
316.46	83.56
316.689	95.56
316.919	91.56
317.148	106.56
317.377	113.56
317.607	97.56
317.836	96.56
318.065	100.56
318.295	87.56
318.524	93.56
318.753	93.56
318.983	99.56
319.212	86.56
319.441	108.56
319.67	102.56
319.9	97.56
320.129	82.56
320.358	90.56
320.587	89.56
320.816	97.56
321.046	93.56
321.275	93.56
321.504	98.56
321.733	84.56
321.962	99.56
322.191	106.56
322.42	105.56
322.649	95.56
322.878	100.56
323.108	110.56
323.337	106.56
323.566	128.56
323.795	151.56
324.024	183.56
324.253	359.56
324.482	693.56
324.71	1420.56
324.939	1853.56
325.168	702.56
325.397	219.56
325.626	135.56
325.855	126.56
326.084	128.56
326.313	132.56
326.542	131.56
326.77	222.56
326.999	390.56
327.228	815.56
327.457	1469.56
327.686	1166.56
327.914	345.56
328.143	222.56
328.372	205.56
328.6	140.56
328.829	109.56
329.058	109.56
329.287	130.56
329.515	108.56
329.744	122.56
329.972	159.56
330.201	231.56
330.43	295.56
330.658	171.56
330.887	141.56
331.115	111.56
331.344	101.56
331.572	84.56
331.801	120.56
332.03	101.56
332.258	100.56
332.486	98.56
332.715	91.56
332.943	99.56
333.172	85.56
333.4	99.56
333.629	105.56
333.857	122.56
334.085	141.56
334.314	201.56
334.542	356.56
334.771	340.56
334.999	149.56
335.227	110.56
335.455	100.56
335.684	84.56
335.912	103.56
336.14	90.56
336.369	102.56
336.597	97.56
336.825	93.56
337.053	99.56
337.281	96.56
337.51	85.56
337.738	94.56
337.966	89.56
338.194	106.56
338.422	92.56
338.65	87.56
338.878	85.56
339.106	96.56
339.334	95.56
339.562	93.56
339.79	91.56
340.018	84.56
340.246	95.56
340.474	101.56
340.702	89.56
340.93	100.56
341.158	83.56
341.386	91.56
341.614	81.56
341.842	73.56
342.07	81.56
342.298	94.56
342.526	97.56
342.754	85.56
342.981	88.56
343.209	85.56
343.437	91.56
343.665	81.56
343.893	83.56
344.12	75.56
344.348	86.56
344.576	84.56
344.804	91.56
345.031	95.56
345.259	89.56
345.487	83.56
345.714	82.56
345.942	97.56
346.17	113.56
346.397	90.56
346.625	83.56
346.853	104.56
347.08	86.56
347.308	108.56
347.535	85.56
347.763	100.56
347.99	87.56
348.218	108.56
348.445	100.56
348.673	104.56
348.9	97.56
349.128	78.56
349.355	101.56
349.583	86.56
349.81	102.56
350.037	99.56
350.265	96.56
350.492	110.56
350.72	87.56
350.947	116.56
351.174	99.56
351.402	111.56
351.629	112.56
351.856	109.56
352.083	106.56
352.311	121.56
352.538	110.56
352.765	116.56
352.992	105.56
353.22	100.56
353.447	113.56
353.674	103.56
353.901	110.56
354.128	88.56
354.355	95.56
354.583	107.56
354.81	108.56
355.037	104.56
355.264	93.56
355.491	78.56
355.718	91.56
355.945	103.56
356.172	99.56
356.399	107.56
356.626	92.56
356.853	96.56
357.08	93.56
357.307	85.56
357.534	94.56
357.761	111.56
357.988	98.56
358.215	98.56
358.441	110.56
358.668	93.56
358.895	77.56
359.122	86.56
359.349	78.56
359.576	80.56
359.802	92.56
360.029	107.56
360.256	99.56
360.483	99.56
360.709	89.56
360.936	87.56
361.163	83.56
361.39	94.56
361.616	96.56
361.843	89.56
362.07	97.56
362.296	94.56
362.523	87.56
362.749	83.56
362.976	82.56
363.203	102.56
363.429	78.56
363.656	88.56
363.882	85.56
364.109	94.56
364.335	88.56
364.562	96.56
364.788	75.56
365.015	83.56
365.241	89.56
365.468	93.56
365.694	107.56
365.92	95.56
366.147	96.56
366.373	84.56
366.599	82.56
366.826	92.56
367.052	106.56
367.278	84.56
367.505	94.56
367.731	88.56
367.957	95.56
368.184	86.56
368.41	82.56
368.636	108.56
368.862	104.56
369.089	82.56
369.315	81.56
369.541	91.56
369.767	91.56
369.993	86.56
370.219	84.56
370.445	80.56
370.672	103.56
370.898	99.56
371.124	83.56
371.35	85.56
371.576	98.56
371.802	95.56
372.028	86.56
372.254	90.56
372.48	90.56
372.706	83.56
372.932	82.56
373.158	80.56
373.384	81.56
373.61	97.56
373.835	88.56
374.061	84.56
374.287	88.56
374.513	97.56
374.739	94.56
374.965	93.56
375.191	75.56
375.416	89.56
375.642	94.56
375.868	98.56
376.094	87.56
376.319	100.56
376.545	93.56
376.771	90.56
376.997	99.56
377.222	94.56
377.448	97.56
377.674	98.56
377.899	93.56
378.125	106.56
378.35	92.56
378.576	95.56
378.802	97.56
379.027	105.56
379.253	96.56
379.478	106.56
379.704	109.56
379.929	98.56
380.155	115.56
380.38	107.56
380.606	95.56
380.831	99.56
381.057	115.56
381.282	105.56
381.507	94.56
381.733	118.56
381.958	125.56
382.184	117.56
382.409	125.56
382.634	107.56
382.86	110.56
383.085	101.56
383.31	106.56
383.535	102.56
383.761	113.56
383.986	119.56
384.211	109.56
384.436	124.56
384.662	131.56
384.887	121.56
385.112	128.56
385.337	127.56
385.562	126.56
385.787	125.56
386.013	123.56
386.238	142.56
386.463	122.56
386.688	125.56
386.913	114.56
387.138	135.56
387.363	118.56
387.588	124.56
387.813	127.56
388.038	130.56
388.263	147.56
388.488	133.56
388.713	107.56
388.938	100.56
389.163	102.56
389.387	109.56
389.612	79.56
389.837	104.56
390.062	104.56
390.287	89.56
390.512	88.56
390.736	83.56
390.961	97.56
391.186	76.56
391.411	86.56
391.636	99.56
391.86	94.56
392.085	98.56
392.31	87.56
392.534	89.56
392.759	97.56
392.984	85.56
393.208	85.56
393.433	82.56
393.658	81.56
393.882	79.56
394.107	92.56
394.331	98.56
394.556	92.56
394.78	91.56
395.005	94.56
395.229	93.56
395.454	78.56
395.678	91.56
395.903	89.56
396.127	95.56
396.352	93.56
396.576	75.56
396.801	86.56
397.025	86.56
397.249	74.56
397.474	85.56
397.698	87.56
397.922	86.56
398.147	76.56
398.371	92.56
398.595	97.56
398.82	78.56
399.044	99.56
399.268	87.56
399.492	86.56
399.717	89.56
399.941	77.56
400.165	83.56
400.389	93.56
400.613	85.56
400.837	92.56
401.062	86.56
401.286	80.56
401.51	85.56
401.734	97.56
401.958	90.56
402.182	131.56
402.406	124.56
402.63	110.56
402.854	103.56
403.078	86.56
403.302	78.56
403.526	92.56
403.75	103.56
403.974	98.56
404.198	92.56
404.422	93.56
404.645	76.56
404.869	98.56
405.093	90.56
405.317	101.56
405.541	106.56
405.765	97.56
405.988	119.56
406.212	155.56
406.436	205.56
406.66	126.56
406.883	107.56
407.107	94.56
407.331	103.56
407.555	90.56
407.778	103.56
408.002	95.56
408.226	93.56
408.449	85.56
408.673	83.56
408.896	103.56
409.12	96.56
409.344	94.56
409.567	88.56
409.791	93.56
410.014	90.56
410.238	93.56
410.461	84.56
410.685	103.56
410.908	99.56
411.132	105.56
411.355	98.56
411.578	86.56
411.802	94.56
412.025	107.56
412.249	90.56
412.472	121.56
412.695	107.56
412.919	85.56
413.142	95.56
413.365	94.56
413.589	94.56
413.812	84.56
414.035	92.56
414.258	91.56
414.482	95.56
414.705	106.56
414.928	82.56
415.151	98.56
415.374	96.56
415.597	84.56
415.821	95.56
416.044	87.56
416.267	101.56
416.49	94.56
416.713	89.56
416.936	95.56
417.159	104.56
417.382	71.56
417.605	101.56
417.828	85.56
418.051	97.56
418.274	99.56
418.497	92.56
418.72	81.56
418.943	99.56
419.166	89.56
419.389	76.56
419.611	101.56
419.834	101.56
420.057	97.56
420.28	90.56
420.503	87.56
420.726	90.56
420.948	89.56
421.171	86.56
421.394	112.56
421.617	94.56
421.839	85.56
422.062	98.56
422.285	65.56
422.507	93.56
422.73	103.56
422.953	104.56
423.175	93.56
423.398	91.56
423.621	99.56
423.843	77.56
424.066	78.56
424.288	75.56
424.511	89.56
424.733	75.56
424.956	100.56
425.178	90.56
425.401	98.56
425.623	99.56
425.846	102.56
426.068	84.56
426.291	78.56
426.513	91.56
426.735	100.56
426.958	88.56
427.18	107.56
427.402	122.56
427.625	159.56
427.847	150.56
428.069	131.56
428.292	83.56
428.514	81.56
428.736	85.56
428.958	81.56
429.181	87.56
429.403	93.56
429.625	88.56
429.847	91.56
430.069	103.56
430.292	90.56
430.514	87.56
430.736	82.56
430.958	84.56
431.18	93.56
431.402	87.56
431.624	90.56
431.846	84.56
432.068	77.56
432.29	83.56
432.512	82.56
432.734	97.56
432.956	94.56
433.178	98.56
433.4	100.56
433.622	95.56
433.844	96.56
434.066	99.56
434.287	100.56
434.509	100.56
434.731	91.56
434.953	84.56
435.175	101.56
435.397	91.56
435.618	93.56
435.84	94.56
436.062	104.56
436.284	116.56
436.505	113.56
436.727	91.56
436.949	78.56
437.17	84.56
437.392	77.56
437.614	94.56
437.835	93.56
438.057	102.56
438.278	94.56
438.5	104.56
438.721	105.56
438.943	98.56
439.165	92.56
439.386	84.56
439.608	86.56
439.829	91.56
440.05	116.56
440.272	114.56
440.493	97.56
440.715	91.56
440.936	83.56
441.158	71.56
441.379	78.56
441.6	80.56
441.822	84.56
442.043	101.56
442.264	89.56
442.486	90.56
442.707	89.56
442.928	89.56
443.149	122.56
443.371	121.56
443.592	99.56
443.813	107.56
444.034	102.56
444.255	80.56
444.476	93.56
444.698	95.56
444.919	95.56
445.14	130.56
445.361	115.56
445.582	94.56
445.803	116.56
446.024	116.56
446.245	128.56
446.466	100.56
446.687	87.56
446.908	90.56
447.129	87.56
447.35	93.56
447.571	98.56
447.792	94.56
448.013	106.56
448.234	103.56
448.455	103.56
448.675	109.56
448.896	110.56
449.117	93.56
449.338	98.56
449.559	127.56
449.779	119.56
450	99.56
450.221	86.56
450.442	86.56
450.662	93.56
450.883	105.56
451.104	107.56
451.324	83.56
451.545	91.56
451.766	78.56
451.986	80.56
452.207	104.56
452.428	94.56
452.648	96.56
452.869	93.56
453.089	101.56
453.31	112.56
453.53	86.56
453.751	97.56
453.971	102.56
454.192	107.56
454.412	94.56
454.633	73.56
454.853	89.56
455.073	94.56
455.294	101.56
455.514	87.56
455.734	84.56
455.955	92.56
456.175	89.56
456.395	89.56
456.616	79.56
456.836	88.56
457.056	91.56
457.276	69.56
457.497	83.56
457.717	87.56
457.937	88.56
458.157	89.56
458.377	76.56
458.598	96.56
458.818	126.56
459.038	147.56
459.258	92.56
459.478	87.56
459.698	85.56
459.918	84.56
460.138	87.56
460.358	90.56
460.578	82.56
460.798	93.56
461.018	83.56
461.238	90.56
461.458	91.56
461.678	93.56
461.898	83.56
462.118	90.56
462.338	79.56
462.558	83.56
462.777	92.56
462.997	77.56
463.217	92.56
463.437	102.56
463.657	89.56
463.876	92.56
464.096	87.56
464.316	96.56
464.536	95.56
464.755	81.56
464.975	95.56
465.195	135.56
465.414	128.56
465.634	96.56
465.854	70.56
466.073	83.56
466.293	90.56
466.512	82.56
466.732	89.56
466.951	79.56
467.171	86.56
467.391	87.56
467.61	122.56
467.829	106.56
468.049	163.56
468.268	183.56
468.488	119.56
468.707	88.56
468.927	75.56
469.146	83.56
469.365	87.56
469.585	91.56
469.804	78.56
470.023	76.56
470.243	100.56
470.462	97.56
470.681	95.56
470.901	93.56
471.12	88.56
471.339	91.56
471.558	95.56
471.777	94.56
471.997	132.56
472.216	269.56
472.435	463.56
472.654	166.56
472.873	87.56
473.092	96.56
473.311	77.56
473.53	80.56
473.749	87.56
473.968	106.56
474.187	103.56
474.406	91.56
474.625	77.56
474.844	92.56
475.063	89.56
475.282	89.56
475.501	103.56
475.72	87.56
475.939	89.56
476.158	78.56
476.377	76.56
476.596	84.56
476.814	91.56
477.033	92.56
477.252	84.56
477.471	91.56
477.69	89.56
477.908	83.56
478.127	102.56
478.346	93.56
478.564	100.56
478.783	91.56
479.002	94.56
479.22	98.56
479.439	117.56
479.658	104.56
479.876	98.56
480.095	77.56
480.313	89.56
480.532	97.56
480.751	130.56
480.969	246.56
481.188	784.56
481.406	479.56
481.624	129.56
481.843	94.56
482.061	70.56
482.28	81.56
482.498	91.56
482.717	103.56
482.935	103.56
483.153	89.56
483.372	94.56
483.59	95.56
483.808	81.56
484.027	80.56
484.245	110.56
484.463	95.56
484.681	92.56
484.9	99.56
485.118	103.56
485.336	99.56
485.554	85.56
485.772	103.56
485.99	103.56
486.209	103.56
486.427	114.56
486.645	105.56
486.863	100.56
487.081	96.56
487.299	101.56
487.517	99.56
487.735	89.56
487.953	77.56
488.171	88.56
488.389	93.56
488.607	108.56
488.825	82.56
489.043	103.56
489.261	89.56
489.479	89.56
489.696	88.56
489.914	94.56
490.132	89.56
490.35	79.56
490.568	86.56
490.786	90.56
491.003	92.56
491.221	96.56
491.439	88.56
491.657	91.56
491.874	90.56
492.092	85.56
492.31	89.56
492.527	100.56
492.745	94.56
492.963	81.56
493.18	87.56
493.398	86.56
493.615	101.56
493.833	97.56
494.05	90.56
494.268	101.56
494.485	86.56
494.703	99.56
494.92	102.56
495.138	91.56
495.355	102.56
495.573	86.56
495.79	83.56
496.008	99.56
496.225	84.56
496.442	98.56
496.66	84.56
496.877	85.56
497.094	101.56
497.312	83.56
497.529	86.56
497.746	94.56
497.963	89.56
498.181	93.56
498.398	88.56
498.615	94.56
498.832	109.56
499.049	95.56
499.267	92.56
499.484	89.56
499.701	103.56
499.918	99.56
500.135	79.56
500.352	83.56
500.569	95.56
500.786	89.56
501.003	103.56
501.22	98.56
501.437	73.56
501.654	97.56
501.871	107.56
502.088	89.56
502.305	96.56
502.522	92.56
502.739	95.56
502.956	90.56
503.172	93.56
503.389	91.56
503.606	92.56
503.823	93.56
504.04	93.56
504.256	91.56
504.473	83.56
504.69	93.56
504.907	86.56
505.123	86.56
505.34	87.56
505.557	90.56
505.773	97.56
505.99	86.56
506.207	87.56
506.423	94.56
506.64	95.56
506.856	83.56
507.073	81.56
507.289	101.56
507.506	95.56
507.722	106.56
507.939	87.56
508.155	98.56
508.372	84.56
508.588	112.56
508.805	89.56
509.021	97.56
509.238	102.56
509.454	83.56
509.67	92.56
509.887	102.56
510.103	151.56
510.319	187.56
510.536	646.56
510.752	1980.56
510.968	541.56
511.184	143.56
511.401	98.56
511.617	86.56
511.833	103.56
512.049	97.56
512.265	76.56
512.481	86.56
512.698	96.56
512.914	99.56
513.13	67.56
513.346	89.56
513.562	89.56
513.778	93.56
513.994	97.56
514.21	85.56
514.426	100.56
514.642	109.56
514.858	122.56
515.074	138.56
515.29	397.56
515.506	1218.56
