Data from Circ_1990_H10_HRD10591_00008.txt Node
Date: Wed Jan 03 11:55:05 EST 2024
User: Yrep
Spectrometer: HR+D1059
Trigger mode: 1
Integration Time (sec): 1.000000E-1
Scans to average: 1
Electric dark correction enabled: true
Nonlinearity correction enabled: false
Boxcar width: 0
XAxis mode: Wavelengths
Number of Pixels in Spectrum: 2048
>>>>>Begin Spectral Data<<<<<
223.165	-14.94
223.4	-14.94
223.635	-14.94
223.869	-10.94
224.104	-24.94
224.338	-17.94
224.573	-22.94
224.808	-16.94
225.042	-5.94
225.277	-9.94
225.511	-1.94
225.746	4.06
225.98	11.06
226.215	11.06
226.449	23.06
226.683	24.06
226.918	25.06
227.152	28.06
227.387	30.06
227.621	36.06
227.856	41.06
228.09	57.06
228.324	56.06
228.559	48.06
228.793	59.06
229.027	60.06
229.262	43.06
229.496	66.06
229.73	71.06
229.964	84.06
230.199	75.06
230.433	90.06
230.667	94.06
230.901	91.06
231.136	67.06
231.37	73.06
231.604	82.06
231.838	59.06
232.072	84.06
232.306	70.06
232.541	76.06
232.775	90.06
233.009	75.06
233.243	90.06
233.477	74.06
233.711	76.06
233.945	82.06
234.179	79.06
234.413	94.06
234.647	82.06
234.881	86.06
235.115	81.06
235.349	83.06
235.583	72.06
235.817	73.06
236.051	79.06
236.285	78.06
236.519	91.06
236.753	77.06
236.987	94.06
237.221	78.06
237.455	66.06
237.689	89.06
237.922	72.06
238.156	76.06
238.39	68.06
238.624	69.06
238.858	86.06
239.091	53.06
239.325	63.06
239.559	81.06
239.793	67.06
240.027	79.06
240.26	86.06
240.494	80.06
240.728	83.06
240.961	77.06
241.195	84.06
241.429	80.06
241.662	77.06
241.896	65.06
242.13	79.06
242.363	84.06
242.597	62.06
242.83	70.06
243.064	80.06
243.298	66.06
243.531	75.06
243.765	85.06
243.998	75.06
244.232	77.06
244.465	83.06
244.699	92.06
244.932	78.06
245.166	70.06
245.399	86.06
245.633	71.06
245.866	86.06
246.099	74.06
246.333	73.06
246.566	92.06
246.8	82.06
247.033	84.06
247.266	76.06
247.5	62.06
247.733	92.06
247.966	88.06
248.2	76.06
248.433	62.06
248.666	88.06
248.899	74.06
249.133	81.06
249.366	97.06
249.599	76.06
249.832	71.06
250.066	86.06
250.299	72.06
250.532	83.06
250.765	81.06
250.998	81.06
251.231	81.06
251.465	83.06
251.698	67.06
251.931	84.06
252.164	80.06
252.397	89.06
252.63	98.06
252.863	82.06
253.096	83.06
253.329	82.06
253.562	83.06
253.795	81.06
254.028	69.06
254.261	77.06
254.494	74.06
254.727	82.06
254.96	93.06
255.193	89.06
255.426	80.06
255.659	77.06
255.892	84.06
256.124	85.06
256.357	84.06
256.59	80.06
256.823	93.06
257.056	76.06
257.289	86.06
257.521	75.06
257.754	92.06
257.987	85.06
258.22	73.06
258.452	76.06
258.685	87.06
258.918	86.06
259.151	76.06
259.383	86.06
259.616	86.06
259.849	77.06
260.081	88.06
260.314	85.06
260.547	74.06
260.779	93.06
261.012	84.06
261.244	98.06
261.477	99.06
261.71	79.06
261.942	94.06
262.175	116.06
262.407	98.06
262.64	73.06
262.872	96.06
263.105	85.06
263.337	71.06
263.57	81.06
263.802	81.06
264.035	70.06
264.267	78.06
264.499	83.06
264.732	78.06
264.964	80.06
265.197	84.06
265.429	79.06
265.661	77.06
265.894	78.06
266.126	94.06
266.358	82.06
266.591	93.06
266.823	86.06
267.055	80.06
267.287	76.06
267.52	84.06
267.752	81.06
267.984	81.06
268.216	77.06
268.448	83.06
268.681	79.06
268.913	91.06
269.145	82.06
269.377	94.06
269.609	75.06
269.841	82.06
270.073	89.06
270.306	78.06
270.538	104.06
270.77	91.06
271.002	80.06
271.234	93.06
271.466	84.06
271.698	78.06
271.93	76.06
272.162	98.06
272.394	83.06
272.626	84.06
272.858	91.06
273.09	87.06
273.322	79.06
273.553	79.06
273.785	87.06
274.017	93.06
274.249	69.06
274.481	69.06
274.713	94.06
274.945	80.06
275.176	78.06
275.408	84.06
275.64	86.06
275.872	91.06
276.104	92.06
276.335	82.06
276.567	98.06
276.799	98.06
277.031	87.06
277.262	84.06
277.494	78.06
277.726	92.06
277.957	80.06
278.189	78.06
278.421	79.06
278.652	90.06
278.884	86.06
279.115	91.06
279.347	92.06
279.579	96.06
279.81	97.06
280.042	88.06
280.273	85.06
280.505	94.06
280.736	92.06
280.968	82.06
281.199	88.06
281.431	80.06
281.662	84.06
281.894	87.06
282.125	92.06
282.356	102.06
282.588	119.06
282.819	108.06
283.051	94.06
283.282	98.06
283.513	85.06
283.745	76.06
283.976	83.06
284.207	77.06
284.439	88.06
284.67	80.06
284.901	85.06
285.132	97.06
285.364	95.06
285.595	97.06
285.826	81.06
286.057	87.06
286.288	82.06
286.52	87.06
286.751	93.06
286.982	74.06
287.213	81.06
287.444	92.06
287.675	86.06
287.906	80.06
288.138	91.06
288.369	81.06
288.6	82.06
288.831	92.06
289.062	82.06
289.293	76.06
289.524	87.06
289.755	99.06
289.986	71.06
290.217	99.06
290.448	94.06
290.679	80.06
290.91	85.06
291.141	92.06
291.371	80.06
291.602	84.06
291.833	97.06
292.064	95.06
292.295	80.06
292.526	92.06
292.757	90.06
292.987	94.06
293.218	81.06
293.449	86.06
293.68	99.06
293.91	78.06
294.141	77.06
294.372	83.06
294.603	78.06
294.833	96.06
295.064	93.06
295.295	82.06
295.525	82.06
295.756	87.06
295.987	96.06
296.217	123.06
296.448	115.06
296.679	97.06
296.909	93.06
297.14	89.06
297.37	98.06
297.601	86.06
297.831	92.06
298.062	94.06
298.292	84.06
298.523	92.06
298.753	90.06
298.984	91.06
299.214	87.06
299.445	98.06
299.675	96.06
299.905	86.06
300.136	91.06
300.366	92.06
300.597	89.06
300.827	95.06
301.057	88.06
301.288	84.06
301.518	96.06
301.748	94.06
301.979	104.06
302.209	80.06
302.439	90.06
302.669	96.06
302.9	77.06
303.13	80.06
303.36	99.06
303.59	94.06
303.82	93.06
304.051	84.06
304.281	86.06
304.511	93.06
304.741	85.06
304.971	94.06
305.201	86.06
305.431	78.06
305.661	82.06
305.891	81.06
306.121	92.06
306.352	101.06
306.582	97.06
306.812	99.06
307.042	97.06
307.272	94.06
307.502	101.06
307.731	98.06
307.961	94.06
308.191	80.06
308.421	82.06
308.651	99.06
308.881	105.06
309.111	94.06
309.341	99.06
309.571	105.06
309.8	95.06
310.03	85.06
310.26	99.06
310.49	93.06
310.72	80.06
310.949	87.06
311.179	92.06
311.409	96.06
311.639	96.06
311.868	95.06
312.098	85.06
312.328	95.06
312.557	100.06
312.787	92.06
313.017	98.06
313.246	83.06
313.476	93.06
313.706	84.06
313.935	95.06
314.165	95.06
314.394	87.06
314.624	77.06
314.853	97.06
315.083	92.06
315.312	100.06
315.542	102.06
315.771	103.06
316.001	80.06
316.23	102.06
316.46	69.06
316.689	107.06
316.919	100.06
317.148	99.06
317.377	97.06
317.607	92.06
317.836	98.06
318.065	98.06
318.295	90.06
318.524	96.06
318.753	76.06
318.983	86.06
319.212	108.06
319.441	105.06
319.67	106.06
319.9	86.06
320.129	85.06
320.358	89.06
320.587	92.06
320.816	80.06
321.046	94.06
321.275	101.06
321.504	102.06
321.733	102.06
321.962	100.06
322.191	112.06
322.42	105.06
322.649	101.06
322.878	97.06
323.108	103.06
323.337	112.06
323.566	111.06
323.795	122.06
324.024	164.06
324.253	304.06
324.482	611.06
324.71	1190.06
324.939	1646.06
325.168	624.06
325.397	207.06
325.626	140.06
325.855	125.06
326.084	106.06
326.313	108.06
326.542	133.06
326.77	186.06
326.999	346.06
327.228	657.06
327.457	1261.06
327.686	995.06
327.914	307.06
328.143	156.06
328.372	158.06
328.6	118.06
328.829	101.06
329.058	119.06
329.287	119.06
329.515	102.06
329.744	102.06
329.972	107.06
330.201	132.06
330.43	142.06
330.658	120.06
330.887	123.06
331.115	116.06
331.344	103.06
331.572	96.06
331.801	102.06
332.03	97.06
332.258	93.06
332.486	95.06
332.715	98.06
332.943	104.06
333.172	99.06
333.4	92.06
333.629	107.06
333.857	105.06
334.085	108.06
334.314	123.06
334.542	171.06
334.771	161.06
334.999	103.06
335.227	118.06
335.455	93.06
335.684	94.06
335.912	107.06
336.14	109.06
336.369	92.06
336.597	96.06
336.825	102.06
337.053	77.06
337.281	86.06
337.51	95.06
337.738	81.06
337.966	90.06
338.194	89.06
338.422	91.06
338.65	86.06
338.878	94.06
339.106	84.06
339.334	85.06
339.562	86.06
339.79	81.06
340.018	86.06
340.246	70.06
340.474	87.06
340.702	94.06
340.93	108.06
341.158	87.06
341.386	101.06
341.614	88.06
341.842	71.06
342.07	92.06
342.298	70.06
342.526	86.06
342.754	90.06
342.981	87.06
343.209	103.06
343.437	100.06
343.665	79.06
343.893	92.06
344.12	81.06
344.348	96.06
344.576	78.06
344.804	74.06
345.031	87.06
345.259	86.06
345.487	83.06
345.714	80.06
345.942	89.06
346.17	81.06
346.397	80.06
346.625	109.06
346.853	92.06
347.08	84.06
347.308	107.06
347.535	91.06
347.763	105.06
347.99	106.06
348.218	102.06
348.445	85.06
348.673	93.06
348.9	93.06
349.128	99.06
349.355	90.06
349.583	89.06
349.81	86.06
350.037	99.06
350.265	96.06
350.492	102.06
350.72	101.06
350.947	92.06
351.174	92.06
351.402	103.06
351.629	108.06
351.856	107.06
352.083	111.06
352.311	96.06
352.538	104.06
352.765	104.06
352.992	109.06
353.22	106.06
353.447	108.06
353.674	105.06
353.901	109.06
354.128	103.06
354.355	102.06
354.583	91.06
354.81	111.06
355.037	101.06
355.264	101.06
355.491	85.06
355.718	92.06
355.945	92.06
356.172	91.06
356.399	94.06
356.626	108.06
356.853	102.06
357.08	104.06
357.307	101.06
357.534	89.06
357.761	113.06
357.988	97.06
358.215	91.06
358.441	111.06
358.668	93.06
358.895	106.06
359.122	94.06
359.349	99.06
359.576	88.06
359.802	104.06
360.029	101.06
360.256	85.06
360.483	85.06
360.709	92.06
360.936	87.06
361.163	101.06
361.39	95.06
361.616	86.06
361.843	76.06
362.07	88.06
362.296	90.06
362.523	98.06
362.749	97.06
362.976	96.06
363.203	97.06
363.429	86.06
363.656	86.06
363.882	92.06
364.109	103.06
364.335	82.06
364.562	94.06
364.788	88.06
365.015	89.06
365.241	79.06
365.468	99.06
365.694	111.06
365.92	103.06
366.147	88.06
366.373	85.06
366.599	80.06
366.826	89.06
367.052	84.06
367.278	70.06
367.505	87.06
367.731	84.06
367.957	115.06
368.184	96.06
368.41	93.06
368.636	106.06
368.862	100.06
369.089	110.06
369.315	79.06
369.541	79.06
369.767	94.06
369.993	90.06
370.219	87.06
370.445	80.06
370.672	90.06
370.898	77.06
371.124	84.06
371.35	92.06
371.576	95.06
371.802	91.06
372.028	87.06
372.254	74.06
372.48	85.06
372.706	86.06
372.932	94.06
373.158	94.06
373.384	94.06
373.61	101.06
373.835	94.06
374.061	98.06
374.287	91.06
374.513	87.06
374.739	94.06
374.965	102.06
375.191	104.06
375.416	94.06
375.642	85.06
375.868	82.06
376.094	76.06
376.319	90.06
376.545	85.06
376.771	89.06
376.997	101.06
377.222	100.06
377.448	100.06
377.674	89.06
377.899	100.06
378.125	84.06
378.35	103.06
378.576	91.06
378.802	103.06
379.027	93.06
379.253	109.06
379.478	113.06
379.704	109.06
379.929	113.06
380.155	83.06
380.38	104.06
380.606	111.06
380.831	105.06
381.057	122.06
381.282	106.06
381.507	111.06
381.733	104.06
381.958	103.06
382.184	108.06
382.409	106.06
382.634	126.06
382.86	127.06
383.085	139.06
383.31	123.06
383.535	131.06
383.761	122.06
383.986	125.06
384.211	124.06
384.436	135.06
384.662	139.06
384.887	150.06
385.112	159.06
385.337	159.06
385.562	156.06
385.787	150.06
386.013	152.06
386.238	154.06
386.463	143.06
386.688	153.06
386.913	142.06
387.138	149.06
387.363	149.06
387.588	123.06
387.813	135.06
388.038	164.06
388.263	188.06
388.488	172.06
388.713	107.06
388.938	86.06
389.163	89.06
389.387	108.06
389.612	84.06
389.837	87.06
390.062	88.06
390.287	84.06
390.512	91.06
390.736	93.06
390.961	84.06
391.186	90.06
391.411	93.06
391.636	75.06
391.86	82.06
392.085	87.06
392.31	89.06
392.534	84.06
392.759	99.06
392.984	81.06
393.208	109.06
393.433	94.06
393.658	103.06
393.882	100.06
394.107	86.06
394.331	92.06
394.556	81.06
394.78	87.06
395.005	84.06
395.229	80.06
395.454	91.06
395.678	79.06
395.903	89.06
396.127	98.06
396.352	101.06
396.576	84.06
396.801	94.06
397.025	104.06
397.249	79.06
397.474	85.06
397.698	83.06
397.922	88.06
398.147	89.06
398.371	96.06
398.595	85.06
398.82	90.06
399.044	85.06
399.268	84.06
399.492	80.06
399.717	69.06
399.941	95.06
400.165	95.06
400.389	72.06
400.613	73.06
400.837	92.06
401.062	86.06
401.286	81.06
401.51	96.06
401.734	101.06
401.958	86.06
402.182	126.06
402.406	151.06
402.63	109.06
402.854	91.06
403.078	97.06
403.302	100.06
403.526	86.06
403.75	81.06
403.974	86.06
404.198	78.06
404.422	73.06
404.645	84.06
404.869	79.06
405.093	114.06
405.317	102.06
405.541	82.06
405.765	83.06
405.988	103.06
406.212	134.06
406.436	178.06
406.66	130.06
406.883	93.06
407.107	91.06
407.331	98.06
407.555	88.06
407.778	86.06
408.002	93.06
408.226	82.06
408.449	95.06
408.673	76.06
408.896	101.06
409.12	92.06
409.344	86.06
409.567	80.06
409.791	108.06
410.014	103.06
410.238	89.06
410.461	105.06
410.685	95.06
410.908	97.06
411.132	113.06
411.355	88.06
411.578	94.06
411.802	79.06
412.025	85.06
412.249	87.06
412.472	101.06
412.695	90.06
412.919	89.06
413.142	105.06
413.365	86.06
413.589	90.06
413.812	86.06
414.035	91.06
414.258	82.06
414.482	94.06
414.705	86.06
414.928	84.06
415.151	90.06
415.374	92.06
415.597	80.06
415.821	96.06
416.044	96.06
416.267	95.06
416.49	93.06
416.713	80.06
416.936	96.06
417.159	100.06
417.382	92.06
417.605	88.06
417.828	100.06
418.051	85.06
418.274	82.06
418.497	92.06
418.72	92.06
418.943	83.06
419.166	116.06
419.389	85.06
419.611	93.06
419.834	103.06
420.057	96.06
420.28	90.06
420.503	86.06
420.726	88.06
420.948	94.06
421.171	93.06
421.394	84.06
421.617	83.06
421.839	102.06
422.062	72.06
422.285	84.06
422.507	90.06
422.73	108.06
422.953	90.06
423.175	97.06
423.398	86.06
423.621	80.06
423.843	77.06
424.066	90.06
424.288	87.06
424.511	103.06
424.733	96.06
424.956	80.06
425.178	88.06
425.401	85.06
425.623	87.06
425.846	91.06
426.068	95.06
426.291	90.06
426.513	76.06
426.735	87.06
426.958	90.06
427.18	100.06
427.402	115.06
427.625	138.06
427.847	107.06
428.069	103.06
428.292	95.06
428.514	83.06
428.736	87.06
428.958	80.06
429.181	70.06
429.403	79.06
429.625	79.06
429.847	86.06
430.069	99.06
430.292	97.06
430.514	89.06
430.736	78.06
430.958	80.06
431.18	63.06
431.402	84.06
431.624	88.06
431.846	76.06
432.068	76.06
432.29	95.06
432.512	99.06
432.734	100.06
432.956	79.06
433.178	99.06
433.4	103.06
433.622	94.06
433.844	93.06
434.066	87.06
434.287	92.06
434.509	91.06
434.731	81.06
434.953	92.06
435.175	84.06
435.397	93.06
435.618	103.06
435.84	95.06
436.062	104.06
436.284	97.06
436.505	93.06
436.727	82.06
436.949	91.06
437.17	96.06
437.392	92.06
437.614	82.06
437.835	93.06
438.057	101.06
438.278	113.06
438.5	82.06
438.721	109.06
438.943	105.06
439.165	92.06
439.386	95.06
439.608	83.06
439.829	93.06
440.05	120.06
440.272	119.06
440.493	97.06
440.715	86.06
440.936	91.06
441.158	78.06
441.379	97.06
441.6	101.06
441.822	101.06
442.043	92.06
442.264	103.06
442.486	103.06
442.707	86.06
442.928	85.06
443.149	119.06
443.371	109.06
443.592	98.06
443.813	115.06
444.034	105.06
444.255	91.06
444.476	93.06
444.698	86.06
444.919	91.06
445.14	130.06
445.361	106.06
445.582	103.06
445.803	119.06
446.024	112.06
446.245	110.06
446.466	91.06
446.687	71.06
446.908	80.06
447.129	76.06
447.35	86.06
447.571	77.06
447.792	75.06
448.013	80.06
448.234	88.06
448.455	99.06
448.675	83.06
448.896	107.06
449.117	104.06
449.338	115.06
449.559	101.06
449.779	123.06
450	98.06
450.221	94.06
450.442	85.06
450.662	85.06
450.883	88.06
451.104	95.06
451.324	79.06
451.545	94.06
451.766	95.06
451.986	86.06
452.207	82.06
452.428	97.06
452.648	94.06
452.869	120.06
453.089	106.06
453.31	112.06
453.53	97.06
453.751	108.06
453.971	102.06
454.192	110.06
454.412	97.06
454.633	86.06
454.853	72.06
455.073	85.06
455.294	82.06
455.514	101.06
455.734	83.06
455.955	90.06
456.175	94.06
456.395	85.06
456.616	78.06
456.836	89.06
457.056	83.06
457.276	84.06
457.497	79.06
457.717	84.06
457.937	77.06
458.157	82.06
458.377	88.06
458.598	99.06
458.818	120.06
459.038	146.06
459.258	109.06
459.478	82.06
459.698	76.06
459.918	75.06
460.138	86.06
460.358	87.06
460.578	87.06
460.798	82.06
461.018	83.06
461.238	85.06
461.458	90.06
461.678	89.06
461.898	84.06
462.118	85.06
462.338	80.06
462.558	69.06
462.777	86.06
462.997	90.06
463.217	96.06
463.437	82.06
463.657	96.06
463.876	99.06
464.096	90.06
464.316	102.06
464.536	91.06
464.755	85.06
464.975	102.06
465.195	143.06
465.414	120.06
465.634	88.06
465.854	83.06
466.073	82.06
466.293	88.06
466.512	87.06
466.732	102.06
466.951	84.06
467.171	93.06
467.391	98.06
467.61	102.06
467.829	81.06
468.049	107.06
468.268	129.06
468.488	98.06
468.707	96.06
468.927	93.06
469.146	80.06
469.365	100.06
469.585	78.06
469.804	76.06
470.023	95.06
470.243	98.06
470.462	80.06
470.681	99.06
470.901	81.06
471.12	74.06
471.339	90.06
471.558	93.06
471.777	85.06
471.997	81.06
472.216	142.06
472.435	202.06
472.654	107.06
472.873	96.06
473.092	79.06
473.311	76.06
473.53	77.06
473.749	75.06
473.968	84.06
474.187	92.06
474.406	88.06
474.625	73.06
474.844	89.06
475.063	89.06
475.282	99.06
475.501	90.06
475.72	88.06
475.939	91.06
476.158	90.06
476.377	84.06
476.596	94.06
476.814	98.06
477.033	90.06
477.252	92.06
477.471	95.06
477.69	83.06
477.908	88.06
478.127	81.06
478.346	83.06
478.564	85.06
478.783	95.06
479.002	93.06
479.22	92.06
479.439	92.06
479.658	105.06
479.876	92.06
480.095	93.06
480.313	94.06
480.532	91.06
480.751	93.06
480.969	134.06
481.188	321.06
481.406	210.06
481.624	98.06
481.843	95.06
482.061	82.06
482.28	92.06
482.498	78.06
482.717	82.06
482.935	86.06
483.153	93.06
483.372	87.06
483.59	83.06
483.808	84.06
484.027	92.06
484.245	90.06
484.463	99.06
484.681	91.06
484.9	96.06
485.118	90.06
485.336	94.06
485.554	94.06
485.772	94.06
485.99	100.06
486.209	116.06
486.427	112.06
486.645	97.06
486.863	96.06
487.081	101.06
487.299	110.06
487.517	88.06
487.735	102.06
487.953	84.06
488.171	88.06
488.389	98.06
488.607	93.06
488.825	92.06
489.043	78.06
489.261	81.06
489.479	75.06
489.696	100.06
489.914	95.06
490.132	94.06
490.35	88.06
490.568	97.06
490.786	75.06
491.003	91.06
491.221	85.06
491.439	97.06
491.657	99.06
491.874	95.06
492.092	101.06
492.31	99.06
492.527	85.06
492.745	82.06
492.963	83.06
493.18	93.06
493.398	78.06
493.615	109.06
493.833	88.06
494.05	90.06
494.268	80.06
494.485	79.06
494.703	86.06
494.92	68.06
495.138	85.06
495.355	99.06
495.573	88.06
495.79	91.06
496.008	92.06
496.225	89.06
496.442	85.06
496.66	86.06
496.877	94.06
497.094	86.06
497.312	87.06
497.529	84.06
497.746	92.06
497.963	93.06
498.181	92.06
498.398	93.06
498.615	106.06
498.832	96.06
499.049	89.06
499.267	93.06
499.484	97.06
499.701	99.06
499.918	78.06
500.135	94.06
500.352	87.06
500.569	86.06
500.786	101.06
501.003	80.06
501.22	90.06
501.437	84.06
501.654	101.06
501.871	84.06
502.088	91.06
502.305	88.06
502.522	88.06
502.739	84.06
502.956	96.06
503.172	93.06
503.389	103.06
503.606	101.06
503.823	95.06
504.04	90.06
504.256	91.06
504.473	90.06
504.69	78.06
504.907	91.06
505.123	95.06
505.34	97.06
505.557	85.06
505.773	82.06
505.99	88.06
506.207	90.06
506.423	85.06
506.64	86.06
506.856	93.06
507.073	86.06
507.289	93.06
507.506	93.06
507.722	113.06
507.939	99.06
508.155	108.06
508.372	85.06
508.588	83.06
508.805	85.06
509.021	93.06
509.238	98.06
509.454	87.06
509.67	98.06
509.887	111.06
510.103	104.06
510.319	176.06
510.536	570.06
510.752	1770.06
510.968	495.06
511.184	141.06
511.401	100.06
511.617	93.06
511.833	87.06
512.049	84.06
512.265	87.06
512.481	90.06
512.698	96.06
512.914	86.06
513.13	93.06
513.346	99.06
513.562	94.06
513.778	94.06
513.994	86.06
514.21	109.06
514.426	114.06
514.642	114.06
514.858	124.06
515.074	133.06
515.29	325.06
515.506	1011.06
515.721	399.06
515.937	134.06
