Data from Circ_1990_H10_HRD10591_00009.txt Node
Date: Wed Jan 03 11:55:05 EST 2024
User: Yrep
Spectrometer: HR+D1059
Trigger mode: 1
Integration Time (sec): 1.000000E-1
Scans to average: 1
Electric dark correction enabled: true
Nonlinearity correction enabled: false
Boxcar width: 0
XAxis mode: Wavelengths
Number of Pixels in Spectrum: 2048
>>>>>Begin Spectral Data<<<<<
223.165	-10.69
223.4	-10.69
223.635	-10.69
223.869	-10.69
224.104	-9.69
224.338	-24.69
224.573	-10.69
224.808	-23.69
225.042	-3.69
225.277	-6.69
225.511	-8.69
225.746	-2.69
225.98	9.31
226.215	17.31
226.449	18.31
226.683	22.31
226.918	18.31
227.152	26.31
227.387	40.31
227.621	41.31
227.856	44.31
228.09	55.31
228.324	45.31
228.559	51.31
228.793	63.31
229.027	66.31
229.262	61.31
229.496	80.31
229.73	75.31
229.964	70.31
230.199	68.31
230.433	68.31
230.667	61.31
230.901	65.31
231.136	74.31
231.37	77.31
231.604	92.31
231.838	73.31
232.072	88.31
232.306	89.31
232.541	66.31
232.775	77.31
233.009	78.31
233.243	83.31
233.477	81.31
233.711	78.31
233.945	83.31
234.179	86.31
234.413	98.31
234.647	79.31
234.881	75.31
235.115	83.31
235.349	74.31
235.583	76.31
235.817	80.31
236.051	67.31
236.285	84.31
236.519	77.31
236.753	74.31
236.987	69.31
237.221	82.31
237.455	68.31
237.689	89.31
237.922	87.31
238.156	89.31
238.39	77.31
238.624	72.31
238.858	82.31
239.091	71.31
239.325	93.31
239.559	77.31
239.793	84.31
240.027	86.31
240.26	67.31
240.494	83.31
240.728	68.31
240.961	73.31
241.195	73.31
241.429	70.31
241.662	93.31
241.896	82.31
242.13	75.31
242.363	82.31
242.597	79.31
242.83	81.31
243.064	72.31
243.298	74.31
243.531	78.31
243.765	82.31
243.998	66.31
244.232	78.31
244.465	87.31
244.699	81.31
244.932	73.31
245.166	93.31
245.399	63.31
245.633	63.31
245.866	69.31
246.099	78.31
246.333	73.31
246.566	84.31
246.8	64.31
247.033	73.31
247.266	88.31
247.5	69.31
247.733	80.31
247.966	83.31
248.2	68.31
248.433	68.31
248.666	70.31
248.899	92.31
249.133	71.31
249.366	95.31
249.599	78.31
249.832	79.31
250.066	83.31
250.299	82.31
250.532	77.31
250.765	74.31
250.998	78.31
251.231	69.31
251.465	90.31
251.698	65.31
251.931	66.31
252.164	75.31
252.397	84.31
252.63	66.31
252.863	69.31
253.096	78.31
253.329	70.31
253.562	79.31
253.795	90.31
254.028	76.31
254.261	72.31
254.494	80.31
254.727	92.31
254.96	77.31
255.193	82.31
255.426	76.31
255.659	78.31
255.892	77.31
256.124	82.31
256.357	72.31
256.59	87.31
256.823	79.31
257.056	93.31
257.289	94.31
257.521	89.31
257.754	93.31
257.987	85.31
258.22	78.31
258.452	85.31
258.685	77.31
258.918	79.31
259.151	70.31
259.383	86.31
259.616	69.31
259.849	91.31
260.081	79.31
260.314	79.31
260.547	85.31
260.779	70.31
261.012	96.31
261.244	95.31
261.477	77.31
261.71	86.31
261.942	101.31
262.175	121.31
262.407	87.31
262.64	85.31
262.872	83.31
263.105	81.31
263.337	86.31
263.57	82.31
263.802	74.31
264.035	97.31
264.267	66.31
264.499	78.31
264.732	73.31
264.964	77.31
265.197	83.31
265.429	82.31
265.661	95.31
265.894	76.31
266.126	81.31
266.358	75.31
266.591	92.31
266.823	66.31
267.055	78.31
267.287	90.31
267.52	73.31
267.752	79.31
267.984	94.31
268.216	75.31
268.448	89.31
268.681	82.31
268.913	80.31
269.145	78.31
269.377	81.31
269.609	74.31
269.841	81.31
270.073	87.31
270.306	87.31
270.538	82.31
270.77	82.31
271.002	90.31
271.234	73.31
271.466	101.31
271.698	85.31
271.93	85.31
272.162	88.31
272.394	85.31
272.626	79.31
272.858	84.31
273.09	71.31
273.322	84.31
273.553	92.31
273.785	78.31
274.017	92.31
274.249	99.31
274.481	78.31
274.713	75.31
274.945	82.31
275.176	66.31
275.408	94.31
275.64	81.31
275.872	75.31
276.104	85.31
276.335	65.31
276.567	97.31
276.799	88.31
277.031	97.31
277.262	97.31
277.494	83.31
277.726	99.31
277.957	72.31
278.189	92.31
278.421	89.31
278.652	87.31
278.884	71.31
279.115	82.31
279.347	78.31
279.579	77.31
279.81	90.31
280.042	74.31
280.273	95.31
280.505	84.31
280.736	80.31
280.968	86.31
281.199	102.31
281.431	94.31
281.662	81.31
281.894	78.31
282.125	87.31
282.356	101.31
282.588	100.31
282.819	99.31
283.051	95.31
283.282	99.31
283.513	89.31
283.745	70.31
283.976	82.31
284.207	84.31
284.439	83.31
284.67	96.31
284.901	86.31
285.132	75.31
285.364	93.31
285.595	70.31
285.826	89.31
286.057	80.31
286.288	86.31
286.52	87.31
286.751	89.31
286.982	90.31
287.213	78.31
287.444	75.31
287.675	85.31
287.906	75.31
288.138	90.31
288.369	79.31
288.6	75.31
288.831	74.31
289.062	98.31
289.293	80.31
289.524	65.31
289.755	82.31
289.986	78.31
290.217	84.31
290.448	99.31
290.679	96.31
290.91	84.31
291.141	90.31
291.371	76.31
291.602	100.31
291.833	86.31
292.064	85.31
292.295	82.31
292.526	93.31
292.757	84.31
292.987	81.31
293.218	88.31
293.449	77.31
293.68	84.31
293.91	79.31
294.141	102.31
294.372	84.31
294.603	73.31
294.833	84.31
295.064	82.31
295.295	83.31
295.525	82.31
295.756	88.31
295.987	108.31
296.217	133.31
296.448	110.31
296.679	81.31
296.909	82.31
297.14	85.31
297.37	92.31
297.601	100.31
297.831	87.31
298.062	89.31
298.292	77.31
298.523	84.31
298.753	90.31
298.984	82.31
299.214	93.31
299.445	96.31
299.675	88.31
299.905	100.31
300.136	78.31
300.366	77.31
300.597	84.31
300.827	90.31
301.057	90.31
301.288	109.31
301.518	97.31
301.748	97.31
301.979	100.31
302.209	95.31
302.439	74.31
302.669	82.31
302.9	99.31
303.13	82.31
303.36	99.31
303.59	94.31
303.82	98.31
304.051	86.31
304.281	105.31
304.511	97.31
304.741	77.31
304.971	87.31
305.201	89.31
305.431	110.31
305.661	91.31
305.891	87.31
306.121	79.31
306.352	93.31
306.582	113.31
306.812	97.31
307.042	85.31
307.272	84.31
307.502	86.31
307.731	87.31
307.961	90.31
308.191	81.31
308.421	85.31
308.651	86.31
308.881	93.31
309.111	91.31
309.341	105.31
309.571	90.31
309.8	102.31
310.03	103.31
310.26	85.31
310.49	93.31
310.72	103.31
310.949	101.31
311.179	104.31
311.409	94.31
311.639	99.31
311.868	89.31
312.098	95.31
312.328	102.31
312.557	87.31
312.787	99.31
313.017	103.31
313.246	99.31
313.476	95.31
313.706	92.31
313.935	85.31
314.165	101.31
314.394	85.31
314.624	97.31
314.853	97.31
315.083	89.31
315.312	93.31
315.542	96.31
315.771	101.31
316.001	99.31
316.23	98.31
316.46	87.31
316.689	88.31
316.919	90.31
317.148	70.31
317.377	93.31
317.607	81.31
317.836	91.31
318.065	93.31
318.295	95.31
318.524	86.31
318.753	81.31
318.983	88.31
319.212	99.31
319.441	97.31
319.67	105.31
319.9	91.31
320.129	85.31
320.358	93.31
320.587	80.31
320.816	98.31
321.046	93.31
321.275	89.31
321.504	89.31
321.733	94.31
321.962	89.31
322.191	89.31
322.42	94.31
322.649	114.31
322.878	116.31
323.108	116.31
323.337	119.31
323.566	127.31
323.795	126.31
324.024	163.31
324.253	285.31
324.482	618.31
324.71	1247.31
324.939	1599.31
325.168	618.31
325.397	209.31
325.626	137.31
325.855	120.31
326.084	107.31
326.313	114.31
326.542	138.31
326.77	190.31
326.999	357.31
327.228	705.31
327.457	1261.31
327.686	1005.31
327.914	280.31
328.143	178.31
328.372	145.31
328.6	113.31
328.829	116.31
329.058	113.31
329.287	122.31
329.515	99.31
329.744	101.31
329.972	95.31
330.201	131.31
330.43	162.31
330.658	128.31
330.887	126.31
331.115	113.31
331.344	101.31
331.572	106.31
331.801	101.31
332.03	104.31
332.258	102.31
332.486	81.31
332.715	89.31
332.943	93.31
333.172	99.31
333.4	94.31
333.629	115.31
333.857	99.31
334.085	116.31
334.314	136.31
334.542	201.31
334.771	197.31
334.999	122.31
335.227	100.31
335.455	86.31
335.684	101.31
335.912	99.31
336.14	100.31
336.369	98.31
336.597	98.31
336.825	98.31
337.053	96.31
337.281	84.31
337.51	101.31
337.738	93.31
337.966	90.31
338.194	78.31
338.422	97.31
338.65	91.31
338.878	80.31
339.106	91.31
339.334	96.31
339.562	85.31
339.79	89.31
340.018	97.31
340.246	92.31
340.474	97.31
340.702	101.31
340.93	84.31
341.158	85.31
341.386	91.31
341.614	86.31
341.842	96.31
342.07	79.31
342.298	89.31
342.526	100.31
342.754	67.31
342.981	96.31
343.209	94.31
343.437	99.31
343.665	90.31
343.893	103.31
344.12	92.31
344.348	78.31
344.576	94.31
344.804	81.31
345.031	86.31
345.259	107.31
345.487	93.31
345.714	86.31
345.942	95.31
346.17	93.31
346.397	82.31
346.625	90.31
346.853	97.31
347.08	92.31
347.308	100.31
347.535	89.31
347.763	100.31
347.99	85.31
348.218	99.31
348.445	98.31
348.673	83.31
348.9	95.31
349.128	91.31
349.355	83.31
349.583	85.31
349.81	85.31
350.037	82.31
350.265	107.31
350.492	101.31
350.72	89.31
350.947	87.31
351.174	103.31
351.402	106.31
351.629	101.31
351.856	100.31
352.083	80.31
352.311	103.31
352.538	111.31
352.765	98.31
352.992	117.31
353.22	123.31
353.447	94.31
353.674	102.31
353.901	102.31
354.128	96.31
354.355	96.31
354.583	114.31
354.81	98.31
355.037	99.31
355.264	100.31
355.491	96.31
355.718	84.31
355.945	96.31
356.172	101.31
356.399	103.31
356.626	103.31
356.853	92.31
357.08	96.31
357.307	101.31
357.534	93.31
357.761	97.31
357.988	100.31
358.215	103.31
358.441	107.31
358.668	118.31
358.895	98.31
359.122	96.31
359.349	100.31
359.576	101.31
359.802	97.31
360.029	106.31
360.256	96.31
360.483	80.31
360.709	84.31
360.936	86.31
361.163	96.31
361.39	98.31
361.616	83.31
361.843	85.31
362.07	71.31
362.296	102.31
362.523	85.31
362.749	78.31
362.976	93.31
363.203	98.31
363.429	91.31
363.656	98.31
363.882	89.31
364.109	92.31
364.335	81.31
364.562	78.31
364.788	86.31
365.015	91.31
365.241	85.31
365.468	100.31
365.694	112.31
365.92	90.31
366.147	83.31
366.373	85.31
366.599	77.31
366.826	100.31
367.052	71.31
367.278	86.31
367.505	96.31
367.731	91.31
367.957	98.31
368.184	88.31
368.41	101.31
368.636	94.31
368.862	104.31
369.089	104.31
369.315	95.31
369.541	85.31
369.767	94.31
369.993	68.31
370.219	92.31
370.445	79.31
370.672	80.31
370.898	84.31
371.124	85.31
371.35	91.31
371.576	82.31
371.802	79.31
372.028	75.31
372.254	95.31
372.48	81.31
372.706	74.31
372.932	89.31
373.158	82.31
373.384	91.31
373.61	97.31
373.835	103.31
374.061	83.31
374.287	98.31
374.513	77.31
374.739	89.31
374.965	90.31
375.191	83.31
375.416	97.31
375.642	99.31
375.868	82.31
376.094	95.31
376.319	90.31
376.545	92.31
376.771	100.31
376.997	105.31
377.222	94.31
377.448	75.31
377.674	113.31
377.899	98.31
378.125	99.31
378.35	81.31
378.576	102.31
378.802	102.31
379.027	103.31
379.253	93.31
379.478	91.31
379.704	112.31
379.929	105.31
380.155	100.31
380.38	107.31
380.606	113.31
380.831	103.31
381.057	111.31
381.282	119.31
381.507	110.31
381.733	124.31
381.958	129.31
382.184	122.31
382.409	116.31
382.634	134.31
382.86	139.31
383.085	142.31
383.31	137.31
383.535	126.31
383.761	117.31
383.986	126.31
384.211	123.31
384.436	146.31
384.662	123.31
384.887	145.31
385.112	157.31
385.337	160.31
385.562	143.31
385.787	131.31
386.013	162.31
386.238	169.31
386.463	131.31
386.688	154.31
386.913	154.31
387.138	157.31
387.363	131.31
387.588	119.31
387.813	125.31
388.038	159.31
388.263	181.31
388.488	180.31
388.713	121.31
388.938	89.31
389.163	102.31
389.387	105.31
389.612	98.31
389.837	80.31
390.062	93.31
390.287	88.31
390.512	90.31
390.736	92.31
390.961	76.31
391.186	89.31
391.411	109.31
391.636	85.31
391.86	83.31
392.085	93.31
392.31	79.31
392.534	87.31
392.759	92.31
392.984	78.31
393.208	88.31
393.433	94.31
393.658	93.31
393.882	95.31
394.107	92.31
394.331	97.31
394.556	89.31
394.78	91.31
395.005	90.31
395.229	89.31
395.454	82.31
395.678	90.31
395.903	74.31
396.127	85.31
396.352	80.31
396.576	74.31
396.801	101.31
397.025	100.31
397.249	92.31
397.474	81.31
397.698	91.31
397.922	89.31
398.147	93.31
398.371	91.31
398.595	70.31
398.82	88.31
399.044	105.31
399.268	75.31
399.492	84.31
399.717	89.31
399.941	76.31
400.165	82.31
400.389	92.31
400.613	77.31
400.837	98.31
401.062	81.31
401.286	97.31
401.51	83.31
401.734	98.31
401.958	94.31
402.182	123.31
402.406	131.31
402.63	106.31
402.854	109.31
403.078	101.31
403.302	80.31
403.526	85.31
403.75	78.31
403.974	85.31
404.198	88.31
404.422	91.31
404.645	94.31
404.869	81.31
405.093	102.31
405.317	93.31
405.541	107.31
405.765	91.31
405.988	95.31
406.212	130.31
406.436	190.31
406.66	118.31
406.883	91.31
407.107	88.31
407.331	118.31
407.555	101.31
407.778	98.31
408.002	82.31
408.226	91.31
408.449	95.31
408.673	79.31
408.896	86.31
409.12	94.31
409.344	98.31
409.567	76.31
409.791	89.31
410.014	85.31
410.238	89.31
410.461	87.31
410.685	85.31
410.908	87.31
411.132	93.31
411.355	97.31
411.578	95.31
411.802	94.31
412.025	98.31
412.249	97.31
412.472	96.31
412.695	100.31
412.919	99.31
413.142	103.31
413.365	95.31
413.589	67.31
413.812	84.31
414.035	81.31
414.258	100.31
414.482	86.31
414.705	103.31
414.928	89.31
415.151	103.31
415.374	92.31
415.597	93.31
415.821	109.31
416.044	79.31
416.267	94.31
416.49	87.31
416.713	100.31
416.936	98.31
417.159	89.31
417.382	91.31
417.605	96.31
417.828	99.31
418.051	108.31
418.274	83.31
418.497	92.31
418.72	91.31
418.943	98.31
419.166	93.31
419.389	79.31
419.611	93.31
419.834	85.31
420.057	94.31
420.28	102.31
420.503	95.31
420.726	91.31
420.948	86.31
421.171	95.31
421.394	96.31
421.617	93.31
421.839	77.31
422.062	99.31
422.285	85.31
422.507	76.31
422.73	104.31
422.953	90.31
423.175	93.31
423.398	90.31
423.621	67.31
423.843	94.31
424.066	82.31
424.288	90.31
424.511	88.31
424.733	91.31
424.956	91.31
425.178	73.31
425.401	99.31
425.623	110.31
425.846	91.31
426.068	92.31
426.291	90.31
426.513	83.31
426.735	84.31
426.958	78.31
427.18	102.31
427.402	113.31
427.625	131.31
427.847	117.31
428.069	109.31
428.292	94.31
428.514	70.31
428.736	87.31
428.958	95.31
429.181	89.31
429.403	99.31
429.625	87.31
429.847	93.31
430.069	87.31
430.292	83.31
430.514	72.31
430.736	99.31
430.958	94.31
431.18	69.31
431.402	83.31
431.624	74.31
431.846	91.31
432.068	77.31
432.29	89.31
432.512	78.31
432.734	90.31
432.956	98.31
433.178	86.31
433.4	95.31
433.622	108.31
433.844	74.31
434.066	105.31
434.287	83.31
434.509	82.31
434.731	73.31
434.953	86.31
435.175	84.31
435.397	99.31
435.618	92.31
435.84	93.31
436.062	99.31
436.284	110.31
436.505	116.31
436.727	113.31
436.949	91.31
437.17	73.31
437.392	83.31
437.614	102.31
437.835	83.31
438.057	96.31
438.278	99.31
438.5	112.31
438.721	115.31
438.943	104.31
439.165	74.31
439.386	91.31
439.608	83.31
439.829	83.31
440.05	123.31
440.272	100.31
440.493	101.31
440.715	75.31
440.936	100.31
441.158	79.31
441.379	102.31
441.6	98.31
441.822	97.31
442.043	81.31
442.264	96.31
442.486	104.31
442.707	82.31
442.928	96.31
443.149	96.31
443.371	111.31
443.592	94.31
443.813	95.31
444.034	96.31
444.255	97.31
444.476	80.31
444.698	91.31
444.919	96.31
445.14	116.31
445.361	103.31
445.582	116.31
445.803	113.31
446.024	116.31
446.245	116.31
446.466	107.31
446.687	96.31
446.908	97.31
447.129	76.31
447.35	93.31
447.571	84.31
447.792	89.31
448.013	102.31
448.234	104.31
448.455	82.31
448.675	113.31
448.896	102.31
449.117	100.31
449.338	89.31
449.559	106.31
449.779	131.31
450	93.31
450.221	96.31
450.442	100.31
450.662	78.31
450.883	92.31
451.104	109.31
451.324	93.31
451.545	87.31
451.766	93.31
451.986	87.31
452.207	98.31
452.428	84.31
452.648	100.31
452.869	102.31
453.089	107.31
453.31	89.31
453.53	94.31
453.751	101.31
453.971	93.31
454.192	98.31
454.412	85.31
454.633	95.31
454.853	79.31
455.073	84.31
455.294	87.31
455.514	90.31
455.734	94.31
455.955	71.31
456.175	87.31
456.395	97.31
456.616	83.31
456.836	81.31
457.056	82.31
457.276	87.31
457.497	89.31
457.717	71.31
457.937	89.31
458.157	83.31
458.377	91.31
458.598	79.31
458.818	141.31
459.038	132.31
459.258	105.31
459.478	98.31
459.698	90.31
459.918	85.31
460.138	88.31
460.358	65.31
460.578	84.31
460.798	86.31
461.018	81.31
461.238	81.31
461.458	85.31
461.678	79.31
461.898	79.31
462.118	79.31
462.338	91.31
462.558	84.31
462.777	85.31
462.997	87.31
463.217	91.31
463.437	92.31
463.657	86.31
463.876	79.31
464.096	85.31
464.316	82.31
464.536	93.31
464.755	86.31
464.975	90.31
465.195	133.31
465.414	134.31
465.634	94.31
465.854	76.31
466.073	70.31
466.293	95.31
466.512	84.31
466.732	90.31
466.951	96.31
467.171	97.31
467.391	93.31
467.61	101.31
467.829	95.31
468.049	111.31
468.268	126.31
468.488	92.31
468.707	82.31
468.927	70.31
469.146	80.31
469.365	74.31
469.585	92.31
469.804	85.31
470.023	87.31
470.243	92.31
470.462	98.31
470.681	85.31
470.901	98.31
471.12	81.31
471.339	82.31
471.558	70.31
471.777	87.31
471.997	99.31
472.216	154.31
472.435	228.31
472.654	114.31
472.873	89.31
473.092	95.31
473.311	93.31
473.53	80.31
473.749	86.31
473.968	95.31
474.187	106.31
474.406	89.31
474.625	74.31
474.844	83.31
475.063	93.31
475.282	86.31
475.501	82.31
475.72	85.31
475.939	97.31
476.158	92.31
476.377	81.31
476.596	77.31
476.814	98.31
477.033	94.31
477.252	111.31
477.471	82.31
477.69	90.31
477.908	96.31
478.127	91.31
478.346	100.31
478.564	90.31
478.783	112.31
479.002	107.31
479.22	78.31
479.439	83.31
479.658	78.31
479.876	86.31
480.095	81.31
480.313	88.31
480.532	92.31
480.751	94.31
480.969	161.31
481.188	337.31
481.406	250.31
481.624	97.31
481.843	76.31
482.061	77.31
482.28	93.31
482.498	94.31
482.717	86.31
482.935	105.31
483.153	82.31
483.372	63.31
483.59	78.31
483.808	77.31
484.027	94.31
484.245	95.31
484.463	85.31
484.681	94.31
484.9	82.31
485.118	96.31
485.336	94.31
485.554	94.31
485.772	98.31
485.99	107.31
486.209	117.31
486.427	105.31
486.645	114.31
486.863	107.31
487.081	108.31
487.299	106.31
487.517	102.31
487.735	86.31
487.953	105.31
488.171	101.31
488.389	99.31
488.607	85.31
488.825	84.31
489.043	84.31
489.261	91.31
489.479	75.31
489.696	97.31
489.914	85.31
490.132	82.31
490.35	91.31
490.568	86.31
490.786	90.31
491.003	104.31
491.221	93.31
491.439	85.31
491.657	86.31
491.874	88.31
492.092	94.31
492.31	96.31
492.527	94.31
492.745	87.31
492.963	82.31
493.18	91.31
493.398	102.31
493.615	103.31
493.833	83.31
494.05	109.31
494.268	97.31
494.485	98.31
494.703	83.31
494.92	90.31
495.138	99.31
495.355	95.31
495.573	90.31
495.79	103.31
496.008	95.31
496.225	89.31
496.442	95.31
496.66	97.31
496.877	90.31
497.094	99.31
497.312	99.31
497.529	84.31
497.746	84.31
497.963	74.31
498.181	97.31
498.398	99.31
498.615	99.31
498.832	111.31
499.049	96.31
499.267	85.31
499.484	79.31
499.701	86.31
499.918	93.31
500.135	94.31
500.352	94.31
500.569	67.31
500.786	88.31
501.003	98.31
501.22	86.31
501.437	101.31
501.654	85.31
501.871	106.31
502.088	86.31
502.305	96.31
502.522	82.31
502.739	85.31
502.956	94.31
503.172	83.31
503.389	84.31
503.606	115.31
503.823	87.31
504.04	92.31
504.256	92.31
504.473	97.31
504.69	89.31
504.907	98.31
505.123	92.31
505.34	79.31
505.557	93.31
505.773	85.31
505.99	82.31
506.207	85.31
506.423	103.31
506.64	85.31
506.856	84.31
507.073	95.31
507.289	98.31
507.506	99.31
507.722	95.31
507.939	93.31
508.155	93.31
508.372	93.31
508.588	108.31
508.805	98.31
509.021	100.31
509.238	81.31
509.454	86.31
509.67	93.31
509.887	97.31
510.103	113.31
510.319	180.31
510.536	563.31
510.752	1670.31
510.968	489.31
511.184	117.31
511.401	97.31
511.617	90.31
511.833	90.31
512.049	91.31
512.265	80.31
512.481	88.31
512.698	86.31
512.914	86.31
513.13	98.31
513.346	87.31
513.562	84.31
513.778	84.31
513.994	83.31
514.21	101.31
514.426	106.31
514.642	113.31
514.858	103.31
515.074	139.31
515.29	309.31
515.506	974.31
515.721	375.31
515.937	127.31
