Data from Circ_1990_H10_HRD10591_00035.txt Node
Date: Wed Jan 03 11:55:11 EST 2024
User: Yrep
Spectrometer: HR+D1059
Trigger mode: 1
Integration Time (sec): 1.000000E-1
Scans to average: 1
Electric dark correction enabled: true
Nonlinearity correction enabled: false
Boxcar width: 0
XAxis mode: Wavelengths
Number of Pixels in Spectrum: 2048
>>>>>Begin Spectral Data<<<<<
223.165	-18.44
223.4	-18.44
223.635	-18.44
223.869	-27.44
224.104	-32.44
224.338	-32.44
224.573	-9.44
224.808	-19.44
225.042	2.56
225.277	8.56
225.511	-11.44
225.746	2.56
225.98	15.56
226.215	16.56
226.449	16.56
226.683	17.56
226.918	38.56
227.152	32.56
227.387	34.56
227.621	32.56
227.856	56.56
228.09	51.56
228.324	54.56
228.559	74.56
228.793	50.56
229.027	66.56
229.262	62.56
229.496	75.56
229.73	80.56
229.964	66.56
230.199	57.56
230.433	59.56
230.667	69.56
230.901	82.56
231.136	79.56
231.37	76.56
231.604	75.56
231.838	79.56
232.072	86.56
232.306	75.56
232.541	67.56
232.775	85.56
233.009	93.56
233.243	74.56
233.477	82.56
233.711	85.56
233.945	82.56
234.179	85.56
234.413	69.56
234.647	80.56
234.881	84.56
235.115	82.56
235.349	83.56
235.583	79.56
235.817	80.56
236.051	91.56
236.285	71.56
236.519	77.56
236.753	88.56
236.987	78.56
237.221	98.56
237.455	80.56
237.689	82.56
237.922	85.56
238.156	80.56
238.39	76.56
238.624	71.56
238.858	68.56
239.091	61.56
239.325	78.56
239.559	81.56
239.793	80.56
240.027	69.56
240.26	63.56
240.494	73.56
240.728	70.56
240.961	67.56
241.195	75.56
241.429	79.56
241.662	76.56
241.896	79.56
242.13	79.56
242.363	85.56
242.597	83.56
242.83	83.56
243.064	77.56
243.298	87.56
243.531	79.56
243.765	66.56
243.998	80.56
244.232	77.56
244.465	86.56
244.699	84.56
244.932	72.56
245.166	74.56
245.399	91.56
245.633	90.56
245.866	64.56
246.099	67.56
246.333	80.56
246.566	66.56
246.8	74.56
247.033	60.56
247.266	71.56
247.5	79.56
247.733	93.56
247.966	87.56
248.2	87.56
248.433	82.56
248.666	68.56
248.899	82.56
249.133	85.56
249.366	91.56
249.599	74.56
249.832	86.56
250.066	84.56
250.299	77.56
250.532	86.56
250.765	78.56
250.998	78.56
251.231	77.56
251.465	86.56
251.698	84.56
251.931	86.56
252.164	74.56
252.397	83.56
252.63	94.56
252.863	79.56
253.096	76.56
253.329	69.56
253.562	79.56
253.795	80.56
254.028	96.56
254.261	74.56
254.494	90.56
254.727	79.56
254.96	79.56
255.193	84.56
255.426	73.56
255.659	80.56
255.892	71.56
256.124	84.56
256.357	69.56
256.59	76.56
256.823	84.56
257.056	72.56
257.289	75.56
257.521	86.56
257.754	90.56
257.987	77.56
258.22	83.56
258.452	70.56
258.685	87.56
258.918	94.56
259.151	84.56
259.383	65.56
259.616	81.56
259.849	88.56
260.081	86.56
260.314	84.56
260.547	80.56
260.779	96.56
261.012	83.56
261.244	85.56
261.477	91.56
261.71	111.56
261.942	101.56
262.175	97.56
262.407	86.56
262.64	83.56
262.872	87.56
263.105	77.56
263.337	75.56
263.57	88.56
263.802	85.56
264.035	84.56
264.267	92.56
264.499	78.56
264.732	77.56
264.964	88.56
265.197	86.56
265.429	58.56
265.661	91.56
265.894	80.56
266.126	86.56
266.358	75.56
266.591	92.56
266.823	83.56
267.055	92.56
267.287	76.56
267.52	77.56
267.752	99.56
267.984	80.56
268.216	73.56
268.448	81.56
268.681	93.56
268.913	82.56
269.145	80.56
269.377	80.56
269.609	75.56
269.841	80.56
270.073	85.56
270.306	82.56
270.538	84.56
270.77	68.56
271.002	82.56
271.234	75.56
271.466	75.56
271.698	79.56
271.93	89.56
272.162	72.56
272.394	82.56
272.626	83.56
272.858	82.56
273.09	96.56
273.322	82.56
273.553	72.56
273.785	83.56
274.017	85.56
274.249	72.56
274.481	86.56
274.713	82.56
274.945	76.56
275.176	86.56
275.408	81.56
275.64	90.56
275.872	101.56
276.104	88.56
276.335	81.56
276.567	99.56
276.799	108.56
277.031	93.56
277.262	94.56
277.494	98.56
277.726	82.56
277.957	84.56
278.189	79.56
278.421	79.56
278.652	76.56
278.884	84.56
279.115	85.56
279.347	75.56
279.579	92.56
279.81	81.56
280.042	100.56
280.273	97.56
280.505	99.56
280.736	79.56
280.968	81.56
281.199	87.56
281.431	83.56
281.662	85.56
281.894	83.56
282.125	96.56
282.356	106.56
282.588	116.56
282.819	99.56
283.051	90.56
283.282	87.56
283.513	101.56
283.745	79.56
283.976	86.56
284.207	92.56
284.439	88.56
284.67	98.56
284.901	80.56
285.132	67.56
285.364	88.56
285.595	79.56
285.826	77.56
286.057	96.56
286.288	84.56
286.52	93.56
286.751	85.56
286.982	69.56
287.213	71.56
287.444	87.56
287.675	93.56
287.906	86.56
288.138	89.56
288.369	84.56
288.6	94.56
288.831	90.56
289.062	91.56
289.293	84.56
289.524	86.56
289.755	78.56
289.986	80.56
290.217	98.56
290.448	90.56
290.679	91.56
290.91	88.56
291.141	84.56
291.371	100.56
291.602	95.56
291.833	83.56
292.064	93.56
292.295	82.56
292.526	84.56
292.757	94.56
292.987	98.56
293.218	97.56
293.449	88.56
293.68	95.56
293.91	94.56
294.141	90.56
294.372	84.56
294.603	85.56
294.833	82.56
295.064	95.56
295.295	91.56
295.525	85.56
295.756	99.56
295.987	105.56
296.217	131.56
296.448	107.56
296.679	86.56
296.909	82.56
297.14	87.56
297.37	98.56
297.601	88.56
297.831	85.56
298.062	76.56
298.292	76.56
298.523	82.56
298.753	83.56
298.984	99.56
299.214	85.56
299.445	83.56
299.675	90.56
299.905	95.56
300.136	85.56
300.366	96.56
300.597	72.56
300.827	84.56
301.057	105.56
301.288	85.56
301.518	89.56
301.748	81.56
301.979	95.56
302.209	102.56
302.439	87.56
302.669	88.56
302.9	83.56
303.13	93.56
303.36	85.56
303.59	89.56
303.82	96.56
304.051	70.56
304.281	79.56
304.511	84.56
304.741	74.56
304.971	88.56
305.201	86.56
305.431	84.56
305.661	81.56
305.891	70.56
306.121	95.56
306.352	98.56
306.582	103.56
306.812	89.56
307.042	92.56
307.272	85.56
307.502	102.56
307.731	106.56
307.961	92.56
308.191	89.56
308.421	71.56
308.651	96.56
308.881	93.56
309.111	92.56
309.341	97.56
309.571	90.56
309.8	90.56
310.03	97.56
310.26	90.56
310.49	96.56
310.72	88.56
310.949	102.56
311.179	99.56
311.409	98.56
311.639	103.56
311.868	95.56
312.098	86.56
312.328	93.56
312.557	100.56
312.787	89.56
313.017	96.56
313.246	93.56
313.476	79.56
313.706	93.56
313.935	89.56
314.165	80.56
314.394	99.56
314.624	83.56
314.853	95.56
315.083	94.56
315.312	99.56
315.542	90.56
315.771	84.56
316.001	105.56
316.23	95.56
316.46	80.56
316.689	95.56
316.919	98.56
317.148	83.56
317.377	90.56
317.607	91.56
317.836	96.56
318.065	88.56
318.295	82.56
318.524	81.56
318.753	97.56
318.983	85.56
319.212	110.56
319.441	98.56
319.67	90.56
319.9	90.56
320.129	95.56
320.358	97.56
320.587	83.56
320.816	103.56
321.046	108.56
321.275	86.56
321.504	85.56
321.733	83.56
321.962	92.56
322.191	98.56
322.42	108.56
322.649	98.56
322.878	95.56
323.108	97.56
323.337	115.56
323.566	119.56
323.795	130.56
324.024	168.56
324.253	324.56
324.482	673.56
324.71	1335.56
324.939	1804.56
325.168	678.56
325.397	228.56
325.626	147.56
325.855	114.56
326.084	111.56
326.313	128.56
326.542	135.56
326.77	208.56
326.999	385.56
327.228	771.56
327.457	1392.56
327.686	1106.56
327.914	312.56
328.143	204.56
328.372	198.56
328.6	148.56
328.829	131.56
329.058	102.56
329.287	110.56
329.515	116.56
329.744	125.56
329.972	168.56
330.201	231.56
330.43	290.56
330.658	182.56
330.887	132.56
331.115	116.56
331.344	92.56
331.572	88.56
331.801	88.56
332.03	120.56
332.258	92.56
332.486	86.56
332.715	89.56
332.943	85.56
333.172	98.56
333.4	104.56
333.629	123.56
333.857	108.56
334.085	141.56
334.314	238.56
334.542	334.56
334.771	343.56
334.999	125.56
335.227	108.56
335.455	90.56
335.684	100.56
335.912	92.56
336.14	78.56
336.369	94.56
336.597	93.56
336.825	97.56
337.053	90.56
337.281	100.56
337.51	98.56
337.738	84.56
337.966	91.56
338.194	92.56
338.422	85.56
338.65	83.56
338.878	96.56
339.106	89.56
339.334	100.56
339.562	88.56
339.79	105.56
340.018	82.56
340.246	84.56
340.474	85.56
340.702	92.56
340.93	90.56
341.158	86.56
341.386	91.56
341.614	107.56
341.842	101.56
342.07	87.56
342.298	76.56
342.526	96.56
342.754	85.56
342.981	96.56
343.209	99.56
343.437	100.56
343.665	103.56
343.893	91.56
344.12	98.56
344.348	89.56
344.576	91.56
344.804	96.56
345.031	106.56
345.259	94.56
345.487	83.56
345.714	80.56
345.942	89.56
346.17	91.56
346.397	90.56
346.625	95.56
346.853	74.56
347.08	92.56
347.308	90.56
347.535	87.56
347.763	100.56
347.99	86.56
348.218	95.56
348.445	91.56
348.673	99.56
348.9	86.56
349.128	99.56
349.355	86.56
349.583	84.56
349.81	98.56
350.037	93.56
350.265	98.56
350.492	88.56
350.72	105.56
350.947	94.56
351.174	112.56
351.402	98.56
351.629	104.56
351.856	104.56
352.083	92.56
352.311	98.56
352.538	109.56
352.765	107.56
352.992	111.56
353.22	106.56
353.447	100.56
353.674	100.56
353.901	103.56
354.128	97.56
354.355	96.56
354.583	97.56
354.81	110.56
355.037	91.56
355.264	90.56
355.491	85.56
355.718	90.56
355.945	93.56
356.172	102.56
356.399	97.56
356.626	90.56
356.853	104.56
357.08	81.56
357.307	93.56
357.534	97.56
357.761	94.56
357.988	89.56
358.215	86.56
358.441	81.56
358.668	90.56
358.895	93.56
359.122	95.56
359.349	76.56
359.576	92.56
359.802	77.56
360.029	106.56
360.256	98.56
360.483	93.56
360.709	80.56
360.936	94.56
361.163	94.56
361.39	95.56
361.616	83.56
361.843	106.56
362.07	96.56
362.296	82.56
362.523	96.56
362.749	91.56
362.976	100.56
363.203	76.56
363.429	93.56
363.656	90.56
363.882	93.56
364.109	80.56
364.335	97.56
364.562	81.56
364.788	85.56
365.015	90.56
365.241	89.56
365.468	114.56
365.694	98.56
365.92	79.56
366.147	85.56
366.373	115.56
366.599	94.56
366.826	108.56
367.052	96.56
367.278	91.56
367.505	78.56
367.731	90.56
367.957	99.56
368.184	83.56
368.41	112.56
368.636	95.56
368.862	93.56
369.089	101.56
369.315	83.56
369.541	91.56
369.767	95.56
369.993	103.56
370.219	83.56
370.445	89.56
370.672	96.56
370.898	83.56
371.124	93.56
371.35	80.56
371.576	95.56
371.802	79.56
372.028	82.56
372.254	90.56
372.48	74.56
372.706	86.56
372.932	95.56
373.158	96.56
373.384	83.56
373.61	89.56
373.835	79.56
374.061	95.56
374.287	90.56
374.513	93.56
374.739	103.56
374.965	90.56
375.191	91.56
375.416	90.56
375.642	90.56
375.868	97.56
376.094	93.56
376.319	83.56
376.545	94.56
376.771	91.56
376.997	95.56
377.222	102.56
377.448	99.56
377.674	88.56
377.899	99.56
378.125	86.56
378.35	91.56
378.576	104.56
378.802	94.56
379.027	99.56
379.253	86.56
379.478	102.56
379.704	93.56
379.929	87.56
380.155	91.56
380.38	97.56
380.606	105.56
380.831	104.56
381.057	107.56
381.282	101.56
381.507	104.56
381.733	99.56
381.958	107.56
382.184	108.56
382.409	104.56
382.634	106.56
382.86	116.56
383.085	104.56
383.31	109.56
383.535	102.56
383.761	115.56
383.986	99.56
384.211	109.56
384.436	106.56
384.662	109.56
384.887	116.56
385.112	111.56
385.337	114.56
385.562	125.56
385.787	106.56
386.013	122.56
386.238	103.56
386.463	118.56
386.688	107.56
386.913	123.56
387.138	128.56
387.363	114.56
387.588	116.56
387.813	108.56
388.038	104.56
388.263	122.56
388.488	121.56
388.713	99.56
388.938	86.56
389.163	88.56
389.387	86.56
389.612	92.56
389.837	90.56
390.062	95.56
390.287	88.56
390.512	83.56
390.736	86.56
390.961	98.56
391.186	87.56
391.411	99.56
391.636	102.56
391.86	96.56
392.085	85.56
392.31	98.56
392.534	94.56
392.759	84.56
392.984	83.56
393.208	88.56
393.433	92.56
393.658	86.56
393.882	71.56
394.107	84.56
394.331	75.56
394.556	84.56
394.78	88.56
395.005	95.56
395.229	72.56
395.454	94.56
395.678	80.56
395.903	87.56
396.127	82.56
396.352	78.56
396.576	89.56
396.801	81.56
397.025	92.56
397.249	86.56
397.474	63.56
397.698	67.56
397.922	99.56
398.147	86.56
398.371	72.56
398.595	93.56
398.82	80.56
399.044	80.56
399.268	94.56
399.492	99.56
399.717	89.56
399.941	89.56
400.165	94.56
400.389	84.56
400.613	89.56
400.837	94.56
401.062	89.56
401.286	99.56
401.51	95.56
401.734	84.56
401.958	92.56
402.182	127.56
402.406	135.56
402.63	130.56
402.854	88.56
403.078	79.56
403.302	78.56
403.526	90.56
403.75	103.56
403.974	99.56
404.198	84.56
404.422	75.56
404.645	93.56
404.869	93.56
405.093	107.56
405.317	117.56
405.541	102.56
405.765	102.56
405.988	104.56
406.212	143.56
406.436	184.56
406.66	128.56
406.883	95.56
407.107	99.56
407.331	92.56
407.555	105.56
407.778	97.56
408.002	83.56
408.226	95.56
408.449	71.56
408.673	99.56
408.896	88.56
409.12	89.56
409.344	94.56
409.567	94.56
409.791	98.56
410.014	102.56
410.238	90.56
410.461	94.56
410.685	93.56
410.908	96.56
411.132	102.56
411.355	84.56
411.578	83.56
411.802	92.56
412.025	89.56
412.249	94.56
412.472	99.56
412.695	114.56
412.919	80.56
413.142	95.56
413.365	108.56
413.589	94.56
413.812	98.56
414.035	104.56
414.258	96.56
414.482	92.56
414.705	100.56
414.928	80.56
415.151	103.56
415.374	101.56
415.597	90.56
415.821	88.56
416.044	87.56
416.267	80.56
416.49	90.56
416.713	108.56
416.936	111.56
417.159	99.56
417.382	92.56
417.605	74.56
417.828	97.56
418.051	97.56
418.274	89.56
418.497	78.56
418.72	84.56
418.943	78.56
419.166	81.56
419.389	87.56
419.611	83.56
419.834	79.56
420.057	84.56
420.28	91.56
420.503	77.56
420.726	92.56
420.948	86.56
421.171	91.56
421.394	94.56
421.617	90.56
421.839	88.56
422.062	101.56
422.285	92.56
422.507	94.56
422.73	100.56
422.953	92.56
423.175	88.56
423.398	75.56
423.621	91.56
423.843	91.56
424.066	91.56
424.288	93.56
424.511	99.56
424.733	84.56
424.956	102.56
425.178	97.56
425.401	95.56
425.623	94.56
425.846	88.56
426.068	99.56
426.291	90.56
426.513	79.56
426.735	103.56
426.958	109.56
427.18	99.56
427.402	113.56
427.625	135.56
427.847	126.56
428.069	135.56
428.292	93.56
428.514	80.56
428.736	78.56
428.958	82.56
429.181	88.56
429.403	78.56
429.625	96.56
429.847	94.56
430.069	91.56
430.292	86.56
430.514	86.56
430.736	81.56
430.958	74.56
431.18	86.56
431.402	86.56
431.624	100.56
431.846	96.56
432.068	94.56
432.29	95.56
432.512	81.56
432.734	81.56
432.956	89.56
433.178	94.56
433.4	89.56
433.622	102.56
433.844	102.56
434.066	96.56
434.287	78.56
434.509	98.56
434.731	86.56
434.953	75.56
435.175	92.56
435.397	84.56
435.618	99.56
435.84	118.56
436.062	110.56
436.284	100.56
436.505	106.56
436.727	110.56
436.949	77.56
437.17	98.56
437.392	74.56
437.614	84.56
437.835	98.56
438.057	104.56
438.278	103.56
438.5	93.56
438.721	113.56
438.943	104.56
439.165	91.56
439.386	79.56
439.608	94.56
439.829	80.56
440.05	95.56
440.272	117.56
440.493	95.56
440.715	82.56
440.936	82.56
441.158	91.56
441.379	75.56
441.6	94.56
441.822	105.56
442.043	87.56
442.264	96.56
442.486	95.56
442.707	83.56
442.928	96.56
443.149	111.56
443.371	112.56
443.592	88.56
443.813	98.56
444.034	105.56
444.255	91.56
444.476	103.56
444.698	86.56
444.919	90.56
445.14	141.56
445.361	120.56
445.582	113.56
445.803	119.56
446.024	125.56
446.245	128.56
446.466	98.56
446.687	86.56
446.908	83.56
447.129	79.56
447.35	87.56
447.571	97.56
447.792	91.56
448.013	102.56
448.234	103.56
448.455	101.56
448.675	100.56
448.896	104.56
449.117	98.56
449.338	101.56
449.559	116.56
449.779	110.56
450	86.56
450.221	87.56
450.442	91.56
450.662	86.56
450.883	97.56
451.104	94.56
451.324	86.56
451.545	75.56
451.766	82.56
451.986	83.56
452.207	82.56
452.428	81.56
452.648	101.56
452.869	104.56
453.089	91.56
453.31	110.56
453.53	86.56
453.751	86.56
453.971	100.56
454.192	94.56
454.412	101.56
454.633	94.56
454.853	85.56
455.073	86.56
455.294	67.56
455.514	83.56
455.734	79.56
455.955	83.56
456.175	80.56
456.395	89.56
456.616	78.56
456.836	81.56
457.056	83.56
457.276	89.56
457.497	86.56
457.717	82.56
457.937	71.56
458.157	74.56
458.377	86.56
458.598	99.56
458.818	141.56
459.038	134.56
459.258	105.56
459.478	86.56
459.698	82.56
459.918	85.56
460.138	77.56
460.358	68.56
460.578	92.56
460.798	92.56
461.018	80.56
461.238	82.56
461.458	91.56
461.678	65.56
461.898	74.56
462.118	87.56
462.338	78.56
462.558	85.56
462.777	86.56
462.997	85.56
463.217	81.56
463.437	81.56
463.657	75.56
463.876	93.56
464.096	77.56
464.316	79.56
464.536	94.56
464.755	98.56
464.975	101.56
465.195	153.56
465.414	142.56
465.634	79.56
465.854	94.56
466.073	94.56
466.293	82.56
466.512	84.56
466.732	92.56
466.951	94.56
467.171	90.56
467.391	88.56
467.61	96.56
467.829	108.56
468.049	159.56
468.268	211.56
468.488	114.56
468.707	89.56
468.927	88.56
469.146	92.56
469.365	93.56
469.585	93.56
469.804	88.56
470.023	94.56
470.243	89.56
470.462	93.56
470.681	114.56
470.901	98.56
471.12	97.56
471.339	79.56
471.558	99.56
471.777	112.56
471.997	131.56
472.216	262.56
472.435	470.56
472.654	170.56
472.873	88.56
473.092	88.56
473.311	83.56
473.53	75.56
473.749	92.56
473.968	90.56
474.187	93.56
474.406	80.56
474.625	100.56
474.844	76.56
475.063	92.56
475.282	80.56
475.501	87.56
475.72	90.56
475.939	79.56
476.158	90.56
476.377	84.56
476.596	78.56
476.814	78.56
477.033	93.56
477.252	90.56
477.471	74.56
477.69	83.56
477.908	66.56
478.127	96.56
478.346	86.56
478.564	87.56
478.783	98.56
479.002	94.56
479.22	89.56
479.439	95.56
479.658	107.56
479.876	112.56
480.095	98.56
480.313	103.56
480.532	118.56
480.751	116.56
480.969	248.56
481.188	787.56
481.406	499.56
481.624	125.56
481.843	90.56
482.061	98.56
482.28	95.56
482.498	86.56
482.717	84.56
482.935	91.56
483.153	83.56
483.372	100.56
483.59	79.56
483.808	85.56
484.027	95.56
484.245	87.56
484.463	91.56
484.681	116.56
484.9	103.56
485.118	85.56
485.336	96.56
485.554	96.56
485.772	108.56
485.99	106.56
486.209	107.56
486.427	97.56
486.645	112.56
486.863	120.56
487.081	92.56
487.299	96.56
487.517	93.56
487.735	90.56
487.953	95.56
488.171	105.56
488.389	110.56
488.607	93.56
488.825	76.56
489.043	83.56
489.261	91.56
489.479	89.56
489.696	106.56
489.914	88.56
490.132	88.56
490.35	90.56
490.568	84.56
490.786	89.56
491.003	83.56
491.221	93.56
491.439	94.56
491.657	107.56
491.874	88.56
492.092	93.56
492.31	90.56
492.527	92.56
492.745	90.56
492.963	85.56
493.18	86.56
493.398	82.56
493.615	103.56
493.833	95.56
494.05	82.56
494.268	74.56
494.485	93.56
494.703	87.56
494.92	92.56
495.138	85.56
495.355	96.56
495.573	90.56
495.79	93.56
496.008	93.56
496.225	94.56
496.442	83.56
496.66	101.56
496.877	90.56
497.094	84.56
497.312	104.56
497.529	100.56
497.746	93.56
497.963	80.56
498.181	95.56
498.398	90.56
498.615	100.56
498.832	94.56
499.049	99.56
499.267	94.56
499.484	93.56
499.701	84.56
499.918	84.56
500.135	88.56
500.352	93.56
500.569	78.56
500.786	96.56
501.003	108.56
501.22	104.56
501.437	95.56
501.654	99.56
501.871	99.56
502.088	69.56
502.305	71.56
502.522	95.56
502.739	91.56
502.956	81.56
503.172	104.56
503.389	90.56
503.606	96.56
503.823	93.56
504.04	95.56
504.256	96.56
504.473	85.56
504.69	91.56
504.907	86.56
505.123	89.56
505.34	98.56
505.557	101.56
505.773	87.56
505.99	77.56
506.207	77.56
506.423	88.56
506.64	102.56
506.856	95.56
507.073	92.56
507.289	90.56
507.506	95.56
507.722	96.56
507.939	106.56
508.155	88.56
508.372	97.56
508.588	74.56
508.805	98.56
509.021	90.56
509.238	83.56
509.454	82.56
509.67	101.56
509.887	106.56
510.103	135.56
510.319	182.56
510.536	606.56
510.752	1864.56
510.968	530.56
511.184	131.56
511.401	111.56
511.617	108.56
511.833	87.56
512.049	92.56
512.265	84.56
512.481	91.56
512.698	98.56
512.914	78.56
513.13	83.56
513.346	86.56
513.562	99.56
513.778	96.56
513.994	84.56
514.21	103.56
514.426	102.56
514.642	123.56
514.858	117.56
515.074	154.56
515.29	362.56
515.506	1129.56
515.721	437.56
515.937	132.56
516.153	109.56
