Data from Circ_1990_H10_HRD10591_00004.txt Node
Date: Wed Jan 03 11:55:04 EST 2024
User: Yrep
Spectrometer: HR+D1059
Trigger mode: 1
Integration Time (sec): 1.000000E-1
Scans to average: 1
Electric dark correction enabled: true
Nonlinearity correction enabled: false
Boxcar width: 0
XAxis mode: Wavelengths
Number of Pixels in Spectrum: 2048
>>>>>Begin Spectral Data<<<<<
223.165	-29.19
223.4	-29.19
223.635	-29.19
223.869	-15.19
224.104	-15.19
224.338	-23.19
224.573	-21.19
224.808	-10.19
225.042	-13.19
225.277	3.81
225.511	-1.19
225.746	18.81
225.98	11.81
226.215	4.81
226.449	21.81
226.683	17.81
226.918	20.81
227.152	28.81
227.387	40.81
227.621	39.81
227.856	38.81
228.09	56.81
228.324	54.81
228.559	63.81
228.793	70.81
229.027	69.81
229.262	60.81
229.496	79.81
229.73	81.81
229.964	77.81
230.199	80.81
230.433	79.81
230.667	82.81
230.901	72.81
231.136	89.81
231.37	94.81
231.604	79.81
231.838	79.81
232.072	82.81
232.306	69.81
232.541	84.81
232.775	82.81
233.009	98.81
233.243	69.81
233.477	74.81
233.711	67.81
233.945	73.81
234.179	80.81
234.413	84.81
234.647	64.81
234.881	80.81
235.115	87.81
235.349	84.81
235.583	87.81
235.817	68.81
236.051	71.81
236.285	80.81
236.519	70.81
236.753	71.81
236.987	78.81
237.221	84.81
237.455	78.81
237.689	87.81
237.922	68.81
238.156	73.81
238.39	73.81
238.624	76.81
238.858	86.81
239.091	74.81
239.325	70.81
239.559	74.81
239.793	85.81
240.027	81.81
240.26	65.81
240.494	65.81
240.728	78.81
240.961	82.81
241.195	75.81
241.429	78.81
241.662	84.81
241.896	76.81
242.13	70.81
242.363	76.81
242.597	87.81
242.83	88.81
243.064	65.81
243.298	76.81
243.531	80.81
243.765	79.81
243.998	82.81
244.232	80.81
244.465	81.81
244.699	79.81
244.932	85.81
245.166	88.81
245.399	76.81
245.633	85.81
245.866	85.81
246.099	77.81
246.333	98.81
246.566	69.81
246.8	77.81
247.033	88.81
247.266	80.81
247.5	84.81
247.733	82.81
247.966	86.81
248.2	81.81
248.433	77.81
248.666	70.81
248.899	98.81
249.133	92.81
249.366	101.81
249.599	96.81
249.832	86.81
250.066	82.81
250.299	88.81
250.532	80.81
250.765	76.81
250.998	81.81
251.231	82.81
251.465	80.81
251.698	84.81
251.931	87.81
252.164	88.81
252.397	88.81
252.63	77.81
252.863	73.81
253.096	90.81
253.329	84.81
253.562	91.81
253.795	82.81
254.028	83.81
254.261	87.81
254.494	83.81
254.727	81.81
254.96	68.81
255.193	69.81
255.426	81.81
255.659	76.81
255.892	80.81
256.124	90.81
256.357	92.81
256.59	84.81
256.823	73.81
257.056	99.81
257.289	86.81
257.521	75.81
257.754	84.81
257.987	70.81
258.22	83.81
258.452	73.81
258.685	80.81
258.918	91.81
259.151	88.81
259.383	78.81
259.616	94.81
259.849	83.81
260.081	74.81
260.314	73.81
260.547	75.81
260.779	78.81
261.012	86.81
261.244	87.81
261.477	87.81
261.71	83.81
261.942	96.81
262.175	118.81
262.407	92.81
262.64	75.81
262.872	73.81
263.105	80.81
263.337	95.81
263.57	83.81
263.802	85.81
264.035	99.81
264.267	96.81
264.499	74.81
264.732	94.81
264.964	95.81
265.197	89.81
265.429	71.81
265.661	70.81
265.894	89.81
266.126	83.81
266.358	99.81
266.591	90.81
266.823	81.81
267.055	78.81
267.287	79.81
267.52	91.81
267.752	90.81
267.984	81.81
268.216	84.81
268.448	76.81
268.681	73.81
268.913	81.81
269.145	82.81
269.377	85.81
269.609	83.81
269.841	70.81
270.073	76.81
270.306	88.81
270.538	76.81
270.77	67.81
271.002	85.81
271.234	78.81
271.466	87.81
271.698	84.81
271.93	90.81
272.162	82.81
272.394	90.81
272.626	82.81
272.858	76.81
273.09	81.81
273.322	87.81
273.553	84.81
273.785	84.81
274.017	92.81
274.249	100.81
274.481	82.81
274.713	87.81
274.945	80.81
275.176	80.81
275.408	79.81
275.64	93.81
275.872	80.81
276.104	96.81
276.335	77.81
276.567	105.81
276.799	102.81
277.031	105.81
277.262	109.81
277.494	97.81
277.726	81.81
277.957	80.81
278.189	81.81
278.421	85.81
278.652	77.81
278.884	87.81
279.115	97.81
279.347	94.81
279.579	77.81
279.81	88.81
280.042	88.81
280.273	90.81
280.505	92.81
280.736	92.81
280.968	98.81
281.199	93.81
281.431	87.81
281.662	98.81
281.894	86.81
282.125	88.81
282.356	111.81
282.588	112.81
282.819	112.81
283.051	109.81
283.282	89.81
283.513	100.81
283.745	84.81
283.976	93.81
284.207	93.81
284.439	85.81
284.67	84.81
284.901	84.81
285.132	82.81
285.364	82.81
285.595	93.81
285.826	88.81
286.057	100.81
286.288	92.81
286.52	92.81
286.751	92.81
286.982	77.81
287.213	86.81
287.444	93.81
287.675	100.81
287.906	94.81
288.138	84.81
288.369	94.81
288.6	92.81
288.831	97.81
289.062	92.81
289.293	87.81
289.524	91.81
289.755	95.81
289.986	94.81
290.217	84.81
290.448	86.81
290.679	98.81
290.91	101.81
291.141	80.81
291.371	98.81
291.602	96.81
291.833	76.81
292.064	79.81
292.295	94.81
292.526	95.81
292.757	77.81
292.987	92.81
293.218	94.81
293.449	76.81
293.68	102.81
293.91	81.81
294.141	83.81
294.372	89.81
294.603	100.81
294.833	83.81
295.064	88.81
295.295	80.81
295.525	96.81
295.756	100.81
295.987	110.81
296.217	119.81
296.448	110.81
296.679	98.81
296.909	76.81
297.14	85.81
297.37	99.81
297.601	97.81
297.831	88.81
298.062	103.81
298.292	89.81
298.523	92.81
298.753	101.81
298.984	90.81
299.214	101.81
299.445	94.81
299.675	78.81
299.905	99.81
300.136	76.81
300.366	87.81
300.597	94.81
300.827	98.81
301.057	100.81
301.288	95.81
301.518	94.81
301.748	102.81
301.979	112.81
302.209	81.81
302.439	83.81
302.669	101.81
302.9	94.81
303.13	93.81
303.36	99.81
303.59	101.81
303.82	91.81
304.051	86.81
304.281	87.81
304.511	85.81
304.741	91.81
304.971	95.81
305.201	80.81
305.431	97.81
305.661	86.81
305.891	90.81
306.121	103.81
306.352	90.81
306.582	100.81
306.812	87.81
307.042	92.81
307.272	96.81
307.502	90.81
307.731	100.81
307.961	108.81
308.191	99.81
308.421	83.81
308.651	97.81
308.881	73.81
309.111	95.81
309.341	95.81
309.571	83.81
309.8	110.81
310.03	100.81
310.26	105.81
310.49	93.81
310.72	91.81
310.949	115.81
311.179	106.81
311.409	92.81
311.639	99.81
311.868	106.81
312.098	91.81
312.328	86.81
312.557	90.81
312.787	97.81
313.017	88.81
313.246	108.81
313.476	103.81
313.706	104.81
313.935	94.81
314.165	98.81
314.394	97.81
314.624	92.81
314.853	91.81
315.083	78.81
315.312	80.81
315.542	81.81
315.771	77.81
316.001	94.81
316.23	88.81
316.46	90.81
316.689	90.81
316.919	90.81
317.148	104.81
317.377	108.81
317.607	97.81
317.836	87.81
318.065	93.81
318.295	85.81
318.524	96.81
318.753	91.81
318.983	99.81
319.212	104.81
319.441	104.81
319.67	108.81
319.9	94.81
320.129	91.81
320.358	100.81
320.587	96.81
320.816	100.81
321.046	104.81
321.275	82.81
321.504	90.81
321.733	98.81
321.962	97.81
322.191	107.81
322.42	102.81
322.649	104.81
322.878	109.81
323.108	95.81
323.337	109.81
323.566	125.81
323.795	143.81
324.024	171.81
324.253	300.81
324.482	616.81
324.71	1168.81
324.939	1603.81
325.168	602.81
325.397	196.81
325.626	128.81
325.855	114.81
326.084	117.81
326.313	122.81
326.542	135.81
326.77	196.81
326.999	353.81
327.228	712.81
327.457	1240.81
327.686	1040.81
327.914	293.81
328.143	166.81
328.372	156.81
328.6	118.81
328.829	124.81
329.058	111.81
329.287	124.81
329.515	96.81
329.744	98.81
329.972	124.81
330.201	130.81
330.43	143.81
330.658	125.81
330.887	109.81
331.115	114.81
331.344	100.81
331.572	91.81
331.801	105.81
332.03	88.81
332.258	82.81
332.486	104.81
332.715	79.81
332.943	96.81
333.172	101.81
333.4	100.81
333.629	104.81
333.857	106.81
334.085	113.81
334.314	140.81
334.542	153.81
334.771	165.81
334.999	127.81
335.227	112.81
335.455	83.81
335.684	101.81
335.912	104.81
336.14	95.81
336.369	90.81
336.597	104.81
336.825	102.81
337.053	82.81
337.281	100.81
337.51	88.81
337.738	96.81
337.966	103.81
338.194	101.81
338.422	98.81
338.65	92.81
338.878	107.81
339.106	100.81
339.334	76.81
339.562	82.81
339.79	86.81
340.018	96.81
340.246	105.81
340.474	94.81
340.702	95.81
340.93	103.81
341.158	94.81
341.386	98.81
341.614	96.81
341.842	95.81
342.07	93.81
342.298	93.81
342.526	91.81
342.754	97.81
342.981	92.81
343.209	97.81
343.437	90.81
343.665	104.81
343.893	87.81
344.12	88.81
344.348	93.81
344.576	94.81
344.804	72.81
345.031	93.81
345.259	96.81
345.487	96.81
345.714	90.81
345.942	101.81
346.17	96.81
346.397	99.81
346.625	80.81
346.853	87.81
347.08	109.81
347.308	76.81
347.535	103.81
347.763	86.81
347.99	103.81
348.218	108.81
348.445	110.81
348.673	106.81
348.9	109.81
349.128	103.81
349.355	82.81
349.583	79.81
349.81	106.81
350.037	105.81
350.265	95.81
350.492	95.81
350.72	98.81
350.947	95.81
351.174	113.81
351.402	101.81
351.629	106.81
351.856	109.81
352.083	123.81
352.311	106.81
352.538	100.81
352.765	106.81
352.992	113.81
353.22	109.81
353.447	112.81
353.674	110.81
353.901	105.81
354.128	90.81
354.355	104.81
354.583	100.81
354.81	86.81
355.037	90.81
355.264	105.81
355.491	106.81
355.718	98.81
355.945	102.81
356.172	115.81
356.399	111.81
356.626	90.81
356.853	103.81
357.08	104.81
357.307	98.81
357.534	98.81
357.761	97.81
357.988	107.81
358.215	127.81
358.441	125.81
358.668	114.81
358.895	119.81
359.122	105.81
359.349	98.81
359.576	98.81
359.802	99.81
360.029	100.81
360.256	95.81
360.483	101.81
360.709	90.81
360.936	100.81
361.163	85.81
361.39	98.81
361.616	108.81
361.843	96.81
362.07	97.81
362.296	109.81
362.523	103.81
362.749	96.81
362.976	76.81
363.203	81.81
363.429	87.81
363.656	80.81
363.882	94.81
364.109	92.81
364.335	89.81
364.562	88.81
364.788	96.81
365.015	97.81
365.241	100.81
365.468	92.81
365.694	105.81
365.92	104.81
366.147	92.81
366.373	104.81
366.599	91.81
366.826	100.81
367.052	82.81
367.278	96.81
367.505	82.81
367.731	96.81
367.957	89.81
368.184	99.81
368.41	97.81
368.636	100.81
368.862	111.81
369.089	104.81
369.315	104.81
369.541	97.81
369.767	90.81
369.993	87.81
370.219	90.81
370.445	89.81
370.672	91.81
370.898	85.81
371.124	103.81
371.35	90.81
371.576	95.81
371.802	82.81
372.028	95.81
372.254	87.81
372.48	84.81
372.706	99.81
372.932	88.81
373.158	78.81
373.384	90.81
373.61	89.81
373.835	96.81
374.061	102.81
374.287	103.81
374.513	90.81
374.739	105.81
374.965	94.81
375.191	103.81
375.416	98.81
375.642	104.81
375.868	95.81
376.094	118.81
376.319	90.81
376.545	103.81
376.771	111.81
376.997	112.81
377.222	92.81
377.448	102.81
377.674	109.81
377.899	113.81
378.125	112.81
378.35	114.81
378.576	120.81
378.802	106.81
379.027	103.81
379.253	108.81
379.478	93.81
379.704	108.81
379.929	120.81
380.155	126.81
380.38	126.81
380.606	105.81
380.831	107.81
381.057	143.81
381.282	109.81
381.507	130.81
381.733	136.81
381.958	123.81
382.184	125.81
382.409	157.81
382.634	160.81
382.86	150.81
383.085	140.81
383.31	136.81
383.535	135.81
383.761	160.81
383.986	131.81
384.211	144.81
384.436	144.81
384.662	157.81
384.887	188.81
385.112	164.81
385.337	177.81
385.562	172.81
385.787	170.81
386.013	172.81
386.238	180.81
386.463	165.81
386.688	162.81
386.913	169.81
387.138	194.81
387.363	164.81
387.588	133.81
387.813	144.81
388.038	174.81
388.263	196.81
388.488	183.81
388.713	107.81
388.938	110.81
389.163	106.81
389.387	87.81
389.612	112.81
389.837	100.81
390.062	92.81
390.287	90.81
390.512	92.81
390.736	91.81
390.961	94.81
391.186	82.81
391.411	105.81
391.636	93.81
391.86	85.81
392.085	91.81
392.31	105.81
392.534	82.81
392.759	98.81
392.984	103.81
393.208	102.81
393.433	120.81
393.658	96.81
393.882	81.81
394.107	87.81
394.331	84.81
394.556	85.81
394.78	79.81
395.005	83.81
395.229	87.81
395.454	85.81
395.678	89.81
395.903	100.81
396.127	95.81
396.352	94.81
396.576	100.81
396.801	98.81
397.025	89.81
397.249	87.81
397.474	106.81
397.698	95.81
397.922	89.81
398.147	93.81
398.371	89.81
398.595	100.81
398.82	84.81
399.044	85.81
399.268	85.81
399.492	93.81
399.717	89.81
399.941	88.81
400.165	86.81
400.389	89.81
400.613	87.81
400.837	86.81
401.062	104.81
401.286	97.81
401.51	100.81
401.734	87.81
401.958	97.81
402.182	115.81
402.406	132.81
402.63	110.81
402.854	98.81
403.078	82.81
403.302	92.81
403.526	94.81
403.75	111.81
403.974	89.81
404.198	92.81
404.422	81.81
404.645	86.81
404.869	92.81
405.093	100.81
405.317	99.81
405.541	95.81
405.765	94.81
405.988	108.81
406.212	137.81
406.436	184.81
406.66	128.81
406.883	105.81
407.107	89.81
407.331	92.81
407.555	103.81
407.778	98.81
408.002	96.81
408.226	90.81
408.449	100.81
408.673	78.81
408.896	85.81
409.12	100.81
409.344	101.81
409.567	97.81
409.791	96.81
410.014	96.81
410.238	99.81
410.461	102.81
410.685	96.81
410.908	104.81
411.132	108.81
411.355	95.81
411.578	120.81
411.802	99.81
412.025	83.81
412.249	105.81
412.472	94.81
412.695	93.81
412.919	97.81
413.142	101.81
413.365	87.81
413.589	97.81
413.812	104.81
414.035	102.81
414.258	92.81
414.482	109.81
414.705	92.81
414.928	92.81
415.151	111.81
415.374	105.81
415.597	94.81
415.821	96.81
416.044	98.81
416.267	94.81
416.49	87.81
416.713	98.81
416.936	88.81
417.159	81.81
417.382	94.81
417.605	98.81
417.828	109.81
418.051	94.81
418.274	86.81
418.497	95.81
418.72	80.81
418.943	83.81
419.166	86.81
419.389	100.81
419.611	91.81
419.834	87.81
420.057	99.81
420.28	86.81
420.503	92.81
420.726	88.81
420.948	97.81
421.171	106.81
421.394	94.81
421.617	81.81
421.839	97.81
422.062	100.81
422.285	88.81
422.507	113.81
422.73	103.81
422.953	89.81
423.175	74.81
423.398	96.81
423.621	82.81
423.843	83.81
424.066	86.81
424.288	97.81
424.511	94.81
424.733	100.81
424.956	97.81
425.178	96.81
425.401	106.81
425.623	98.81
425.846	101.81
426.068	93.81
426.291	90.81
426.513	91.81
426.735	96.81
426.958	98.81
427.18	99.81
427.402	110.81
427.625	145.81
427.847	110.81
428.069	113.81
428.292	102.81
428.514	95.81
428.736	88.81
428.958	85.81
429.181	86.81
429.403	83.81
429.625	70.81
429.847	100.81
430.069	90.81
430.292	90.81
430.514	93.81
430.736	100.81
430.958	89.81
431.18	71.81
431.402	88.81
431.624	88.81
431.846	86.81
432.068	86.81
432.29	81.81
432.512	85.81
432.734	85.81
432.956	82.81
433.178	109.81
433.4	91.81
433.622	93.81
433.844	111.81
434.066	101.81
434.287	81.81
434.509	97.81
434.731	92.81
434.953	92.81
435.175	89.81
435.397	95.81
435.618	87.81
435.84	90.81
436.062	110.81
436.284	101.81
436.505	99.81
436.727	90.81
436.949	93.81
437.17	89.81
437.392	69.81
437.614	110.81
437.835	81.81
438.057	108.81
438.278	85.81
438.5	105.81
438.721	119.81
438.943	85.81
439.165	94.81
439.386	88.81
439.608	85.81
439.829	85.81
440.05	122.81
440.272	123.81
440.493	97.81
440.715	90.81
440.936	91.81
441.158	90.81
441.379	86.81
441.6	95.81
441.822	100.81
442.043	95.81
442.264	81.81
442.486	95.81
442.707	87.81
442.928	110.81
443.149	109.81
443.371	97.81
443.592	102.81
443.813	95.81
444.034	98.81
444.255	89.81
444.476	84.81
444.698	89.81
444.919	79.81
445.14	121.81
445.361	119.81
445.582	84.81
445.803	113.81
446.024	106.81
446.245	110.81
446.466	98.81
446.687	88.81
446.908	99.81
447.129	92.81
447.35	87.81
447.571	94.81
447.792	86.81
448.013	90.81
448.234	107.81
448.455	96.81
448.675	100.81
448.896	103.81
449.117	85.81
449.338	101.81
449.559	112.81
449.779	112.81
450	98.81
450.221	97.81
450.442	68.81
450.662	98.81
450.883	100.81
451.104	95.81
451.324	111.81
451.545	83.81
451.766	93.81
451.986	87.81
452.207	89.81
452.428	96.81
452.648	105.81
452.869	112.81
453.089	111.81
453.31	105.81
453.53	88.81
453.751	94.81
453.971	95.81
454.192	98.81
454.412	99.81
454.633	80.81
454.853	92.81
455.073	89.81
455.294	84.81
455.514	94.81
455.734	81.81
455.955	82.81
456.175	81.81
456.395	103.81
456.616	97.81
456.836	97.81
457.056	84.81
457.276	85.81
457.497	84.81
457.717	93.81
457.937	92.81
458.157	89.81
458.377	83.81
458.598	102.81
458.818	122.81
459.038	136.81
459.258	108.81
459.478	88.81
459.698	77.81
459.918	80.81
460.138	80.81
460.358	89.81
460.578	99.81
460.798	96.81
461.018	79.81
461.238	99.81
461.458	110.81
461.678	82.81
461.898	83.81
462.118	98.81
462.338	98.81
462.558	79.81
462.777	89.81
462.997	95.81
463.217	81.81
463.437	89.81
463.657	86.81
463.876	93.81
464.096	83.81
464.316	89.81
464.536	98.81
464.755	90.81
464.975	96.81
465.195	120.81
465.414	126.81
465.634	83.81
465.854	78.81
466.073	85.81
466.293	87.81
466.512	93.81
466.732	92.81
466.951	90.81
467.171	80.81
467.391	101.81
467.61	97.81
467.829	100.81
468.049	124.81
468.268	106.81
468.488	79.81
468.707	89.81
468.927	96.81
469.146	75.81
469.365	82.81
469.585	101.81
469.804	88.81
470.023	102.81
470.243	88.81
470.462	96.81
470.681	113.81
470.901	92.81
471.12	80.81
471.339	96.81
471.558	82.81
471.777	90.81
471.997	96.81
472.216	124.81
472.435	171.81
472.654	108.81
472.873	93.81
473.092	81.81
473.311	82.81
473.53	89.81
473.749	80.81
473.968	89.81
474.187	73.81
474.406	94.81
474.625	96.81
474.844	79.81
475.063	88.81
475.282	89.81
475.501	85.81
475.72	80.81
475.939	91.81
476.158	83.81
476.377	92.81
476.596	89.81
476.814	82.81
477.033	84.81
477.252	89.81
477.471	82.81
477.69	86.81
477.908	90.81
478.127	85.81
478.346	86.81
478.564	93.81
478.783	100.81
479.002	93.81
479.22	99.81
479.439	119.81
479.658	97.81
479.876	104.81
480.095	81.81
480.313	87.81
480.532	101.81
480.751	103.81
480.969	124.81
481.188	255.81
481.406	181.81
481.624	102.81
481.843	92.81
482.061	80.81
482.28	81.81
482.498	89.81
482.717	99.81
482.935	90.81
483.153	96.81
483.372	95.81
483.59	103.81
483.808	88.81
484.027	100.81
484.245	89.81
484.463	97.81
484.681	109.81
484.9	88.81
485.118	117.81
485.336	110.81
485.554	99.81
485.772	104.81
485.99	109.81
486.209	102.81
486.427	89.81
486.645	116.81
486.863	120.81
487.081	96.81
487.299	101.81
487.517	119.81
487.735	92.81
487.953	99.81
488.171	108.81
488.389	85.81
488.607	93.81
488.825	103.81
489.043	93.81
489.261	93.81
489.479	81.81
489.696	91.81
489.914	70.81
490.132	93.81
490.35	74.81
490.568	82.81
490.786	76.81
491.003	95.81
491.221	94.81
491.439	92.81
491.657	100.81
491.874	104.81
492.092	89.81
492.31	87.81
492.527	97.81
492.745	81.81
492.963	96.81
493.18	102.81
493.398	103.81
493.615	96.81
493.833	90.81
494.05	87.81
494.268	94.81
494.485	101.81
494.703	91.81
494.92	101.81
495.138	101.81
495.355	95.81
495.573	106.81
495.79	88.81
496.008	100.81
496.225	84.81
496.442	88.81
496.66	95.81
496.877	84.81
497.094	81.81
497.312	86.81
497.529	86.81
497.746	100.81
497.963	92.81
498.181	94.81
498.398	83.81
498.615	94.81
498.832	96.81
499.049	88.81
499.267	83.81
499.484	76.81
499.701	79.81
499.918	83.81
500.135	89.81
500.352	97.81
500.569	87.81
500.786	101.81
501.003	90.81
501.22	84.81
501.437	105.81
501.654	87.81
501.871	86.81
502.088	98.81
502.305	98.81
502.522	95.81
502.739	90.81
502.956	96.81
503.172	99.81
503.389	85.81
503.606	95.81
503.823	106.81
504.04	107.81
504.256	95.81
504.473	86.81
504.69	88.81
504.907	89.81
505.123	95.81
505.34	107.81
505.557	101.81
505.773	100.81
505.99	82.81
506.207	88.81
506.423	90.81
506.64	94.81
506.856	108.81
507.073	84.81
507.289	105.81
507.506	93.81
507.722	106.81
507.939	109.81
508.155	103.81
508.372	92.81
508.588	88.81
508.805	92.81
509.021	99.81
509.238	110.81
509.454	90.81
509.67	97.81
509.887	95.81
510.103	124.81
510.319	178.81
510.536	542.81
510.752	1662.81
510.968	482.81
511.184	131.81
511.401	98.81
511.617	102.81
511.833	94.81
512.049	101.81
512.265	110.81
512.481	101.81
512.698	103.81
512.914	93.81
513.13	102.81
513.346	77.81
513.562	108.81
513.778	100.81
513.994	105.81
514.21	94.81
514.426	107.81
