Data from Circ_1990_H10_HRD10591_00099.txt Node
Date: Wed Jan 03 11:55:23 EST 2024
User: Yrep
Spectrometer: HR+D1059
Trigger mode: 1
Integration Time (sec): 1.000000E-1
Scans to average: 1
Electric dark correction enabled: true
Nonlinearity correction enabled: false
Boxcar width: 0
XAxis mode: Wavelengths
Number of Pixels in Spectrum: 2048
>>>>>Begin Spectral Data<<<<<
223.165	-16.31
223.4	-16.31
223.635	-16.31
223.869	-23.31
224.104	-13.31
224.338	-4.31
224.573	-7.31
224.808	-14.31
225.042	-2.31
225.277	-5.31
225.511	-25.31
225.746	4.69
225.98	0.69
226.215	4.69
226.449	19.69
226.683	27.69
226.918	17.69
227.152	36.69
227.387	32.69
227.621	31.69
227.856	49.69
228.09	44.69
228.324	40.69
228.559	46.69
228.793	53.69
229.027	49.69
229.262	65.69
229.496	73.69
229.73	84.69
229.964	71.69
230.199	85.69
230.433	64.69
230.667	63.69
230.901	84.69
231.136	75.69
231.37	69.69
231.604	76.69
231.838	73.69
232.072	77.69
232.306	79.69
232.541	73.69
232.775	74.69
233.009	92.69
233.243	75.69
233.477	76.69
233.711	62.69
233.945	80.69
234.179	83.69
234.413	75.69
234.647	77.69
234.881	74.69
235.115	76.69
235.349	84.69
235.583	77.69
235.817	81.69
236.051	85.69
236.285	73.69
236.519	80.69
236.753	68.69
236.987	73.69
237.221	84.69
237.455	89.69
237.689	81.69
237.922	65.69
238.156	66.69
238.39	71.69
238.624	77.69
238.858	75.69
239.091	75.69
239.325	77.69
239.559	85.69
239.793	75.69
240.027	80.69
240.26	78.69
240.494	95.69
240.728	69.69
240.961	86.69
241.195	85.69
241.429	75.69
241.662	96.69
241.896	81.69
242.13	82.69
242.363	73.69
242.597	65.69
242.83	68.69
243.064	73.69
243.298	76.69
243.531	79.69
243.765	78.69
243.998	80.69
244.232	83.69
244.465	96.69
244.699	83.69
244.932	81.69
245.166	79.69
245.399	72.69
245.633	87.69
245.866	79.69
246.099	90.69
246.333	73.69
246.566	70.69
246.8	75.69
247.033	77.69
247.266	74.69
247.5	80.69
247.733	81.69
247.966	89.69
248.2	70.69
248.433	77.69
248.666	82.69
248.899	86.69
249.133	86.69
249.366	92.69
249.599	84.69
249.832	84.69
250.066	77.69
250.299	93.69
250.532	83.69
250.765	90.69
250.998	81.69
251.231	88.69
251.465	85.69
251.698	80.69
251.931	85.69
252.164	69.69
252.397	93.69
252.63	81.69
252.863	84.69
253.096	85.69
253.329	91.69
253.562	74.69
253.795	89.69
254.028	80.69
254.261	83.69
254.494	88.69
254.727	94.69
254.96	81.69
255.193	72.69
255.426	73.69
255.659	86.69
255.892	74.69
256.124	97.69
256.357	77.69
256.59	79.69
256.823	96.69
257.056	89.69
257.289	90.69
257.521	79.69
257.754	90.69
257.987	74.69
258.22	87.69
258.452	89.69
258.685	73.69
258.918	69.69
259.151	78.69
259.383	87.69
259.616	77.69
259.849	85.69
260.081	79.69
260.314	85.69
260.547	81.69
260.779	78.69
261.012	96.69
261.244	95.69
261.477	99.69
261.71	98.69
261.942	97.69
262.175	98.69
262.407	81.69
262.64	85.69
262.872	69.69
263.105	90.69
263.337	85.69
263.57	82.69
263.802	71.69
264.035	92.69
264.267	76.69
264.499	87.69
264.732	85.69
264.964	78.69
265.197	75.69
265.429	80.69
265.661	76.69
265.894	80.69
266.126	82.69
266.358	91.69
266.591	83.69
266.823	97.69
267.055	106.69
267.287	85.69
267.52	89.69
267.752	85.69
267.984	70.69
268.216	77.69
268.448	78.69
268.681	102.69
268.913	69.69
269.145	77.69
269.377	81.69
269.609	84.69
269.841	88.69
270.073	78.69
270.306	87.69
270.538	91.69
270.77	87.69
271.002	85.69
271.234	90.69
271.466	78.69
271.698	88.69
271.93	81.69
272.162	92.69
272.394	83.69
272.626	90.69
272.858	70.69
273.09	86.69
273.322	94.69
273.553	89.69
273.785	92.69
274.017	86.69
274.249	90.69
274.481	82.69
274.713	81.69
274.945	80.69
275.176	79.69
275.408	97.69
275.64	99.69
275.872	93.69
276.104	95.69
276.335	91.69
276.567	103.69
276.799	97.69
277.031	98.69
277.262	121.69
277.494	106.69
277.726	102.69
277.957	86.69
278.189	92.69
278.421	96.69
278.652	97.69
278.884	91.69
279.115	91.69
279.347	84.69
279.579	87.69
279.81	91.69
280.042	122.69
280.273	155.69
280.505	110.69
280.736	85.69
280.968	84.69
281.199	79.69
281.431	97.69
281.662	88.69
281.894	100.69
282.125	95.69
282.356	115.69
282.588	124.69
282.819	109.69
283.051	84.69
283.282	86.69
283.513	109.69
283.745	94.69
283.976	82.69
284.207	82.69
284.439	81.69
284.67	71.69
284.901	85.69
285.132	79.69
285.364	82.69
285.595	82.69
285.826	105.69
286.057	86.69
286.288	69.69
286.52	87.69
286.751	94.69
286.982	84.69
287.213	94.69
287.444	86.69
287.675	93.69
287.906	91.69
288.138	88.69
288.369	99.69
288.6	100.69
288.831	83.69
289.062	86.69
289.293	95.69
289.524	84.69
289.755	99.69
289.986	90.69
290.217	85.69
290.448	85.69
290.679	85.69
290.91	81.69
291.141	85.69
291.371	95.69
291.602	83.69
291.833	78.69
292.064	89.69
292.295	81.69
292.526	81.69
292.757	91.69
292.987	92.69
293.218	94.69
293.449	76.69
293.68	90.69
293.91	98.69
294.141	75.69
294.372	80.69
294.603	100.69
294.833	84.69
295.064	69.69
295.295	76.69
295.525	94.69
295.756	100.69
295.987	108.69
296.217	121.69
296.448	122.69
296.679	92.69
296.909	87.69
297.14	89.69
297.37	88.69
297.601	90.69
297.831	81.69
298.062	93.69
298.292	90.69
298.523	89.69
298.753	83.69
298.984	91.69
299.214	98.69
299.445	94.69
299.675	87.69
299.905	99.69
300.136	87.69
300.366	89.69
300.597	95.69
300.827	100.69
301.057	97.69
301.288	108.69
301.518	79.69
301.748	100.69
301.979	105.69
302.209	85.69
302.439	86.69
302.669	81.69
302.9	100.69
303.13	82.69
303.36	100.69
303.59	94.69
303.82	101.69
304.051	92.69
304.281	112.69
304.511	108.69
304.741	78.69
304.971	89.69
305.201	100.69
305.431	101.69
305.661	101.69
305.891	90.69
306.121	106.69
306.352	98.69
306.582	99.69
306.812	96.69
307.042	96.69
307.272	109.69
307.502	120.69
307.731	132.69
307.961	106.69
308.191	93.69
308.421	98.69
308.651	87.69
308.881	84.69
309.111	89.69
309.341	90.69
309.571	93.69
309.8	93.69
310.03	100.69
310.26	85.69
310.49	86.69
310.72	94.69
310.949	106.69
311.179	108.69
311.409	95.69
311.639	102.69
311.868	105.69
312.098	84.69
312.328	87.69
312.557	97.69
312.787	101.69
313.017	97.69
313.246	97.69
313.476	89.69
313.706	99.69
313.935	99.69
314.165	120.69
314.394	96.69
314.624	100.69
314.853	114.69
315.083	92.69
315.312	90.69
315.542	82.69
315.771	96.69
316.001	94.69
316.23	95.69
316.46	94.69
316.689	77.69
316.919	88.69
317.148	87.69
317.377	100.69
317.607	100.69
317.836	94.69
318.065	86.69
318.295	74.69
318.524	94.69
318.753	85.69
318.983	81.69
319.212	104.69
319.441	97.69
319.67	122.69
319.9	104.69
320.129	87.69
320.358	92.69
320.587	105.69
320.816	99.69
321.046	105.69
321.275	102.69
321.504	96.69
321.733	85.69
321.962	114.69
322.191	116.69
322.42	112.69
322.649	99.69
322.878	108.69
323.108	122.69
323.337	128.69
323.566	119.69
323.795	153.69
324.024	201.69
324.253	386.69
324.482	793.69
324.71	1590.69
324.939	2142.69
325.168	797.69
325.397	242.69
325.626	163.69
325.855	140.69
326.084	126.69
326.313	132.69
326.542	153.69
326.77	208.69
326.999	433.69
327.228	876.69
327.457	1640.69
327.686	1323.69
327.914	399.69
328.143	292.69
328.372	309.69
328.6	200.69
328.829	135.69
329.058	125.69
329.287	140.69
329.515	129.69
329.744	149.69
329.972	232.69
330.201	415.69
330.43	591.69
330.658	301.69
330.887	183.69
331.115	126.69
331.344	116.69
331.572	111.69
331.801	111.69
332.03	112.69
332.258	86.69
332.486	111.69
332.715	91.69
332.943	88.69
333.172	104.69
333.4	103.69
333.629	137.69
333.857	161.69
334.085	229.69
334.314	405.69
334.542	732.69
334.771	693.69
334.999	217.69
335.227	105.69
335.455	106.69
335.684	97.69
335.912	104.69
336.14	103.69
336.369	107.69
336.597	97.69
336.825	98.69
337.053	89.69
337.281	92.69
337.51	100.69
337.738	94.69
337.966	87.69
338.194	93.69
338.422	91.69
338.65	83.69
338.878	89.69
339.106	94.69
339.334	91.69
339.562	94.69
339.79	82.69
340.018	92.69
340.246	103.69
340.474	92.69
340.702	90.69
340.93	84.69
341.158	90.69
341.386	103.69
341.614	98.69
341.842	106.69
342.07	101.69
342.298	91.69
342.526	98.69
342.754	84.69
342.981	82.69
343.209	95.69
343.437	90.69
343.665	90.69
343.893	88.69
344.12	107.69
344.348	98.69
344.576	89.69
344.804	98.69
345.031	90.69
345.259	101.69
345.487	106.69
345.714	95.69
345.942	94.69
346.17	91.69
346.397	95.69
346.625	103.69
346.853	106.69
347.08	90.69
347.308	99.69
347.535	99.69
347.763	95.69
347.99	103.69
348.218	98.69
348.445	109.69
348.673	114.69
348.9	99.69
349.128	100.69
349.355	84.69
349.583	92.69
349.81	103.69
350.037	101.69
350.265	94.69
350.492	93.69
350.72	96.69
350.947	109.69
351.174	101.69
351.402	95.69
351.629	97.69
351.856	95.69
352.083	108.69
352.311	107.69
352.538	97.69
352.765	111.69
352.992	112.69
353.22	107.69
353.447	93.69
353.674	108.69
353.901	100.69
354.128	101.69
354.355	78.69
354.583	96.69
354.81	96.69
355.037	96.69
355.264	105.69
355.491	88.69
355.718	81.69
355.945	78.69
356.172	94.69
356.399	90.69
356.626	86.69
356.853	82.69
357.08	86.69
357.307	90.69
357.534	93.69
357.761	85.69
357.988	107.69
358.215	102.69
358.441	91.69
358.668	94.69
358.895	98.69
359.122	94.69
359.349	98.69
359.576	82.69
359.802	105.69
360.029	116.69
360.256	113.69
360.483	92.69
360.709	88.69
360.936	86.69
361.163	89.69
361.39	84.69
361.616	110.69
361.843	94.69
362.07	96.69
362.296	97.69
362.523	94.69
362.749	104.69
362.976	96.69
363.203	81.69
363.429	75.69
363.656	100.69
363.882	87.69
364.109	101.69
364.335	99.69
364.562	74.69
364.788	94.69
365.015	86.69
365.241	84.69
365.468	91.69
365.694	101.69
365.92	115.69
366.147	92.69
366.373	91.69
366.599	90.69
366.826	91.69
367.052	86.69
367.278	89.69
367.505	77.69
367.731	89.69
367.957	113.69
368.184	98.69
368.41	100.69
368.636	103.69
368.862	100.69
369.089	101.69
369.315	92.69
369.541	94.69
369.767	97.69
369.993	90.69
370.219	87.69
370.445	70.69
370.672	94.69
370.898	85.69
371.124	89.69
371.35	103.69
371.576	77.69
371.802	80.69
372.028	92.69
372.254	92.69
372.48	90.69
372.706	86.69
372.932	89.69
373.158	81.69
373.384	103.69
373.61	91.69
373.835	84.69
374.061	93.69
374.287	109.69
374.513	84.69
374.739	98.69
374.965	91.69
375.191	84.69
375.416	92.69
375.642	85.69
375.868	83.69
376.094	98.69
376.319	92.69
376.545	70.69
376.771	94.69
376.997	92.69
377.222	76.69
377.448	102.69
377.674	100.69
377.899	83.69
378.125	86.69
378.35	93.69
378.576	95.69
378.802	78.69
379.027	91.69
379.253	94.69
379.478	78.69
379.704	80.69
379.929	97.69
380.155	78.69
380.38	91.69
380.606	88.69
380.831	89.69
381.057	99.69
381.282	97.69
381.507	82.69
381.733	94.69
381.958	83.69
382.184	98.69
382.409	83.69
382.634	101.69
382.86	110.69
383.085	114.69
383.31	101.69
383.535	96.69
383.761	100.69
383.986	105.69
384.211	87.69
384.436	83.69
384.662	109.69
384.887	95.69
385.112	97.69
385.337	109.69
385.562	104.69
385.787	103.69
386.013	103.69
386.238	113.69
386.463	99.69
386.688	110.69
386.913	103.69
387.138	101.69
387.363	99.69
387.588	107.69
387.813	96.69
388.038	105.69
388.263	118.69
388.488	122.69
388.713	93.69
388.938	85.69
389.163	107.69
389.387	95.69
389.612	89.69
389.837	100.69
390.062	93.69
390.287	76.69
390.512	73.69
390.736	78.69
390.961	84.69
391.186	92.69
391.411	95.69
391.636	96.69
391.86	98.69
392.085	79.69
392.31	95.69
392.534	79.69
392.759	93.69
392.984	86.69
393.208	90.69
393.433	87.69
393.658	89.69
393.882	84.69
394.107	87.69
394.331	70.69
394.556	74.69
394.78	77.69
395.005	101.69
395.229	86.69
395.454	74.69
395.678	89.69
395.903	95.69
396.127	88.69
396.352	86.69
396.576	87.69
396.801	97.69
397.025	93.69
397.249	97.69
397.474	71.69
397.698	82.69
397.922	93.69
398.147	94.69
398.371	82.69
398.595	91.69
398.82	81.69
399.044	92.69
399.268	101.69
399.492	86.69
399.717	85.69
399.941	76.69
400.165	93.69
400.389	82.69
400.613	83.69
400.837	89.69
401.062	91.69
401.286	89.69
401.51	93.69
401.734	92.69
401.958	111.69
402.182	114.69
402.406	164.69
402.63	119.69
402.854	101.69
403.078	85.69
403.302	92.69
403.526	82.69
403.75	90.69
403.974	87.69
404.198	91.69
404.422	78.69
404.645	84.69
404.869	84.69
405.093	94.69
405.317	120.69
405.541	96.69
405.765	102.69
405.988	112.69
406.212	144.69
406.436	217.69
406.66	146.69
406.883	94.69
407.107	85.69
407.331	102.69
407.555	107.69
407.778	94.69
408.002	97.69
408.226	85.69
408.449	82.69
408.673	99.69
408.896	80.69
409.12	92.69
409.344	84.69
409.567	101.69
409.791	80.69
410.014	92.69
410.238	83.69
410.461	91.69
410.685	92.69
410.908	94.69
411.132	90.69
411.355	99.69
411.578	98.69
411.802	76.69
412.025	67.69
412.249	95.69
412.472	103.69
412.695	106.69
412.919	88.69
413.142	109.69
413.365	100.69
413.589	88.69
413.812	90.69
414.035	86.69
414.258	82.69
414.482	98.69
414.705	93.69
414.928	95.69
415.151	99.69
415.374	97.69
415.597	82.69
415.821	93.69
416.044	83.69
416.267	93.69
416.49	81.69
416.713	85.69
416.936	95.69
417.159	100.69
417.382	88.69
417.605	93.69
417.828	101.69
418.051	98.69
418.274	87.69
418.497	80.69
418.72	90.69
418.943	99.69
419.166	101.69
419.389	82.69
419.611	87.69
419.834	86.69
420.057	80.69
420.28	85.69
420.503	89.69
420.726	80.69
420.948	89.69
421.171	96.69
421.394	88.69
421.617	82.69
421.839	89.69
422.062	75.69
422.285	89.69
422.507	93.69
422.73	90.69
422.953	89.69
423.175	91.69
423.398	82.69
423.621	96.69
423.843	93.69
424.066	83.69
424.288	100.69
424.511	98.69
424.733	86.69
424.956	109.69
425.178	87.69
425.401	100.69
425.623	102.69
425.846	78.69
426.068	98.69
426.291	101.69
426.513	94.69
426.735	86.69
426.958	86.69
427.18	118.69
427.402	143.69
427.625	175.69
427.847	161.69
428.069	163.69
428.292	107.69
428.514	90.69
428.736	95.69
428.958	89.69
429.181	89.69
429.403	94.69
429.625	79.69
429.847	79.69
430.069	103.69
430.292	86.69
430.514	95.69
430.736	93.69
430.958	75.69
431.18	65.69
431.402	74.69
431.624	89.69
431.846	81.69
432.068	95.69
432.29	79.69
432.512	82.69
432.734	86.69
432.956	95.69
433.178	91.69
433.4	100.69
433.622	93.69
433.844	81.69
434.066	81.69
434.287	85.69
434.509	86.69
434.731	91.69
434.953	100.69
435.175	91.69
435.397	82.69
435.618	99.69
435.84	89.69
436.062	123.69
436.284	118.69
436.505	104.69
436.727	98.69
436.949	98.69
437.17	84.69
437.392	94.69
437.614	87.69
437.835	93.69
438.057	101.69
438.278	109.69
438.5	109.69
438.721	130.69
438.943	91.69
439.165	80.69
439.386	97.69
439.608	98.69
439.829	94.69
440.05	139.69
440.272	132.69
440.493	79.69
440.715	84.69
440.936	88.69
441.158	91.69
441.379	83.69
441.6	87.69
441.822	89.69
442.043	99.69
442.264	107.69
442.486	111.69
442.707	101.69
442.928	95.69
443.149	121.69
443.371	121.69
443.592	88.69
443.813	124.69
444.034	114.69
444.255	93.69
444.476	109.69
444.698	95.69
444.919	94.69
445.14	130.69
445.361	138.69
445.582	112.69
445.803	137.69
446.024	145.69
446.245	146.69
446.466	124.69
446.687	95.69
446.908	85.69
447.129	74.69
447.35	88.69
447.571	99.69
447.792	82.69
448.013	96.69
448.234	114.69
448.455	101.69
448.675	119.69
448.896	121.69
449.117	89.69
449.338	93.69
449.559	129.69
449.779	137.69
450	92.69
450.221	90.69
450.442	92.69
450.662	96.69
450.883	92.69
451.104	104.69
451.324	101.69
451.545	92.69
451.766	92.69
451.986	90.69
452.207	87.69
452.428	91.69
452.648	99.69
452.869	108.69
453.089	99.69
453.31	109.69
453.53	91.69
453.751	104.69
453.971	97.69
454.192	107.69
454.412	94.69
454.633	83.69
454.853	73.69
455.073	84.69
455.294	95.69
455.514	87.69
455.734	94.69
455.955	79.69
456.175	83.69
456.395	86.69
456.616	82.69
456.836	100.69
457.056	82.69
457.276	85.69
457.497	83.69
457.717	94.69
457.937	78.69
458.157	70.69
458.377	74.69
458.598	106.69
458.818	146.69
459.038	160.69
459.258	109.69
459.478	93.69
459.698	85.69
459.918	77.69
460.138	80.69
460.358	88.69
460.578	84.69
460.798	98.69
461.018	86.69
461.238	80.69
461.458	85.69
461.678	97.69
461.898	92.69
462.118	85.69
462.338	86.69
462.558	99.69
462.777	85.69
462.997	73.69
463.217	78.69
463.437	105.69
463.657	86.69
463.876	76.69
464.096	86.69
464.316	78.69
464.536	90.69
464.755	80.69
464.975	93.69
465.195	167.69
465.414	141.69
465.634	107.69
465.854	85.69
466.073	90.69
466.293	94.69
466.512	85.69
466.732	97.69
466.951	95.69
467.171	98.69
467.391	98.69
467.61	113.69
467.829	140.69
468.049	279.69
468.268	373.69
468.488	121.69
468.707	93.69
468.927	90.69
469.146	88.69
469.365	86.69
469.585	89.69
469.804	99.69
470.023	103.69
470.243	98.69
470.462	100.69
470.681	126.69
470.901	102.69
471.12	84.69
471.339	98.69
471.558	101.69
471.777	94.69
471.997	169.69
472.216	487.69
472.435	957.69
472.654	253.69
472.873	117.69
473.092	78.69
473.311	107.69
473.53	93.69
473.749	93.69
473.968	96.69
474.187	95.69
474.406	98.69
474.625	105.69
474.844	82.69
475.063	90.69
475.282	84.69
475.501	79.69
475.72	92.69
475.939	96.69
476.158	88.69
476.377	79.69
476.596	83.69
476.814	90.69
477.033	102.69
477.252	89.69
477.471	94.69
477.69	92.69
477.908	80.69
478.127	95.69
478.346	97.69
478.564	107.69
478.783	95.69
479.002	93.69
479.22	100.69
479.439	93.69
479.658	100.69
479.876	117.69
480.095	103.69
480.313	102.69
480.532	111.69
480.751	173.69
480.969	473.69
481.188	1772.69
481.406	1023.69
481.624	188.69
481.843	109.69
482.061	87.69
482.28	103.69
482.498	91.69
482.717	87.69
482.935	96.69
483.153	93.69
483.372	82.69
483.59	77.69
483.808	71.69
484.027	82.69
484.245	97.69
484.463	96.69
484.681	85.69
484.9	109.69
485.118	99.69
485.336	87.69
485.554	86.69
485.772	79.69
485.99	105.69
486.209	98.69
486.427	109.69
486.645	101.69
486.863	102.69
487.081	82.69
487.299	92.69
487.517	114.69
487.735	85.69
487.953	83.69
488.171	103.69
488.389	88.69
488.607	100.69
488.825	91.69
489.043	91.69
489.261	81.69
489.479	100.69
489.696	88.69
489.914	90.69
490.132	90.69
490.35	96.69
490.568	94.69
490.786	89.69
491.003	81.69
491.221	94.69
491.439	94.69
491.657	97.69
491.874	98.69
492.092	83.69
492.31	87.69
492.527	83.69
492.745	93.69
492.963	92.69
493.18	97.69
493.398	86.69
493.615	77.69
493.833	89.69
494.05	85.69
494.268	69.69
494.485	80.69
494.703	77.69
494.92	82.69
495.138	92.69
495.355	92.69
495.573	91.69
495.79	82.69
496.008	95.69
496.225	96.69
496.442	86.69
496.66	89.69
496.877	89.69
497.094	89.69
497.312	95.69
497.529	81.69
497.746	85.69
497.963	87.69
498.181	84.69
498.398	81.69
498.615	103.69
498.832	92.69
499.049	80.69
499.267	100.69
499.484	85.69
499.701	84.69
499.918	98.69
500.135	78.69
500.352	89.69
500.569	86.69
500.786	98.69
501.003	84.69
501.22	111.69
501.437	94.69
501.654	108.69
501.871	94.69
502.088	97.69
502.305	68.69
502.522	72.69
502.739	86.69
502.956	95.69
503.172	94.69
503.389	90.69
503.606	95.69
503.823	98.69
504.04	102.69
504.256	95.69
504.473	83.69
504.69	94.69
504.907	91.69
505.123	87.69
505.34	96.69
505.557	93.69
505.773	88.69
505.99	95.69
506.207	92.69
506.423	90.69
506.64	77.69
506.856	92.69
507.073	99.69
507.289	86.69
507.506	97.69
507.722	116.69
507.939	103.69
508.155	90.69
508.372	85.69
508.588	90.69
508.805	75.69
509.021	93.69
509.238	94.69
509.454	86.69
509.67	83.69
509.887	93.69
510.103	116.69
510.319	198.69
510.536	683.69
510.752	2100.69
510.968	579.69
511.184	137.69
511.401	108.69
511.617	94.69
511.833	96.69
512.049	92.69
512.265	82.69
512.481	96.69
512.698	82.69
512.914	92.69
513.13	99.69
513.346	90.69
513.562	107.69
513.778	90.69
513.994	91.69
514.21	112.69
514.426	120.69
514.642	134.69
514.858	121.69
515.074	164.69
515.29	443.69
515.506	1453.69
