Data from Circ_1990_H10_HRD10591_00088.txt Node
Date: Wed Jan 03 11:55:21 EST 2024
User: Yrep
Spectrometer: HR+D1059
Trigger mode: 1
Integration Time (sec): 1.000000E-1
Scans to average: 1
Electric dark correction enabled: true
Nonlinearity correction enabled: false
Boxcar width: 0
XAxis mode: Wavelengths
Number of Pixels in Spectrum: 2048
>>>>>Begin Spectral Data<<<<<
223.165	-13.94
223.4	-13.94
223.635	-13.94
223.869	-14.94
224.104	-17.94
224.338	-28.94
224.573	-5.94
224.808	-6.94
225.042	-7.94
225.277	-14.94
225.511	-8.94
225.746	3.06
225.98	14.06
226.215	-4.94
226.449	16.06
226.683	21.06
226.918	35.06
227.152	36.06
227.387	36.06
227.621	33.06
227.856	45.06
228.09	51.06
228.324	51.06
228.559	48.06
228.793	46.06
229.027	55.06
229.262	62.06
229.496	67.06
229.73	85.06
229.964	90.06
230.199	76.06
230.433	70.06
230.667	85.06
230.901	83.06
231.136	86.06
231.37	84.06
231.604	94.06
231.838	74.06
232.072	82.06
232.306	79.06
232.541	86.06
232.775	64.06
233.009	79.06
233.243	93.06
233.477	85.06
233.711	75.06
233.945	74.06
234.179	63.06
234.413	84.06
234.647	70.06
234.881	73.06
235.115	80.06
235.349	89.06
235.583	79.06
235.817	73.06
236.051	82.06
236.285	77.06
236.519	66.06
236.753	83.06
236.987	64.06
237.221	65.06
237.455	92.06
237.689	73.06
237.922	82.06
238.156	86.06
238.39	77.06
238.624	84.06
238.858	77.06
239.091	81.06
239.325	86.06
239.559	75.06
239.793	76.06
240.027	77.06
240.26	81.06
240.494	58.06
240.728	67.06
240.961	75.06
241.195	84.06
241.429	66.06
241.662	70.06
241.896	79.06
242.13	68.06
242.363	75.06
242.597	78.06
242.83	72.06
243.064	65.06
243.298	80.06
243.531	72.06
243.765	76.06
243.998	83.06
244.232	60.06
244.465	77.06
244.699	80.06
244.932	75.06
245.166	70.06
245.399	73.06
245.633	72.06
245.866	70.06
246.099	90.06
246.333	64.06
246.566	80.06
246.8	74.06
247.033	64.06
247.266	91.06
247.5	74.06
247.733	71.06
247.966	74.06
248.2	90.06
248.433	82.06
248.666	82.06
248.899	84.06
249.133	79.06
249.366	97.06
249.599	93.06
249.832	87.06
250.066	78.06
250.299	90.06
250.532	89.06
250.765	63.06
250.998	84.06
251.231	82.06
251.465	76.06
251.698	76.06
251.931	66.06
252.164	80.06
252.397	84.06
252.63	57.06
252.863	62.06
253.096	73.06
253.329	83.06
253.562	75.06
253.795	62.06
254.028	83.06
254.261	76.06
254.494	76.06
254.727	81.06
254.96	80.06
255.193	90.06
255.426	80.06
255.659	78.06
255.892	88.06
256.124	84.06
256.357	92.06
256.59	76.06
256.823	67.06
257.056	78.06
257.289	72.06
257.521	75.06
257.754	72.06
257.987	79.06
258.22	91.06
258.452	87.06
258.685	89.06
258.918	85.06
259.151	87.06
259.383	87.06
259.616	84.06
259.849	79.06
260.081	93.06
260.314	82.06
260.547	86.06
260.779	90.06
261.012	88.06
261.244	89.06
261.477	86.06
261.71	92.06
261.942	111.06
262.175	112.06
262.407	92.06
262.64	73.06
262.872	93.06
263.105	78.06
263.337	83.06
263.57	81.06
263.802	69.06
264.035	69.06
264.267	84.06
264.499	78.06
264.732	95.06
264.964	91.06
265.197	77.06
265.429	84.06
265.661	89.06
265.894	84.06
266.126	95.06
266.358	85.06
266.591	88.06
266.823	76.06
267.055	72.06
267.287	82.06
267.52	88.06
267.752	69.06
267.984	92.06
268.216	76.06
268.448	75.06
268.681	74.06
268.913	81.06
269.145	87.06
269.377	84.06
269.609	68.06
269.841	90.06
270.073	80.06
270.306	88.06
270.538	82.06
270.77	90.06
271.002	95.06
271.234	84.06
271.466	78.06
271.698	85.06
271.93	104.06
272.162	79.06
272.394	78.06
272.626	84.06
272.858	83.06
273.09	88.06
273.322	81.06
273.553	78.06
273.785	80.06
274.017	70.06
274.249	72.06
274.481	92.06
274.713	87.06
274.945	84.06
275.176	96.06
275.408	96.06
275.64	96.06
275.872	97.06
276.104	96.06
276.335	98.06
276.567	95.06
276.799	111.06
277.031	117.06
277.262	125.06
277.494	102.06
277.726	88.06
277.957	85.06
278.189	88.06
278.421	88.06
278.652	94.06
278.884	89.06
279.115	89.06
279.347	93.06
279.579	96.06
279.81	99.06
280.042	130.06
280.273	163.06
280.505	116.06
280.736	89.06
280.968	89.06
281.199	100.06
281.431	80.06
281.662	77.06
281.894	68.06
282.125	102.06
282.356	112.06
282.588	133.06
282.819	118.06
283.051	81.06
283.282	77.06
283.513	94.06
283.745	93.06
283.976	94.06
284.207	69.06
284.439	74.06
284.67	82.06
284.901	87.06
285.132	104.06
285.364	69.06
285.595	87.06
285.826	97.06
286.057	97.06
286.288	89.06
286.52	91.06
286.751	77.06
286.982	95.06
287.213	74.06
287.444	78.06
287.675	82.06
287.906	107.06
288.138	88.06
288.369	90.06
288.6	96.06
288.831	93.06
289.062	77.06
289.293	89.06
289.524	89.06
289.755	82.06
289.986	91.06
290.217	100.06
290.448	83.06
290.679	82.06
290.91	91.06
291.141	83.06
291.371	93.06
291.602	82.06
291.833	87.06
292.064	94.06
292.295	82.06
292.526	72.06
292.757	80.06
292.987	74.06
293.218	78.06
293.449	81.06
293.68	74.06
293.91	82.06
294.141	94.06
294.372	93.06
294.603	84.06
294.833	86.06
295.064	87.06
295.295	86.06
295.525	82.06
295.756	97.06
295.987	117.06
296.217	146.06
296.448	125.06
296.679	96.06
296.909	87.06
297.14	77.06
297.37	82.06
297.601	81.06
297.831	96.06
298.062	84.06
298.292	89.06
298.523	91.06
298.753	92.06
298.984	89.06
299.214	86.06
299.445	86.06
299.675	101.06
299.905	97.06
300.136	80.06
300.366	82.06
300.597	85.06
300.827	76.06
301.057	106.06
301.288	102.06
301.518	86.06
301.748	99.06
301.979	103.06
302.209	94.06
302.439	95.06
302.669	83.06
302.9	85.06
303.13	99.06
303.36	96.06
303.59	113.06
303.82	109.06
304.051	94.06
304.281	85.06
304.511	86.06
304.741	81.06
304.971	66.06
305.201	82.06
305.431	95.06
305.661	86.06
305.891	97.06
306.121	107.06
306.352	100.06
306.582	109.06
306.812	84.06
307.042	112.06
307.272	124.06
307.502	114.06
307.731	124.06
307.961	109.06
308.191	90.06
308.421	91.06
308.651	84.06
308.881	81.06
309.111	90.06
309.341	83.06
309.571	99.06
309.8	101.06
310.03	92.06
310.26	97.06
310.49	99.06
310.72	105.06
310.949	94.06
311.179	101.06
311.409	100.06
311.639	89.06
311.868	103.06
312.098	95.06
312.328	100.06
312.557	103.06
312.787	111.06
313.017	113.06
313.246	93.06
313.476	96.06
313.706	78.06
313.935	108.06
314.165	116.06
314.394	106.06
314.624	97.06
314.853	92.06
315.083	96.06
315.312	90.06
315.542	88.06
315.771	105.06
316.001	95.06
316.23	87.06
316.46	84.06
316.689	87.06
316.919	99.06
317.148	92.06
317.377	96.06
317.607	81.06
317.836	108.06
318.065	100.06
318.295	97.06
318.524	86.06
318.753	86.06
318.983	92.06
319.212	107.06
319.441	83.06
319.67	108.06
319.9	101.06
320.129	94.06
320.358	102.06
320.587	105.06
320.816	101.06
321.046	107.06
321.275	92.06
321.504	102.06
321.733	94.06
321.962	89.06
322.191	106.06
322.42	97.06
322.649	118.06
322.878	108.06
323.108	115.06
323.337	137.06
323.566	143.06
323.795	172.06
324.024	220.06
324.253	439.06
324.482	937.06
324.71	1955.06
324.939	2724.06
325.168	985.06
325.397	278.06
325.626	160.06
325.855	133.06
326.084	127.06
326.313	134.06
326.542	158.06
326.77	239.06
326.999	518.06
327.228	1080.06
327.457	2032.06
327.686	1659.06
327.914	486.06
328.143	332.06
328.372	372.06
328.6	221.06
328.829	140.06
329.058	148.06
329.287	170.06
329.515	146.06
329.744	165.06
329.972	264.06
330.201	494.06
330.43	721.06
330.658	372.06
330.887	224.06
331.115	164.06
331.344	122.06
331.572	110.06
331.801	106.06
332.03	106.06
332.258	120.06
332.486	104.06
332.715	100.06
332.943	72.06
333.172	109.06
333.4	119.06
333.629	141.06
333.857	176.06
334.085	243.06
334.314	475.06
334.542	886.06
334.771	850.06
334.999	252.06
335.227	134.06
335.455	100.06
335.684	106.06
335.912	103.06
336.14	103.06
336.369	88.06
336.597	108.06
336.825	101.06
337.053	74.06
337.281	73.06
337.51	99.06
337.738	106.06
337.966	92.06
338.194	81.06
338.422	94.06
338.65	94.06
338.878	96.06
339.106	82.06
339.334	105.06
339.562	86.06
339.79	99.06
340.018	81.06
340.246	76.06
340.474	97.06
340.702	93.06
340.93	84.06
341.158	80.06
341.386	108.06
341.614	92.06
341.842	83.06
342.07	97.06
342.298	96.06
342.526	81.06
342.754	91.06
342.981	81.06
343.209	84.06
343.437	93.06
343.665	82.06
343.893	92.06
344.12	92.06
344.348	93.06
344.576	89.06
344.804	83.06
345.031	85.06
345.259	104.06
345.487	106.06
345.714	98.06
345.942	102.06
346.17	96.06
346.397	94.06
346.625	89.06
346.853	85.06
347.08	89.06
347.308	93.06
347.535	100.06
347.763	102.06
347.99	98.06
348.218	107.06
348.445	117.06
348.673	107.06
348.9	103.06
349.128	93.06
349.355	93.06
349.583	106.06
349.81	102.06
350.037	93.06
350.265	100.06
350.492	94.06
350.72	86.06
350.947	93.06
351.174	109.06
351.402	100.06
351.629	88.06
351.856	101.06
352.083	112.06
352.311	100.06
352.538	122.06
352.765	115.06
352.992	105.06
353.22	115.06
353.447	113.06
353.674	93.06
353.901	97.06
354.128	98.06
354.355	90.06
354.583	80.06
354.81	92.06
355.037	85.06
355.264	99.06
355.491	92.06
355.718	84.06
355.945	84.06
356.172	84.06
356.399	84.06
356.626	99.06
356.853	85.06
357.08	82.06
357.307	95.06
357.534	89.06
357.761	93.06
357.988	84.06
358.215	88.06
358.441	82.06
358.668	102.06
358.895	83.06
359.122	79.06
359.349	82.06
359.576	88.06
359.802	107.06
360.029	117.06
360.256	114.06
360.483	113.06
360.709	88.06
360.936	84.06
361.163	80.06
361.39	93.06
361.616	97.06
361.843	92.06
362.07	95.06
362.296	92.06
362.523	92.06
362.749	85.06
362.976	102.06
363.203	82.06
363.429	90.06
363.656	86.06
363.882	88.06
364.109	92.06
364.335	90.06
364.562	95.06
364.788	93.06
365.015	99.06
365.241	97.06
365.468	107.06
365.694	116.06
365.92	89.06
366.147	74.06
366.373	94.06
366.599	94.06
366.826	87.06
367.052	88.06
367.278	89.06
367.505	92.06
367.731	85.06
367.957	88.06
368.184	96.06
368.41	97.06
368.636	107.06
368.862	112.06
369.089	88.06
369.315	77.06
369.541	85.06
369.767	77.06
369.993	92.06
370.219	85.06
370.445	92.06
370.672	96.06
370.898	85.06
371.124	85.06
371.35	96.06
371.576	81.06
371.802	99.06
372.028	85.06
372.254	93.06
372.48	92.06
372.706	66.06
372.932	95.06
373.158	86.06
373.384	91.06
373.61	86.06
373.835	107.06
374.061	81.06
374.287	96.06
374.513	88.06
374.739	105.06
374.965	93.06
375.191	77.06
375.416	96.06
375.642	88.06
375.868	96.06
376.094	79.06
376.319	80.06
376.545	74.06
376.771	84.06
376.997	80.06
377.222	97.06
377.448	85.06
377.674	89.06
377.899	86.06
378.125	87.06
378.35	94.06
378.576	103.06
378.802	90.06
379.027	96.06
379.253	97.06
379.478	96.06
379.704	97.06
379.929	84.06
380.155	86.06
380.38	85.06
380.606	96.06
380.831	101.06
381.057	96.06
381.282	85.06
381.507	104.06
381.733	74.06
381.958	93.06
382.184	97.06
382.409	100.06
382.634	98.06
382.86	107.06
383.085	106.06
383.31	100.06
383.535	95.06
383.761	100.06
383.986	92.06
384.211	95.06
384.436	94.06
384.662	121.06
384.887	117.06
385.112	103.06
385.337	97.06
385.562	101.06
385.787	116.06
386.013	104.06
386.238	126.06
386.463	112.06
386.688	109.06
386.913	102.06
387.138	114.06
387.363	106.06
387.588	108.06
387.813	113.06
388.038	101.06
388.263	112.06
388.488	105.06
388.713	103.06
388.938	105.06
389.163	95.06
389.387	96.06
389.612	97.06
389.837	90.06
390.062	80.06
390.287	105.06
390.512	93.06
390.736	82.06
390.961	92.06
391.186	99.06
391.411	96.06
391.636	97.06
391.86	84.06
392.085	88.06
392.31	85.06
392.534	86.06
392.759	105.06
392.984	89.06
393.208	85.06
393.433	96.06
393.658	96.06
393.882	93.06
394.107	90.06
394.331	85.06
394.556	72.06
394.78	77.06
395.005	79.06
395.229	84.06
395.454	80.06
395.678	100.06
395.903	97.06
396.127	91.06
396.352	86.06
396.576	72.06
396.801	61.06
397.025	87.06
397.249	88.06
397.474	100.06
397.698	75.06
397.922	97.06
398.147	95.06
398.371	80.06
398.595	83.06
398.82	73.06
399.044	85.06
399.268	96.06
399.492	77.06
399.717	84.06
399.941	110.06
400.165	80.06
400.389	74.06
400.613	85.06
400.837	100.06
401.062	72.06
401.286	91.06
401.51	98.06
401.734	91.06
401.958	94.06
402.182	130.06
402.406	181.06
402.63	136.06
402.854	93.06
403.078	86.06
403.302	97.06
403.526	83.06
403.75	80.06
403.974	85.06
404.198	70.06
404.422	93.06
404.645	101.06
404.869	87.06
405.093	95.06
405.317	121.06
405.541	119.06
405.765	107.06
405.988	118.06
406.212	168.06
406.436	259.06
406.66	166.06
406.883	112.06
407.107	91.06
407.331	90.06
407.555	108.06
407.778	107.06
408.002	101.06
408.226	96.06
408.449	82.06
408.673	89.06
408.896	81.06
409.12	102.06
409.344	90.06
409.567	86.06
409.791	84.06
410.014	99.06
410.238	92.06
410.461	91.06
410.685	91.06
410.908	92.06
411.132	97.06
411.355	111.06
411.578	101.06
411.802	88.06
412.025	96.06
412.249	89.06
412.472	91.06
412.695	125.06
412.919	104.06
413.142	96.06
413.365	93.06
413.589	81.06
413.812	84.06
414.035	108.06
414.258	97.06
414.482	86.06
414.705	89.06
414.928	98.06
415.151	86.06
415.374	85.06
415.597	105.06
415.821	86.06
416.044	84.06
416.267	85.06
416.49	91.06
416.713	64.06
416.936	85.06
417.159	76.06
417.382	89.06
417.605	101.06
417.828	98.06
418.051	95.06
418.274	79.06
418.497	78.06
418.72	80.06
418.943	80.06
419.166	81.06
419.389	94.06
419.611	98.06
419.834	83.06
420.057	84.06
420.28	97.06
420.503	90.06
420.726	81.06
420.948	94.06
421.171	96.06
421.394	88.06
421.617	89.06
421.839	90.06
422.062	84.06
422.285	86.06
422.507	79.06
422.73	106.06
422.953	97.06
423.175	97.06
423.398	78.06
423.621	86.06
423.843	84.06
424.066	91.06
424.288	100.06
424.511	91.06
424.733	115.06
424.956	125.06
425.178	106.06
425.401	102.06
425.623	112.06
425.846	84.06
426.068	95.06
426.291	84.06
426.513	97.06
426.735	93.06
426.958	97.06
427.18	117.06
427.402	154.06
427.625	204.06
427.847	199.06
428.069	181.06
428.292	105.06
428.514	78.06
428.736	98.06
428.958	82.06
429.181	73.06
429.403	89.06
429.625	81.06
429.847	95.06
430.069	96.06
430.292	79.06
430.514	82.06
430.736	92.06
430.958	93.06
431.18	83.06
431.402	84.06
431.624	86.06
431.846	84.06
432.068	82.06
432.29	102.06
432.512	91.06
432.734	80.06
432.956	84.06
433.178	89.06
433.4	96.06
433.622	97.06
433.844	86.06
434.066	94.06
434.287	92.06
434.509	93.06
434.731	86.06
434.953	98.06
435.175	98.06
435.397	84.06
435.618	89.06
435.84	110.06
436.062	127.06
436.284	132.06
436.505	109.06
436.727	102.06
436.949	82.06
437.17	86.06
437.392	95.06
437.614	90.06
437.835	115.06
438.057	127.06
438.278	120.06
438.5	98.06
438.721	121.06
438.943	105.06
439.165	86.06
439.386	84.06
439.608	84.06
439.829	101.06
440.05	130.06
440.272	160.06
440.493	111.06
440.715	85.06
440.936	88.06
441.158	92.06
441.379	88.06
441.6	90.06
441.822	110.06
442.043	91.06
442.264	112.06
442.486	112.06
442.707	95.06
442.928	104.06
443.149	142.06
443.371	154.06
443.592	117.06
443.813	119.06
444.034	117.06
444.255	98.06
444.476	78.06
444.698	92.06
444.919	85.06
445.14	113.06
445.361	132.06
445.582	139.06
445.803	169.06
446.024	169.06
446.245	152.06
446.466	135.06
446.687	102.06
446.908	99.06
447.129	78.06
447.35	97.06
447.571	86.06
447.792	96.06
448.013	81.06
448.234	97.06
448.455	109.06
448.675	127.06
448.896	121.06
449.117	111.06
449.338	110.06
449.559	143.06
449.779	164.06
450	96.06
450.221	80.06
450.442	86.06
450.662	104.06
450.883	111.06
451.104	130.06
451.324	107.06
451.545	97.06
451.766	86.06
451.986	89.06
452.207	113.06
452.428	103.06
452.648	112.06
452.869	125.06
453.089	114.06
453.31	124.06
453.53	100.06
453.751	92.06
453.971	97.06
454.192	130.06
454.412	90.06
454.633	90.06
454.853	90.06
455.073	86.06
455.294	91.06
455.514	85.06
455.734	98.06
455.955	90.06
456.175	91.06
456.395	85.06
456.616	93.06
456.836	84.06
457.056	89.06
457.276	80.06
457.497	84.06
457.717	67.06
457.937	108.06
458.157	96.06
458.377	97.06
458.598	121.06
458.818	177.06
459.038	181.06
459.258	142.06
459.478	99.06
459.698	81.06
459.918	96.06
460.138	90.06
460.358	82.06
460.578	85.06
460.798	100.06
461.018	88.06
461.238	82.06
461.458	84.06
461.678	83.06
461.898	84.06
462.118	97.06
462.338	80.06
462.558	82.06
462.777	93.06
462.997	98.06
463.217	97.06
463.437	104.06
463.657	77.06
463.876	82.06
464.096	99.06
464.316	105.06
464.536	90.06
464.755	100.06
464.975	98.06
465.195	195.06
465.414	188.06
465.634	106.06
465.854	103.06
466.073	100.06
466.293	96.06
466.512	79.06
466.732	76.06
466.951	98.06
467.171	101.06
467.391	100.06
467.61	121.06
467.829	146.06
468.049	320.06
468.268	400.06
468.488	140.06
468.707	84.06
468.927	92.06
469.146	100.06
469.365	74.06
469.585	90.06
469.804	93.06
470.023	103.06
470.243	103.06
470.462	109.06
470.681	121.06
470.901	75.06
471.12	92.06
471.339	94.06
471.558	82.06
471.777	115.06
471.997	197.06
472.216	561.06
472.435	1183.06
472.654	338.06
472.873	117.06
473.092	90.06
473.311	74.06
473.53	92.06
473.749	89.06
473.968	91.06
474.187	116.06
474.406	109.06
474.625	95.06
474.844	92.06
475.063	85.06
475.282	83.06
475.501	80.06
475.72	88.06
475.939	91.06
476.158	88.06
476.377	101.06
476.596	92.06
476.814	94.06
477.033	85.06
477.252	94.06
477.471	85.06
477.69	92.06
477.908	87.06
478.127	89.06
478.346	79.06
478.564	107.06
478.783	88.06
479.002	111.06
479.22	92.06
479.439	116.06
479.658	121.06
479.876	103.06
480.095	101.06
480.313	117.06
480.532	138.06
480.751	188.06
480.969	530.06
481.188	2080.06
481.406	1258.06
481.624	206.06
481.843	113.06
482.061	88.06
482.28	89.06
482.498	99.06
482.717	83.06
482.935	96.06
483.153	89.06
483.372	91.06
483.59	89.06
483.808	96.06
484.027	87.06
484.245	86.06
484.463	97.06
484.681	89.06
484.9	75.06
485.118	89.06
485.336	85.06
485.554	100.06
485.772	84.06
485.99	100.06
486.209	116.06
486.427	105.06
486.645	118.06
486.863	108.06
487.081	106.06
487.299	95.06
487.517	93.06
487.735	97.06
487.953	85.06
488.171	92.06
488.389	107.06
488.607	101.06
488.825	81.06
489.043	101.06
489.261	109.06
489.479	88.06
489.696	82.06
489.914	77.06
490.132	84.06
490.35	94.06
490.568	93.06
490.786	90.06
491.003	97.06
491.221	79.06
491.439	83.06
491.657	99.06
491.874	89.06
492.092	88.06
492.31	76.06
492.527	89.06
492.745	98.06
492.963	100.06
493.18	89.06
493.398	107.06
493.615	82.06
493.833	111.06
494.05	93.06
494.268	95.06
494.485	74.06
494.703	98.06
494.92	87.06
495.138	81.06
495.355	97.06
495.573	85.06
495.79	92.06
496.008	85.06
496.225	72.06
496.442	87.06
496.66	97.06
496.877	80.06
497.094	95.06
497.312	85.06
497.529	94.06
497.746	82.06
497.963	86.06
498.181	75.06
498.398	113.06
498.615	106.06
498.832	117.06
499.049	88.06
499.267	100.06
499.484	76.06
499.701	89.06
499.918	85.06
500.135	99.06
500.352	92.06
500.569	91.06
500.786	99.06
501.003	97.06
501.22	89.06
501.437	96.06
501.654	92.06
501.871	110.06
502.088	90.06
502.305	78.06
502.522	100.06
502.739	85.06
502.956	101.06
503.172	94.06
503.389	98.06
503.606	112.06
503.823	91.06
504.04	93.06
504.256	93.06
504.473	94.06
504.69	81.06
504.907	90.06
505.123	96.06
505.34	80.06
505.557	107.06
505.773	85.06
505.99	99.06
506.207	76.06
506.423	85.06
506.64	99.06
506.856	84.06
507.073	97.06
507.289	92.06
507.506	107.06
507.722	119.06
507.939	117.06
508.155	107.06
508.372	91.06
508.588	98.06
508.805	95.06
509.021	90.06
509.238	89.06
509.454	97.06
509.67	107.06
509.887	112.06
510.103	137.06
510.319	220.06
510.536	718.06
510.752	2454.06
510.968	684.06
511.184	156.06
511.401	131.06
511.617	108.06
511.833	96.06
512.049	91.06
512.265	88.06
512.481	97.06
512.698	84.06
512.914	92.06
513.13	87.06
513.346	89.06
513.562	104.06
513.778	90.06
513.994	111.06
514.21	105.06
514.426	138.06
514.642	153.06
514.858	130.06
