Data from Circ_1990_H10_HRD10591_00070.txt Node
Date: Wed Jan 03 11:55:18 EST 2024
User: Yrep
Spectrometer: HR+D1059
Trigger mode: 1
Integration Time (sec): 1.000000E-1
Scans to average: 1
Electric dark correction enabled: true
Nonlinearity correction enabled: false
Boxcar width: 0
XAxis mode: Wavelengths
Number of Pixels in Spectrum: 2048
>>>>>Begin Spectral Data<<<<<
223.165	-8.12
223.4	-8.12
223.635	-8.12
223.869	-21.12
224.104	-29.12
224.338	-23.12
224.573	-7.12
224.808	-15.12
225.042	-2.12
225.277	-20.12
225.511	1.88
225.746	5.88
225.98	9.88
226.215	15.88
226.449	11.88
226.683	14.88
226.918	29.88
227.152	35.88
227.387	34.88
227.621	40.88
227.856	38.88
228.09	40.88
228.324	35.88
228.559	60.88
228.793	53.88
229.027	70.88
229.262	78.88
229.496	66.88
229.73	90.88
229.964	86.88
230.199	71.88
230.433	66.88
230.667	82.88
230.901	78.88
231.136	54.88
231.37	75.88
231.604	68.88
231.838	61.88
232.072	69.88
232.306	65.88
232.541	72.88
232.775	69.88
233.009	68.88
233.243	82.88
233.477	83.88
233.711	63.88
233.945	90.88
234.179	80.88
234.413	78.88
234.647	60.88
234.881	62.88
235.115	71.88
235.349	66.88
235.583	79.88
235.817	67.88
236.051	63.88
236.285	72.88
236.519	72.88
236.753	75.88
236.987	80.88
237.221	65.88
237.455	88.88
237.689	76.88
237.922	75.88
238.156	72.88
238.39	66.88
238.624	82.88
238.858	60.88
239.091	81.88
239.325	79.88
239.559	81.88
239.793	80.88
240.027	84.88
240.26	74.88
240.494	75.88
240.728	66.88
240.961	70.88
241.195	80.88
241.429	75.88
241.662	67.88
241.896	65.88
242.13	66.88
242.363	71.88
242.597	77.88
242.83	58.88
243.064	54.88
243.298	84.88
243.531	68.88
243.765	70.88
243.998	88.88
244.232	65.88
244.465	94.88
244.699	92.88
244.932	71.88
245.166	76.88
245.399	58.88
245.633	86.88
245.866	82.88
246.099	84.88
246.333	73.88
246.566	71.88
246.8	81.88
247.033	93.88
247.266	75.88
247.5	72.88
247.733	74.88
247.966	83.88
248.2	77.88
248.433	76.88
248.666	68.88
248.899	81.88
249.133	73.88
249.366	89.88
249.599	94.88
249.832	90.88
250.066	83.88
250.299	79.88
250.532	78.88
250.765	69.88
250.998	71.88
251.231	76.88
251.465	73.88
251.698	74.88
251.931	79.88
252.164	70.88
252.397	60.88
252.63	87.88
252.863	78.88
253.096	64.88
253.329	81.88
253.562	78.88
253.795	81.88
254.028	73.88
254.261	72.88
254.494	86.88
254.727	67.88
254.96	72.88
255.193	71.88
255.426	80.88
255.659	82.88
255.892	82.88
256.124	89.88
256.357	77.88
256.59	87.88
256.823	74.88
257.056	80.88
257.289	67.88
257.521	87.88
257.754	65.88
257.987	80.88
258.22	82.88
258.452	83.88
258.685	106.88
258.918	71.88
259.151	76.88
259.383	90.88
259.616	70.88
259.849	82.88
260.081	87.88
260.314	77.88
260.547	70.88
260.779	87.88
261.012	89.88
261.244	74.88
261.477	92.88
261.71	88.88
261.942	89.88
262.175	103.88
262.407	83.88
262.64	83.88
262.872	72.88
263.105	77.88
263.337	67.88
263.57	78.88
263.802	85.88
264.035	90.88
264.267	72.88
264.499	79.88
264.732	67.88
264.964	64.88
265.197	71.88
265.429	63.88
265.661	86.88
265.894	74.88
266.126	96.88
266.358	62.88
266.591	89.88
266.823	70.88
267.055	75.88
267.287	88.88
267.52	83.88
267.752	81.88
267.984	80.88
268.216	73.88
268.448	77.88
268.681	94.88
268.913	94.88
269.145	76.88
269.377	80.88
269.609	86.88
269.841	98.88
270.073	74.88
270.306	81.88
270.538	75.88
270.77	82.88
271.002	76.88
271.234	79.88
271.466	86.88
271.698	83.88
271.93	78.88
272.162	75.88
272.394	75.88
272.626	73.88
272.858	98.88
273.09	83.88
273.322	81.88
273.553	89.88
273.785	84.88
274.017	82.88
274.249	88.88
274.481	86.88
274.713	82.88
274.945	76.88
275.176	87.88
275.408	93.88
275.64	90.88
275.872	93.88
276.104	91.88
276.335	84.88
276.567	91.88
276.799	108.88
277.031	122.88
277.262	121.88
277.494	83.88
277.726	75.88
277.957	71.88
278.189	74.88
278.421	73.88
278.652	80.88
278.884	62.88
279.115	73.88
279.347	84.88
279.579	76.88
279.81	90.88
280.042	124.88
280.273	141.88
280.505	109.88
280.736	82.88
280.968	84.88
281.199	77.88
281.431	86.88
281.662	73.88
281.894	84.88
282.125	90.88
282.356	109.88
282.588	147.88
282.819	129.88
283.051	79.88
283.282	90.88
283.513	86.88
283.745	75.88
283.976	83.88
284.207	73.88
284.439	79.88
284.67	94.88
284.901	76.88
285.132	82.88
285.364	94.88
285.595	88.88
285.826	80.88
286.057	84.88
286.288	79.88
286.52	93.88
286.751	84.88
286.982	86.88
287.213	81.88
287.444	82.88
287.675	89.88
287.906	77.88
288.138	87.88
288.369	96.88
288.6	87.88
288.831	81.88
289.062	87.88
289.293	93.88
289.524	93.88
289.755	73.88
289.986	84.88
290.217	88.88
290.448	84.88
290.679	79.88
290.91	79.88
291.141	84.88
291.371	79.88
291.602	76.88
291.833	88.88
292.064	84.88
292.295	83.88
292.526	84.88
292.757	89.88
292.987	93.88
293.218	87.88
293.449	92.88
293.68	84.88
293.91	91.88
294.141	79.88
294.372	90.88
294.603	92.88
294.833	89.88
295.064	94.88
295.295	83.88
295.525	99.88
295.756	111.88
295.987	102.88
296.217	121.88
296.448	119.88
296.679	98.88
296.909	81.88
297.14	79.88
297.37	82.88
297.601	90.88
297.831	86.88
298.062	91.88
298.292	89.88
298.523	70.88
298.753	81.88
298.984	99.88
299.214	95.88
299.445	74.88
299.675	84.88
299.905	91.88
300.136	76.88
300.366	88.88
300.597	100.88
300.827	89.88
301.057	104.88
301.288	101.88
301.518	79.88
301.748	88.88
301.979	96.88
302.209	87.88
302.439	88.88
302.669	80.88
302.9	88.88
303.13	86.88
303.36	97.88
303.59	113.88
303.82	110.88
304.051	87.88
304.281	86.88
304.511	93.88
304.741	88.88
304.971	91.88
305.201	97.88
305.431	85.88
305.661	74.88
305.891	88.88
306.121	86.88
306.352	105.88
306.582	105.88
306.812	90.88
307.042	101.88
307.272	118.88
307.502	107.88
307.731	120.88
307.961	93.88
308.191	83.88
308.421	98.88
308.651	88.88
308.881	95.88
309.111	90.88
309.341	88.88
309.571	93.88
309.8	85.88
310.03	98.88
310.26	100.88
310.49	79.88
310.72	102.88
310.949	86.88
311.179	107.88
311.409	86.88
311.639	91.88
311.868	106.88
312.098	84.88
312.328	91.88
312.557	96.88
312.787	108.88
313.017	103.88
313.246	97.88
313.476	82.88
313.706	90.88
313.935	81.88
314.165	98.88
314.394	107.88
314.624	97.88
314.853	96.88
315.083	91.88
315.312	67.88
315.542	95.88
315.771	97.88
316.001	85.88
316.23	92.88
316.46	88.88
316.689	76.88
316.919	99.88
317.148	95.88
317.377	96.88
317.607	97.88
317.836	98.88
318.065	85.88
318.295	91.88
318.524	85.88
318.753	81.88
318.983	76.88
319.212	98.88
319.441	100.88
319.67	106.88
319.9	98.88
320.129	77.88
320.358	83.88
320.587	87.88
320.816	116.88
321.046	98.88
321.275	87.88
321.504	98.88
321.733	78.88
321.962	87.88
322.191	92.88
322.42	99.88
322.649	112.88
322.878	101.88
323.108	109.88
323.337	116.88
323.566	134.88
323.795	163.88
324.024	186.88
324.253	392.88
324.482	830.88
324.71	1749.88
324.939	2273.88
325.168	844.88
325.397	249.88
325.626	135.88
325.855	124.88
326.084	127.88
326.313	123.88
326.542	148.88
326.77	242.88
326.999	470.88
327.228	963.88
327.457	1750.88
327.686	1372.88
327.914	428.88
328.143	302.88
328.372	301.88
328.6	208.88
328.829	150.88
329.058	123.88
329.287	132.88
329.515	129.88
329.744	160.88
329.972	253.88
330.201	444.88
330.43	567.88
330.658	307.88
330.887	186.88
331.115	145.88
331.344	99.88
331.572	100.88
331.801	95.88
332.03	96.88
332.258	103.88
332.486	93.88
332.715	96.88
332.943	92.88
333.172	98.88
333.4	108.88
333.629	108.88
333.857	157.88
334.085	243.88
334.314	417.88
334.542	777.88
334.771	685.88
334.999	220.88
335.227	119.88
335.455	113.88
335.684	102.88
335.912	87.88
336.14	92.88
336.369	95.88
336.597	112.88
336.825	106.88
337.053	100.88
337.281	99.88
337.51	79.88
337.738	96.88
337.966	101.88
338.194	94.88
338.422	91.88
338.65	94.88
338.878	92.88
339.106	91.88
339.334	83.88
339.562	100.88
339.79	78.88
340.018	93.88
340.246	93.88
340.474	85.88
340.702	88.88
340.93	98.88
341.158	71.88
341.386	96.88
341.614	93.88
341.842	83.88
342.07	87.88
342.298	67.88
342.526	88.88
342.754	83.88
342.981	87.88
343.209	90.88
343.437	99.88
343.665	84.88
343.893	97.88
344.12	82.88
344.348	85.88
344.576	97.88
344.804	92.88
345.031	90.88
345.259	87.88
345.487	96.88
345.714	95.88
345.942	89.88
346.17	88.88
346.397	80.88
346.625	95.88
346.853	79.88
347.08	80.88
347.308	90.88
347.535	95.88
347.763	99.88
347.99	100.88
348.218	108.88
348.445	111.88
348.673	95.88
348.9	86.88
349.128	100.88
349.355	97.88
349.583	107.88
349.81	97.88
350.037	79.88
350.265	81.88
350.492	82.88
350.72	91.88
350.947	95.88
351.174	100.88
351.402	112.88
351.629	103.88
351.856	113.88
352.083	93.88
352.311	96.88
352.538	93.88
352.765	99.88
352.992	106.88
353.22	106.88
353.447	100.88
353.674	90.88
353.901	94.88
354.128	90.88
354.355	102.88
354.583	108.88
354.81	93.88
355.037	92.88
355.264	96.88
355.491	89.88
355.718	107.88
355.945	90.88
356.172	90.88
356.399	77.88
356.626	87.88
356.853	95.88
357.08	91.88
357.307	80.88
357.534	95.88
357.761	101.88
357.988	97.88
358.215	100.88
358.441	107.88
358.668	95.88
358.895	94.88
359.122	91.88
359.349	77.88
359.576	95.88
359.802	99.88
360.029	115.88
360.256	106.88
360.483	92.88
360.709	91.88
360.936	90.88
361.163	83.88
361.39	107.88
361.616	82.88
361.843	89.88
362.07	98.88
362.296	93.88
362.523	95.88
362.749	89.88
362.976	84.88
363.203	82.88
363.429	80.88
363.656	94.88
363.882	86.88
364.109	96.88
364.335	78.88
364.562	80.88
364.788	93.88
365.015	108.88
365.241	87.88
365.468	110.88
365.694	92.88
365.92	90.88
366.147	80.88
366.373	93.88
366.599	76.88
366.826	90.88
367.052	87.88
367.278	95.88
367.505	95.88
367.731	72.88
367.957	90.88
368.184	83.88
368.41	93.88
368.636	95.88
368.862	118.88
369.089	114.88
369.315	85.88
369.541	80.88
369.767	86.88
369.993	98.88
370.219	91.88
370.445	78.88
370.672	78.88
370.898	90.88
371.124	95.88
371.35	87.88
371.576	87.88
371.802	75.88
372.028	87.88
372.254	65.88
372.48	80.88
372.706	92.88
372.932	89.88
373.158	89.88
373.384	81.88
373.61	81.88
373.835	69.88
374.061	83.88
374.287	86.88
374.513	92.88
374.739	76.88
374.965	77.88
375.191	93.88
375.416	90.88
375.642	78.88
375.868	87.88
376.094	93.88
376.319	74.88
376.545	82.88
376.771	86.88
376.997	83.88
377.222	82.88
377.448	86.88
377.674	78.88
377.899	92.88
378.125	85.88
378.35	75.88
378.576	89.88
378.802	78.88
379.027	86.88
379.253	95.88
379.478	86.88
379.704	92.88
379.929	96.88
380.155	74.88
380.38	91.88
380.606	103.88
380.831	94.88
381.057	98.88
381.282	88.88
381.507	102.88
381.733	95.88
381.958	88.88
382.184	104.88
382.409	108.88
382.634	96.88
382.86	94.88
383.085	94.88
383.31	88.88
383.535	99.88
383.761	106.88
383.986	106.88
384.211	94.88
384.436	101.88
384.662	102.88
384.887	111.88
385.112	93.88
385.337	99.88
385.562	104.88
385.787	92.88
386.013	105.88
386.238	106.88
386.463	99.88
386.688	114.88
386.913	108.88
387.138	100.88
387.363	113.88
387.588	104.88
387.813	106.88
388.038	112.88
388.263	121.88
388.488	114.88
388.713	87.88
388.938	99.88
389.163	100.88
389.387	96.88
389.612	96.88
389.837	82.88
390.062	84.88
390.287	77.88
390.512	104.88
390.736	90.88
390.961	91.88
391.186	91.88
391.411	89.88
391.636	75.88
391.86	75.88
392.085	83.88
392.31	80.88
392.534	91.88
392.759	87.88
392.984	84.88
393.208	81.88
393.433	75.88
393.658	79.88
393.882	78.88
394.107	77.88
394.331	85.88
394.556	96.88
394.78	75.88
395.005	79.88
395.229	86.88
395.454	83.88
395.678	85.88
395.903	86.88
396.127	88.88
396.352	86.88
396.576	88.88
396.801	83.88
397.025	84.88
397.249	93.88
397.474	95.88
397.698	92.88
397.922	70.88
398.147	75.88
398.371	88.88
398.595	83.88
398.82	88.88
399.044	91.88
399.268	77.88
399.492	75.88
399.717	86.88
399.941	90.88
400.165	100.88
400.389	91.88
400.613	103.88
400.837	97.88
401.062	95.88
401.286	95.88
401.51	76.88
401.734	77.88
401.958	87.88
402.182	130.88
402.406	151.88
402.63	114.88
402.854	93.88
403.078	76.88
403.302	84.88
403.526	88.88
403.75	81.88
403.974	79.88
404.198	83.88
404.422	90.88
404.645	83.88
404.869	93.88
405.093	98.88
405.317	111.88
405.541	108.88
405.765	99.88
405.988	106.88
406.212	164.88
406.436	211.88
406.66	131.88
406.883	104.88
407.107	104.88
407.331	89.88
407.555	91.88
407.778	81.88
408.002	89.88
408.226	97.88
408.449	92.88
408.673	87.88
408.896	82.88
409.12	96.88
409.344	87.88
409.567	84.88
409.791	90.88
410.014	99.88
410.238	74.88
410.461	83.88
410.685	103.88
410.908	94.88
411.132	97.88
411.355	104.88
411.578	107.88
411.802	84.88
412.025	89.88
412.249	100.88
412.472	104.88
412.695	110.88
412.919	104.88
413.142	77.88
413.365	85.88
413.589	88.88
413.812	87.88
414.035	89.88
414.258	89.88
414.482	90.88
414.705	102.88
414.928	79.88
415.151	76.88
415.374	100.88
415.597	89.88
415.821	72.88
416.044	97.88
416.267	84.88
416.49	79.88
416.713	74.88
416.936	94.88
417.159	91.88
417.382	88.88
417.605	79.88
417.828	90.88
418.051	82.88
418.274	93.88
418.497	90.88
418.72	92.88
418.943	90.88
419.166	84.88
419.389	97.88
419.611	89.88
419.834	84.88
420.057	85.88
420.28	84.88
420.503	96.88
420.726	64.88
420.948	79.88
421.171	85.88
421.394	91.88
421.617	77.88
421.839	83.88
422.062	86.88
422.285	82.88
422.507	100.88
422.73	92.88
422.953	90.88
423.175	105.88
423.398	88.88
423.621	74.88
423.843	71.88
424.066	84.88
424.288	73.88
424.511	92.88
424.733	97.88
424.956	102.88
425.178	90.88
425.401	115.88
425.623	125.88
425.846	101.88
426.068	95.88
426.291	88.88
426.513	93.88
426.735	87.88
426.958	96.88
427.18	75.88
427.402	137.88
427.625	206.88
427.847	176.88
428.069	163.88
428.292	98.88
428.514	99.88
428.736	83.88
428.958	90.88
429.181	91.88
429.403	84.88
429.625	87.88
429.847	74.88
430.069	95.88
430.292	94.88
430.514	89.88
430.736	80.88
430.958	81.88
431.18	73.88
431.402	78.88
431.624	74.88
431.846	81.88
432.068	75.88
432.29	78.88
432.512	91.88
432.734	88.88
432.956	95.88
433.178	104.88
433.4	99.88
433.622	111.88
433.844	89.88
434.066	99.88
434.287	88.88
434.509	88.88
434.731	100.88
434.953	89.88
435.175	94.88
435.397	84.88
435.618	89.88
435.84	111.88
436.062	113.88
436.284	121.88
436.505	111.88
436.727	99.88
436.949	89.88
437.17	82.88
437.392	79.88
437.614	78.88
437.835	113.88
438.057	122.88
438.278	99.88
438.5	108.88
438.721	116.88
438.943	111.88
439.165	80.88
439.386	81.88
439.608	79.88
439.829	99.88
440.05	137.88
440.272	162.88
440.493	85.88
440.715	82.88
440.936	80.88
441.158	87.88
441.379	91.88
441.6	89.88
441.822	94.88
442.043	96.88
442.264	99.88
442.486	103.88
442.707	89.88
442.928	104.88
443.149	131.88
443.371	150.88
443.592	105.88
443.813	113.88
444.034	118.88
444.255	107.88
444.476	84.88
444.698	90.88
444.919	96.88
445.14	140.88
445.361	129.88
445.582	112.88
445.803	154.88
446.024	137.88
446.245	143.88
446.466	113.88
446.687	83.88
446.908	82.88
447.129	88.88
447.35	97.88
447.571	87.88
447.792	80.88
448.013	91.88
448.234	98.88
448.455	103.88
448.675	113.88
448.896	111.88
449.117	100.88
449.338	97.88
449.559	130.88
449.779	121.88
450	83.88
450.221	90.88
450.442	102.88
450.662	99.88
450.883	100.88
451.104	107.88
451.324	107.88
451.545	91.88
451.766	90.88
451.986	80.88
452.207	91.88
452.428	103.88
452.648	94.88
452.869	102.88
453.089	98.88
453.31	121.88
453.53	86.88
453.751	94.88
453.971	104.88
454.192	123.88
454.412	90.88
454.633	83.88
454.853	89.88
455.073	74.88
455.294	97.88
455.514	102.88
455.734	79.88
455.955	81.88
456.175	77.88
456.395	82.88
456.616	70.88
456.836	83.88
457.056	83.88
457.276	79.88
457.497	80.88
457.717	78.88
457.937	91.88
458.157	88.88
458.377	103.88
458.598	99.88
458.818	144.88
459.038	168.88
459.258	123.88
459.478	105.88
459.698	74.88
459.918	84.88
460.138	80.88
460.358	74.88
460.578	90.88
460.798	81.88
461.018	91.88
461.238	93.88
461.458	83.88
461.678	80.88
461.898	77.88
462.118	75.88
462.338	76.88
462.558	75.88
462.777	75.88
462.997	85.88
463.217	101.88
463.437	98.88
463.657	82.88
463.876	83.88
464.096	81.88
464.316	96.88
464.536	97.88
464.755	99.88
464.975	122.88
465.195	178.88
465.414	178.88
465.634	98.88
465.854	86.88
466.073	96.88
466.293	94.88
466.512	86.88
466.732	80.88
466.951	93.88
467.171	90.88
467.391	91.88
467.61	100.88
467.829	150.88
468.049	279.88
468.268	342.88
468.488	137.88
468.707	82.88
468.927	94.88
469.146	88.88
469.365	68.88
469.585	72.88
469.804	87.88
470.023	108.88
470.243	90.88
470.462	111.88
470.681	127.88
470.901	87.88
471.12	95.88
471.339	102.88
471.558	100.88
471.777	110.88
471.997	174.88
472.216	502.88
472.435	997.88
472.654	268.88
472.873	110.88
473.092	86.88
473.311	75.88
473.53	65.88
473.749	80.88
473.968	99.88
474.187	104.88
474.406	101.88
474.625	78.88
474.844	84.88
475.063	79.88
475.282	90.88
475.501	82.88
475.72	81.88
475.939	89.88
476.158	90.88
476.377	73.88
476.596	88.88
476.814	91.88
477.033	88.88
477.252	86.88
477.471	90.88
477.69	83.88
477.908	84.88
478.127	94.88
478.346	90.88
478.564	83.88
478.783	94.88
479.002	87.88
479.22	94.88
479.439	105.88
479.658	108.88
479.876	98.88
480.095	104.88
480.313	99.88
480.532	120.88
480.751	175.88
480.969	474.88
481.188	1718.88
481.406	991.88
481.624	187.88
481.843	96.88
482.061	86.88
482.28	84.88
482.498	96.88
482.717	87.88
482.935	88.88
483.153	88.88
483.372	89.88
483.59	95.88
483.808	93.88
484.027	92.88
484.245	81.88
484.463	84.88
484.681	100.88
484.9	104.88
485.118	100.88
485.336	92.88
485.554	97.88
485.772	95.88
485.99	90.88
486.209	90.88
486.427	107.88
486.645	115.88
486.863	115.88
487.081	87.88
487.299	111.88
487.517	90.88
487.735	98.88
487.953	90.88
488.171	92.88
488.389	107.88
488.607	90.88
488.825	79.88
489.043	86.88
489.261	92.88
489.479	100.88
489.696	93.88
489.914	91.88
490.132	87.88
490.35	76.88
490.568	91.88
490.786	80.88
491.003	84.88
491.221	91.88
491.439	84.88
491.657	89.88
491.874	92.88
492.092	87.88
492.31	91.88
492.527	99.88
492.745	86.88
492.963	81.88
493.18	83.88
493.398	96.88
493.615	101.88
493.833	74.88
494.05	73.88
494.268	80.88
494.485	83.88
494.703	77.88
494.92	89.88
495.138	84.88
495.355	86.88
495.573	89.88
495.79	85.88
496.008	89.88
496.225	83.88
496.442	95.88
496.66	83.88
496.877	92.88
497.094	99.88
497.312	102.88
497.529	82.88
497.746	100.88
497.963	95.88
498.181	76.88
498.398	102.88
498.615	105.88
498.832	97.88
499.049	90.88
499.267	104.88
499.484	90.88
499.701	85.88
499.918	97.88
500.135	86.88
500.352	98.88
500.569	91.88
500.786	83.88
501.003	90.88
501.22	88.88
501.437	78.88
501.654	107.88
501.871	110.88
502.088	92.88
502.305	93.88
502.522	90.88
502.739	76.88
502.956	98.88
503.172	80.88
503.389	88.88
503.606	101.88
503.823	96.88
504.04	78.88
504.256	87.88
504.473	92.88
504.69	100.88
504.907	79.88
505.123	97.88
505.34	82.88
505.557	86.88
505.773	80.88
505.99	77.88
506.207	95.88
506.423	73.88
506.64	94.88
506.856	90.88
507.073	87.88
507.289	97.88
507.506	87.88
507.722	107.88
507.939	104.88
508.155	102.88
508.372	91.88
508.588	81.88
508.805	74.88
509.021	88.88
509.238	94.88
509.454	100.88
509.67	95.88
509.887	105.88
510.103	126.88
510.319	206.88
510.536	735.88
510.752	2265.88
510.968	623.88
511.184	161.88
511.401	110.88
511.617	113.88
511.833	99.88
512.049	86.88
512.265	92.88
512.481	81.88
512.698	97.88
512.914	89.88
513.13	93.88
513.346	88.88
513.562	81.88
513.778	82.88
513.994	70.88
514.21	117.88
514.426	119.88
514.642	127.88
514.858	137.88
515.074	166.88
515.29	483.88
515.506	1590.88
515.721	577.88
515.937	148.88
