Data from Circ_1990_H10_HRD10591_00011.txt Node
Date: Wed Jan 03 11:55:06 EST 2024
User: Yrep
Spectrometer: HR+D1059
Trigger mode: 1
Integration Time (sec): 1.000000E-1
Scans to average: 1
Electric dark correction enabled: true
Nonlinearity correction enabled: false
Boxcar width: 0
XAxis mode: Wavelengths
Number of Pixels in Spectrum: 2048
>>>>>Begin Spectral Data<<<<<
223.165	-10.5
223.4	-10.5
223.635	-10.5
223.869	-16.5
224.104	-20.5
224.338	-10.5
224.573	-4.5
224.808	-15.5
225.042	2.5
225.277	3.5
225.511	-11.5
225.746	-17.5
225.98	-16.5
226.215	11.5
226.449	15.5
226.683	18.5
226.918	31.5
227.152	40.5
227.387	29.5
227.621	38.5
227.856	40.5
228.09	54.5
228.324	59.5
228.559	62.5
228.793	52.5
229.027	58.5
229.262	63.5
229.496	69.5
229.73	76.5
229.964	76.5
230.199	67.5
230.433	79.5
230.667	75.5
230.901	66.5
231.136	79.5
231.37	91.5
231.604	79.5
231.838	84.5
232.072	86.5
232.306	83.5
232.541	85.5
232.775	94.5
233.009	84.5
233.243	63.5
233.477	72.5
233.711	89.5
233.945	74.5
234.179	79.5
234.413	88.5
234.647	85.5
234.881	83.5
235.115	84.5
235.349	79.5
235.583	82.5
235.817	70.5
236.051	69.5
236.285	78.5
236.519	79.5
236.753	65.5
236.987	69.5
237.221	86.5
237.455	79.5
237.689	72.5
237.922	83.5
238.156	70.5
238.39	78.5
238.624	75.5
238.858	90.5
239.091	92.5
239.325	77.5
239.559	69.5
239.793	94.5
240.027	71.5
240.26	79.5
240.494	85.5
240.728	83.5
240.961	71.5
241.195	76.5
241.429	73.5
241.662	67.5
241.896	77.5
242.13	70.5
242.363	77.5
242.597	75.5
242.83	69.5
243.064	71.5
243.298	73.5
243.531	64.5
243.765	76.5
243.998	73.5
244.232	82.5
244.465	85.5
244.699	73.5
244.932	66.5
245.166	67.5
245.399	79.5
245.633	83.5
245.866	84.5
246.099	68.5
246.333	71.5
246.566	77.5
246.8	83.5
247.033	80.5
247.266	67.5
247.5	79.5
247.733	77.5
247.966	75.5
248.2	87.5
248.433	77.5
248.666	67.5
248.899	84.5
249.133	73.5
249.366	88.5
249.599	83.5
249.832	83.5
250.066	79.5
250.299	86.5
250.532	79.5
250.765	88.5
250.998	65.5
251.231	70.5
251.465	78.5
251.698	83.5
251.931	77.5
252.164	77.5
252.397	95.5
252.63	86.5
252.863	68.5
253.096	71.5
253.329	85.5
253.562	81.5
253.795	79.5
254.028	72.5
254.261	95.5
254.494	79.5
254.727	76.5
254.96	64.5
255.193	79.5
255.426	91.5
255.659	91.5
255.892	80.5
256.124	75.5
256.357	81.5
256.59	84.5
256.823	83.5
257.056	69.5
257.289	70.5
257.521	79.5
257.754	90.5
257.987	72.5
258.22	75.5
258.452	75.5
258.685	80.5
258.918	77.5
259.151	85.5
259.383	79.5
259.616	84.5
259.849	85.5
260.081	75.5
260.314	101.5
260.547	85.5
260.779	96.5
261.012	84.5
261.244	80.5
261.477	82.5
261.71	79.5
261.942	107.5
262.175	107.5
262.407	78.5
262.64	88.5
262.872	69.5
263.105	91.5
263.337	91.5
263.57	83.5
263.802	88.5
264.035	83.5
264.267	75.5
264.499	78.5
264.732	87.5
264.964	79.5
265.197	81.5
265.429	96.5
265.661	81.5
265.894	87.5
266.126	84.5
266.358	86.5
266.591	75.5
266.823	83.5
267.055	75.5
267.287	82.5
267.52	79.5
267.752	79.5
267.984	78.5
268.216	86.5
268.448	93.5
268.681	75.5
268.913	89.5
269.145	85.5
269.377	77.5
269.609	86.5
269.841	98.5
270.073	85.5
270.306	105.5
270.538	80.5
270.77	70.5
271.002	95.5
271.234	92.5
271.466	80.5
271.698	81.5
271.93	85.5
272.162	85.5
272.394	89.5
272.626	72.5
272.858	80.5
273.09	90.5
273.322	75.5
273.553	79.5
273.785	72.5
274.017	91.5
274.249	93.5
274.481	83.5
274.713	83.5
274.945	65.5
275.176	82.5
275.408	96.5
275.64	87.5
275.872	90.5
276.104	87.5
276.335	96.5
276.567	100.5
276.799	100.5
277.031	92.5
277.262	87.5
277.494	86.5
277.726	91.5
277.957	79.5
278.189	88.5
278.421	92.5
278.652	91.5
278.884	88.5
279.115	85.5
279.347	78.5
279.579	85.5
279.81	71.5
280.042	84.5
280.273	90.5
280.505	107.5
280.736	89.5
280.968	87.5
281.199	84.5
281.431	93.5
281.662	85.5
281.894	83.5
282.125	88.5
282.356	110.5
282.588	134.5
282.819	105.5
283.051	71.5
283.282	68.5
283.513	87.5
283.745	91.5
283.976	89.5
284.207	89.5
284.439	91.5
284.67	99.5
284.901	87.5
285.132	81.5
285.364	85.5
285.595	92.5
285.826	87.5
286.057	96.5
286.288	91.5
286.52	91.5
286.751	90.5
286.982	82.5
287.213	68.5
287.444	90.5
287.675	81.5
287.906	96.5
288.138	91.5
288.369	98.5
288.6	73.5
288.831	94.5
289.062	100.5
289.293	103.5
289.524	91.5
289.755	73.5
289.986	75.5
290.217	80.5
290.448	94.5
290.679	92.5
290.91	91.5
291.141	93.5
291.371	98.5
291.602	99.5
291.833	86.5
292.064	100.5
292.295	91.5
292.526	89.5
292.757	97.5
292.987	93.5
293.218	96.5
293.449	92.5
293.68	86.5
293.91	92.5
294.141	95.5
294.372	86.5
294.603	93.5
294.833	91.5
295.064	93.5
295.295	80.5
295.525	82.5
295.756	96.5
295.987	105.5
296.217	133.5
296.448	127.5
296.679	87.5
296.909	91.5
297.14	107.5
297.37	89.5
297.601	95.5
297.831	93.5
298.062	85.5
298.292	81.5
298.523	100.5
298.753	89.5
298.984	83.5
299.214	72.5
299.445	77.5
299.675	96.5
299.905	110.5
300.136	90.5
300.366	95.5
300.597	109.5
300.827	99.5
301.057	86.5
301.288	96.5
301.518	92.5
301.748	90.5
301.979	85.5
302.209	91.5
302.439	91.5
302.669	85.5
302.9	93.5
303.13	103.5
303.36	97.5
303.59	85.5
303.82	100.5
304.051	92.5
304.281	86.5
304.511	83.5
304.741	80.5
304.971	88.5
305.201	71.5
305.431	71.5
305.661	81.5
305.891	96.5
306.121	102.5
306.352	96.5
306.582	102.5
306.812	102.5
307.042	82.5
307.272	96.5
307.502	97.5
307.731	88.5
307.961	100.5
308.191	78.5
308.421	100.5
308.651	88.5
308.881	94.5
309.111	82.5
309.341	90.5
309.571	100.5
309.8	88.5
310.03	87.5
310.26	88.5
310.49	96.5
310.72	90.5
310.949	95.5
311.179	94.5
311.409	102.5
311.639	104.5
311.868	109.5
312.098	95.5
312.328	87.5
312.557	98.5
312.787	93.5
313.017	99.5
313.246	112.5
313.476	87.5
313.706	87.5
313.935	83.5
314.165	96.5
314.394	98.5
314.624	95.5
314.853	97.5
315.083	95.5
315.312	95.5
315.542	97.5
315.771	93.5
316.001	91.5
316.23	88.5
316.46	96.5
316.689	85.5
316.919	91.5
317.148	83.5
317.377	103.5
317.607	97.5
317.836	94.5
318.065	89.5
318.295	91.5
318.524	87.5
318.753	95.5
318.983	91.5
319.212	85.5
319.441	120.5
319.67	90.5
319.9	109.5
320.129	99.5
320.358	94.5
320.587	96.5
320.816	87.5
321.046	82.5
321.275	95.5
321.504	99.5
321.733	103.5
321.962	95.5
322.191	91.5
322.42	108.5
322.649	113.5
322.878	106.5
323.108	113.5
323.337	119.5
323.566	118.5
323.795	129.5
324.024	171.5
324.253	317.5
324.482	620.5
324.71	1275.5
324.939	1687.5
325.168	627.5
325.397	225.5
325.626	135.5
325.855	103.5
326.084	121.5
326.313	128.5
326.542	132.5
326.77	188.5
326.999	370.5
327.228	730.5
327.457	1280.5
327.686	1071.5
327.914	294.5
328.143	177.5
328.372	157.5
328.6	128.5
328.829	110.5
329.058	119.5
329.287	104.5
329.515	85.5
329.744	91.5
329.972	115.5
330.201	150.5
330.43	157.5
330.658	128.5
330.887	132.5
331.115	113.5
331.344	99.5
331.572	90.5
331.801	109.5
332.03	110.5
332.258	80.5
332.486	103.5
332.715	103.5
332.943	80.5
333.172	86.5
333.4	106.5
333.629	101.5
333.857	114.5
334.085	101.5
334.314	143.5
334.542	200.5
334.771	187.5
334.999	105.5
335.227	103.5
335.455	96.5
335.684	101.5
335.912	97.5
336.14	95.5
336.369	110.5
336.597	107.5
336.825	95.5
337.053	91.5
337.281	110.5
337.51	95.5
337.738	87.5
337.966	94.5
338.194	82.5
338.422	115.5
338.65	106.5
338.878	96.5
339.106	100.5
339.334	101.5
339.562	92.5
339.79	78.5
340.018	101.5
340.246	80.5
340.474	89.5
340.702	87.5
340.93	88.5
341.158	69.5
341.386	101.5
341.614	96.5
341.842	95.5
342.07	91.5
342.298	86.5
342.526	78.5
342.754	92.5
342.981	91.5
343.209	77.5
343.437	104.5
343.665	103.5
343.893	95.5
344.12	96.5
344.348	92.5
344.576	91.5
344.804	99.5
345.031	93.5
345.259	76.5
345.487	86.5
345.714	93.5
345.942	92.5
346.17	83.5
346.397	89.5
346.625	89.5
346.853	96.5
347.08	101.5
347.308	95.5
347.535	88.5
347.763	107.5
347.99	95.5
348.218	98.5
348.445	98.5
348.673	111.5
348.9	87.5
349.128	100.5
349.355	103.5
349.583	87.5
349.81	102.5
350.037	96.5
350.265	95.5
350.492	99.5
350.72	107.5
350.947	110.5
351.174	99.5
351.402	105.5
351.629	115.5
351.856	104.5
352.083	115.5
352.311	105.5
352.538	99.5
352.765	118.5
352.992	107.5
353.22	113.5
353.447	110.5
353.674	104.5
353.901	102.5
354.128	99.5
354.355	101.5
354.583	105.5
354.81	97.5
355.037	103.5
355.264	93.5
355.491	111.5
355.718	107.5
355.945	101.5
356.172	112.5
356.399	98.5
356.626	107.5
356.853	116.5
357.08	102.5
357.307	79.5
357.534	94.5
357.761	110.5
357.988	116.5
358.215	116.5
358.441	96.5
358.668	109.5
358.895	110.5
359.122	102.5
359.349	96.5
359.576	91.5
359.802	95.5
360.029	104.5
360.256	114.5
360.483	108.5
360.709	93.5
360.936	87.5
361.163	88.5
361.39	103.5
361.616	83.5
361.843	80.5
362.07	99.5
362.296	108.5
362.523	96.5
362.749	86.5
362.976	94.5
363.203	105.5
363.429	95.5
363.656	96.5
363.882	98.5
364.109	88.5
364.335	92.5
364.562	91.5
364.788	90.5
365.015	86.5
365.241	95.5
365.468	96.5
365.694	92.5
365.92	81.5
366.147	91.5
366.373	79.5
366.599	107.5
366.826	97.5
367.052	96.5
367.278	94.5
367.505	81.5
367.731	98.5
367.957	94.5
368.184	88.5
368.41	98.5
368.636	109.5
368.862	116.5
369.089	94.5
369.315	89.5
369.541	73.5
369.767	99.5
369.993	91.5
370.219	98.5
370.445	84.5
370.672	97.5
370.898	89.5
371.124	86.5
371.35	88.5
371.576	78.5
371.802	95.5
372.028	91.5
372.254	97.5
372.48	106.5
372.706	104.5
372.932	79.5
373.158	83.5
373.384	85.5
373.61	92.5
373.835	88.5
374.061	86.5
374.287	101.5
374.513	94.5
374.739	112.5
374.965	98.5
375.191	90.5
375.416	106.5
375.642	100.5
375.868	97.5
376.094	105.5
376.319	92.5
376.545	96.5
376.771	95.5
376.997	104.5
377.222	87.5
377.448	109.5
377.674	89.5
377.899	114.5
378.125	95.5
378.35	106.5
378.576	102.5
378.802	103.5
379.027	93.5
379.253	96.5
379.478	107.5
379.704	111.5
379.929	99.5
380.155	110.5
380.38	111.5
380.606	104.5
380.831	114.5
381.057	106.5
381.282	112.5
381.507	121.5
381.733	101.5
381.958	105.5
382.184	124.5
382.409	113.5
382.634	124.5
382.86	129.5
383.085	126.5
383.31	120.5
383.535	127.5
383.761	121.5
383.986	126.5
384.211	134.5
384.436	125.5
384.662	133.5
384.887	164.5
385.112	157.5
385.337	148.5
385.562	164.5
385.787	140.5
386.013	146.5
386.238	161.5
386.463	148.5
386.688	139.5
386.913	146.5
387.138	153.5
387.363	137.5
387.588	133.5
387.813	129.5
388.038	142.5
388.263	174.5
388.488	162.5
388.713	105.5
388.938	89.5
389.163	93.5
389.387	85.5
389.612	101.5
389.837	99.5
390.062	95.5
390.287	101.5
390.512	91.5
390.736	84.5
390.961	87.5
391.186	87.5
391.411	90.5
391.636	104.5
391.86	84.5
392.085	85.5
392.31	88.5
392.534	90.5
392.759	91.5
392.984	92.5
393.208	109.5
393.433	113.5
393.658	110.5
393.882	94.5
394.107	94.5
394.331	85.5
394.556	87.5
394.78	100.5
395.005	80.5
395.229	87.5
395.454	86.5
395.678	86.5
395.903	103.5
396.127	97.5
396.352	83.5
396.576	92.5
396.801	97.5
397.025	91.5
397.249	86.5
397.474	95.5
397.698	82.5
397.922	92.5
398.147	91.5
398.371	85.5
398.595	82.5
398.82	82.5
399.044	86.5
399.268	88.5
399.492	88.5
399.717	85.5
399.941	83.5
400.165	108.5
400.389	92.5
400.613	75.5
400.837	86.5
401.062	87.5
401.286	81.5
401.51	94.5
401.734	99.5
401.958	85.5
402.182	110.5
402.406	148.5
402.63	100.5
402.854	99.5
403.078	91.5
403.302	72.5
403.526	91.5
403.75	91.5
403.974	80.5
404.198	102.5
404.422	87.5
404.645	83.5
404.869	104.5
405.093	96.5
405.317	93.5
405.541	86.5
405.765	83.5
405.988	112.5
406.212	140.5
406.436	184.5
406.66	139.5
406.883	99.5
407.107	105.5
407.331	94.5
407.555	92.5
407.778	99.5
408.002	97.5
408.226	109.5
408.449	83.5
408.673	87.5
408.896	91.5
409.12	89.5
409.344	91.5
409.567	89.5
409.791	95.5
410.014	87.5
410.238	107.5
410.461	95.5
410.685	112.5
410.908	89.5
411.132	89.5
411.355	103.5
411.578	77.5
411.802	93.5
412.025	97.5
412.249	92.5
412.472	94.5
412.695	109.5
412.919	102.5
413.142	87.5
413.365	81.5
413.589	90.5
413.812	101.5
414.035	97.5
414.258	101.5
414.482	108.5
414.705	83.5
414.928	85.5
415.151	102.5
415.374	96.5
415.597	92.5
415.821	84.5
416.044	96.5
416.267	85.5
416.49	87.5
416.713	95.5
416.936	95.5
417.159	104.5
417.382	98.5
417.605	86.5
417.828	92.5
418.051	95.5
418.274	95.5
418.497	91.5
418.72	83.5
418.943	89.5
419.166	94.5
419.389	91.5
419.611	104.5
419.834	89.5
420.057	97.5
420.28	81.5
420.503	79.5
420.726	93.5
420.948	81.5
421.171	92.5
421.394	79.5
421.617	89.5
421.839	103.5
422.062	73.5
422.285	87.5
422.507	97.5
422.73	112.5
422.953	99.5
423.175	97.5
423.398	97.5
423.621	95.5
423.843	78.5
424.066	93.5
424.288	87.5
424.511	96.5
424.733	103.5
424.956	93.5
425.178	103.5
425.401	92.5
425.623	91.5
425.846	84.5
426.068	89.5
426.291	98.5
426.513	90.5
426.735	87.5
426.958	85.5
427.18	94.5
427.402	126.5
427.625	139.5
427.847	118.5
428.069	99.5
428.292	94.5
428.514	95.5
428.736	73.5
428.958	105.5
429.181	81.5
429.403	95.5
429.625	96.5
429.847	95.5
430.069	95.5
430.292	93.5
430.514	92.5
430.736	104.5
430.958	78.5
431.18	97.5
431.402	93.5
431.624	72.5
431.846	105.5
432.068	86.5
432.29	76.5
432.512	93.5
432.734	98.5
432.956	73.5
433.178	84.5
433.4	99.5
433.622	81.5
433.844	95.5
434.066	95.5
434.287	75.5
434.509	92.5
434.731	85.5
434.953	83.5
435.175	92.5
435.397	86.5
435.618	104.5
435.84	101.5
436.062	99.5
436.284	100.5
436.505	95.5
436.727	112.5
436.949	95.5
437.17	85.5
437.392	88.5
437.614	98.5
437.835	102.5
438.057	105.5
438.278	97.5
438.5	87.5
438.721	92.5
438.943	100.5
439.165	82.5
439.386	77.5
439.608	93.5
439.829	92.5
440.05	96.5
440.272	115.5
440.493	94.5
440.715	79.5
440.936	97.5
441.158	87.5
441.379	87.5
441.6	79.5
441.822	91.5
442.043	82.5
442.264	96.5
442.486	87.5
442.707	85.5
442.928	80.5
443.149	116.5
443.371	117.5
443.592	105.5
443.813	85.5
444.034	93.5
444.255	89.5
444.476	99.5
444.698	93.5
444.919	89.5
445.14	132.5
445.361	127.5
445.582	101.5
445.803	114.5
446.024	120.5
446.245	138.5
446.466	100.5
446.687	94.5
446.908	87.5
447.129	81.5
447.35	97.5
447.571	86.5
447.792	89.5
448.013	99.5
448.234	92.5
448.455	99.5
448.675	110.5
448.896	111.5
449.117	100.5
449.338	82.5
449.559	109.5
449.779	118.5
450	91.5
450.221	100.5
450.442	89.5
450.662	79.5
450.883	88.5
451.104	96.5
451.324	83.5
451.545	92.5
451.766	93.5
451.986	93.5
452.207	81.5
452.428	92.5
452.648	104.5
452.869	106.5
453.089	130.5
453.31	117.5
453.53	89.5
453.751	97.5
453.971	88.5
454.192	94.5
454.412	85.5
454.633	94.5
454.853	91.5
455.073	84.5
455.294	89.5
455.514	96.5
455.734	83.5
455.955	86.5
456.175	87.5
456.395	95.5
456.616	77.5
456.836	96.5
457.056	88.5
457.276	86.5
457.497	80.5
457.717	94.5
457.937	88.5
458.157	84.5
458.377	93.5
458.598	93.5
458.818	131.5
459.038	132.5
459.258	100.5
459.478	83.5
459.698	97.5
459.918	84.5
460.138	89.5
460.358	86.5
460.578	70.5
460.798	92.5
461.018	83.5
461.238	80.5
461.458	85.5
461.678	92.5
461.898	109.5
462.118	95.5
462.338	65.5
462.558	77.5
462.777	95.5
462.997	100.5
463.217	87.5
463.437	78.5
463.657	95.5
463.876	81.5
464.096	95.5
464.316	87.5
464.536	88.5
464.755	93.5
464.975	102.5
465.195	139.5
465.414	145.5
465.634	88.5
465.854	95.5
466.073	80.5
466.293	89.5
466.512	70.5
466.732	90.5
466.951	85.5
467.171	92.5
467.391	85.5
467.61	100.5
467.829	100.5
468.049	104.5
468.268	115.5
468.488	95.5
468.707	94.5
468.927	80.5
469.146	87.5
469.365	94.5
469.585	83.5
469.804	79.5
470.023	81.5
470.243	87.5
470.462	90.5
470.681	97.5
470.901	95.5
471.12	69.5
471.339	90.5
471.558	89.5
471.777	85.5
471.997	104.5
472.216	149.5
472.435	222.5
472.654	90.5
472.873	94.5
473.092	96.5
473.311	80.5
473.53	83.5
473.749	90.5
473.968	96.5
474.187	92.5
474.406	90.5
474.625	90.5
474.844	85.5
475.063	91.5
475.282	84.5
475.501	87.5
475.72	88.5
475.939	96.5
476.158	91.5
476.377	82.5
476.596	72.5
476.814	86.5
477.033	92.5
477.252	85.5
477.471	87.5
477.69	86.5
477.908	94.5
478.127	100.5
478.346	79.5
478.564	96.5
478.783	101.5
479.002	93.5
479.22	85.5
479.439	101.5
479.658	111.5
479.876	104.5
480.095	100.5
480.313	96.5
480.532	100.5
480.751	99.5
480.969	146.5
481.188	363.5
481.406	229.5
481.624	103.5
481.843	97.5
482.061	89.5
482.28	88.5
482.498	84.5
482.717	93.5
482.935	99.5
483.153	92.5
483.372	86.5
483.59	96.5
483.808	93.5
484.027	101.5
484.245	97.5
484.463	88.5
484.681	95.5
484.9	109.5
485.118	97.5
485.336	108.5
485.554	104.5
485.772	109.5
485.99	111.5
486.209	111.5
486.427	112.5
486.645	107.5
486.863	111.5
487.081	101.5
487.299	95.5
487.517	111.5
487.735	87.5
487.953	85.5
488.171	80.5
488.389	86.5
488.607	90.5
488.825	83.5
489.043	93.5
489.261	89.5
489.479	100.5
489.696	95.5
489.914	84.5
490.132	88.5
490.35	86.5
490.568	94.5
490.786	100.5
491.003	83.5
491.221	93.5
491.439	92.5
491.657	99.5
491.874	92.5
492.092	89.5
492.31	112.5
492.527	77.5
492.745	90.5
492.963	93.5
493.18	98.5
493.398	99.5
493.615	88.5
493.833	92.5
494.05	76.5
494.268	84.5
494.485	95.5
494.703	93.5
494.92	99.5
495.138	96.5
495.355	94.5
495.573	107.5
495.79	95.5
496.008	94.5
496.225	87.5
496.442	95.5
496.66	107.5
496.877	81.5
497.094	95.5
497.312	86.5
497.529	83.5
497.746	98.5
497.963	76.5
498.181	100.5
498.398	91.5
498.615	101.5
498.832	111.5
499.049	104.5
499.267	86.5
499.484	87.5
499.701	106.5
499.918	116.5
500.135	96.5
500.352	94.5
500.569	99.5
500.786	91.5
501.003	77.5
501.22	81.5
501.437	99.5
501.654	81.5
501.871	103.5
502.088	89.5
502.305	83.5
502.522	76.5
502.739	102.5
502.956	91.5
503.172	83.5
503.389	89.5
503.606	101.5
503.823	103.5
504.04	89.5
504.256	91.5
504.473	82.5
504.69	90.5
504.907	96.5
505.123	100.5
505.34	109.5
505.557	75.5
505.773	87.5
505.99	85.5
506.207	91.5
506.423	96.5
506.64	87.5
506.856	87.5
507.073	97.5
507.289	99.5
507.506	94.5
507.722	95.5
507.939	115.5
508.155	90.5
508.372	85.5
508.588	107.5
508.805	97.5
509.021	96.5
509.238	104.5
509.454	95.5
509.67	98.5
509.887	96.5
510.103	115.5
510.319	175.5
510.536	582.5
510.752	1815.5
510.968	508.5
511.184	112.5
511.401	107.5
511.617	91.5
511.833	95.5
512.049	80.5
512.265	87.5
512.481	101.5
512.698	95.5
512.914	82.5
513.13	89.5
513.346	87.5
513.562	97.5
513.778	94.5
513.994	96.5
514.21	96.5
514.426	108.5
514.642	107.5
514.858	123.5
515.074	133.5
515.29	336.5
515.506	1045.5
515.721	400.5
515.937	132.5
516.153	117.5
516.369	100.5
516.585	86.5
516.801	96.5
517.016	96.5
517.232	86.5
517.448	101.5
517.664	113.5
517.879	95.5
518.095	98.5
518.311	95.5
518.527	89.5
518.742	96.5
518.958	84.5
519.173	84.5
519.389	92.5
519.605	92.5
519.82	86.5
520.036	95.5
520.251	102.5
520.467	105.5
520.682	94.5
520.898	110.5
521.113	109.5
521.329	123.5
521.544	164.5
521.76	411.5
521.975	1694.5
522.19	1047.5
522.406	259.5
522.621	125.5
522.836	105.5
523.052	104.5
523.267	104.5
523.482	84.5
523.698	94.5
523.913	124.5
524.128	92.5
524.343	92.5
524.559	95.5
524.774	93.5
524.989	92.5
525.204	88.5
525.419	95.5
525.634	75.5
525.849	93.5
526.064	88.5
526.28	77.5
526.495	81.5
526.71	82.5
526.925	85.5
527.14	96.5
527.355	85.5
527.57	102.5
527.785	85.5
527.999	87.5
528.214	100.5
528.429	90.5
528.644	86.5
528.859	92.5
529.074	101.5
529.289	118.5
529.503	143.5
529.718	91.5
529.933	75.5
530.148	89.5
530.363	98.5
530.577	97.5
530.792	73.5
531.007	79.5
531.221	101.5
531.436	87.5
531.651	87.5
531.865	96.5
532.08	93.5
532.295	93.5
532.509	92.5
532.724	92.5
532.938	105.5
533.153	100.5
533.367	82.5
533.582	84.5
533.796	91.5
534.011	88.5
534.225	84.5
534.44	96.5
534.654	98.5
534.868	90.5
