Data from Circ_1990_H10_HRD10591_00077.txt Node
Date: Wed Jan 03 11:55:19 EST 2024
User: Yrep
Spectrometer: HR+D1059
Trigger mode: 1
Integration Time (sec): 1.000000E-1
Scans to average: 1
Electric dark correction enabled: true
Nonlinearity correction enabled: false
Boxcar width: 0
XAxis mode: Wavelengths
Number of Pixels in Spectrum: 2048
>>>>>Begin Spectral Data<<<<<
223.165	-29.06
223.4	-29.06
223.635	-29.06
223.869	-8.06
224.104	-16.06
224.338	-20.06
224.573	-19.06
224.808	-24.06
225.042	-16.06
225.277	-12.06
225.511	2.94
225.746	2.94
225.98	10.94
226.215	5.94
226.449	15.94
226.683	33.94
226.918	38.94
227.152	32.94
227.387	41.94
227.621	35.94
227.856	29.94
228.09	58.94
228.324	39.94
228.559	55.94
228.793	74.94
229.027	71.94
229.262	78.94
229.496	77.94
229.73	95.94
229.964	67.94
230.199	82.94
230.433	74.94
230.667	94.94
230.901	77.94
231.136	72.94
231.37	71.94
231.604	86.94
231.838	80.94
232.072	88.94
232.306	81.94
232.541	75.94
232.775	97.94
233.009	79.94
233.243	83.94
233.477	73.94
233.711	71.94
233.945	66.94
234.179	89.94
234.413	80.94
234.647	87.94
234.881	85.94
235.115	89.94
235.349	88.94
235.583	86.94
235.817	81.94
236.051	68.94
236.285	63.94
236.519	82.94
236.753	81.94
236.987	93.94
237.221	77.94
237.455	88.94
237.689	69.94
237.922	81.94
238.156	87.94
238.39	77.94
238.624	81.94
238.858	75.94
239.091	87.94
239.325	85.94
239.559	77.94
239.793	85.94
240.027	95.94
240.26	75.94
240.494	66.94
240.728	80.94
240.961	71.94
241.195	87.94
241.429	85.94
241.662	64.94
241.896	88.94
242.13	84.94
242.363	88.94
242.597	73.94
242.83	79.94
243.064	73.94
243.298	65.94
243.531	64.94
243.765	71.94
243.998	73.94
244.232	77.94
244.465	88.94
244.699	81.94
244.932	91.94
245.166	87.94
245.399	89.94
245.633	86.94
245.866	79.94
246.099	90.94
246.333	86.94
246.566	102.94
246.8	78.94
247.033	69.94
247.266	87.94
247.5	77.94
247.733	79.94
247.966	92.94
248.2	99.94
248.433	91.94
248.666	74.94
248.899	82.94
249.133	85.94
249.366	101.94
249.599	109.94
249.832	87.94
250.066	81.94
250.299	84.94
250.532	98.94
250.765	84.94
250.998	86.94
251.231	89.94
251.465	95.94
251.698	97.94
251.931	71.94
252.164	84.94
252.397	89.94
252.63	80.94
252.863	95.94
253.096	102.94
253.329	86.94
253.562	79.94
253.795	75.94
254.028	81.94
254.261	83.94
254.494	64.94
254.727	79.94
254.96	75.94
255.193	93.94
255.426	77.94
255.659	85.94
255.892	82.94
256.124	85.94
256.357	80.94
256.59	98.94
256.823	67.94
257.056	81.94
257.289	79.94
257.521	90.94
257.754	86.94
257.987	80.94
258.22	107.94
258.452	95.94
258.685	66.94
258.918	86.94
259.151	92.94
259.383	86.94
259.616	84.94
259.849	71.94
260.081	79.94
260.314	86.94
260.547	77.94
260.779	81.94
261.012	88.94
261.244	95.94
261.477	91.94
261.71	90.94
261.942	117.94
262.175	113.94
262.407	87.94
262.64	92.94
262.872	97.94
263.105	88.94
263.337	98.94
263.57	101.94
263.802	81.94
264.035	88.94
264.267	81.94
264.499	80.94
264.732	85.94
264.964	74.94
265.197	84.94
265.429	86.94
265.661	71.94
265.894	87.94
266.126	96.94
266.358	84.94
266.591	81.94
266.823	77.94
267.055	80.94
267.287	89.94
267.52	87.94
267.752	78.94
267.984	76.94
268.216	72.94
268.448	83.94
268.681	78.94
268.913	86.94
269.145	93.94
269.377	85.94
269.609	87.94
269.841	81.94
270.073	103.94
270.306	74.94
270.538	74.94
270.77	83.94
271.002	72.94
271.234	91.94
271.466	99.94
271.698	84.94
271.93	75.94
272.162	81.94
272.394	98.94
272.626	85.94
272.858	83.94
273.09	87.94
273.322	80.94
273.553	81.94
273.785	83.94
274.017	82.94
274.249	80.94
274.481	82.94
274.713	83.94
274.945	96.94
275.176	85.94
275.408	103.94
275.64	96.94
275.872	91.94
276.104	101.94
276.335	85.94
276.567	94.94
276.799	117.94
277.031	129.94
277.262	118.94
277.494	90.94
277.726	94.94
277.957	93.94
278.189	90.94
278.421	92.94
278.652	83.94
278.884	95.94
279.115	78.94
279.347	90.94
279.579	106.94
279.81	91.94
280.042	122.94
280.273	147.94
280.505	124.94
280.736	104.94
280.968	98.94
281.199	90.94
281.431	89.94
281.662	95.94
281.894	101.94
282.125	103.94
282.356	119.94
282.588	145.94
282.819	113.94
283.051	93.94
283.282	83.94
283.513	107.94
283.745	93.94
283.976	98.94
284.207	94.94
284.439	72.94
284.67	94.94
284.901	92.94
285.132	97.94
285.364	84.94
285.595	87.94
285.826	93.94
286.057	100.94
286.288	91.94
286.52	97.94
286.751	90.94
286.982	81.94
287.213	88.94
287.444	95.94
287.675	95.94
287.906	93.94
288.138	88.94
288.369	96.94
288.6	84.94
288.831	103.94
289.062	86.94
289.293	88.94
289.524	92.94
289.755	98.94
289.986	87.94
290.217	111.94
290.448	84.94
290.679	81.94
290.91	99.94
291.141	85.94
291.371	92.94
291.602	81.94
291.833	98.94
292.064	100.94
292.295	87.94
292.526	84.94
292.757	78.94
292.987	87.94
293.218	88.94
293.449	90.94
293.68	74.94
293.91	107.94
294.141	90.94
294.372	95.94
294.603	97.94
294.833	98.94
295.064	101.94
295.295	102.94
295.525	97.94
295.756	102.94
295.987	113.94
296.217	126.94
296.448	138.94
296.679	105.94
296.909	91.94
297.14	101.94
297.37	97.94
297.601	83.94
297.831	91.94
298.062	86.94
298.292	93.94
298.523	92.94
298.753	81.94
298.984	101.94
299.214	95.94
299.445	91.94
299.675	96.94
299.905	96.94
300.136	94.94
300.366	108.94
300.597	89.94
300.827	91.94
301.057	110.94
301.288	115.94
301.518	97.94
301.748	116.94
301.979	107.94
302.209	98.94
302.439	84.94
302.669	85.94
302.9	98.94
303.13	81.94
303.36	94.94
303.59	113.94
303.82	120.94
304.051	95.94
304.281	101.94
304.511	100.94
304.741	97.94
304.971	94.94
305.201	89.94
305.431	84.94
305.661	90.94
305.891	105.94
306.121	99.94
306.352	109.94
306.582	102.94
306.812	96.94
307.042	106.94
307.272	118.94
307.502	136.94
307.731	126.94
307.961	116.94
308.191	93.94
308.421	110.94
308.651	89.94
308.881	96.94
309.111	103.94
309.341	94.94
309.571	86.94
309.8	100.94
310.03	102.94
310.26	107.94
310.49	94.94
310.72	103.94
310.949	102.94
311.179	105.94
311.409	99.94
311.639	95.94
311.868	100.94
312.098	117.94
312.328	98.94
312.557	112.94
312.787	114.94
313.017	97.94
313.246	106.94
313.476	105.94
313.706	88.94
313.935	94.94
314.165	121.94
314.394	117.94
314.624	100.94
314.853	94.94
315.083	95.94
315.312	81.94
315.542	100.94
315.771	107.94
316.001	85.94
316.23	106.94
316.46	93.94
316.689	94.94
316.919	88.94
317.148	97.94
317.377	98.94
317.607	94.94
317.836	104.94
318.065	87.94
318.295	93.94
318.524	89.94
318.753	73.94
318.983	93.94
319.212	102.94
319.441	123.94
319.67	119.94
319.9	88.94
320.129	85.94
320.358	89.94
320.587	105.94
320.816	100.94
321.046	108.94
321.275	94.94
321.504	94.94
321.733	101.94
321.962	115.94
322.191	98.94
322.42	119.94
322.649	109.94
322.878	120.94
323.108	129.94
323.337	134.94
323.566	127.94
323.795	163.94
324.024	218.94
324.253	424.94
324.482	897.94
324.71	1914.94
324.939	2498.94
325.168	929.94
325.397	269.94
325.626	166.94
325.855	125.94
326.084	137.94
326.313	151.94
326.542	153.94
326.77	238.94
326.999	477.94
327.228	1032.94
327.457	1946.94
327.686	1520.94
327.914	454.94
328.143	322.94
328.372	326.94
328.6	212.94
328.829	134.94
329.058	145.94
329.287	148.94
329.515	135.94
329.744	165.94
329.972	258.94
330.201	441.94
330.43	587.94
330.658	310.94
330.887	181.94
331.115	141.94
331.344	123.94
331.572	109.94
331.801	117.94
332.03	109.94
332.258	99.94
332.486	112.94
332.715	106.94
332.943	111.94
333.172	120.94
333.4	108.94
333.629	126.94
333.857	160.94
334.085	246.94
334.314	415.94
334.542	793.94
334.771	687.94
334.999	230.94
335.227	131.94
335.455	107.94
335.684	102.94
335.912	93.94
336.14	106.94
336.369	107.94
336.597	101.94
336.825	105.94
337.053	94.94
337.281	96.94
337.51	97.94
337.738	106.94
337.966	100.94
338.194	110.94
338.422	104.94
338.65	92.94
338.878	92.94
339.106	102.94
339.334	100.94
339.562	96.94
339.79	108.94
340.018	91.94
340.246	102.94
340.474	101.94
340.702	97.94
340.93	105.94
341.158	97.94
341.386	111.94
341.614	102.94
341.842	114.94
342.07	105.94
342.298	91.94
342.526	98.94
342.754	117.94
342.981	87.94
343.209	88.94
343.437	100.94
343.665	93.94
343.893	98.94
344.12	102.94
344.348	90.94
344.576	83.94
344.804	94.94
345.031	99.94
345.259	113.94
345.487	85.94
345.714	91.94
345.942	100.94
346.17	105.94
346.397	91.94
346.625	96.94
346.853	101.94
347.08	91.94
347.308	105.94
347.535	103.94
347.763	98.94
347.99	99.94
348.218	99.94
348.445	102.94
348.673	98.94
348.9	109.94
349.128	94.94
349.355	99.94
349.583	93.94
349.81	98.94
350.037	102.94
350.265	90.94
350.492	83.94
350.72	97.94
350.947	98.94
351.174	107.94
351.402	104.94
351.629	105.94
351.856	103.94
352.083	105.94
352.311	114.94
352.538	117.94
352.765	104.94
352.992	102.94
353.22	102.94
353.447	103.94
353.674	97.94
353.901	103.94
354.128	95.94
354.355	100.94
354.583	92.94
354.81	115.94
355.037	95.94
355.264	93.94
355.491	91.94
355.718	96.94
355.945	105.94
356.172	103.94
356.399	94.94
356.626	98.94
356.853	102.94
357.08	101.94
357.307	102.94
357.534	111.94
357.761	85.94
357.988	98.94
358.215	95.94
358.441	107.94
358.668	93.94
358.895	93.94
359.122	102.94
359.349	97.94
359.576	75.94
359.802	97.94
360.029	122.94
360.256	120.94
360.483	108.94
360.709	99.94
360.936	87.94
361.163	94.94
361.39	101.94
361.616	94.94
361.843	97.94
362.07	108.94
362.296	99.94
362.523	96.94
362.749	106.94
362.976	88.94
363.203	79.94
363.429	88.94
363.656	97.94
363.882	89.94
364.109	104.94
364.335	100.94
364.562	102.94
364.788	89.94
365.015	86.94
365.241	104.94
365.468	106.94
365.694	94.94
365.92	94.94
366.147	82.94
366.373	84.94
366.599	104.94
366.826	98.94
367.052	91.94
367.278	109.94
367.505	91.94
367.731	97.94
367.957	97.94
368.184	103.94
368.41	102.94
368.636	109.94
368.862	103.94
369.089	100.94
369.315	107.94
369.541	96.94
369.767	89.94
369.993	95.94
370.219	97.94
370.445	103.94
370.672	89.94
370.898	82.94
371.124	103.94
371.35	99.94
371.576	87.94
371.802	110.94
372.028	84.94
372.254	100.94
372.48	87.94
372.706	84.94
372.932	89.94
373.158	97.94
373.384	89.94
373.61	102.94
373.835	87.94
374.061	98.94
374.287	102.94
374.513	96.94
374.739	83.94
374.965	96.94
375.191	101.94
375.416	90.94
375.642	102.94
375.868	94.94
376.094	72.94
376.319	103.94
376.545	106.94
376.771	87.94
376.997	108.94
377.222	101.94
377.448	95.94
377.674	110.94
377.899	104.94
378.125	102.94
378.35	93.94
378.576	100.94
378.802	95.94
379.027	87.94
379.253	92.94
379.478	102.94
379.704	101.94
379.929	99.94
380.155	85.94
380.38	94.94
380.606	101.94
380.831	109.94
381.057	90.94
381.282	95.94
381.507	96.94
381.733	93.94
381.958	102.94
382.184	115.94
382.409	107.94
382.634	111.94
382.86	93.94
383.085	110.94
383.31	110.94
383.535	103.94
383.761	110.94
383.986	106.94
384.211	96.94
384.436	96.94
384.662	99.94
384.887	111.94
385.112	112.94
385.337	103.94
385.562	107.94
385.787	114.94
386.013	119.94
386.238	130.94
386.463	107.94
386.688	108.94
386.913	102.94
387.138	102.94
387.363	107.94
387.588	102.94
387.813	112.94
388.038	108.94
388.263	129.94
388.488	122.94
388.713	96.94
388.938	86.94
389.163	99.94
389.387	89.94
389.612	94.94
389.837	101.94
390.062	106.94
390.287	97.94
390.512	113.94
390.736	93.94
390.961	82.94
391.186	87.94
391.411	94.94
391.636	83.94
391.86	88.94
392.085	98.94
392.31	79.94
392.534	85.94
392.759	95.94
392.984	96.94
393.208	97.94
393.433	81.94
393.658	92.94
393.882	89.94
394.107	89.94
394.331	90.94
394.556	74.94
394.78	87.94
395.005	82.94
395.229	90.94
395.454	88.94
395.678	96.94
395.903	88.94
396.127	88.94
396.352	93.94
396.576	96.94
396.801	88.94
397.025	82.94
397.249	89.94
397.474	90.94
397.698	98.94
397.922	96.94
398.147	94.94
398.371	80.94
398.595	82.94
398.82	95.94
399.044	90.94
399.268	96.94
399.492	99.94
399.717	87.94
399.941	84.94
400.165	101.94
400.389	95.94
400.613	72.94
400.837	95.94
401.062	87.94
401.286	84.94
401.51	95.94
401.734	96.94
401.958	86.94
402.182	122.94
402.406	161.94
402.63	107.94
402.854	89.94
403.078	83.94
403.302	79.94
403.526	84.94
403.75	98.94
403.974	91.94
404.198	86.94
404.422	82.94
404.645	91.94
404.869	92.94
405.093	111.94
405.317	124.94
405.541	126.94
405.765	99.94
405.988	125.94
406.212	175.94
406.436	234.94
406.66	164.94
406.883	114.94
407.107	83.94
407.331	96.94
407.555	103.94
407.778	97.94
408.002	93.94
408.226	85.94
408.449	97.94
408.673	117.94
408.896	97.94
409.12	100.94
409.344	94.94
409.567	113.94
409.791	91.94
410.014	98.94
410.238	78.94
410.461	73.94
410.685	97.94
410.908	103.94
411.132	107.94
411.355	115.94
411.578	95.94
411.802	90.94
412.025	86.94
412.249	84.94
412.472	103.94
412.695	116.94
412.919	88.94
413.142	99.94
413.365	99.94
413.589	103.94
413.812	110.94
414.035	85.94
414.258	82.94
414.482	95.94
414.705	96.94
414.928	86.94
415.151	93.94
415.374	91.94
415.597	92.94
415.821	91.94
416.044	100.94
416.267	87.94
416.49	74.94
416.713	103.94
416.936	113.94
417.159	99.94
417.382	99.94
417.605	91.94
417.828	103.94
418.051	93.94
418.274	105.94
418.497	92.94
418.72	89.94
418.943	82.94
419.166	104.94
419.389	86.94
419.611	90.94
419.834	90.94
420.057	89.94
420.28	83.94
420.503	89.94
420.726	73.94
420.948	97.94
421.171	90.94
421.394	104.94
421.617	96.94
421.839	95.94
422.062	93.94
422.285	106.94
422.507	98.94
422.73	102.94
422.953	94.94
423.175	97.94
423.398	92.94
423.621	81.94
423.843	80.94
424.066	79.94
424.288	91.94
424.511	98.94
424.733	112.94
424.956	111.94
425.178	103.94
425.401	101.94
425.623	100.94
425.846	96.94
426.068	98.94
426.291	87.94
426.513	119.94
426.735	101.94
426.958	105.94
427.18	111.94
427.402	166.94
427.625	205.94
427.847	187.94
428.069	179.94
428.292	128.94
428.514	118.94
428.736	98.94
428.958	88.94
429.181	92.94
429.403	94.94
429.625	112.94
429.847	82.94
430.069	88.94
430.292	96.94
430.514	98.94
430.736	90.94
430.958	81.94
431.18	82.94
431.402	81.94
431.624	82.94
431.846	70.94
432.068	72.94
432.29	83.94
432.512	90.94
432.734	85.94
432.956	114.94
433.178	111.94
433.4	115.94
433.622	98.94
433.844	90.94
434.066	83.94
434.287	92.94
434.509	88.94
434.731	85.94
434.953	89.94
435.175	86.94
435.397	83.94
435.618	86.94
435.84	111.94
436.062	137.94
436.284	117.94
436.505	114.94
436.727	109.94
436.949	101.94
437.17	76.94
437.392	89.94
437.614	97.94
437.835	105.94
438.057	120.94
438.278	126.94
438.5	102.94
438.721	136.94
438.943	105.94
439.165	84.94
439.386	96.94
439.608	99.94
439.829	113.94
440.05	138.94
440.272	148.94
440.493	105.94
440.715	99.94
440.936	97.94
441.158	93.94
441.379	80.94
441.6	86.94
441.822	96.94
442.043	85.94
442.264	111.94
442.486	104.94
442.707	83.94
442.928	106.94
443.149	131.94
443.371	144.94
443.592	120.94
443.813	122.94
444.034	125.94
444.255	93.94
444.476	100.94
444.698	90.94
444.919	83.94
445.14	136.94
445.361	118.94
445.582	120.94
445.803	141.94
446.024	163.94
446.245	170.94
446.466	129.94
446.687	95.94
446.908	97.94
447.129	97.94
447.35	91.94
447.571	95.94
447.792	97.94
448.013	112.94
448.234	114.94
448.455	91.94
448.675	118.94
448.896	122.94
449.117	101.94
449.338	93.94
449.559	139.94
449.779	159.94
450	107.94
450.221	105.94
450.442	87.94
450.662	92.94
450.883	114.94
451.104	103.94
451.324	98.94
451.545	75.94
451.766	106.94
451.986	84.94
452.207	87.94
452.428	101.94
452.648	108.94
452.869	114.94
453.089	126.94
453.31	127.94
453.53	92.94
453.751	106.94
453.971	113.94
454.192	117.94
454.412	104.94
454.633	103.94
454.853	86.94
455.073	98.94
455.294	97.94
455.514	103.94
455.734	87.94
455.955	94.94
456.175	89.94
456.395	96.94
456.616	92.94
456.836	78.94
457.056	102.94
457.276	79.94
457.497	74.94
457.717	86.94
457.937	86.94
458.157	88.94
458.377	89.94
458.598	113.94
458.818	143.94
459.038	163.94
459.258	137.94
459.478	95.94
459.698	96.94
459.918	94.94
460.138	94.94
460.358	99.94
460.578	87.94
460.798	99.94
461.018	96.94
461.238	96.94
461.458	87.94
461.678	89.94
461.898	105.94
462.118	96.94
462.338	89.94
462.558	91.94
462.777	98.94
462.997	94.94
463.217	98.94
463.437	94.94
463.657	98.94
463.876	80.94
464.096	97.94
464.316	82.94
464.536	95.94
464.755	81.94
464.975	121.94
465.195	187.94
465.414	166.94
465.634	99.94
465.854	85.94
466.073	84.94
466.293	90.94
466.512	83.94
466.732	89.94
466.951	90.94
467.171	106.94
467.391	101.94
467.61	114.94
467.829	118.94
468.049	254.94
468.268	345.94
468.488	127.94
468.707	74.94
468.927	83.94
469.146	93.94
469.365	101.94
469.585	105.94
469.804	111.94
470.023	110.94
470.243	97.94
470.462	107.94
470.681	108.94
470.901	88.94
471.12	99.94
471.339	99.94
471.558	110.94
471.777	121.94
471.997	166.94
472.216	495.94
472.435	1065.94
472.654	285.94
472.873	110.94
473.092	96.94
473.311	105.94
473.53	94.94
473.749	90.94
473.968	88.94
474.187	115.94
474.406	107.94
474.625	101.94
474.844	98.94
475.063	97.94
475.282	89.94
475.501	96.94
475.72	99.94
475.939	89.94
476.158	86.94
476.377	82.94
476.596	82.94
476.814	98.94
477.033	93.94
477.252	75.94
477.471	86.94
477.69	92.94
477.908	82.94
478.127	81.94
478.346	81.94
478.564	74.94
478.783	100.94
479.002	85.94
479.22	102.94
479.439	116.94
479.658	122.94
479.876	109.94
480.095	107.94
480.313	116.94
480.532	113.94
480.751	177.94
480.969	501.94
481.188	1771.94
481.406	1037.94
481.624	203.94
481.843	106.94
482.061	93.94
482.28	103.94
482.498	102.94
482.717	98.94
482.935	106.94
483.153	95.94
483.372	94.94
483.59	90.94
483.808	103.94
484.027	75.94
484.245	93.94
484.463	95.94
484.681	98.94
484.9	92.94
485.118	94.94
485.336	104.94
485.554	97.94
485.772	96.94
485.99	94.94
486.209	109.94
486.427	120.94
486.645	104.94
486.863	111.94
487.081	101.94
487.299	105.94
487.517	74.94
487.735	96.94
487.953	85.94
488.171	103.94
488.389	98.94
488.607	104.94
488.825	91.94
489.043	90.94
489.261	75.94
489.479	98.94
489.696	85.94
489.914	85.94
490.132	78.94
490.35	103.94
490.568	80.94
490.786	96.94
491.003	84.94
491.221	121.94
491.439	103.94
491.657	110.94
491.874	87.94
492.092	109.94
492.31	105.94
492.527	104.94
492.745	103.94
492.963	106.94
493.18	97.94
493.398	90.94
493.615	95.94
493.833	95.94
494.05	102.94
494.268	106.94
494.485	87.94
494.703	90.94
494.92	92.94
495.138	107.94
495.355	91.94
495.573	96.94
495.79	86.94
496.008	89.94
496.225	79.94
496.442	88.94
496.66	93.94
496.877	91.94
497.094	85.94
497.312	87.94
497.529	88.94
497.746	89.94
497.963	96.94
498.181	102.94
498.398	103.94
498.615	111.94
498.832	107.94
499.049	86.94
499.267	91.94
499.484	96.94
499.701	86.94
499.918	89.94
500.135	93.94
500.352	107.94
500.569	95.94
500.786	88.94
501.003	99.94
501.22	83.94
501.437	90.94
501.654	96.94
501.871	126.94
502.088	94.94
502.305	94.94
502.522	93.94
502.739	99.94
502.956	104.94
503.172	105.94
503.389	101.94
503.606	105.94
503.823	106.94
504.04	88.94
504.256	108.94
504.473	90.94
504.69	96.94
504.907	93.94
505.123	96.94
505.34	92.94
505.557	87.94
505.773	103.94
505.99	98.94
506.207	97.94
506.423	93.94
506.64	103.94
506.856	74.94
507.073	94.94
507.289	105.94
507.506	85.94
507.722	114.94
507.939	128.94
508.155	87.94
508.372	102.94
508.588	85.94
508.805	88.94
509.021	87.94
509.238	86.94
509.454	101.94
509.67	105.94
509.887	103.94
510.103	130.94
510.319	206.94
510.536	691.94
510.752	2212.94
510.968	607.94
511.184	146.94
511.401	116.94
511.617	111.94
511.833	96.94
512.049	102.94
512.265	105.94
512.481	93.94
512.698	87.94
512.914	96.94
513.13	98.94
513.346	99.94
