Data from Circ_1990_H10_HRD10591_00012.txt Node
Date: Wed Jan 03 11:55:06 EST 2024
User: Yrep
Spectrometer: HR+D1059
Trigger mode: 1
Integration Time (sec): 1.000000E-1
Scans to average: 1
Electric dark correction enabled: true
Nonlinearity correction enabled: false
Boxcar width: 0
XAxis mode: Wavelengths
Number of Pixels in Spectrum: 2048
>>>>>Begin Spectral Data<<<<<
223.165	-15.31
223.4	-15.31
223.635	-15.31
223.869	-11.31
224.104	-6.31
224.338	-11.31
224.573	-18.31
224.808	-9.31
225.042	-12.31
225.277	-18.31
225.511	-6.31
225.746	0.69
225.98	3.69
226.215	6.69
226.449	23.69
226.683	16.69
226.918	30.69
227.152	26.69
227.387	24.69
227.621	41.69
227.856	52.69
228.09	45.69
228.324	55.69
228.559	46.69
228.793	47.69
229.027	58.69
229.262	66.69
229.496	71.69
229.73	68.69
229.964	62.69
230.199	79.69
230.433	77.69
230.667	75.69
230.901	78.69
231.136	77.69
231.37	81.69
231.604	87.69
231.838	66.69
232.072	80.69
232.306	97.69
232.541	80.69
232.775	86.69
233.009	80.69
233.243	76.69
233.477	83.69
233.711	81.69
233.945	68.69
234.179	69.69
234.413	80.69
234.647	77.69
234.881	83.69
235.115	68.69
235.349	77.69
235.583	78.69
235.817	68.69
236.051	82.69
236.285	72.69
236.519	64.69
236.753	83.69
236.987	88.69
237.221	74.69
237.455	72.69
237.689	70.69
237.922	93.69
238.156	82.69
238.39	69.69
238.624	88.69
238.858	88.69
239.091	78.69
239.325	64.69
239.559	69.69
239.793	79.69
240.027	61.69
240.26	76.69
240.494	87.69
240.728	74.69
240.961	60.69
241.195	70.69
241.429	68.69
241.662	72.69
241.896	75.69
242.13	71.69
242.363	69.69
242.597	68.69
242.83	77.69
243.064	82.69
243.298	76.69
243.531	78.69
243.765	61.69
243.998	76.69
244.232	83.69
244.465	77.69
244.699	62.69
244.932	76.69
245.166	78.69
245.399	89.69
245.633	79.69
245.866	69.69
246.099	82.69
246.333	94.69
246.566	91.69
246.8	75.69
247.033	71.69
247.266	73.69
247.5	78.69
247.733	72.69
247.966	76.69
248.2	72.69
248.433	79.69
248.666	82.69
248.899	78.69
249.133	92.69
249.366	74.69
249.599	97.69
249.832	76.69
250.066	86.69
250.299	83.69
250.532	78.69
250.765	77.69
250.998	73.69
251.231	79.69
251.465	78.69
251.698	64.69
251.931	78.69
252.164	80.69
252.397	69.69
252.63	92.69
252.863	76.69
253.096	66.69
253.329	85.69
253.562	75.69
253.795	77.69
254.028	77.69
254.261	81.69
254.494	74.69
254.727	64.69
254.96	84.69
255.193	83.69
255.426	88.69
255.659	77.69
255.892	81.69
256.124	77.69
256.357	81.69
256.59	82.69
256.823	78.69
257.056	90.69
257.289	83.69
257.521	77.69
257.754	76.69
257.987	77.69
258.22	77.69
258.452	79.69
258.685	84.69
258.918	80.69
259.151	78.69
259.383	84.69
259.616	68.69
259.849	83.69
260.081	76.69
260.314	76.69
260.547	82.69
260.779	82.69
261.012	83.69
261.244	76.69
261.477	93.69
261.71	80.69
261.942	95.69
262.175	90.69
262.407	95.69
262.64	74.69
262.872	80.69
263.105	83.69
263.337	73.69
263.57	79.69
263.802	81.69
264.035	83.69
264.267	84.69
264.499	75.69
264.732	88.69
264.964	97.69
265.197	80.69
265.429	90.69
265.661	88.69
265.894	81.69
266.126	91.69
266.358	69.69
266.591	76.69
266.823	77.69
267.055	86.69
267.287	80.69
267.52	84.69
267.752	85.69
267.984	81.69
268.216	86.69
268.448	96.69
268.681	76.69
268.913	69.69
269.145	67.69
269.377	77.69
269.609	88.69
269.841	93.69
270.073	86.69
270.306	77.69
270.538	90.69
270.77	66.69
271.002	86.69
271.234	82.69
271.466	85.69
271.698	86.69
271.93	82.69
272.162	67.69
272.394	69.69
272.626	80.69
272.858	86.69
273.09	86.69
273.322	78.69
273.553	64.69
273.785	83.69
274.017	70.69
274.249	78.69
274.481	86.69
274.713	84.69
274.945	93.69
275.176	74.69
275.408	96.69
275.64	94.69
275.872	92.69
276.104	89.69
276.335	91.69
276.567	89.69
276.799	96.69
277.031	87.69
277.262	84.69
277.494	91.69
277.726	81.69
277.957	78.69
278.189	89.69
278.421	100.69
278.652	74.69
278.884	81.69
279.115	74.69
279.347	73.69
279.579	77.69
279.81	100.69
280.042	98.69
280.273	90.69
280.505	68.69
280.736	76.69
280.968	82.69
281.199	87.69
281.431	70.69
281.662	90.69
281.894	82.69
282.125	90.69
282.356	97.69
282.588	119.69
282.819	95.69
283.051	85.69
283.282	86.69
283.513	78.69
283.745	78.69
283.976	84.69
284.207	98.69
284.439	86.69
284.67	74.69
284.901	98.69
285.132	76.69
285.364	78.69
285.595	68.69
285.826	92.69
286.057	85.69
286.288	85.69
286.52	78.69
286.751	78.69
286.982	81.69
287.213	82.69
287.444	81.69
287.675	88.69
287.906	89.69
288.138	69.69
288.369	87.69
288.6	75.69
288.831	80.69
289.062	88.69
289.293	76.69
289.524	93.69
289.755	78.69
289.986	87.69
290.217	65.69
290.448	93.69
290.679	72.69
290.91	80.69
291.141	71.69
291.371	75.69
291.602	71.69
291.833	96.69
292.064	83.69
292.295	94.69
292.526	96.69
292.757	84.69
292.987	81.69
293.218	87.69
293.449	92.69
293.68	78.69
293.91	95.69
294.141	86.69
294.372	90.69
294.603	91.69
294.833	79.69
295.064	83.69
295.295	87.69
295.525	92.69
295.756	87.69
295.987	94.69
296.217	108.69
296.448	108.69
296.679	91.69
296.909	77.69
297.14	81.69
297.37	68.69
297.601	91.69
297.831	89.69
298.062	79.69
298.292	92.69
298.523	77.69
298.753	81.69
298.984	93.69
299.214	86.69
299.445	84.69
299.675	86.69
299.905	85.69
300.136	76.69
300.366	90.69
300.597	86.69
300.827	83.69
301.057	86.69
301.288	107.69
301.518	107.69
301.748	84.69
301.979	102.69
302.209	88.69
302.439	68.69
302.669	80.69
302.9	81.69
303.13	84.69
303.36	80.69
303.59	102.69
303.82	90.69
304.051	92.69
304.281	81.69
304.511	77.69
304.741	89.69
304.971	96.69
305.201	82.69
305.431	85.69
305.661	109.69
305.891	96.69
306.121	90.69
306.352	106.69
306.582	97.69
306.812	84.69
307.042	99.69
307.272	101.69
307.502	97.69
307.731	103.69
307.961	102.69
308.191	98.69
308.421	79.69
308.651	90.69
308.881	94.69
309.111	83.69
309.341	80.69
309.571	78.69
309.8	97.69
310.03	88.69
310.26	91.69
310.49	93.69
310.72	79.69
310.949	84.69
311.179	95.69
311.409	83.69
311.639	99.69
311.868	96.69
312.098	89.69
312.328	82.69
312.557	98.69
312.787	99.69
313.017	97.69
313.246	90.69
313.476	89.69
313.706	94.69
313.935	83.69
314.165	92.69
314.394	103.69
314.624	80.69
314.853	94.69
315.083	86.69
315.312	84.69
315.542	84.69
315.771	95.69
316.001	96.69
316.23	100.69
316.46	96.69
316.689	89.69
316.919	72.69
317.148	82.69
317.377	86.69
317.607	61.69
317.836	91.69
318.065	85.69
318.295	86.69
318.524	84.69
318.753	79.69
318.983	82.69
319.212	91.69
319.441	94.69
319.67	90.69
319.9	84.69
320.129	86.69
320.358	70.69
320.587	100.69
320.816	107.69
321.046	84.69
321.275	86.69
321.504	91.69
321.733	86.69
321.962	85.69
322.191	96.69
322.42	101.69
322.649	96.69
322.878	108.69
323.108	107.69
323.337	110.69
323.566	117.69
323.795	133.69
324.024	177.69
324.253	327.69
324.482	694.69
324.71	1388.69
324.939	1793.69
325.168	665.69
325.397	202.69
325.626	121.69
325.855	104.69
326.084	120.69
326.313	120.69
326.542	139.69
326.77	206.69
326.999	364.69
327.228	781.69
327.457	1437.69
327.686	1108.69
327.914	309.69
328.143	191.69
328.372	168.69
328.6	128.69
328.829	102.69
329.058	116.69
329.287	98.69
329.515	103.69
329.744	121.69
329.972	117.69
330.201	162.69
330.43	191.69
330.658	137.69
330.887	126.69
331.115	112.69
331.344	80.69
331.572	81.69
331.801	94.69
332.03	94.69
332.258	89.69
332.486	84.69
332.715	93.69
332.943	80.69
333.172	83.69
333.4	96.69
333.629	115.69
333.857	96.69
334.085	125.69
334.314	160.69
334.542	219.69
334.771	210.69
334.999	99.69
335.227	87.69
335.455	93.69
335.684	83.69
335.912	92.69
336.14	98.69
336.369	108.69
336.597	100.69
336.825	99.69
337.053	92.69
337.281	90.69
337.51	88.69
337.738	97.69
337.966	84.69
338.194	92.69
338.422	78.69
338.65	94.69
338.878	86.69
339.106	86.69
339.334	85.69
339.562	84.69
339.79	82.69
340.018	92.69
340.246	94.69
340.474	88.69
340.702	89.69
340.93	97.69
341.158	85.69
341.386	90.69
341.614	86.69
341.842	83.69
342.07	85.69
342.298	93.69
342.526	90.69
342.754	83.69
342.981	90.69
343.209	90.69
343.437	105.69
343.665	80.69
343.893	97.69
344.12	90.69
344.348	96.69
344.576	96.69
344.804	87.69
345.031	99.69
345.259	75.69
345.487	91.69
345.714	91.69
345.942	93.69
346.17	92.69
346.397	88.69
346.625	89.69
346.853	93.69
347.08	84.69
347.308	84.69
347.535	82.69
347.763	91.69
347.99	98.69
348.218	106.69
348.445	93.69
348.673	90.69
348.9	88.69
349.128	97.69
349.355	91.69
349.583	91.69
349.81	91.69
350.037	91.69
350.265	84.69
350.492	96.69
350.72	105.69
350.947	92.69
351.174	104.69
351.402	98.69
351.629	103.69
351.856	98.69
352.083	110.69
352.311	99.69
352.538	106.69
352.765	101.69
352.992	96.69
353.22	105.69
353.447	100.69
353.674	102.69
353.901	106.69
354.128	97.69
354.355	94.69
354.583	100.69
354.81	101.69
355.037	110.69
355.264	100.69
355.491	102.69
355.718	91.69
355.945	102.69
356.172	90.69
356.399	98.69
356.626	99.69
356.853	94.69
357.08	74.69
357.307	75.69
357.534	87.69
357.761	88.69
357.988	91.69
358.215	124.69
358.441	128.69
358.668	104.69
358.895	105.69
359.122	110.69
359.349	98.69
359.576	91.69
359.802	93.69
360.029	90.69
360.256	98.69
360.483	83.69
360.709	97.69
360.936	92.69
361.163	83.69
361.39	98.69
361.616	93.69
361.843	90.69
362.07	101.69
362.296	83.69
362.523	69.69
362.749	87.69
362.976	84.69
363.203	99.69
363.429	92.69
363.656	85.69
363.882	91.69
364.109	97.69
364.335	105.69
364.562	82.69
364.788	76.69
365.015	81.69
365.241	82.69
365.468	106.69
365.694	115.69
365.92	101.69
366.147	96.69
366.373	84.69
366.599	78.69
366.826	79.69
367.052	85.69
367.278	92.69
367.505	85.69
367.731	78.69
367.957	88.69
368.184	84.69
368.41	94.69
368.636	102.69
368.862	107.69
369.089	109.69
369.315	93.69
369.541	91.69
369.767	97.69
369.993	101.69
370.219	92.69
370.445	96.69
370.672	102.69
370.898	66.69
371.124	76.69
371.35	81.69
371.576	88.69
371.802	83.69
372.028	82.69
372.254	87.69
372.48	78.69
372.706	102.69
372.932	92.69
373.158	90.69
373.384	95.69
373.61	96.69
373.835	94.69
374.061	85.69
374.287	91.69
374.513	90.69
374.739	101.69
374.965	80.69
375.191	100.69
375.416	81.69
375.642	90.69
375.868	105.69
376.094	97.69
376.319	102.69
376.545	93.69
376.771	95.69
376.997	82.69
377.222	97.69
377.448	99.69
377.674	85.69
377.899	89.69
378.125	101.69
378.35	89.69
378.576	97.69
378.802	105.69
379.027	109.69
379.253	112.69
379.478	110.69
379.704	104.69
379.929	107.69
380.155	105.69
380.38	116.69
380.606	99.69
380.831	107.69
381.057	117.69
381.282	105.69
381.507	112.69
381.733	123.69
381.958	112.69
382.184	122.69
382.409	127.69
382.634	119.69
382.86	128.69
383.085	126.69
383.31	131.69
383.535	127.69
383.761	137.69
383.986	147.69
384.211	139.69
384.436	115.69
384.662	120.69
384.887	139.69
385.112	154.69
385.337	152.69
385.562	171.69
385.787	143.69
386.013	155.69
386.238	155.69
386.463	147.69
386.688	140.69
386.913	144.69
387.138	155.69
387.363	134.69
387.588	139.69
387.813	140.69
388.038	159.69
388.263	171.69
388.488	163.69
388.713	110.69
388.938	94.69
389.163	105.69
389.387	106.69
389.612	88.69
389.837	96.69
390.062	85.69
390.287	89.69
390.512	88.69
390.736	96.69
390.961	101.69
391.186	101.69
391.411	87.69
391.636	88.69
391.86	92.69
392.085	103.69
392.31	85.69
392.534	84.69
392.759	66.69
392.984	76.69
393.208	77.69
393.433	113.69
393.658	98.69
393.882	87.69
394.107	88.69
394.331	89.69
394.556	93.69
394.78	91.69
395.005	86.69
395.229	80.69
395.454	85.69
395.678	77.69
395.903	85.69
396.127	94.69
396.352	88.69
396.576	92.69
396.801	94.69
397.025	97.69
397.249	83.69
397.474	84.69
397.698	97.69
397.922	91.69
398.147	79.69
398.371	85.69
398.595	88.69
398.82	93.69
399.044	83.69
399.268	88.69
399.492	95.69
399.717	70.69
399.941	86.69
400.165	92.69
400.389	103.69
400.613	87.69
400.837	79.69
401.062	86.69
401.286	91.69
401.51	94.69
401.734	92.69
401.958	93.69
402.182	104.69
402.406	132.69
402.63	116.69
402.854	81.69
403.078	85.69
403.302	85.69
403.526	93.69
403.75	76.69
403.974	98.69
404.198	86.69
404.422	82.69
404.645	98.69
404.869	92.69
405.093	98.69
405.317	99.69
405.541	100.69
405.765	106.69
405.988	115.69
406.212	146.69
406.436	172.69
406.66	132.69
406.883	88.69
407.107	93.69
407.331	87.69
407.555	94.69
407.778	96.69
408.002	94.69
408.226	85.69
408.449	92.69
408.673	90.69
408.896	97.69
409.12	99.69
409.344	92.69
409.567	83.69
409.791	93.69
410.014	96.69
410.238	95.69
410.461	100.69
410.685	102.69
410.908	101.69
411.132	109.69
411.355	110.69
411.578	91.69
411.802	92.69
412.025	87.69
412.249	99.69
412.472	97.69
412.695	105.69
412.919	91.69
413.142	83.69
413.365	100.69
413.589	93.69
413.812	84.69
414.035	92.69
414.258	90.69
414.482	90.69
414.705	77.69
414.928	97.69
415.151	107.69
415.374	98.69
415.597	96.69
415.821	79.69
416.044	96.69
416.267	97.69
416.49	83.69
416.713	84.69
416.936	85.69
417.159	74.69
417.382	82.69
417.605	76.69
417.828	100.69
418.051	83.69
418.274	76.69
418.497	88.69
418.72	91.69
418.943	78.69
419.166	88.69
419.389	81.69
419.611	97.69
419.834	101.69
420.057	93.69
420.28	73.69
420.503	96.69
420.726	90.69
420.948	92.69
421.171	89.69
421.394	96.69
421.617	86.69
421.839	83.69
422.062	73.69
422.285	87.69
422.507	106.69
422.73	103.69
422.953	93.69
423.175	83.69
423.398	101.69
423.621	94.69
423.843	83.69
424.066	87.69
424.288	90.69
424.511	85.69
424.733	91.69
424.956	91.69
425.178	91.69
425.401	85.69
425.623	93.69
425.846	96.69
426.068	89.69
426.291	94.69
426.513	112.69
426.735	89.69
426.958	90.69
427.18	86.69
427.402	117.69
427.625	156.69
427.847	117.69
428.069	108.69
428.292	85.69
428.514	96.69
428.736	93.69
428.958	85.69
429.181	97.69
429.403	88.69
429.625	86.69
429.847	104.69
430.069	88.69
430.292	97.69
430.514	98.69
430.736	81.69
430.958	66.69
431.18	77.69
431.402	88.69
431.624	90.69
431.846	86.69
432.068	81.69
432.29	86.69
432.512	94.69
432.734	82.69
432.956	96.69
433.178	91.69
433.4	105.69
433.622	99.69
433.844	102.69
434.066	92.69
434.287	81.69
434.509	92.69
434.731	77.69
434.953	86.69
435.175	105.69
435.397	76.69
435.618	81.69
435.84	106.69
436.062	115.69
436.284	107.69
436.505	88.69
436.727	104.69
436.949	92.69
437.17	85.69
437.392	78.69
437.614	81.69
437.835	88.69
438.057	89.69
438.278	94.69
438.5	102.69
438.721	101.69
438.943	80.69
439.165	92.69
439.386	89.69
439.608	91.69
439.829	84.69
440.05	93.69
440.272	123.69
440.493	93.69
440.715	87.69
440.936	101.69
441.158	80.69
441.379	99.69
441.6	81.69
441.822	85.69
442.043	100.69
442.264	98.69
442.486	96.69
442.707	84.69
442.928	100.69
443.149	107.69
443.371	117.69
443.592	107.69
443.813	99.69
444.034	106.69
444.255	85.69
444.476	82.69
444.698	80.69
444.919	88.69
445.14	140.69
445.361	119.69
445.582	94.69
445.803	129.69
446.024	117.69
446.245	115.69
446.466	100.69
446.687	89.69
446.908	72.69
447.129	101.69
447.35	80.69
447.571	84.69
447.792	100.69
448.013	89.69
448.234	103.69
448.455	79.69
448.675	110.69
448.896	105.69
449.117	90.69
449.338	99.69
449.559	109.69
449.779	133.69
450	86.69
450.221	93.69
450.442	95.69
450.662	79.69
450.883	91.69
451.104	104.69
451.324	104.69
451.545	89.69
451.766	102.69
451.986	100.69
452.207	93.69
452.428	85.69
452.648	96.69
452.869	101.69
453.089	95.69
453.31	106.69
453.53	96.69
453.751	76.69
453.971	92.69
454.192	84.69
454.412	96.69
454.633	95.69
454.853	88.69
455.073	88.69
455.294	76.69
455.514	112.69
455.734	97.69
455.955	89.69
456.175	71.69
456.395	88.69
456.616	92.69
456.836	91.69
457.056	71.69
457.276	67.69
457.497	94.69
457.717	86.69
457.937	82.69
458.157	81.69
458.377	72.69
458.598	106.69
458.818	129.69
459.038	124.69
459.258	89.69
459.478	82.69
459.698	78.69
459.918	88.69
460.138	72.69
460.358	77.69
460.578	84.69
460.798	87.69
461.018	86.69
461.238	89.69
461.458	78.69
461.678	82.69
461.898	79.69
462.118	92.69
462.338	85.69
462.558	69.69
462.777	84.69
462.997	76.69
463.217	90.69
463.437	81.69
463.657	81.69
463.876	89.69
464.096	98.69
464.316	88.69
464.536	77.69
464.755	91.69
464.975	98.69
465.195	137.69
465.414	139.69
465.634	81.69
465.854	91.69
466.073	99.69
466.293	76.69
466.512	99.69
466.732	80.69
466.951	80.69
467.171	76.69
467.391	87.69
467.61	93.69
467.829	84.69
468.049	117.69
468.268	144.69
468.488	94.69
468.707	72.69
468.927	81.69
469.146	97.69
469.365	84.69
469.585	80.69
469.804	92.69
470.023	93.69
470.243	91.69
470.462	91.69
470.681	101.69
470.901	65.69
471.12	78.69
471.339	101.69
471.558	75.69
471.777	87.69
471.997	103.69
472.216	163.69
472.435	264.69
472.654	119.69
472.873	86.69
473.092	85.69
473.311	88.69
473.53	95.69
473.749	85.69
473.968	82.69
474.187	92.69
474.406	88.69
474.625	103.69
474.844	80.69
475.063	78.69
475.282	82.69
475.501	94.69
475.72	86.69
475.939	82.69
476.158	78.69
476.377	63.69
476.596	89.69
476.814	86.69
477.033	98.69
477.252	86.69
477.471	99.69
477.69	76.69
477.908	92.69
478.127	85.69
478.346	79.69
478.564	89.69
478.783	86.69
479.002	96.69
479.22	80.69
479.439	99.69
479.658	91.69
479.876	89.69
480.095	83.69
480.313	88.69
480.532	80.69
480.751	102.69
480.969	160.69
481.188	432.69
481.406	251.69
481.624	108.69
481.843	72.69
482.061	92.69
482.28	86.69
482.498	88.69
482.717	78.69
482.935	75.69
483.153	100.69
483.372	74.69
483.59	87.69
483.808	87.69
484.027	90.69
484.245	93.69
484.463	92.69
484.681	100.69
484.9	82.69
485.118	104.69
485.336	98.69
485.554	99.69
485.772	104.69
485.99	108.69
486.209	99.69
486.427	100.69
486.645	117.69
486.863	111.69
487.081	101.69
487.299	106.69
487.517	102.69
487.735	94.69
487.953	95.69
488.171	98.69
488.389	106.69
488.607	84.69
488.825	101.69
489.043	92.69
489.261	104.69
489.479	86.69
489.696	89.69
489.914	80.69
490.132	80.69
490.35	82.69
490.568	96.69
490.786	89.69
491.003	77.69
491.221	96.69
491.439	82.69
491.657	101.69
491.874	91.69
492.092	101.69
492.31	92.69
492.527	102.69
492.745	85.69
492.963	85.69
493.18	102.69
493.398	99.69
493.615	89.69
493.833	90.69
494.05	95.69
494.268	91.69
494.485	91.69
494.703	83.69
494.92	86.69
495.138	105.69
495.355	91.69
495.573	85.69
495.79	86.69
496.008	99.69
496.225	83.69
496.442	93.69
496.66	110.69
496.877	98.69
497.094	88.69
497.312	86.69
497.529	82.69
497.746	85.69
497.963	86.69
498.181	90.69
498.398	97.69
498.615	98.69
498.832	88.69
499.049	88.69
499.267	91.69
499.484	78.69
499.701	83.69
499.918	94.69
500.135	74.69
500.352	94.69
500.569	85.69
500.786	85.69
501.003	81.69
501.22	85.69
501.437	83.69
501.654	78.69
501.871	100.69
502.088	86.69
502.305	99.69
502.522	87.69
502.739	67.69
502.956	98.69
503.172	82.69
503.389	99.69
503.606	104.69
503.823	93.69
504.04	69.69
504.256	86.69
504.473	87.69
504.69	76.69
504.907	80.69
505.123	106.69
505.34	82.69
505.557	96.69
505.773	84.69
505.99	81.69
506.207	92.69
506.423	100.69
506.64	87.69
506.856	78.69
507.073	93.69
507.289	81.69
507.506	78.69
507.722	114.69
507.939	94.69
508.155	99.69
508.372	87.69
508.588	82.69
508.805	91.69
509.021	100.69
509.238	90.69
509.454	85.69
509.67	106.69
509.887	114.69
510.103	121.69
510.319	176.69
510.536	596.69
510.752	1778.69
510.968	505.69
511.184	128.69
511.401	98.69
511.617	102.69
511.833	89.69
512.049	68.69
512.265	82.69
512.481	99.69
512.698	91.69
512.914	96.69
513.13	85.69
513.346	81.69
513.562	89.69
513.778	95.69
513.994	96.69
514.21	89.69
514.426	102.69
514.642	100.69
514.858	102.69
515.074	131.69
515.29	330.69
515.506	1040.69
515.721	389.69
515.937	126.69
516.153	107.69
