Data from Circ_1990_H10_HRD10591_00014.txt Node
Date: Wed Jan 03 11:55:06 EST 2024
User: Yrep
Spectrometer: HR+D1059
Trigger mode: 1
Integration Time (sec): 1.000000E-1
Scans to average: 1
Electric dark correction enabled: true
Nonlinearity correction enabled: false
Boxcar width: 0
XAxis mode: Wavelengths
Number of Pixels in Spectrum: 2048
>>>>>Begin Spectral Data<<<<<
223.165	-9.5
223.4	-9.5
223.635	-9.5
223.869	-30.5
224.104	-21.5
224.338	-19.5
224.573	-16.5
224.808	-15.5
225.042	-18.5
225.277	-5.5
225.511	4.5
225.746	10.5
225.98	12.5
226.215	22.5
226.449	2.5
226.683	14.5
226.918	34.5
227.152	35.5
227.387	23.5
227.621	40.5
227.856	38.5
228.09	57.5
228.324	46.5
228.559	65.5
228.793	69.5
229.027	55.5
229.262	69.5
229.496	75.5
229.73	68.5
229.964	85.5
230.199	70.5
230.433	62.5
230.667	63.5
230.901	78.5
231.136	85.5
231.37	76.5
231.604	79.5
231.838	70.5
232.072	88.5
232.306	74.5
232.541	93.5
232.775	84.5
233.009	90.5
233.243	78.5
233.477	79.5
233.711	73.5
233.945	77.5
234.179	62.5
234.413	64.5
234.647	71.5
234.881	78.5
235.115	82.5
235.349	82.5
235.583	73.5
235.817	80.5
236.051	76.5
236.285	81.5
236.519	69.5
236.753	85.5
236.987	77.5
237.221	81.5
237.455	81.5
237.689	83.5
237.922	73.5
238.156	65.5
238.39	80.5
238.624	69.5
238.858	77.5
239.091	70.5
239.325	66.5
239.559	81.5
239.793	82.5
240.027	82.5
240.26	67.5
240.494	77.5
240.728	74.5
240.961	81.5
241.195	77.5
241.429	76.5
241.662	69.5
241.896	68.5
242.13	60.5
242.363	75.5
242.597	67.5
242.83	70.5
243.064	64.5
243.298	65.5
243.531	83.5
243.765	72.5
243.998	78.5
244.232	90.5
244.465	92.5
244.699	75.5
244.932	82.5
245.166	86.5
245.399	78.5
245.633	85.5
245.866	75.5
246.099	77.5
246.333	77.5
246.566	94.5
246.8	63.5
247.033	75.5
247.266	78.5
247.5	78.5
247.733	80.5
247.966	73.5
248.2	78.5
248.433	75.5
248.666	64.5
248.899	93.5
249.133	81.5
249.366	96.5
249.599	86.5
249.832	87.5
250.066	83.5
250.299	90.5
250.532	90.5
250.765	86.5
250.998	69.5
251.231	81.5
251.465	85.5
251.698	71.5
251.931	93.5
252.164	83.5
252.397	75.5
252.63	75.5
252.863	69.5
253.096	77.5
253.329	81.5
253.562	84.5
253.795	90.5
254.028	76.5
254.261	87.5
254.494	74.5
254.727	90.5
254.96	82.5
255.193	68.5
255.426	82.5
255.659	86.5
255.892	82.5
256.124	83.5
256.357	74.5
256.59	78.5
256.823	83.5
257.056	87.5
257.289	84.5
257.521	84.5
257.754	83.5
257.987	82.5
258.22	90.5
258.452	90.5
258.685	77.5
258.918	85.5
259.151	92.5
259.383	76.5
259.616	71.5
259.849	65.5
260.081	81.5
260.314	86.5
260.547	72.5
260.779	93.5
261.012	68.5
261.244	75.5
261.477	82.5
261.71	95.5
261.942	95.5
262.175	102.5
262.407	71.5
262.64	82.5
262.872	83.5
263.105	73.5
263.337	79.5
263.57	68.5
263.802	86.5
264.035	86.5
264.267	91.5
264.499	80.5
264.732	79.5
264.964	78.5
265.197	83.5
265.429	74.5
265.661	89.5
265.894	86.5
266.126	82.5
266.358	66.5
266.591	75.5
266.823	93.5
267.055	87.5
267.287	71.5
267.52	74.5
267.752	66.5
267.984	89.5
268.216	76.5
268.448	73.5
268.681	85.5
268.913	78.5
269.145	89.5
269.377	76.5
269.609	79.5
269.841	90.5
270.073	76.5
270.306	75.5
270.538	77.5
270.77	90.5
271.002	74.5
271.234	94.5
271.466	86.5
271.698	84.5
271.93	83.5
272.162	88.5
272.394	64.5
272.626	87.5
272.858	82.5
273.09	84.5
273.322	73.5
273.553	81.5
273.785	85.5
274.017	98.5
274.249	81.5
274.481	76.5
274.713	94.5
274.945	86.5
275.176	83.5
275.408	85.5
275.64	86.5
275.872	90.5
276.104	85.5
276.335	83.5
276.567	81.5
276.799	89.5
277.031	102.5
277.262	84.5
277.494	100.5
277.726	87.5
277.957	80.5
278.189	75.5
278.421	75.5
278.652	86.5
278.884	81.5
279.115	78.5
279.347	90.5
279.579	88.5
279.81	77.5
280.042	91.5
280.273	102.5
280.505	87.5
280.736	89.5
280.968	100.5
281.199	75.5
281.431	89.5
281.662	94.5
281.894	95.5
282.125	79.5
282.356	100.5
282.588	113.5
282.819	105.5
283.051	97.5
283.282	87.5
283.513	83.5
283.745	84.5
283.976	91.5
284.207	92.5
284.439	84.5
284.67	80.5
284.901	76.5
285.132	83.5
285.364	81.5
285.595	85.5
285.826	74.5
286.057	81.5
286.288	99.5
286.52	83.5
286.751	99.5
286.982	86.5
287.213	76.5
287.444	89.5
287.675	82.5
287.906	77.5
288.138	96.5
288.369	80.5
288.6	95.5
288.831	82.5
289.062	83.5
289.293	98.5
289.524	87.5
289.755	91.5
289.986	79.5
290.217	91.5
290.448	86.5
290.679	91.5
290.91	78.5
291.141	80.5
291.371	77.5
291.602	83.5
291.833	74.5
292.064	65.5
292.295	84.5
292.526	89.5
292.757	91.5
292.987	83.5
293.218	89.5
293.449	83.5
293.68	87.5
293.91	87.5
294.141	108.5
294.372	85.5
294.603	90.5
294.833	81.5
295.064	83.5
295.295	94.5
295.525	87.5
295.756	95.5
295.987	113.5
296.217	93.5
296.448	106.5
296.679	89.5
296.909	87.5
297.14	93.5
297.37	90.5
297.601	91.5
297.831	83.5
298.062	83.5
298.292	100.5
298.523	95.5
298.753	77.5
298.984	92.5
299.214	75.5
299.445	94.5
299.675	101.5
299.905	93.5
300.136	78.5
300.366	88.5
300.597	89.5
300.827	94.5
301.057	87.5
301.288	101.5
301.518	78.5
301.748	94.5
301.979	100.5
302.209	84.5
302.439	83.5
302.669	105.5
302.9	98.5
303.13	85.5
303.36	100.5
303.59	92.5
303.82	98.5
304.051	99.5
304.281	92.5
304.511	86.5
304.741	83.5
304.971	95.5
305.201	91.5
305.431	80.5
305.661	81.5
305.891	88.5
306.121	98.5
306.352	106.5
306.582	88.5
306.812	103.5
307.042	88.5
307.272	91.5
307.502	87.5
307.731	102.5
307.961	86.5
308.191	82.5
308.421	80.5
308.651	86.5
308.881	91.5
309.111	101.5
309.341	82.5
309.571	101.5
309.8	99.5
310.03	92.5
310.26	89.5
310.49	83.5
310.72	101.5
310.949	93.5
311.179	95.5
311.409	92.5
311.639	75.5
311.868	105.5
312.098	91.5
312.328	94.5
312.557	92.5
312.787	98.5
313.017	86.5
313.246	85.5
313.476	71.5
313.706	83.5
313.935	87.5
314.165	92.5
314.394	96.5
314.624	85.5
314.853	105.5
315.083	92.5
315.312	94.5
315.542	84.5
315.771	82.5
316.001	67.5
316.23	84.5
316.46	89.5
316.689	93.5
316.919	89.5
317.148	96.5
317.377	84.5
317.607	95.5
317.836	84.5
318.065	91.5
318.295	96.5
318.524	87.5
318.753	93.5
318.983	96.5
319.212	103.5
319.441	93.5
319.67	98.5
319.9	78.5
320.129	87.5
320.358	85.5
320.587	87.5
320.816	85.5
321.046	81.5
321.275	98.5
321.504	91.5
321.733	97.5
321.962	90.5
322.191	102.5
322.42	103.5
322.649	102.5
322.878	103.5
323.108	106.5
323.337	113.5
323.566	108.5
323.795	137.5
324.024	173.5
324.253	315.5
324.482	605.5
324.71	1251.5
324.939	1654.5
325.168	625.5
325.397	194.5
325.626	121.5
325.855	109.5
326.084	120.5
326.313	109.5
326.542	122.5
326.77	189.5
326.999	350.5
327.228	705.5
327.457	1284.5
327.686	1025.5
327.914	293.5
328.143	161.5
328.372	140.5
328.6	118.5
328.829	98.5
329.058	115.5
329.287	114.5
329.515	97.5
329.744	100.5
329.972	118.5
330.201	141.5
330.43	183.5
330.658	137.5
330.887	128.5
331.115	109.5
331.344	96.5
331.572	113.5
331.801	111.5
332.03	101.5
332.258	84.5
332.486	98.5
332.715	99.5
332.943	89.5
333.172	89.5
333.4	87.5
333.629	97.5
333.857	97.5
334.085	119.5
334.314	152.5
334.542	208.5
334.771	202.5
334.999	117.5
335.227	96.5
335.455	69.5
335.684	89.5
335.912	107.5
336.14	95.5
336.369	110.5
336.597	86.5
336.825	93.5
337.053	92.5
337.281	104.5
337.51	108.5
337.738	88.5
337.966	84.5
338.194	79.5
338.422	77.5
338.65	84.5
338.878	87.5
339.106	82.5
339.334	93.5
339.562	67.5
339.79	98.5
340.018	82.5
340.246	101.5
340.474	79.5
340.702	90.5
340.93	82.5
341.158	90.5
341.386	97.5
341.614	82.5
341.842	91.5
342.07	86.5
342.298	107.5
342.526	107.5
342.754	91.5
342.981	92.5
343.209	87.5
343.437	106.5
343.665	69.5
343.893	88.5
344.12	83.5
344.348	94.5
344.576	91.5
344.804	97.5
345.031	90.5
345.259	94.5
345.487	92.5
345.714	84.5
345.942	100.5
346.17	97.5
346.397	71.5
346.625	110.5
346.853	80.5
347.08	80.5
347.308	109.5
347.535	91.5
347.763	92.5
347.99	89.5
348.218	107.5
348.445	86.5
348.673	89.5
348.9	92.5
349.128	88.5
349.355	98.5
349.583	87.5
349.81	82.5
350.037	108.5
350.265	100.5
350.492	84.5
350.72	77.5
350.947	104.5
351.174	119.5
351.402	108.5
351.629	100.5
351.856	105.5
352.083	83.5
352.311	88.5
352.538	108.5
352.765	106.5
352.992	101.5
353.22	105.5
353.447	101.5
353.674	98.5
353.901	85.5
354.128	96.5
354.355	115.5
354.583	90.5
354.81	94.5
355.037	100.5
355.264	102.5
355.491	94.5
355.718	101.5
355.945	94.5
356.172	84.5
356.399	91.5
356.626	103.5
356.853	82.5
357.08	100.5
357.307	107.5
357.534	99.5
357.761	83.5
357.988	95.5
358.215	116.5
358.441	113.5
358.668	113.5
358.895	108.5
359.122	102.5
359.349	93.5
359.576	89.5
359.802	111.5
360.029	101.5
360.256	104.5
360.483	94.5
360.709	91.5
360.936	83.5
361.163	86.5
361.39	84.5
361.616	89.5
361.843	88.5
362.07	87.5
362.296	90.5
362.523	81.5
362.749	91.5
362.976	79.5
363.203	93.5
363.429	98.5
363.656	93.5
363.882	86.5
364.109	82.5
364.335	90.5
364.562	89.5
364.788	96.5
365.015	89.5
365.241	91.5
365.468	98.5
365.694	112.5
365.92	86.5
366.147	90.5
366.373	84.5
366.599	84.5
366.826	84.5
367.052	86.5
367.278	85.5
367.505	81.5
367.731	71.5
367.957	90.5
368.184	89.5
368.41	100.5
368.636	98.5
368.862	129.5
369.089	118.5
369.315	83.5
369.541	82.5
369.767	95.5
369.993	101.5
370.219	82.5
370.445	67.5
370.672	90.5
370.898	84.5
371.124	86.5
371.35	77.5
371.576	94.5
371.802	90.5
372.028	96.5
372.254	98.5
372.48	103.5
372.706	90.5
372.932	99.5
373.158	80.5
373.384	93.5
373.61	77.5
373.835	77.5
374.061	87.5
374.287	85.5
374.513	86.5
374.739	95.5
374.965	95.5
375.191	88.5
375.416	89.5
375.642	100.5
375.868	79.5
376.094	98.5
376.319	84.5
376.545	97.5
376.771	86.5
376.997	105.5
377.222	100.5
377.448	99.5
377.674	97.5
377.899	82.5
378.125	94.5
378.35	105.5
378.576	96.5
378.802	112.5
379.027	94.5
379.253	103.5
379.478	89.5
379.704	90.5
379.929	96.5
380.155	110.5
380.38	99.5
380.606	89.5
380.831	106.5
381.057	114.5
381.282	118.5
381.507	114.5
381.733	113.5
381.958	107.5
382.184	123.5
382.409	124.5
382.634	118.5
382.86	133.5
383.085	116.5
383.31	117.5
383.535	109.5
383.761	124.5
383.986	116.5
384.211	124.5
384.436	132.5
384.662	151.5
384.887	133.5
385.112	147.5
385.337	166.5
385.562	149.5
385.787	157.5
386.013	157.5
386.238	145.5
386.463	125.5
386.688	140.5
386.913	139.5
387.138	146.5
387.363	144.5
387.588	118.5
387.813	129.5
388.038	143.5
388.263	163.5
388.488	146.5
388.713	110.5
388.938	110.5
389.163	93.5
389.387	84.5
389.612	92.5
389.837	97.5
390.062	94.5
390.287	87.5
390.512	87.5
390.736	84.5
390.961	84.5
391.186	89.5
391.411	103.5
391.636	82.5
391.86	78.5
392.085	89.5
392.31	96.5
392.534	77.5
392.759	85.5
392.984	90.5
393.208	101.5
393.433	121.5
393.658	120.5
393.882	89.5
394.107	78.5
394.331	86.5
394.556	90.5
394.78	98.5
395.005	83.5
395.229	81.5
395.454	82.5
395.678	99.5
395.903	83.5
396.127	90.5
396.352	88.5
396.576	89.5
396.801	96.5
397.025	102.5
397.249	89.5
397.474	94.5
397.698	82.5
397.922	95.5
398.147	91.5
398.371	80.5
398.595	81.5
398.82	94.5
399.044	86.5
399.268	80.5
399.492	89.5
399.717	82.5
399.941	84.5
400.165	106.5
400.389	86.5
400.613	84.5
400.837	80.5
401.062	90.5
401.286	89.5
401.51	87.5
401.734	93.5
401.958	87.5
402.182	114.5
402.406	130.5
402.63	106.5
402.854	95.5
403.078	99.5
403.302	86.5
403.526	97.5
403.75	83.5
403.974	93.5
404.198	85.5
404.422	91.5
404.645	89.5
404.869	86.5
405.093	101.5
405.317	87.5
405.541	93.5
405.765	106.5
405.988	112.5
406.212	132.5
406.436	188.5
406.66	113.5
406.883	92.5
407.107	97.5
407.331	99.5
407.555	90.5
407.778	108.5
408.002	92.5
408.226	99.5
408.449	80.5
408.673	87.5
408.896	97.5
409.12	102.5
409.344	94.5
409.567	84.5
409.791	89.5
410.014	91.5
410.238	97.5
410.461	106.5
410.685	103.5
410.908	102.5
411.132	109.5
411.355	90.5
411.578	102.5
411.802	91.5
412.025	78.5
412.249	76.5
412.472	94.5
412.695	96.5
412.919	89.5
413.142	92.5
413.365	77.5
413.589	88.5
413.812	90.5
414.035	94.5
414.258	85.5
414.482	99.5
414.705	95.5
414.928	94.5
415.151	86.5
415.374	104.5
415.597	97.5
415.821	102.5
416.044	98.5
416.267	96.5
416.49	92.5
416.713	86.5
416.936	95.5
417.159	85.5
417.382	89.5
417.605	99.5
417.828	87.5
418.051	90.5
418.274	83.5
418.497	105.5
418.72	83.5
418.943	85.5
419.166	114.5
419.389	90.5
419.611	86.5
419.834	97.5
420.057	93.5
420.28	82.5
420.503	86.5
420.726	102.5
420.948	90.5
421.171	89.5
421.394	87.5
421.617	109.5
421.839	69.5
422.062	87.5
422.285	97.5
422.507	104.5
422.73	116.5
422.953	98.5
423.175	89.5
423.398	103.5
423.621	89.5
423.843	74.5
424.066	85.5
424.288	90.5
424.511	80.5
424.733	99.5
424.956	99.5
425.178	97.5
425.401	91.5
425.623	90.5
425.846	76.5
426.068	96.5
426.291	91.5
426.513	79.5
426.735	91.5
426.958	89.5
427.18	94.5
427.402	118.5
427.625	153.5
427.847	129.5
428.069	113.5
428.292	96.5
428.514	94.5
428.736	79.5
428.958	87.5
429.181	105.5
429.403	89.5
429.625	96.5
429.847	88.5
430.069	99.5
430.292	85.5
430.514	80.5
430.736	85.5
430.958	79.5
431.18	88.5
431.402	73.5
431.624	85.5
431.846	86.5
432.068	100.5
432.29	92.5
432.512	95.5
432.734	79.5
432.956	87.5
433.178	87.5
433.4	86.5
433.622	83.5
433.844	87.5
434.066	89.5
434.287	92.5
434.509	91.5
434.731	93.5
434.953	101.5
435.175	95.5
435.397	96.5
435.618	79.5
435.84	93.5
436.062	108.5
436.284	101.5
436.505	78.5
436.727	82.5
436.949	81.5
437.17	95.5
437.392	76.5
437.614	99.5
437.835	100.5
438.057	107.5
438.278	103.5
438.5	97.5
438.721	123.5
438.943	102.5
439.165	88.5
439.386	90.5
439.608	90.5
439.829	94.5
440.05	114.5
440.272	125.5
440.493	89.5
440.715	90.5
440.936	103.5
441.158	76.5
441.379	82.5
441.6	107.5
441.822	90.5
442.043	84.5
442.264	85.5
442.486	92.5
442.707	80.5
442.928	102.5
443.149	117.5
443.371	107.5
443.592	99.5
443.813	103.5
444.034	90.5
444.255	81.5
444.476	65.5
444.698	97.5
444.919	80.5
445.14	126.5
445.361	116.5
445.582	107.5
445.803	115.5
446.024	97.5
446.245	109.5
446.466	109.5
446.687	75.5
446.908	67.5
447.129	80.5
447.35	79.5
447.571	94.5
447.792	89.5
448.013	91.5
448.234	92.5
448.455	89.5
448.675	112.5
448.896	110.5
449.117	94.5
449.338	94.5
449.559	104.5
449.779	127.5
450	79.5
450.221	82.5
450.442	88.5
450.662	86.5
450.883	103.5
451.104	107.5
451.324	91.5
451.545	85.5
451.766	91.5
451.986	93.5
452.207	97.5
452.428	88.5
452.648	97.5
452.869	113.5
453.089	102.5
453.31	93.5
453.53	98.5
453.751	93.5
453.971	85.5
454.192	86.5
454.412	82.5
454.633	99.5
454.853	95.5
455.073	79.5
455.294	71.5
455.514	75.5
455.734	70.5
455.955	87.5
456.175	79.5
456.395	78.5
456.616	82.5
456.836	92.5
457.056	88.5
457.276	66.5
457.497	81.5
457.717	79.5
457.937	80.5
458.157	80.5
458.377	85.5
458.598	87.5
458.818	122.5
459.038	130.5
459.258	103.5
459.478	85.5
459.698	94.5
459.918	76.5
460.138	79.5
460.358	92.5
460.578	85.5
460.798	89.5
461.018	97.5
461.238	100.5
461.458	82.5
461.678	81.5
461.898	87.5
462.118	86.5
462.338	74.5
462.558	88.5
462.777	78.5
462.997	89.5
463.217	95.5
463.437	91.5
463.657	92.5
463.876	87.5
464.096	97.5
464.316	95.5
464.536	97.5
464.755	93.5
464.975	97.5
465.195	131.5
465.414	134.5
465.634	89.5
465.854	87.5
466.073	91.5
466.293	94.5
466.512	74.5
466.732	90.5
466.951	78.5
467.171	98.5
467.391	81.5
467.61	100.5
467.829	100.5
468.049	122.5
468.268	117.5
468.488	97.5
468.707	82.5
468.927	75.5
469.146	83.5
469.365	85.5
469.585	85.5
469.804	91.5
470.023	92.5
470.243	87.5
470.462	94.5
470.681	99.5
470.901	92.5
471.12	89.5
471.339	99.5
471.558	80.5
471.777	81.5
471.997	112.5
472.216	163.5
472.435	247.5
472.654	116.5
472.873	98.5
473.092	87.5
473.311	90.5
473.53	85.5
473.749	87.5
473.968	99.5
474.187	87.5
474.406	93.5
474.625	93.5
474.844	91.5
475.063	77.5
475.282	67.5
475.501	83.5
475.72	78.5
475.939	92.5
476.158	81.5
476.377	84.5
476.596	94.5
476.814	84.5
477.033	98.5
477.252	90.5
477.471	93.5
477.69	92.5
477.908	78.5
478.127	89.5
478.346	81.5
478.564	99.5
478.783	100.5
479.002	86.5
479.22	93.5
479.439	94.5
479.658	87.5
479.876	85.5
480.095	92.5
480.313	90.5
480.532	100.5
480.751	111.5
480.969	168.5
481.188	386.5
481.406	262.5
481.624	118.5
481.843	93.5
482.061	89.5
482.28	91.5
482.498	94.5
482.717	83.5
482.935	87.5
483.153	83.5
483.372	83.5
483.59	85.5
483.808	95.5
484.027	104.5
484.245	87.5
484.463	93.5
484.681	94.5
484.9	86.5
485.118	96.5
485.336	92.5
485.554	90.5
485.772	103.5
485.99	109.5
486.209	107.5
486.427	98.5
486.645	108.5
486.863	113.5
487.081	109.5
487.299	94.5
487.517	101.5
487.735	102.5
487.953	105.5
488.171	99.5
488.389	91.5
488.607	103.5
488.825	101.5
489.043	95.5
489.261	81.5
489.479	90.5
489.696	76.5
489.914	95.5
490.132	82.5
490.35	93.5
490.568	107.5
490.786	95.5
491.003	89.5
491.221	80.5
491.439	97.5
491.657	93.5
491.874	83.5
492.092	93.5
492.31	96.5
492.527	97.5
492.745	93.5
492.963	102.5
493.18	89.5
493.398	95.5
493.615	94.5
493.833	99.5
494.05	98.5
494.268	85.5
494.485	87.5
494.703	86.5
494.92	83.5
495.138	96.5
495.355	100.5
495.573	92.5
495.79	93.5
496.008	87.5
496.225	96.5
496.442	98.5
496.66	92.5
496.877	102.5
497.094	92.5
497.312	82.5
497.529	84.5
497.746	90.5
497.963	75.5
498.181	93.5
498.398	97.5
498.615	96.5
498.832	103.5
499.049	93.5
499.267	78.5
499.484	89.5
499.701	89.5
499.918	93.5
500.135	90.5
500.352	85.5
500.569	94.5
500.786	81.5
501.003	94.5
501.22	79.5
501.437	89.5
501.654	97.5
501.871	111.5
502.088	79.5
502.305	102.5
502.522	78.5
502.739	89.5
502.956	77.5
503.172	89.5
503.389	82.5
503.606	86.5
503.823	97.5
504.04	81.5
504.256	93.5
504.473	101.5
504.69	84.5
504.907	98.5
505.123	102.5
505.34	103.5
505.557	101.5
505.773	92.5
505.99	102.5
506.207	94.5
506.423	98.5
506.64	95.5
506.856	89.5
507.073	87.5
507.289	89.5
507.506	98.5
507.722	109.5
507.939	99.5
508.155	98.5
508.372	74.5
508.588	97.5
508.805	91.5
509.021	93.5
509.238	90.5
509.454	90.5
509.67	98.5
509.887	116.5
510.103	119.5
510.319	160.5
510.536	587.5
510.752	1763.5
510.968	504.5
511.184	133.5
511.401	103.5
511.617	92.5
511.833	91.5
512.049	86.5
512.265	85.5
512.481	91.5
512.698	97.5
512.914	93.5
513.13	93.5
513.346	85.5
513.562	99.5
513.778	117.5
513.994	107.5
514.21	104.5
514.426	109.5
514.642	114.5
514.858	97.5
515.074	127.5
515.29	317.5
515.506	995.5
515.721	402.5
515.937	120.5
516.153	94.5
516.369	90.5
516.585	98.5
516.801	95.5
517.016	79.5
517.232	83.5
517.448	99.5
517.664	89.5
517.879	89.5
518.095	98.5
518.311	101.5
518.527	89.5
518.742	102.5
518.958	96.5
519.173	89.5
519.389	100.5
519.605	89.5
519.82	108.5
520.036	89.5
520.251	102.5
520.467	106.5
520.682	109.5
520.898	107.5
521.113	98.5
521.329	114.5
521.544	155.5
521.76	413.5
521.975	1682.5
522.19	1026.5
522.406	253.5
522.621	109.5
522.836	90.5
523.052	108.5
523.267	102.5
523.482	92.5
523.698	99.5
523.913	112.5
524.128	95.5
524.343	95.5
524.559	102.5
524.774	97.5
524.989	86.5
525.204	93.5
525.419	98.5
525.634	73.5
525.849	83.5
526.064	97.5
526.28	89.5
526.495	91.5
526.71	85.5
526.925	96.5
527.14	100.5
527.355	85.5
527.57	92.5
527.785	97.5
527.999	73.5
528.214	84.5
528.429	81.5
528.644	91.5
528.859	92.5
529.074	89.5
529.289	118.5
529.503	159.5
529.718	94.5
529.933	93.5
530.148	98.5
530.363	99.5
530.577	89.5
530.792	73.5
531.007	88.5
531.221	103.5
531.436	87.5
531.651	94.5
531.865	76.5
532.08	102.5
532.295	100.5
532.509	84.5
532.724	107.5
532.938	94.5
533.153	100.5
533.367	94.5
533.582	87.5
533.796	100.5
534.011	88.5
534.225	92.5
534.44	82.5
534.654	111.5
534.868	90.5
535.083	94.5
535.297	91.5
535.511	101.5
