Data from Circ_1990_H10_HRD10591_00030.txt Node
Date: Wed Jan 03 11:55:10 EST 2024
User: Yrep
Spectrometer: HR+D1059
Trigger mode: 1
Integration Time (sec): 1.000000E-1
Scans to average: 1
Electric dark correction enabled: true
Nonlinearity correction enabled: false
Boxcar width: 0
XAxis mode: Wavelengths
Number of Pixels in Spectrum: 2048
>>>>>Begin Spectral Data<<<<<
223.165	-26
223.4	-26
223.635	-26
223.869	-22
224.104	-8
224.338	-16
224.573	-11
224.808	-17
225.042	-1
225.277	-8
225.511	-7
225.746	-14
225.98	-5
226.215	26
226.449	18
226.683	30
226.918	25
227.152	36
227.387	47
227.621	51
227.856	49
228.09	40
228.324	61
228.559	57
228.793	53
229.027	66
229.262	72
229.496	88
229.73	85
229.964	98
230.199	71
230.433	78
230.667	73
230.901	85
231.136	86
231.37	80
231.604	83
231.838	69
232.072	87
232.306	78
232.541	81
232.775	77
233.009	67
233.243	87
233.477	84
233.711	97
233.945	88
234.179	68
234.413	87
234.647	92
234.881	88
235.115	80
235.349	77
235.583	82
235.817	63
236.051	72
236.285	79
236.519	77
236.753	83
236.987	89
237.221	87
237.455	72
237.689	93
237.922	83
238.156	78
238.39	86
238.624	94
238.858	87
239.091	80
239.325	88
239.559	84
239.793	82
240.027	67
240.26	93
240.494	94
240.728	72
240.961	88
241.195	78
241.429	74
241.662	69
241.896	81
242.13	94
242.363	78
242.597	81
242.83	74
243.064	88
243.298	73
243.531	83
243.765	76
243.998	67
244.232	80
244.465	88
244.699	96
244.932	81
245.166	88
245.399	79
245.633	77
245.866	73
246.099	95
246.333	82
246.566	81
246.8	89
247.033	81
247.266	74
247.5	87
247.733	85
247.966	80
248.2	86
248.433	84
248.666	87
248.899	84
249.133	93
249.366	92
249.599	102
249.832	88
250.066	89
250.299	84
250.532	95
250.765	81
250.998	77
251.231	89
251.465	88
251.698	96
251.931	84
252.164	91
252.397	82
252.63	74
252.863	76
253.096	73
253.329	75
253.562	82
253.795	95
254.028	85
254.261	89
254.494	88
254.727	86
254.96	85
255.193	82
255.426	77
255.659	84
255.892	96
256.124	80
256.357	97
256.59	88
256.823	88
257.056	77
257.289	80
257.521	78
257.754	95
257.987	98
258.22	77
258.452	87
258.685	84
258.918	64
259.151	76
259.383	88
259.616	73
259.849	84
260.081	78
260.314	86
260.547	79
260.779	94
261.012	90
261.244	83
261.477	95
261.71	107
261.942	101
262.175	118
262.407	98
262.64	88
262.872	83
263.105	90
263.337	80
263.57	95
263.802	85
264.035	68
264.267	84
264.499	80
264.732	82
264.964	81
265.197	81
265.429	77
265.661	82
265.894	80
266.126	87
266.358	93
266.591	78
266.823	92
267.055	80
267.287	82
267.52	78
267.752	88
267.984	95
268.216	90
268.448	88
268.681	81
268.913	93
269.145	87
269.377	99
269.609	95
269.841	94
270.073	89
270.306	94
270.538	88
270.77	90
271.002	88
271.234	77
271.466	92
271.698	92
271.93	87
272.162	97
272.394	87
272.626	86
272.858	94
273.09	103
273.322	89
273.553	87
273.785	102
274.017	91
274.249	92
274.481	89
274.713	89
274.945	97
275.176	87
275.408	98
275.64	112
275.872	72
276.104	85
276.335	83
276.567	105
276.799	118
277.031	99
277.262	108
277.494	93
277.726	86
277.957	76
278.189	89
278.421	84
278.652	105
278.884	103
279.115	90
279.347	92
279.579	107
279.81	92
280.042	109
280.273	116
280.505	110
280.736	84
280.968	90
281.199	94
281.431	95
281.662	96
281.894	102
282.125	100
282.356	124
282.588	141
282.819	123
283.051	112
283.282	100
283.513	89
283.745	101
283.976	94
284.207	79
284.439	84
284.67	104
284.901	88
285.132	82
285.364	85
285.595	96
285.826	80
286.057	89
286.288	85
286.52	94
286.751	85
286.982	80
287.213	85
287.444	81
287.675	82
287.906	103
288.138	96
288.369	99
288.6	101
288.831	77
289.062	94
289.293	92
289.524	100
289.755	104
289.986	99
290.217	96
290.448	89
290.679	78
290.91	84
291.141	71
291.371	76
291.602	97
291.833	92
292.064	101
292.295	87
292.526	83
292.757	93
292.987	100
293.218	106
293.449	102
293.68	89
293.91	81
294.141	106
294.372	85
294.603	84
294.833	83
295.064	91
295.295	76
295.525	101
295.756	109
295.987	113
296.217	157
296.448	123
296.679	103
296.909	73
297.14	97
297.37	88
297.601	105
297.831	96
298.062	91
298.292	93
298.523	99
298.753	92
298.984	74
299.214	80
299.445	85
299.675	76
299.905	90
300.136	94
300.366	84
300.597	88
300.827	78
301.057	107
301.288	98
301.518	110
301.748	85
301.979	102
302.209	94
302.439	99
302.669	103
302.9	90
303.13	98
303.36	111
303.59	111
303.82	105
304.051	83
304.281	104
304.511	96
304.741	105
304.971	94
305.201	79
305.431	80
305.661	93
305.891	89
306.121	84
306.352	95
306.582	100
306.812	104
307.042	95
307.272	116
307.502	120
307.731	113
307.961	81
308.191	92
308.421	93
308.651	95
308.881	93
309.111	98
309.341	105
309.571	101
309.8	97
310.03	98
310.26	98
310.49	97
310.72	111
310.949	117
311.179	109
311.409	86
311.639	104
311.868	100
312.098	78
312.328	119
312.557	109
312.787	95
313.017	85
313.246	98
313.476	92
313.706	95
313.935	94
314.165	121
314.394	110
314.624	106
314.853	114
315.083	101
315.312	97
315.542	83
315.771	96
316.001	94
316.23	86
316.46	78
316.689	85
316.919	89
317.148	103
317.377	96
317.607	97
317.836	90
318.065	102
318.295	92
318.524	90
318.753	96
318.983	93
319.212	101
319.441	121
319.67	104
319.9	99
320.129	91
320.358	102
320.587	98
320.816	111
321.046	102
321.275	97
321.504	91
321.733	106
321.962	104
322.191	96
322.42	106
322.649	113
322.878	128
323.108	123
323.337	124
323.566	137
323.795	142
324.024	179
324.253	362
324.482	778
324.71	1556
324.939	2008
325.168	752
325.397	239
325.626	144
325.855	130
326.084	122
326.313	139
326.542	162
326.77	229
326.999	414
327.228	856
327.457	1570
327.686	1269
327.914	375
328.143	253
328.372	246
328.6	173
328.829	129
329.058	130
329.287	126
329.515	123
329.744	141
329.972	195
330.201	290
330.43	378
330.658	244
330.887	171
331.115	135
331.344	113
331.572	96
331.801	98
332.03	107
332.258	112
332.486	97
332.715	112
332.943	110
333.172	93
333.4	103
333.629	118
333.857	136
334.085	180
334.314	291
334.542	502
334.771	482
334.999	180
335.227	93
335.455	106
335.684	107
335.912	103
336.14	100
336.369	101
336.597	106
336.825	106
337.053	99
337.281	88
337.51	95
337.738	88
337.966	97
338.194	91
338.422	94
338.65	92
338.878	96
339.106	114
339.334	103
339.562	88
339.79	83
340.018	92
340.246	100
340.474	97
340.702	98
340.93	106
341.158	89
341.386	100
341.614	93
341.842	100
342.07	110
342.298	98
342.526	110
342.754	95
342.981	94
343.209	95
343.437	97
343.665	98
343.893	97
344.12	90
344.348	86
344.576	99
344.804	88
345.031	104
345.259	108
345.487	95
345.714	86
345.942	79
346.17	89
346.397	102
346.625	92
346.853	105
347.08	93
347.308	97
347.535	97
347.763	92
347.99	104
348.218	101
348.445	120
348.673	113
348.9	106
349.128	92
349.355	96
349.583	90
349.81	91
350.037	97
350.265	101
350.492	97
350.72	104
350.947	103
351.174	104
351.402	117
351.629	107
351.856	108
352.083	105
352.311	106
352.538	117
352.765	101
352.992	114
353.22	119
353.447	92
353.674	100
353.901	100
354.128	111
354.355	105
354.583	92
354.81	100
355.037	92
355.264	90
355.491	101
355.718	98
355.945	109
356.172	119
356.399	90
356.626	102
356.853	101
357.08	82
357.307	96
357.534	83
357.761	91
357.988	103
358.215	109
358.441	118
358.668	106
358.895	86
359.122	103
359.349	98
359.576	103
359.802	120
360.029	117
360.256	120
360.483	99
360.709	92
360.936	115
361.163	101
361.39	92
361.616	101
361.843	96
362.07	91
362.296	95
362.523	97
362.749	90
362.976	90
363.203	87
363.429	85
363.656	91
363.882	90
364.109	90
364.335	94
364.562	78
364.788	90
365.015	102
365.241	111
365.468	105
365.694	110
365.92	109
366.147	104
366.373	92
366.599	92
366.826	106
367.052	88
367.278	98
367.505	92
367.731	90
367.957	98
368.184	96
368.41	104
368.636	124
368.862	124
369.089	96
369.315	112
369.541	91
369.767	100
369.993	94
370.219	92
370.445	88
370.672	105
370.898	86
371.124	99
371.35	85
371.576	81
371.802	87
372.028	88
372.254	100
372.48	98
372.706	82
372.932	97
373.158	99
373.384	87
373.61	99
373.835	103
374.061	86
374.287	98
374.513	86
374.739	98
374.965	94
375.191	94
375.416	92
375.642	86
375.868	102
376.094	89
376.319	104
376.545	90
376.771	100
376.997	103
377.222	109
377.448	100
377.674	105
377.899	94
378.125	101
378.35	82
378.576	98
378.802	108
379.027	107
379.253	101
379.478	101
379.704	96
379.929	90
380.155	106
380.38	113
380.606	104
380.831	102
381.057	109
381.282	102
381.507	113
381.733	103
381.958	116
382.184	102
382.409	118
382.634	113
382.86	113
383.085	114
383.31	122
383.535	126
383.761	126
383.986	98
384.211	107
384.436	114
384.662	112
384.887	132
385.112	121
385.337	119
385.562	124
385.787	124
386.013	117
386.238	145
386.463	139
386.688	123
386.913	118
387.138	140
387.363	129
387.588	108
387.813	120
388.038	125
388.263	135
388.488	139
388.713	103
388.938	103
389.163	99
389.387	94
389.612	85
389.837	92
390.062	94
390.287	90
390.512	92
390.736	102
390.961	92
391.186	117
391.411	111
391.636	100
391.86	94
392.085	87
392.31	83
392.534	81
392.759	93
392.984	87
393.208	94
393.433	92
393.658	88
393.882	93
394.107	99
394.331	83
394.556	79
394.78	84
395.005	82
395.229	79
395.454	90
395.678	80
395.903	81
396.127	106
396.352	85
396.576	83
396.801	89
397.025	81
397.249	107
397.474	96
397.698	88
397.922	103
398.147	93
398.371	80
398.595	96
398.82	95
399.044	73
399.268	96
399.492	99
399.717	86
399.941	93
400.165	100
400.389	90
400.613	93
400.837	92
401.062	95
401.286	100
401.51	91
401.734	85
401.958	111
402.182	121
402.406	171
402.63	124
402.854	97
403.078	71
403.302	85
403.526	103
403.75	94
403.974	95
404.198	90
404.422	96
404.645	90
404.869	96
405.093	88
405.317	117
405.541	95
405.765	97
405.988	136
406.212	163
406.436	220
406.66	165
406.883	97
407.107	96
407.331	101
407.555	86
407.778	96
408.002	92
408.226	78
408.449	98
408.673	92
408.896	93
409.12	97
409.344	93
409.567	96
409.791	86
410.014	86
410.238	93
410.461	93
410.685	109
410.908	104
411.132	108
411.355	111
411.578	99
411.802	96
412.025	86
412.249	94
412.472	104
412.695	116
412.919	100
413.142	89
413.365	89
413.589	91
413.812	83
414.035	78
414.258	104
414.482	99
414.705	89
414.928	93
415.151	103
415.374	95
415.597	95
415.821	108
416.044	112
416.267	109
416.49	97
416.713	104
416.936	78
417.159	92
417.382	101
417.605	103
417.828	92
418.051	90
418.274	114
418.497	95
418.72	80
418.943	88
419.166	95
419.389	87
419.611	88
419.834	91
420.057	103
420.28	89
420.503	97
420.726	79
420.948	93
421.171	96
421.394	93
421.617	87
421.839	94
422.062	95
422.285	76
422.507	94
422.73	111
422.953	105
423.175	95
423.398	84
423.621	90
423.843	101
424.066	97
424.288	93
424.511	102
424.733	96
424.956	112
425.178	100
425.401	97
425.623	93
425.846	88
426.068	100
426.291	85
426.513	113
426.735	93
426.958	89
427.18	101
427.402	143
427.625	174
427.847	178
428.069	141
428.292	101
428.514	99
428.736	98
428.958	86
429.181	93
429.403	74
429.625	80
429.847	100
430.069	81
430.292	101
430.514	78
430.736	94
430.958	73
431.18	78
431.402	82
431.624	103
431.846	85
432.068	89
432.29	83
432.512	103
432.734	88
432.956	94
433.178	115
433.4	102
433.622	99
433.844	104
434.066	103
434.287	85
434.509	91
434.731	93
434.953	110
435.175	91
435.397	85
435.618	83
435.84	106
436.062	128
436.284	116
436.505	104
436.727	113
436.949	84
437.17	87
437.392	96
437.614	99
437.835	109
438.057	129
438.278	101
438.5	115
438.721	115
438.943	95
439.165	77
439.386	80
439.608	92
439.829	104
440.05	110
440.272	143
440.493	121
440.715	98
440.936	92
441.158	90
441.379	94
441.6	121
441.822	90
442.043	95
442.264	93
442.486	107
442.707	81
442.928	96
443.149	150
443.371	144
443.592	110
443.813	111
444.034	100
444.255	95
444.476	87
444.698	77
444.919	86
445.14	143
445.361	148
445.582	108
445.803	135
446.024	130
446.245	140
446.466	116
446.687	99
446.908	107
447.129	92
447.35	94
447.571	95
447.792	89
448.013	92
448.234	110
448.455	105
448.675	114
448.896	135
449.117	103
449.338	105
449.559	132
449.779	125
450	103
450.221	92
450.442	82
450.662	106
450.883	112
451.104	112
451.324	84
451.545	102
451.766	84
451.986	86
452.207	95
452.428	101
452.648	84
452.869	123
453.089	124
453.31	121
453.53	86
453.751	86
453.971	118
454.192	113
454.412	104
454.633	78
454.853	97
455.073	106
455.294	97
455.514	110
455.734	72
455.955	86
456.175	85
456.395	83
456.616	90
456.836	84
457.056	83
457.276	87
457.497	93
457.717	80
457.937	87
458.157	95
458.377	98
458.598	113
458.818	149
459.038	170
459.258	116
459.478	94
459.698	81
459.918	93
460.138	83
460.358	96
460.578	99
460.798	97
461.018	88
461.238	88
461.458	84
461.678	81
461.898	84
462.118	92
462.338	89
462.558	84
462.777	93
462.997	91
463.217	86
463.437	106
463.657	105
463.876	98
464.096	94
464.316	87
464.536	95
464.755	111
464.975	112
465.195	152
465.414	167
465.634	101
465.854	78
466.073	101
466.293	92
466.512	82
466.732	97
466.951	89
467.171	88
467.391	112
467.61	112
467.829	113
468.049	201
468.268	261
468.488	119
468.707	92
468.927	75
469.146	86
469.365	79
469.585	96
469.804	100
470.023	102
470.243	105
470.462	105
470.681	112
470.901	84
471.12	103
471.339	104
471.558	97
471.777	108
471.997	143
472.216	341
472.435	655
472.654	198
472.873	101
473.092	85
473.311	100
473.53	86
473.749	88
473.968	102
474.187	110
474.406	89
474.625	93
474.844	79
475.063	83
475.282	84
475.501	93
475.72	96
475.939	103
476.158	85
476.377	93
476.596	80
476.814	102
477.033	98
477.252	92
477.471	92
477.69	98
477.908	89
478.127	100
478.346	83
478.564	97
478.783	112
479.002	79
479.22	91
479.439	99
479.658	116
479.876	105
480.095	92
480.313	95
480.532	104
480.751	130
480.969	306
481.188	1092
481.406	681
481.624	158
481.843	103
482.061	104
482.28	101
482.498	88
482.717	96
482.935	80
483.153	89
483.372	78
483.59	92
483.808	98
484.027	105
484.245	92
484.463	101
484.681	95
484.9	98
485.118	104
485.336	110
485.554	102
485.772	115
485.99	114
486.209	103
486.427	105
486.645	105
486.863	110
487.081	92
487.299	105
487.517	102
487.735	105
487.953	112
488.171	95
488.389	84
488.607	94
488.825	88
489.043	84
489.261	95
489.479	90
489.696	95
489.914	80
490.132	102
490.35	78
490.568	94
490.786	94
491.003	93
491.221	115
491.439	92
491.657	90
491.874	75
492.092	84
492.31	97
492.527	78
492.745	90
492.963	86
493.18	86
493.398	98
493.615	95
493.833	103
494.05	98
494.268	83
494.485	89
494.703	111
494.92	85
495.138	90
495.355	112
495.573	99
495.79	109
496.008	104
496.225	92
496.442	95
496.66	83
496.877	86
497.094	106
497.312	99
497.529	100
497.746	86
497.963	93
498.181	99
498.398	84
498.615	110
498.832	110
499.049	98
499.267	90
499.484	85
499.701	90
499.918	88
500.135	80
500.352	81
500.569	97
500.786	101
501.003	87
501.22	92
501.437	102
501.654	93
501.871	107
502.088	104
502.305	96
502.522	85
502.739	86
502.956	101
503.172	96
503.389	103
503.606	115
503.823	106
504.04	111
504.256	92
504.473	99
504.69	94
504.907	89
505.123	96
505.34	97
505.557	79
505.773	87
505.99	104
506.207	102
506.423	100
506.64	101
506.856	101
507.073	82
507.289	95
507.506	84
507.722	103
507.939	130
508.155	111
508.372	95
508.588	93
508.805	97
509.021	82
509.238	87
509.454	93
509.67	96
509.887	88
510.103	123
510.319	211
510.536	730
510.752	2332
510.968	624
511.184	150
511.401	103
511.617	113
511.833	106
512.049	103
512.265	96
512.481	76
512.698	79
512.914	86
513.13	106
513.346	89
513.562	96
513.778	95
513.994	89
514.21	102
514.426	113
514.642	133
514.858	148
515.074	160
515.29	446
515.506	1499
515.721	559
515.937	160
516.153	110
516.369	103
516.585	97
516.801	105
517.016	89
517.232	84
517.448	94
517.664	93
517.879	97
518.095	92
518.311	106
518.527	96
518.742	85
518.958	91
519.173	85
519.389	87
519.605	96
519.82	93
520.036	93
520.251	127
520.467	117
520.682	102
520.898	111
521.113	113
521.329	151
521.544	210
521.76	566
521.975	2477
522.19	1471
522.406	316
522.621	121
522.836	116
523.052	108
523.267	87
523.482	94
523.698	102
523.913	122
524.128	112
524.343	103
524.559	89
524.774	80
524.989	89
525.204	101
525.419	112
525.634	92
525.849	90
526.064	84
526.28	79
526.495	89
526.71	82
526.925	102
527.14	71
527.355	69
527.57	73
527.785	100
527.999	86
528.214	94
528.429	80
528.644	96
528.859	101
529.074	100
529.289	136
529.503	180
529.718	109
529.933	101
530.148	95
530.363	93
530.577	100
530.792	90
531.007	105
531.221	97
531.436	90
531.651	97
531.865	89
532.08	89
532.295	83
532.509	103
532.724	100
532.938	89
533.153	93
533.367	85
533.582	98
533.796	102
534.011	89
534.225	91
534.44	100
534.654	95
534.868	104
535.083	89
535.297	106
535.511	95
535.726	109
535.94	99
536.154	103
536.369	89
536.583	88
536.797	83
537.011	96
537.225	98
537.44	84
537.654	85
537.868	92
538.082	97
538.296	82
538.51	100
538.724	95
538.938	99
539.153	109
539.367	117
539.581	87
539.795	93
540.009	92
540.222	92
540.436	92
540.65	86
540.864	92
541.078	93
541.292	87
541.506	96
541.72	104
541.934	74
542.147	84
542.361	96
542.575	96
542.789	77
543.002	87
543.216	89
543.43	109
543.644	90
543.857	92
544.071	94
544.285	79
544.498	87
544.712	95
544.925	102
545.139	91
545.352	76
545.566	84
545.779	95
545.993	80
546.206	87
546.42	86
546.633	115
546.847	95
547.06	89
547.274	88
547.487	73
547.7	103
547.914	93
548.127	93
548.34	98
548.554	82
548.767	88
548.98	97
549.193	83
549.407	93
549.62	93
549.833	84
550.046	80
550.259	89
550.473	103
550.686	93
550.899	103
551.112	76
551.325	84
551.538	101
551.751	89
551.964	88
552.177	106
552.39	98
552.603	95
552.816	85
553.029	91
553.242	86
553.455	102
553.667	114
553.88	108
554.093	97
554.306	106
554.519	104
554.732	85
554.944	88
555.157	95
555.37	87
555.583	85
555.795	110
556.008	89
556.221	90
556.433	84
556.646	93
556.859	92
557.071	78
557.284	96
557.496	87
557.709	94
557.921	93
558.134	101
558.346	94
558.559	100
558.771	76
558.984	94
559.196	101
559.409	92
559.621	102
559.833	93
560.046	100
560.258	93
560.47	85
560.683	101
560.895	92
561.107	92
561.32	84
561.532	87
561.744	84
561.956	105
562.168	76
562.381	109
562.593	89
562.805	94
563.017	93
563.229	96
563.441	81
563.653	94
563.865	93
564.077	87
564.289	92
564.501	98
564.713	101
564.925	92
565.137	96
565.349	88
565.561	91
565.773	103
565.985	94
566.197	95
566.408	85
566.62	89
566.832	84
567.044	95
567.255	86
567.467	97
567.679	91
567.891	99
568.102	90
568.314	89
568.526	89
568.737	86
568.949	67
569.161	93
569.372	74
569.584	94
569.795	96
570.007	112
570.218	218
570.43	137
570.641	89
570.853	106
571.064	84
571.276	87
571.487	91
571.698	90
571.91	94
572.121	96
572.333	96
572.544	84
572.755	94
572.966	101
573.178	82
573.389	102
573.6	99
573.811	93
574.023	97
574.234	88
574.445	78
574.656	93
574.867	91
575.078	83
575.289	85
575.501	83
575.712	84
575.923	88
576.134	93
576.345	94
576.556	100
576.767	75
576.978	94
577.188	101
577.399	99
577.61	100
577.821	100
578.032	120
578.243	260
578.454	721
578.665	213
578.875	104
579.086	69
579.297	97
579.508	85
579.718	87
579.929	89
580.14	91
580.35	98
580.561	98
580.772	79
