Data from Circ_1990_H10_HRD10591_00037.txt Node
Date: Wed Jan 03 11:55:11 EST 2024
User: Yrep
Spectrometer: HR+D1059
Trigger mode: 1
Integration Time (sec): 1.000000E-1
Scans to average: 1
Electric dark correction enabled: true
Nonlinearity correction enabled: false
Boxcar width: 0
XAxis mode: Wavelengths
Number of Pixels in Spectrum: 2048
>>>>>Begin Spectral Data<<<<<
223.165	-20.06
223.4	-20.06
223.635	-20.06
223.869	-25.06
224.104	-19.06
224.338	-4.06
224.573	-2.06
224.808	-29.06
225.042	-14.06
225.277	-4.06
225.511	1.94
225.746	-4.06
225.98	5.94
226.215	19.94
226.449	19.94
226.683	17.94
226.918	20.94
227.152	34.94
227.387	42.94
227.621	30.94
227.856	33.94
228.09	49.94
228.324	47.94
228.559	51.94
228.793	49.94
229.027	59.94
229.262	63.94
229.496	84.94
229.73	77.94
229.964	83.94
230.199	77.94
230.433	87.94
230.667	73.94
230.901	77.94
231.136	80.94
231.37	86.94
231.604	79.94
231.838	74.94
232.072	83.94
232.306	80.94
232.541	80.94
232.775	88.94
233.009	74.94
233.243	82.94
233.477	79.94
233.711	90.94
233.945	76.94
234.179	84.94
234.413	82.94
234.647	84.94
234.881	83.94
235.115	76.94
235.349	78.94
235.583	79.94
235.817	82.94
236.051	81.94
236.285	75.94
236.519	83.94
236.753	81.94
236.987	78.94
237.221	86.94
237.455	95.94
237.689	78.94
237.922	80.94
238.156	85.94
238.39	61.94
238.624	66.94
238.858	81.94
239.091	91.94
239.325	88.94
239.559	76.94
239.793	70.94
240.027	77.94
240.26	85.94
240.494	70.94
240.728	67.94
240.961	81.94
241.195	70.94
241.429	75.94
241.662	70.94
241.896	75.94
242.13	73.94
242.363	74.94
242.597	84.94
242.83	88.94
243.064	73.94
243.298	77.94
243.531	83.94
243.765	83.94
243.998	75.94
244.232	71.94
244.465	73.94
244.699	77.94
244.932	74.94
245.166	70.94
245.399	83.94
245.633	68.94
245.866	70.94
246.099	63.94
246.333	74.94
246.566	88.94
246.8	89.94
247.033	82.94
247.266	81.94
247.5	82.94
247.733	83.94
247.966	79.94
248.2	77.94
248.433	74.94
248.666	66.94
248.899	89.94
249.133	78.94
249.366	105.94
249.599	90.94
249.832	102.94
250.066	84.94
250.299	85.94
250.532	78.94
250.765	75.94
250.998	82.94
251.231	84.94
251.465	70.94
251.698	84.94
251.931	73.94
252.164	93.94
252.397	73.94
252.63	82.94
252.863	75.94
253.096	83.94
253.329	77.94
253.562	83.94
253.795	81.94
254.028	84.94
254.261	76.94
254.494	89.94
254.727	73.94
254.96	86.94
255.193	82.94
255.426	76.94
255.659	81.94
255.892	83.94
256.124	77.94
256.357	83.94
256.59	68.94
256.823	79.94
257.056	81.94
257.289	75.94
257.521	84.94
257.754	101.94
257.987	75.94
258.22	78.94
258.452	81.94
258.685	87.94
258.918	80.94
259.151	78.94
259.383	85.94
259.616	93.94
259.849	69.94
260.081	88.94
260.314	79.94
260.547	86.94
260.779	84.94
261.012	85.94
261.244	80.94
261.477	96.94
261.71	91.94
261.942	109.94
262.175	137.94
262.407	95.94
262.64	95.94
262.872	86.94
263.105	88.94
263.337	98.94
263.57	85.94
263.802	90.94
264.035	83.94
264.267	82.94
264.499	96.94
264.732	83.94
264.964	86.94
265.197	89.94
265.429	77.94
265.661	75.94
265.894	82.94
266.126	89.94
266.358	98.94
266.591	85.94
266.823	82.94
267.055	82.94
267.287	79.94
267.52	80.94
267.752	78.94
267.984	86.94
268.216	80.94
268.448	84.94
268.681	97.94
268.913	89.94
269.145	85.94
269.377	84.94
269.609	84.94
269.841	74.94
270.073	85.94
270.306	95.94
270.538	89.94
270.77	83.94
271.002	89.94
271.234	95.94
271.466	91.94
271.698	81.94
271.93	80.94
272.162	93.94
272.394	100.94
272.626	81.94
272.858	86.94
273.09	82.94
273.322	79.94
273.553	85.94
273.785	78.94
274.017	91.94
274.249	82.94
274.481	85.94
274.713	103.94
274.945	77.94
275.176	70.94
275.408	82.94
275.64	88.94
275.872	91.94
276.104	90.94
276.335	94.94
276.567	102.94
276.799	127.94
277.031	117.94
277.262	106.94
277.494	118.94
277.726	79.94
277.957	96.94
278.189	85.94
278.421	85.94
278.652	89.94
278.884	90.94
279.115	86.94
279.347	85.94
279.579	85.94
279.81	102.94
280.042	109.94
280.273	120.94
280.505	92.94
280.736	83.94
280.968	89.94
281.199	84.94
281.431	69.94
281.662	87.94
281.894	93.94
282.125	103.94
282.356	114.94
282.588	142.94
282.819	105.94
283.051	107.94
283.282	78.94
283.513	87.94
283.745	100.94
283.976	104.94
284.207	91.94
284.439	87.94
284.67	92.94
284.901	102.94
285.132	86.94
285.364	81.94
285.595	89.94
285.826	95.94
286.057	96.94
286.288	98.94
286.52	81.94
286.751	83.94
286.982	102.94
287.213	79.94
287.444	78.94
287.675	84.94
287.906	99.94
288.138	116.94
288.369	81.94
288.6	92.94
288.831	75.94
289.062	87.94
289.293	97.94
289.524	80.94
289.755	87.94
289.986	85.94
290.217	77.94
290.448	87.94
290.679	87.94
290.91	89.94
291.141	106.94
291.371	79.94
291.602	85.94
291.833	87.94
292.064	87.94
292.295	99.94
292.526	100.94
292.757	78.94
292.987	78.94
293.218	79.94
293.449	100.94
293.68	97.94
293.91	95.94
294.141	92.94
294.372	93.94
294.603	78.94
294.833	92.94
295.064	77.94
295.295	91.94
295.525	80.94
295.756	93.94
295.987	121.94
296.217	134.94
296.448	124.94
296.679	92.94
296.909	83.94
297.14	83.94
297.37	91.94
297.601	92.94
297.831	88.94
298.062	91.94
298.292	94.94
298.523	86.94
298.753	102.94
298.984	85.94
299.214	99.94
299.445	94.94
299.675	83.94
299.905	92.94
300.136	100.94
300.366	95.94
300.597	90.94
300.827	99.94
301.057	100.94
301.288	106.94
301.518	94.94
301.748	83.94
301.979	97.94
302.209	100.94
302.439	83.94
302.669	92.94
302.9	75.94
303.13	99.94
303.36	99.94
303.59	96.94
303.82	93.94
304.051	92.94
304.281	85.94
304.511	91.94
304.741	96.94
304.971	93.94
305.201	96.94
305.431	84.94
305.661	94.94
305.891	89.94
306.121	88.94
306.352	98.94
306.582	90.94
306.812	82.94
307.042	86.94
307.272	104.94
307.502	95.94
307.731	105.94
307.961	95.94
308.191	94.94
308.421	97.94
308.651	95.94
308.881	86.94
309.111	99.94
309.341	93.94
309.571	97.94
309.8	83.94
310.03	83.94
310.26	102.94
310.49	108.94
310.72	92.94
310.949	93.94
311.179	101.94
311.409	96.94
311.639	107.94
311.868	80.94
312.098	95.94
312.328	97.94
312.557	121.94
312.787	116.94
313.017	102.94
313.246	84.94
313.476	101.94
313.706	95.94
313.935	102.94
314.165	95.94
314.394	100.94
314.624	105.94
314.853	105.94
315.083	92.94
315.312	101.94
315.542	106.94
315.771	86.94
316.001	85.94
316.23	78.94
316.46	85.94
316.689	90.94
316.919	96.94
317.148	77.94
317.377	96.94
317.607	94.94
317.836	81.94
318.065	98.94
318.295	93.94
318.524	91.94
318.753	91.94
318.983	98.94
319.212	108.94
319.441	111.94
319.67	109.94
319.9	85.94
320.129	81.94
320.358	93.94
320.587	100.94
320.816	91.94
321.046	106.94
321.275	97.94
321.504	85.94
321.733	91.94
321.962	91.94
322.191	111.94
322.42	93.94
322.649	109.94
322.878	107.94
323.108	118.94
323.337	121.94
323.566	139.94
323.795	150.94
324.024	201.94
324.253	381.94
324.482	829.94
324.71	1643.94
324.939	2180.94
325.168	810.94
325.397	249.94
325.626	155.94
325.855	126.94
326.084	135.94
326.313	129.94
326.542	167.94
326.77	235.94
326.999	454.94
327.228	927.94
327.457	1661.94
327.686	1316.94
327.914	410.94
328.143	273.94
328.372	274.94
328.6	177.94
328.829	125.94
329.058	133.94
329.287	155.94
329.515	137.94
329.744	142.94
329.972	210.94
330.201	346.94
330.43	454.94
330.658	252.94
330.887	164.94
331.115	122.94
331.344	110.94
331.572	109.94
331.801	106.94
332.03	109.94
332.258	90.94
332.486	87.94
332.715	94.94
332.943	98.94
333.172	100.94
333.4	112.94
333.629	117.94
333.857	150.94
334.085	220.94
334.314	321.94
334.542	585.94
334.771	537.94
334.999	195.94
335.227	116.94
335.455	101.94
335.684	98.94
335.912	81.94
336.14	95.94
336.369	100.94
336.597	99.94
336.825	102.94
337.053	95.94
337.281	87.94
337.51	78.94
337.738	97.94
337.966	92.94
338.194	78.94
338.422	91.94
338.65	101.94
338.878	95.94
339.106	86.94
339.334	94.94
339.562	93.94
339.79	93.94
340.018	89.94
340.246	91.94
340.474	90.94
340.702	103.94
340.93	92.94
341.158	93.94
341.386	87.94
341.614	101.94
341.842	101.94
342.07	84.94
342.298	99.94
342.526	78.94
342.754	91.94
342.981	94.94
343.209	98.94
343.437	87.94
343.665	98.94
343.893	90.94
344.12	82.94
344.348	93.94
344.576	94.94
344.804	85.94
345.031	94.94
345.259	100.94
345.487	79.94
345.714	92.94
345.942	87.94
346.17	87.94
346.397	92.94
346.625	101.94
346.853	101.94
347.08	88.94
347.308	97.94
347.535	92.94
347.763	102.94
347.99	98.94
348.218	110.94
348.445	101.94
348.673	95.94
348.9	94.94
349.128	105.94
349.355	99.94
349.583	88.94
349.81	84.94
350.037	107.94
350.265	92.94
350.492	94.94
350.72	98.94
350.947	120.94
351.174	108.94
351.402	112.94
351.629	105.94
351.856	103.94
352.083	109.94
352.311	99.94
352.538	102.94
352.765	106.94
352.992	110.94
353.22	102.94
353.447	114.94
353.674	115.94
353.901	86.94
354.128	87.94
354.355	105.94
354.583	96.94
354.81	93.94
355.037	96.94
355.264	87.94
355.491	97.94
355.718	78.94
355.945	103.94
356.172	101.94
356.399	89.94
356.626	95.94
356.853	94.94
357.08	97.94
357.307	100.94
357.534	93.94
357.761	104.94
357.988	92.94
358.215	89.94
358.441	103.94
358.668	86.94
358.895	90.94
359.122	95.94
359.349	85.94
359.576	93.94
359.802	92.94
360.029	104.94
360.256	106.94
360.483	103.94
360.709	86.94
360.936	82.94
361.163	93.94
361.39	95.94
361.616	80.94
361.843	98.94
362.07	87.94
362.296	93.94
362.523	81.94
362.749	98.94
362.976	87.94
363.203	91.94
363.429	89.94
363.656	93.94
363.882	93.94
364.109	85.94
364.335	90.94
364.562	91.94
364.788	94.94
365.015	85.94
365.241	97.94
365.468	108.94
365.694	95.94
365.92	101.94
366.147	86.94
366.373	85.94
366.599	100.94
366.826	80.94
367.052	94.94
367.278	101.94
367.505	89.94
367.731	86.94
367.957	94.94
368.184	78.94
368.41	93.94
368.636	108.94
368.862	122.94
369.089	110.94
369.315	95.94
369.541	96.94
369.767	95.94
369.993	101.94
370.219	87.94
370.445	89.94
370.672	93.94
370.898	94.94
371.124	74.94
371.35	85.94
371.576	98.94
371.802	79.94
372.028	84.94
372.254	73.94
372.48	95.94
372.706	87.94
372.932	87.94
373.158	83.94
373.384	92.94
373.61	90.94
373.835	105.94
374.061	90.94
374.287	78.94
374.513	96.94
374.739	83.94
374.965	91.94
375.191	89.94
375.416	83.94
375.642	98.94
375.868	87.94
376.094	94.94
376.319	88.94
376.545	92.94
376.771	102.94
376.997	93.94
377.222	89.94
377.448	95.94
377.674	92.94
377.899	91.94
378.125	88.94
378.35	99.94
378.576	93.94
378.802	81.94
379.027	89.94
379.253	89.94
379.478	103.94
379.704	88.94
379.929	94.94
380.155	98.94
380.38	106.94
380.606	101.94
380.831	106.94
381.057	106.94
381.282	100.94
381.507	103.94
381.733	88.94
381.958	90.94
382.184	103.94
382.409	117.94
382.634	104.94
382.86	103.94
383.085	101.94
383.31	94.94
383.535	97.94
383.761	101.94
383.986	99.94
384.211	101.94
384.436	101.94
384.662	119.94
384.887	109.94
385.112	134.94
385.337	125.94
385.562	116.94
385.787	123.94
386.013	130.94
386.238	125.94
386.463	111.94
386.688	134.94
386.913	106.94
387.138	113.94
387.363	118.94
387.588	102.94
387.813	110.94
388.038	117.94
388.263	127.94
388.488	123.94
388.713	88.94
388.938	87.94
389.163	89.94
389.387	108.94
389.612	89.94
389.837	102.94
390.062	77.94
390.287	110.94
390.512	96.94
390.736	75.94
390.961	84.94
391.186	96.94
391.411	84.94
391.636	81.94
391.86	93.94
392.085	86.94
392.31	77.94
392.534	100.94
392.759	90.94
392.984	98.94
393.208	88.94
393.433	82.94
393.658	90.94
393.882	75.94
394.107	86.94
394.331	74.94
394.556	79.94
394.78	80.94
395.005	91.94
395.229	86.94
395.454	79.94
395.678	96.94
395.903	84.94
396.127	111.94
396.352	93.94
396.576	91.94
396.801	71.94
397.025	87.94
397.249	94.94
397.474	93.94
397.698	86.94
397.922	105.94
398.147	87.94
398.371	82.94
398.595	107.94
398.82	82.94
399.044	82.94
399.268	81.94
399.492	78.94
399.717	91.94
399.941	94.94
400.165	89.94
400.389	90.94
400.613	91.94
400.837	87.94
401.062	100.94
401.286	95.94
401.51	106.94
401.734	91.94
401.958	97.94
402.182	134.94
402.406	168.94
402.63	109.94
402.854	97.94
403.078	77.94
403.302	82.94
403.526	85.94
403.75	74.94
403.974	90.94
404.198	104.94
404.422	85.94
404.645	79.94
404.869	109.94
405.093	114.94
405.317	120.94
405.541	97.94
405.765	113.94
405.988	125.94
406.212	178.94
406.436	247.94
406.66	153.94
406.883	103.94
407.107	89.94
407.331	87.94
407.555	108.94
407.778	101.94
408.002	102.94
408.226	76.94
408.449	94.94
408.673	76.94
408.896	89.94
409.12	99.94
409.344	85.94
409.567	90.94
409.791	93.94
410.014	93.94
410.238	91.94
410.461	84.94
410.685	92.94
410.908	101.94
411.132	90.94
411.355	104.94
411.578	92.94
411.802	82.94
412.025	97.94
412.249	96.94
412.472	106.94
412.695	109.94
412.919	95.94
413.142	90.94
413.365	84.94
413.589	93.94
413.812	99.94
414.035	104.94
414.258	101.94
414.482	100.94
414.705	91.94
414.928	89.94
415.151	82.94
415.374	97.94
415.597	95.94
415.821	96.94
416.044	93.94
416.267	101.94
416.49	99.94
416.713	93.94
416.936	97.94
417.159	75.94
417.382	90.94
417.605	89.94
417.828	97.94
418.051	99.94
418.274	96.94
418.497	90.94
418.72	87.94
418.943	75.94
419.166	95.94
419.389	85.94
419.611	80.94
419.834	98.94
420.057	100.94
420.28	86.94
420.503	97.94
420.726	98.94
420.948	93.94
421.171	91.94
421.394	86.94
421.617	98.94
421.839	83.94
422.062	89.94
422.285	73.94
422.507	102.94
422.73	114.94
422.953	80.94
423.175	80.94
423.398	82.94
423.621	97.94
423.843	92.94
424.066	82.94
424.288	96.94
424.511	83.94
424.733	98.94
424.956	103.94
425.178	97.94
425.401	90.94
425.623	103.94
425.846	100.94
426.068	95.94
426.291	82.94
426.513	90.94
426.735	83.94
426.958	95.94
427.18	96.94
427.402	156.94
427.625	186.94
427.847	167.94
428.069	138.94
428.292	113.94
428.514	83.94
428.736	90.94
428.958	84.94
429.181	88.94
429.403	81.94
429.625	86.94
429.847	95.94
430.069	104.94
430.292	90.94
430.514	85.94
430.736	94.94
430.958	94.94
431.18	93.94
431.402	83.94
431.624	86.94
431.846	76.94
432.068	105.94
432.29	81.94
432.512	98.94
432.734	95.94
432.956	99.94
433.178	93.94
433.4	99.94
433.622	85.94
433.844	89.94
434.066	99.94
434.287	98.94
434.509	81.94
434.731	93.94
434.953	81.94
435.175	86.94
435.397	89.94
435.618	107.94
435.84	113.94
436.062	116.94
436.284	119.94
436.505	104.94
436.727	101.94
436.949	102.94
437.17	86.94
437.392	95.94
437.614	104.94
437.835	111.94
438.057	129.94
438.278	116.94
438.5	101.94
438.721	113.94
438.943	93.94
439.165	75.94
439.386	109.94
439.608	83.94
439.829	108.94
440.05	114.94
440.272	142.94
440.493	90.94
440.715	87.94
440.936	100.94
441.158	75.94
441.379	91.94
441.6	97.94
441.822	102.94
442.043	98.94
442.264	97.94
442.486	90.94
442.707	84.94
442.928	110.94
443.149	114.94
443.371	147.94
443.592	121.94
443.813	97.94
444.034	107.94
444.255	75.94
444.476	88.94
444.698	89.94
444.919	92.94
445.14	124.94
445.361	114.94
445.582	118.94
445.803	143.94
446.024	117.94
446.245	128.94
446.466	108.94
446.687	79.94
446.908	96.94
447.129	95.94
447.35	90.94
447.571	101.94
447.792	102.94
448.013	107.94
448.234	106.94
448.455	101.94
448.675	101.94
448.896	116.94
449.117	92.94
449.338	89.94
449.559	123.94
449.779	145.94
450	94.94
450.221	102.94
450.442	82.94
450.662	94.94
450.883	100.94
451.104	113.94
451.324	86.94
451.545	91.94
451.766	86.94
451.986	85.94
452.207	83.94
452.428	93.94
452.648	100.94
452.869	115.94
453.089	125.94
453.31	115.94
453.53	97.94
453.751	92.94
453.971	100.94
454.192	105.94
454.412	91.94
454.633	92.94
454.853	85.94
455.073	90.94
455.294	89.94
455.514	97.94
455.734	100.94
455.955	70.94
456.175	74.94
456.395	79.94
456.616	86.94
456.836	80.94
457.056	83.94
457.276	81.94
457.497	86.94
457.717	88.94
457.937	89.94
458.157	89.94
458.377	83.94
458.598	118.94
458.818	153.94
459.038	175.94
459.258	119.94
459.478	84.94
459.698	95.94
459.918	71.94
460.138	71.94
460.358	89.94
460.578	86.94
460.798	87.94
461.018	84.94
461.238	90.94
461.458	77.94
461.678	75.94
461.898	70.94
462.118	83.94
462.338	83.94
462.558	90.94
462.777	84.94
462.997	91.94
463.217	93.94
463.437	86.94
463.657	95.94
463.876	70.94
464.096	98.94
464.316	100.94
464.536	109.94
464.755	97.94
464.975	130.94
465.195	180.94
465.414	157.94
465.634	107.94
465.854	87.94
466.073	85.94
466.293	81.94
466.512	66.94
466.732	86.94
466.951	89.94
467.171	97.94
467.391	109.94
467.61	108.94
467.829	138.94
468.049	219.94
468.268	286.94
468.488	124.94
468.707	93.94
468.927	106.94
469.146	79.94
469.365	78.94
469.585	90.94
469.804	98.94
470.023	94.94
470.243	97.94
470.462	97.94
470.681	110.94
470.901	84.94
471.12	79.94
471.339	91.94
471.558	96.94
471.777	114.94
471.997	133.94
472.216	412.94
472.435	821.94
472.654	233.94
472.873	109.94
473.092	90.94
473.311	65.94
473.53	95.94
473.749	82.94
473.968	87.94
474.187	107.94
474.406	88.94
474.625	89.94
474.844	86.94
475.063	93.94
475.282	87.94
475.501	72.94
475.72	88.94
475.939	77.94
476.158	93.94
476.377	94.94
476.596	81.94
476.814	80.94
477.033	90.94
477.252	106.94
477.471	100.94
477.69	101.94
477.908	90.94
478.127	95.94
478.346	84.94
478.564	102.94
478.783	92.94
479.002	97.94
479.22	89.94
479.439	107.94
479.658	105.94
479.876	100.94
480.095	104.94
480.313	102.94
480.532	109.94
480.751	133.94
480.969	373.94
481.188	1379.94
481.406	797.94
481.624	179.94
481.843	95.94
482.061	99.94
482.28	98.94
482.498	98.94
482.717	82.94
482.935	90.94
483.153	90.94
483.372	82.94
483.59	88.94
483.808	87.94
484.027	91.94
484.245	89.94
484.463	99.94
484.681	100.94
484.9	89.94
485.118	113.94
485.336	92.94
485.554	106.94
485.772	102.94
485.99	98.94
486.209	102.94
486.427	99.94
486.645	109.94
486.863	113.94
487.081	103.94
487.299	91.94
487.517	99.94
487.735	86.94
487.953	89.94
488.171	93.94
488.389	95.94
488.607	96.94
488.825	84.94
489.043	84.94
489.261	88.94
489.479	90.94
489.696	81.94
489.914	85.94
490.132	93.94
490.35	87.94
490.568	101.94
490.786	95.94
491.003	81.94
491.221	100.94
491.439	94.94
491.657	88.94
491.874	96.94
492.092	100.94
492.31	100.94
492.527	76.94
492.745	95.94
492.963	91.94
493.18	93.94
493.398	91.94
493.615	93.94
493.833	97.94
494.05	99.94
494.268	105.94
494.485	77.94
494.703	87.94
494.92	71.94
495.138	73.94
495.355	86.94
495.573	78.94
495.79	91.94
496.008	100.94
496.225	90.94
496.442	69.94
496.66	90.94
496.877	89.94
497.094	101.94
497.312	88.94
497.529	83.94
497.746	93.94
497.963	91.94
498.181	96.94
498.398	86.94
498.615	116.94
498.832	109.94
499.049	99.94
499.267	88.94
499.484	97.94
499.701	89.94
499.918	84.94
500.135	87.94
500.352	79.94
500.569	83.94
500.786	98.94
501.003	90.94
501.22	107.94
501.437	89.94
501.654	103.94
501.871	125.94
502.088	106.94
502.305	83.94
502.522	97.94
502.739	102.94
502.956	92.94
503.172	98.94
503.389	100.94
503.606	108.94
503.823	95.94
504.04	85.94
504.256	103.94
504.473	101.94
504.69	84.94
504.907	94.94
505.123	92.94
505.34	98.94
505.557	94.94
505.773	84.94
505.99	95.94
506.207	79.94
506.423	85.94
506.64	78.94
506.856	85.94
507.073	96.94
507.289	99.94
507.506	100.94
507.722	102.94
507.939	104.94
508.155	95.94
508.372	83.94
508.588	85.94
508.805	92.94
509.021	101.94
509.238	97.94
509.454	105.94
509.67	109.94
509.887	106.94
510.103	128.94
510.319	214.94
510.536	792.94
510.752	2561.94
510.968	711.94
511.184	157.94
511.401	107.94
511.617	98.94
511.833	87.94
512.049	76.94
512.265	90.94
512.481	90.94
512.698	95.94
512.914	101.94
513.13	83.94
513.346	94.94
513.562	89.94
513.778	105.94
513.994	97.94
514.21	110.94
514.426	115.94
514.642	161.94
514.858	126.94
