Data from Circ_1990_H10_HRD10591_00050.txt Node
Date: Wed Jan 03 11:55:14 EST 2024
User: Yrep
Spectrometer: HR+D1059
Trigger mode: 1
Integration Time (sec): 1.000000E-1
Scans to average: 1
Electric dark correction enabled: true
Nonlinearity correction enabled: false
Boxcar width: 0
XAxis mode: Wavelengths
Number of Pixels in Spectrum: 2048
>>>>>Begin Spectral Data<<<<<
223.165	-14.56
223.4	-14.56
223.635	-14.56
223.869	-23.56
224.104	-24.56
224.338	-18.56
224.573	-14.56
224.808	-8.56
225.042	-0.56
225.277	0.44
225.511	1.44
225.746	-3.56
225.98	-1.56
226.215	25.44
226.449	8.44
226.683	25.44
226.918	21.44
227.152	27.44
227.387	37.44
227.621	48.44
227.856	40.44
228.09	55.44
228.324	41.44
228.559	61.44
228.793	60.44
229.027	64.44
229.262	72.44
229.496	86.44
229.73	82.44
229.964	96.44
230.199	68.44
230.433	71.44
230.667	84.44
230.901	76.44
231.136	66.44
231.37	86.44
231.604	80.44
231.838	71.44
232.072	71.44
232.306	103.44
232.541	83.44
232.775	86.44
233.009	69.44
233.243	88.44
233.477	82.44
233.711	92.44
233.945	81.44
234.179	93.44
234.413	82.44
234.647	87.44
234.881	77.44
235.115	87.44
235.349	78.44
235.583	78.44
235.817	82.44
236.051	84.44
236.285	62.44
236.519	72.44
236.753	72.44
236.987	78.44
237.221	89.44
237.455	98.44
237.689	73.44
237.922	81.44
238.156	83.44
238.39	89.44
238.624	84.44
238.858	76.44
239.091	81.44
239.325	74.44
239.559	83.44
239.793	82.44
240.027	75.44
240.26	79.44
240.494	86.44
240.728	73.44
240.961	72.44
241.195	71.44
241.429	79.44
241.662	69.44
241.896	74.44
242.13	94.44
242.363	66.44
242.597	88.44
242.83	78.44
243.064	83.44
243.298	73.44
243.531	69.44
243.765	86.44
243.998	84.44
244.232	84.44
244.465	72.44
244.699	78.44
244.932	87.44
245.166	65.44
245.399	92.44
245.633	96.44
245.866	84.44
246.099	90.44
246.333	85.44
246.566	95.44
246.8	99.44
247.033	80.44
247.266	94.44
247.5	69.44
247.733	80.44
247.966	90.44
248.2	87.44
248.433	66.44
248.666	79.44
248.899	81.44
249.133	69.44
249.366	104.44
249.599	99.44
249.832	81.44
250.066	94.44
250.299	81.44
250.532	88.44
250.765	74.44
250.998	71.44
251.231	77.44
251.465	79.44
251.698	83.44
251.931	91.44
252.164	87.44
252.397	67.44
252.63	96.44
252.863	81.44
253.096	88.44
253.329	69.44
253.562	81.44
253.795	75.44
254.028	79.44
254.261	86.44
254.494	85.44
254.727	88.44
254.96	89.44
255.193	60.44
255.426	92.44
255.659	76.44
255.892	93.44
256.124	80.44
256.357	79.44
256.59	83.44
256.823	85.44
257.056	89.44
257.289	95.44
257.521	87.44
257.754	78.44
257.987	81.44
258.22	80.44
258.452	95.44
258.685	90.44
258.918	99.44
259.151	68.44
259.383	95.44
259.616	78.44
259.849	81.44
260.081	88.44
260.314	87.44
260.547	78.44
260.779	92.44
261.012	99.44
261.244	91.44
261.477	94.44
261.71	99.44
261.942	112.44
262.175	123.44
262.407	88.44
262.64	83.44
262.872	91.44
263.105	88.44
263.337	78.44
263.57	94.44
263.802	102.44
264.035	77.44
264.267	96.44
264.499	85.44
264.732	90.44
264.964	83.44
265.197	89.44
265.429	90.44
265.661	97.44
265.894	93.44
266.126	85.44
266.358	97.44
266.591	78.44
266.823	92.44
267.055	105.44
267.287	98.44
267.52	64.44
267.752	85.44
267.984	69.44
268.216	92.44
268.448	83.44
268.681	81.44
268.913	78.44
269.145	83.44
269.377	82.44
269.609	90.44
269.841	85.44
270.073	90.44
270.306	83.44
270.538	83.44
270.77	78.44
271.002	92.44
271.234	86.44
271.466	92.44
271.698	81.44
271.93	80.44
272.162	91.44
272.394	92.44
272.626	84.44
272.858	88.44
273.09	76.44
273.322	87.44
273.553	71.44
273.785	87.44
274.017	74.44
274.249	83.44
274.481	91.44
274.713	80.44
274.945	88.44
275.176	97.44
275.408	101.44
275.64	98.44
275.872	105.44
276.104	108.44
276.335	92.44
276.567	105.44
276.799	116.44
277.031	121.44
277.262	135.44
277.494	125.44
277.726	97.44
277.957	95.44
278.189	78.44
278.421	82.44
278.652	84.44
278.884	88.44
279.115	95.44
279.347	80.44
279.579	94.44
279.81	99.44
280.042	122.44
280.273	135.44
280.505	124.44
280.736	78.44
280.968	87.44
281.199	86.44
281.431	86.44
281.662	88.44
281.894	97.44
282.125	104.44
282.356	124.44
282.588	147.44
282.819	119.44
283.051	93.44
283.282	80.44
283.513	85.44
283.745	88.44
283.976	90.44
284.207	99.44
284.439	82.44
284.67	96.44
284.901	97.44
285.132	89.44
285.364	97.44
285.595	92.44
285.826	92.44
286.057	97.44
286.288	82.44
286.52	91.44
286.751	86.44
286.982	90.44
287.213	85.44
287.444	98.44
287.675	95.44
287.906	90.44
288.138	105.44
288.369	92.44
288.6	85.44
288.831	88.44
289.062	94.44
289.293	89.44
289.524	88.44
289.755	92.44
289.986	77.44
290.217	90.44
290.448	92.44
290.679	98.44
290.91	95.44
291.141	86.44
291.371	88.44
291.602	91.44
291.833	89.44
292.064	87.44
292.295	93.44
292.526	101.44
292.757	83.44
292.987	86.44
293.218	84.44
293.449	84.44
293.68	83.44
293.91	82.44
294.141	80.44
294.372	95.44
294.603	84.44
294.833	84.44
295.064	96.44
295.295	80.44
295.525	89.44
295.756	89.44
295.987	110.44
296.217	142.44
296.448	130.44
296.679	92.44
296.909	96.44
297.14	95.44
297.37	104.44
297.601	108.44
297.831	93.44
298.062	78.44
298.292	89.44
298.523	105.44
298.753	90.44
298.984	104.44
299.214	96.44
299.445	107.44
299.675	96.44
299.905	98.44
300.136	91.44
300.366	84.44
300.597	96.44
300.827	96.44
301.057	94.44
301.288	95.44
301.518	96.44
301.748	97.44
301.979	102.44
302.209	88.44
302.439	86.44
302.669	84.44
302.9	96.44
303.13	93.44
303.36	97.44
303.59	103.44
303.82	119.44
304.051	90.44
304.281	94.44
304.511	95.44
304.741	101.44
304.971	103.44
305.201	85.44
305.431	86.44
305.661	93.44
305.891	96.44
306.121	97.44
306.352	103.44
306.582	110.44
306.812	114.44
307.042	114.44
307.272	117.44
307.502	128.44
307.731	123.44
307.961	102.44
308.191	76.44
308.421	99.44
308.651	92.44
308.881	99.44
309.111	90.44
309.341	100.44
309.571	95.44
309.8	94.44
310.03	112.44
310.26	99.44
310.49	92.44
310.72	105.44
310.949	101.44
311.179	114.44
311.409	91.44
311.639	93.44
311.868	93.44
312.098	97.44
312.328	104.44
312.557	114.44
312.787	104.44
313.017	117.44
313.246	112.44
313.476	98.44
313.706	103.44
313.935	96.44
314.165	118.44
314.394	106.44
314.624	85.44
314.853	98.44
315.083	96.44
315.312	88.44
315.542	96.44
315.771	84.44
316.001	103.44
316.23	94.44
316.46	88.44
316.689	84.44
316.919	100.44
317.148	94.44
317.377	115.44
317.607	119.44
317.836	91.44
318.065	92.44
318.295	86.44
318.524	94.44
318.753	92.44
318.983	91.44
319.212	113.44
319.441	111.44
319.67	113.44
319.9	85.44
320.129	95.44
320.358	92.44
320.587	98.44
320.816	101.44
321.046	109.44
321.275	112.44
321.504	107.44
321.733	96.44
321.962	102.44
322.191	100.44
322.42	115.44
322.649	103.44
322.878	105.44
323.108	124.44
323.337	128.44
323.566	140.44
323.795	165.44
324.024	239.44
324.253	391.44
324.482	852.44
324.71	1808.44
324.939	2473.44
325.168	892.44
325.397	272.44
325.626	176.44
325.855	139.44
326.084	124.44
326.313	127.44
326.542	155.44
326.77	234.44
326.999	451.44
327.228	967.44
327.457	1838.44
327.686	1499.44
327.914	441.44
328.143	311.44
328.372	326.44
328.6	208.44
328.829	129.44
329.058	149.44
329.287	165.44
329.515	133.44
329.744	162.44
329.972	259.44
330.201	430.44
330.43	594.44
330.658	312.44
330.887	204.44
331.115	137.44
331.344	117.44
331.572	111.44
331.801	108.44
332.03	114.44
332.258	117.44
332.486	96.44
332.715	108.44
332.943	110.44
333.172	104.44
333.4	121.44
333.629	137.44
333.857	168.44
334.085	229.44
334.314	412.44
334.542	762.44
334.771	709.44
334.999	227.44
335.227	120.44
335.455	103.44
335.684	101.44
335.912	96.44
336.14	92.44
336.369	105.44
336.597	92.44
336.825	120.44
337.053	100.44
337.281	96.44
337.51	76.44
337.738	121.44
337.966	99.44
338.194	102.44
338.422	102.44
338.65	93.44
338.878	86.44
339.106	88.44
339.334	108.44
339.562	101.44
339.79	109.44
340.018	82.44
340.246	98.44
340.474	104.44
340.702	114.44
340.93	97.44
341.158	81.44
341.386	101.44
341.614	110.44
341.842	96.44
342.07	108.44
342.298	100.44
342.526	89.44
342.754	95.44
342.981	81.44
343.209	104.44
343.437	102.44
343.665	101.44
343.893	95.44
344.12	102.44
344.348	78.44
344.576	97.44
344.804	94.44
345.031	104.44
345.259	106.44
345.487	111.44
345.714	92.44
345.942	80.44
346.17	92.44
346.397	101.44
346.625	89.44
346.853	87.44
347.08	95.44
347.308	99.44
347.535	103.44
347.763	102.44
347.99	100.44
348.218	96.44
348.445	104.44
348.673	109.44
348.9	84.44
349.128	96.44
349.355	94.44
349.583	100.44
349.81	81.44
350.037	87.44
350.265	100.44
350.492	115.44
350.72	102.44
350.947	107.44
351.174	103.44
351.402	111.44
351.629	89.44
351.856	105.44
352.083	109.44
352.311	115.44
352.538	104.44
352.765	112.44
352.992	123.44
353.22	127.44
353.447	97.44
353.674	100.44
353.901	100.44
354.128	86.44
354.355	92.44
354.583	86.44
354.81	97.44
355.037	98.44
355.264	95.44
355.491	88.44
355.718	92.44
355.945	78.44
356.172	97.44
356.399	100.44
356.626	98.44
356.853	90.44
357.08	92.44
357.307	105.44
357.534	92.44
357.761	96.44
357.988	117.44
358.215	100.44
358.441	116.44
358.668	95.44
358.895	99.44
359.122	89.44
359.349	86.44
359.576	100.44
359.802	113.44
360.029	118.44
360.256	141.44
360.483	101.44
360.709	82.44
360.936	89.44
361.163	113.44
361.39	98.44
361.616	93.44
361.843	93.44
362.07	96.44
362.296	78.44
362.523	85.44
362.749	101.44
362.976	91.44
363.203	96.44
363.429	84.44
363.656	82.44
363.882	93.44
364.109	102.44
364.335	103.44
364.562	94.44
364.788	100.44
365.015	96.44
365.241	98.44
365.468	104.44
365.694	98.44
365.92	103.44
366.147	90.44
366.373	109.44
366.599	89.44
366.826	89.44
367.052	89.44
367.278	93.44
367.505	102.44
367.731	97.44
367.957	102.44
368.184	85.44
368.41	91.44
368.636	134.44
368.862	126.44
369.089	113.44
369.315	109.44
369.541	94.44
369.767	110.44
369.993	104.44
370.219	86.44
370.445	86.44
370.672	87.44
370.898	104.44
371.124	93.44
371.35	93.44
371.576	97.44
371.802	91.44
372.028	100.44
372.254	96.44
372.48	84.44
372.706	84.44
372.932	85.44
373.158	100.44
373.384	99.44
373.61	87.44
373.835	87.44
374.061	89.44
374.287	95.44
374.513	86.44
374.739	76.44
374.965	89.44
375.191	91.44
375.416	82.44
375.642	93.44
375.868	93.44
376.094	108.44
376.319	92.44
376.545	96.44
376.771	79.44
376.997	106.44
377.222	99.44
377.448	81.44
377.674	95.44
377.899	105.44
378.125	92.44
378.35	89.44
378.576	108.44
378.802	90.44
379.027	95.44
379.253	95.44
379.478	100.44
379.704	103.44
379.929	98.44
380.155	88.44
380.38	103.44
380.606	84.44
380.831	87.44
381.057	110.44
381.282	88.44
381.507	112.44
381.733	96.44
381.958	104.44
382.184	110.44
382.409	107.44
382.634	108.44
382.86	105.44
383.085	106.44
383.31	110.44
383.535	111.44
383.761	102.44
383.986	103.44
384.211	104.44
384.436	90.44
384.662	105.44
384.887	118.44
385.112	109.44
385.337	113.44
385.562	112.44
385.787	113.44
386.013	119.44
386.238	124.44
386.463	128.44
386.688	115.44
386.913	120.44
387.138	119.44
387.363	111.44
387.588	105.44
387.813	103.44
388.038	116.44
388.263	137.44
388.488	103.44
388.713	105.44
388.938	96.44
389.163	105.44
389.387	103.44
389.612	91.44
389.837	86.44
390.062	101.44
390.287	95.44
390.512	108.44
390.736	95.44
390.961	90.44
391.186	88.44
391.411	98.44
391.636	101.44
391.86	88.44
392.085	88.44
392.31	91.44
392.534	87.44
392.759	94.44
392.984	94.44
393.208	99.44
393.433	95.44
393.658	96.44
393.882	94.44
394.107	75.44
394.331	72.44
394.556	101.44
394.78	100.44
395.005	87.44
395.229	86.44
395.454	101.44
395.678	88.44
395.903	102.44
396.127	90.44
396.352	88.44
396.576	77.44
396.801	73.44
397.025	98.44
397.249	79.44
397.474	84.44
397.698	91.44
397.922	76.44
398.147	100.44
398.371	92.44
398.595	95.44
398.82	92.44
399.044	85.44
399.268	93.44
399.492	98.44
399.717	85.44
399.941	88.44
400.165	85.44
400.389	97.44
400.613	91.44
400.837	85.44
401.062	81.44
401.286	95.44
401.51	96.44
401.734	95.44
401.958	111.44
402.182	135.44
402.406	160.44
402.63	118.44
402.854	109.44
403.078	87.44
403.302	92.44
403.526	96.44
403.75	96.44
403.974	96.44
404.198	96.44
404.422	109.44
404.645	96.44
404.869	101.44
405.093	108.44
405.317	119.44
405.541	102.44
405.765	110.44
405.988	118.44
406.212	179.44
406.436	251.44
406.66	167.44
406.883	113.44
407.107	92.44
407.331	100.44
407.555	104.44
407.778	95.44
408.002	90.44
408.226	87.44
408.449	99.44
408.673	101.44
408.896	100.44
409.12	112.44
409.344	95.44
409.567	102.44
409.791	102.44
410.014	108.44
410.238	88.44
410.461	109.44
410.685	91.44
410.908	95.44
411.132	103.44
411.355	112.44
411.578	102.44
411.802	78.44
412.025	88.44
412.249	104.44
412.472	111.44
412.695	136.44
412.919	118.44
413.142	101.44
413.365	85.44
413.589	100.44
413.812	103.44
414.035	102.44
414.258	88.44
414.482	99.44
414.705	96.44
414.928	87.44
415.151	110.44
415.374	96.44
415.597	85.44
415.821	83.44
416.044	77.44
416.267	100.44
416.49	84.44
416.713	115.44
416.936	98.44
417.159	69.44
417.382	94.44
417.605	97.44
417.828	101.44
418.051	107.44
418.274	92.44
418.497	80.44
418.72	81.44
418.943	96.44
419.166	94.44
419.389	86.44
419.611	86.44
419.834	80.44
420.057	88.44
420.28	96.44
420.503	97.44
420.726	93.44
420.948	89.44
421.171	84.44
421.394	87.44
421.617	102.44
421.839	97.44
422.062	94.44
422.285	105.44
422.507	103.44
422.73	98.44
422.953	98.44
423.175	97.44
423.398	105.44
423.621	87.44
423.843	70.44
424.066	82.44
424.288	94.44
424.511	109.44
424.733	102.44
424.956	107.44
425.178	95.44
425.401	104.44
425.623	88.44
425.846	93.44
426.068	92.44
426.291	102.44
426.513	91.44
426.735	93.44
426.958	96.44
427.18	120.44
427.402	142.44
427.625	199.44
427.847	178.44
428.069	174.44
428.292	105.44
428.514	100.44
428.736	87.44
428.958	95.44
429.181	101.44
429.403	85.44
429.625	98.44
429.847	89.44
430.069	92.44
430.292	90.44
430.514	92.44
430.736	87.44
430.958	78.44
431.18	88.44
431.402	92.44
431.624	83.44
431.846	80.44
432.068	92.44
432.29	85.44
432.512	92.44
432.734	94.44
432.956	79.44
433.178	87.44
433.4	103.44
433.622	97.44
433.844	100.44
434.066	100.44
434.287	89.44
434.509	78.44
434.731	90.44
434.953	88.44
435.175	90.44
435.397	81.44
435.618	97.44
435.84	97.44
436.062	125.44
436.284	126.44
436.505	110.44
436.727	98.44
436.949	104.44
437.17	84.44
437.392	96.44
437.614	92.44
437.835	102.44
438.057	126.44
438.278	124.44
438.5	107.44
438.721	138.44
438.943	100.44
439.165	78.44
439.386	85.44
439.608	104.44
439.829	111.44
440.05	159.44
440.272	165.44
440.493	99.44
440.715	93.44
440.936	91.44
441.158	82.44
441.379	87.44
441.6	90.44
441.822	96.44
442.043	120.44
442.264	104.44
442.486	97.44
442.707	88.44
442.928	123.44
443.149	138.44
443.371	144.44
443.592	108.44
443.813	122.44
444.034	112.44
444.255	94.44
444.476	88.44
444.698	80.44
444.919	84.44
445.14	134.44
445.361	138.44
445.582	127.44
445.803	169.44
446.024	154.44
446.245	143.44
446.466	125.44
446.687	94.44
446.908	88.44
447.129	78.44
447.35	88.44
447.571	92.44
447.792	90.44
448.013	95.44
448.234	113.44
448.455	103.44
448.675	113.44
448.896	133.44
449.117	93.44
449.338	99.44
449.559	156.44
449.779	134.44
450	113.44
450.221	98.44
450.442	82.44
450.662	102.44
450.883	123.44
451.104	112.44
451.324	106.44
451.545	95.44
451.766	99.44
451.986	88.44
452.207	101.44
452.428	111.44
452.648	94.44
452.869	116.44
453.089	106.44
453.31	131.44
453.53	103.44
453.751	103.44
453.971	113.44
454.192	106.44
454.412	87.44
454.633	90.44
454.853	90.44
455.073	79.44
455.294	105.44
455.514	111.44
455.734	88.44
455.955	94.44
456.175	89.44
456.395	94.44
456.616	80.44
456.836	80.44
457.056	83.44
457.276	91.44
457.497	98.44
457.717	83.44
457.937	96.44
458.157	90.44
458.377	92.44
458.598	105.44
458.818	156.44
459.038	198.44
459.258	127.44
459.478	112.44
459.698	98.44
459.918	86.44
460.138	88.44
460.358	95.44
460.578	76.44
460.798	102.44
461.018	98.44
461.238	108.44
461.458	80.44
461.678	82.44
461.898	84.44
462.118	99.44
462.338	94.44
462.558	88.44
462.777	94.44
462.997	100.44
463.217	112.44
463.437	94.44
463.657	96.44
463.876	93.44
464.096	98.44
464.316	101.44
464.536	94.44
464.755	106.44
464.975	119.44
465.195	190.44
465.414	179.44
465.634	103.44
465.854	86.44
466.073	85.44
466.293	100.44
466.512	98.44
466.732	77.44
466.951	81.44
467.171	89.44
467.391	109.44
467.61	118.44
467.829	139.44
468.049	260.44
468.268	371.44
468.488	124.44
468.707	89.44
468.927	81.44
469.146	104.44
469.365	95.44
469.585	88.44
469.804	84.44
470.023	83.44
470.243	84.44
470.462	111.44
470.681	126.44
470.901	100.44
471.12	89.44
471.339	88.44
471.558	109.44
471.777	100.44
471.997	172.44
472.216	461.44
472.435	988.44
472.654	282.44
472.873	128.44
473.092	95.44
473.311	82.44
473.53	83.44
473.749	97.44
473.968	106.44
474.187	120.44
474.406	117.44
474.625	89.44
474.844	86.44
475.063	80.44
475.282	87.44
475.501	80.44
475.72	102.44
475.939	86.44
476.158	97.44
476.377	87.44
476.596	92.44
476.814	112.44
477.033	110.44
477.252	101.44
477.471	91.44
477.69	96.44
477.908	100.44
478.127	83.44
478.346	87.44
478.564	101.44
478.783	99.44
479.002	95.44
479.22	100.44
479.439	114.44
479.658	119.44
479.876	102.44
480.095	111.44
480.313	117.44
480.532	109.44
480.751	164.44
480.969	449.44
481.188	1750.44
481.406	1023.44
481.624	212.44
481.843	104.44
482.061	87.44
482.28	93.44
482.498	90.44
482.717	86.44
482.935	106.44
483.153	95.44
483.372	90.44
483.59	94.44
483.808	112.44
484.027	101.44
484.245	100.44
484.463	99.44
484.681	104.44
484.9	98.44
485.118	106.44
485.336	91.44
485.554	90.44
485.772	106.44
485.99	95.44
486.209	110.44
486.427	109.44
486.645	114.44
486.863	122.44
487.081	101.44
487.299	95.44
487.517	105.44
487.735	97.44
487.953	100.44
488.171	86.44
488.389	87.44
488.607	102.44
488.825	92.44
489.043	101.44
489.261	88.44
489.479	95.44
489.696	111.44
489.914	94.44
490.132	95.44
490.35	91.44
490.568	83.44
490.786	100.44
491.003	83.44
491.221	104.44
491.439	112.44
491.657	101.44
491.874	88.44
492.092	82.44
492.31	97.44
492.527	89.44
492.745	103.44
492.963	106.44
493.18	94.44
493.398	93.44
493.615	96.44
493.833	96.44
494.05	86.44
494.268	90.44
494.485	93.44
494.703	90.44
494.92	79.44
495.138	89.44
495.355	100.44
495.573	98.44
495.79	83.44
496.008	97.44
496.225	92.44
496.442	94.44
496.66	105.44
496.877	109.44
497.094	93.44
497.312	84.44
497.529	95.44
497.746	98.44
497.963	100.44
498.181	86.44
498.398	84.44
498.615	101.44
498.832	98.44
499.049	106.44
499.267	86.44
499.484	93.44
499.701	90.44
499.918	81.44
500.135	92.44
500.352	93.44
500.569	103.44
500.786	103.44
501.003	98.44
501.22	96.44
501.437	98.44
501.654	103.44
501.871	103.44
502.088	92.44
502.305	89.44
502.522	91.44
502.739	91.44
502.956	88.44
503.172	106.44
503.389	100.44
503.606	108.44
503.823	100.44
504.04	97.44
504.256	99.44
504.473	81.44
504.69	96.44
504.907	109.44
505.123	90.44
505.34	88.44
505.557	79.44
505.773	100.44
505.99	88.44
506.207	98.44
506.423	87.44
506.64	98.44
506.856	100.44
507.073	88.44
507.289	85.44
507.506	109.44
507.722	108.44
507.939	113.44
508.155	102.44
508.372	97.44
508.588	93.44
508.805	110.44
509.021	104.44
509.238	109.44
509.454	94.44
509.67	106.44
509.887	121.44
510.103	140.44
510.319	201.44
510.536	748.44
510.752	2368.44
510.968	646.44
511.184	163.44
511.401	114.44
511.617	113.44
511.833	108.44
512.049	91.44
512.265	105.44
512.481	90.44
512.698	93.44
512.914	111.44
513.13	89.44
513.346	90.44
