Data from Circ_1990_H10_HRD10591_00031.txt Node
Date: Wed Jan 03 11:55:10 EST 2024
User: Yrep
Spectrometer: HR+D1059
Trigger mode: 1
Integration Time (sec): 1.000000E-1
Scans to average: 1
Electric dark correction enabled: true
Nonlinearity correction enabled: false
Boxcar width: 0
XAxis mode: Wavelengths
Number of Pixels in Spectrum: 2048
>>>>>Begin Spectral Data<<<<<
223.165	-15.62
223.4	-15.62
223.635	-15.62
223.869	-17.62
224.104	-5.62
224.338	-15.62
224.573	-14.62
224.808	-8.62
225.042	-28.62
225.277	-1.62
225.511	1.38
225.746	-3.62
225.98	7.38
226.215	9.38
226.449	17.38
226.683	12.38
226.918	30.38
227.152	33.38
227.387	25.38
227.621	39.38
227.856	44.38
228.09	30.38
228.324	53.38
228.559	53.38
228.793	50.38
229.027	64.38
229.262	65.38
229.496	82.38
229.73	76.38
229.964	82.38
230.199	77.38
230.433	76.38
230.667	68.38
230.901	72.38
231.136	81.38
231.37	75.38
231.604	81.38
231.838	89.38
232.072	80.38
232.306	73.38
232.541	96.38
232.775	81.38
233.009	100.38
233.243	98.38
233.477	75.38
233.711	85.38
233.945	84.38
234.179	82.38
234.413	80.38
234.647	80.38
234.881	79.38
235.115	88.38
235.349	90.38
235.583	92.38
235.817	86.38
236.051	78.38
236.285	82.38
236.519	70.38
236.753	81.38
236.987	88.38
237.221	74.38
237.455	82.38
237.689	86.38
237.922	71.38
238.156	91.38
238.39	78.38
238.624	71.38
238.858	74.38
239.091	74.38
239.325	78.38
239.559	93.38
239.793	63.38
240.027	93.38
240.26	79.38
240.494	81.38
240.728	79.38
240.961	78.38
241.195	77.38
241.429	77.38
241.662	82.38
241.896	69.38
242.13	77.38
242.363	57.38
242.597	87.38
242.83	82.38
243.064	74.38
243.298	86.38
243.531	77.38
243.765	85.38
243.998	73.38
244.232	79.38
244.465	87.38
244.699	93.38
244.932	93.38
245.166	70.38
245.399	70.38
245.633	72.38
245.866	78.38
246.099	79.38
246.333	96.38
246.566	61.38
246.8	74.38
247.033	83.38
247.266	71.38
247.5	75.38
247.733	83.38
247.966	81.38
248.2	77.38
248.433	69.38
248.666	86.38
248.899	100.38
249.133	82.38
249.366	67.38
249.599	89.38
249.832	72.38
250.066	77.38
250.299	97.38
250.532	81.38
250.765	82.38
250.998	76.38
251.231	72.38
251.465	82.38
251.698	78.38
251.931	84.38
252.164	70.38
252.397	76.38
252.63	89.38
252.863	79.38
253.096	85.38
253.329	82.38
253.562	69.38
253.795	79.38
254.028	82.38
254.261	70.38
254.494	82.38
254.727	84.38
254.96	78.38
255.193	76.38
255.426	84.38
255.659	75.38
255.892	81.38
256.124	78.38
256.357	66.38
256.59	80.38
256.823	87.38
257.056	83.38
257.289	78.38
257.521	70.38
257.754	85.38
257.987	73.38
258.22	87.38
258.452	88.38
258.685	92.38
258.918	82.38
259.151	93.38
259.383	81.38
259.616	84.38
259.849	75.38
260.081	68.38
260.314	83.38
260.547	84.38
260.779	79.38
261.012	89.38
261.244	86.38
261.477	84.38
261.71	94.38
261.942	106.38
262.175	112.38
262.407	96.38
262.64	87.38
262.872	82.38
263.105	85.38
263.337	89.38
263.57	91.38
263.802	98.38
264.035	89.38
264.267	75.38
264.499	84.38
264.732	92.38
264.964	84.38
265.197	87.38
265.429	84.38
265.661	84.38
265.894	86.38
266.126	79.38
266.358	83.38
266.591	97.38
266.823	74.38
267.055	92.38
267.287	83.38
267.52	96.38
267.752	79.38
267.984	92.38
268.216	89.38
268.448	73.38
268.681	84.38
268.913	91.38
269.145	93.38
269.377	82.38
269.609	83.38
269.841	81.38
270.073	79.38
270.306	77.38
270.538	75.38
270.77	75.38
271.002	74.38
271.234	91.38
271.466	75.38
271.698	73.38
271.93	89.38
272.162	79.38
272.394	89.38
272.626	73.38
272.858	95.38
273.09	104.38
273.322	102.38
273.553	82.38
273.785	97.38
274.017	82.38
274.249	90.38
274.481	90.38
274.713	78.38
274.945	78.38
275.176	81.38
275.408	94.38
275.64	89.38
275.872	96.38
276.104	103.38
276.335	91.38
276.567	86.38
276.799	96.38
277.031	103.38
277.262	96.38
277.494	85.38
277.726	83.38
277.957	82.38
278.189	81.38
278.421	82.38
278.652	91.38
278.884	81.38
279.115	83.38
279.347	94.38
279.579	93.38
279.81	84.38
280.042	95.38
280.273	90.38
280.505	98.38
280.736	96.38
280.968	78.38
281.199	83.38
281.431	70.38
281.662	84.38
281.894	93.38
282.125	100.38
282.356	118.38
282.588	119.38
282.819	104.38
283.051	78.38
283.282	84.38
283.513	91.38
283.745	90.38
283.976	85.38
284.207	91.38
284.439	90.38
284.67	94.38
284.901	86.38
285.132	83.38
285.364	84.38
285.595	107.38
285.826	94.38
286.057	84.38
286.288	81.38
286.52	89.38
286.751	97.38
286.982	85.38
287.213	86.38
287.444	90.38
287.675	97.38
287.906	79.38
288.138	92.38
288.369	91.38
288.6	93.38
288.831	95.38
289.062	97.38
289.293	88.38
289.524	83.38
289.755	87.38
289.986	82.38
290.217	91.38
290.448	94.38
290.679	91.38
290.91	75.38
291.141	89.38
291.371	102.38
291.602	88.38
291.833	87.38
292.064	87.38
292.295	81.38
292.526	79.38
292.757	81.38
292.987	78.38
293.218	83.38
293.449	88.38
293.68	95.38
293.91	92.38
294.141	89.38
294.372	79.38
294.603	78.38
294.833	93.38
295.064	83.38
295.295	81.38
295.525	79.38
295.756	108.38
295.987	105.38
296.217	118.38
296.448	110.38
296.679	97.38
296.909	89.38
297.14	84.38
297.37	83.38
297.601	78.38
297.831	84.38
298.062	95.38
298.292	91.38
298.523	78.38
298.753	87.38
298.984	92.38
299.214	81.38
299.445	90.38
299.675	92.38
299.905	83.38
300.136	78.38
300.366	81.38
300.597	91.38
300.827	90.38
301.057	77.38
301.288	82.38
301.518	90.38
301.748	86.38
301.979	109.38
302.209	93.38
302.439	94.38
302.669	89.38
302.9	78.38
303.13	83.38
303.36	94.38
303.59	96.38
303.82	111.38
304.051	86.38
304.281	74.38
304.511	89.38
304.741	92.38
304.971	84.38
305.201	83.38
305.431	91.38
305.661	79.38
305.891	99.38
306.121	94.38
306.352	99.38
306.582	100.38
306.812	89.38
307.042	89.38
307.272	78.38
307.502	90.38
307.731	101.38
307.961	101.38
308.191	89.38
308.421	78.38
308.651	88.38
308.881	96.38
309.111	81.38
309.341	103.38
309.571	100.38
309.8	87.38
310.03	98.38
310.26	90.38
310.49	97.38
310.72	99.38
310.949	102.38
311.179	94.38
311.409	95.38
311.639	86.38
311.868	89.38
312.098	93.38
312.328	93.38
312.557	89.38
312.787	99.38
313.017	99.38
313.246	94.38
313.476	92.38
313.706	86.38
313.935	79.38
314.165	100.38
314.394	88.38
314.624	105.38
314.853	110.38
315.083	91.38
315.312	91.38
315.542	87.38
315.771	92.38
316.001	77.38
316.23	86.38
316.46	92.38
316.689	87.38
316.919	102.38
317.148	95.38
317.377	101.38
317.607	89.38
317.836	103.38
318.065	95.38
318.295	99.38
318.524	82.38
318.753	89.38
318.983	97.38
319.212	89.38
319.441	105.38
319.67	88.38
319.9	99.38
320.129	95.38
320.358	89.38
320.587	93.38
320.816	89.38
321.046	105.38
321.275	97.38
321.504	84.38
321.733	80.38
321.962	92.38
322.191	97.38
322.42	109.38
322.649	98.38
322.878	98.38
323.108	111.38
323.337	118.38
323.566	109.38
323.795	146.38
324.024	170.38
324.253	299.38
324.482	621.38
324.71	1245.38
324.939	1680.38
325.168	599.38
325.397	209.38
325.626	129.38
325.855	108.38
326.084	118.38
326.313	118.38
326.542	149.38
326.77	176.38
326.999	357.38
327.228	708.38
327.457	1309.38
327.686	1011.38
327.914	311.38
328.143	191.38
328.372	174.38
328.6	121.38
328.829	119.38
329.058	119.38
329.287	128.38
329.515	115.38
329.744	111.38
329.972	143.38
330.201	195.38
330.43	237.38
330.658	175.38
330.887	125.38
331.115	119.38
331.344	95.38
331.572	111.38
331.801	92.38
332.03	103.38
332.258	107.38
332.486	81.38
332.715	97.38
332.943	97.38
333.172	98.38
333.4	83.38
333.629	100.38
333.857	115.38
334.085	126.38
334.314	203.38
334.542	301.38
334.771	275.38
334.999	128.38
335.227	97.38
335.455	102.38
335.684	98.38
335.912	108.38
336.14	95.38
336.369	103.38
336.597	101.38
336.825	91.38
337.053	98.38
337.281	91.38
337.51	89.38
337.738	92.38
337.966	103.38
338.194	87.38
338.422	89.38
338.65	89.38
338.878	78.38
339.106	91.38
339.334	94.38
339.562	81.38
339.79	97.38
340.018	94.38
340.246	81.38
340.474	100.38
340.702	101.38
340.93	100.38
341.158	95.38
341.386	89.38
341.614	90.38
341.842	100.38
342.07	73.38
342.298	94.38
342.526	99.38
342.754	101.38
342.981	97.38
343.209	86.38
343.437	101.38
343.665	78.38
343.893	94.38
344.12	80.38
344.348	99.38
344.576	95.38
344.804	91.38
345.031	88.38
345.259	93.38
345.487	98.38
345.714	97.38
345.942	101.38
346.17	104.38
346.397	92.38
346.625	89.38
346.853	83.38
347.08	93.38
347.308	90.38
347.535	102.38
347.763	102.38
347.99	98.38
348.218	94.38
348.445	90.38
348.673	91.38
348.9	99.38
349.128	94.38
349.355	89.38
349.583	86.38
349.81	95.38
350.037	86.38
350.265	107.38
350.492	80.38
350.72	98.38
350.947	95.38
351.174	100.38
351.402	88.38
351.629	86.38
351.856	98.38
352.083	92.38
352.311	107.38
352.538	105.38
352.765	109.38
352.992	111.38
353.22	112.38
353.447	97.38
353.674	93.38
353.901	93.38
354.128	98.38
354.355	86.38
354.583	89.38
354.81	91.38
355.037	91.38
355.264	96.38
355.491	77.38
355.718	85.38
355.945	78.38
356.172	96.38
356.399	96.38
356.626	91.38
356.853	73.38
357.08	93.38
357.307	83.38
357.534	96.38
357.761	83.38
357.988	95.38
358.215	93.38
358.441	99.38
358.668	111.38
358.895	100.38
359.122	77.38
359.349	86.38
359.576	84.38
359.802	92.38
360.029	101.38
360.256	108.38
360.483	102.38
360.709	97.38
360.936	94.38
361.163	88.38
361.39	88.38
361.616	83.38
361.843	91.38
362.07	97.38
362.296	79.38
362.523	76.38
362.749	91.38
362.976	75.38
363.203	85.38
363.429	90.38
363.656	91.38
363.882	80.38
364.109	85.38
364.335	89.38
364.562	94.38
364.788	94.38
365.015	94.38
365.241	76.38
365.468	91.38
365.694	97.38
365.92	84.38
366.147	91.38
366.373	89.38
366.599	82.38
366.826	88.38
367.052	86.38
367.278	90.38
367.505	98.38
367.731	92.38
367.957	99.38
368.184	96.38
368.41	93.38
368.636	103.38
368.862	106.38
369.089	107.38
369.315	84.38
369.541	81.38
369.767	78.38
369.993	97.38
370.219	95.38
370.445	79.38
370.672	97.38
370.898	77.38
371.124	95.38
371.35	98.38
371.576	80.38
371.802	80.38
372.028	82.38
372.254	83.38
372.48	82.38
372.706	95.38
372.932	90.38
373.158	89.38
373.384	85.38
373.61	90.38
373.835	90.38
374.061	102.38
374.287	83.38
374.513	105.38
374.739	84.38
374.965	85.38
375.191	82.38
375.416	102.38
375.642	84.38
375.868	90.38
376.094	91.38
376.319	82.38
376.545	79.38
376.771	89.38
376.997	94.38
377.222	85.38
377.448	89.38
377.674	87.38
377.899	84.38
378.125	97.38
378.35	92.38
378.576	83.38
378.802	101.38
379.027	95.38
379.253	91.38
379.478	101.38
379.704	94.38
379.929	102.38
380.155	103.38
380.38	90.38
380.606	96.38
380.831	102.38
381.057	102.38
381.282	91.38
381.507	87.38
381.733	102.38
381.958	87.38
382.184	111.38
382.409	105.38
382.634	118.38
382.86	104.38
383.085	100.38
383.31	111.38
383.535	116.38
383.761	113.38
383.986	106.38
384.211	114.38
384.436	101.38
384.662	107.38
384.887	117.38
385.112	124.38
385.337	117.38
385.562	110.38
385.787	111.38
386.013	119.38
386.238	133.38
386.463	105.38
386.688	127.38
386.913	126.38
387.138	124.38
387.363	134.38
387.588	106.38
387.813	112.38
388.038	134.38
388.263	132.38
388.488	121.38
388.713	99.38
388.938	99.38
389.163	98.38
389.387	95.38
389.612	86.38
389.837	98.38
390.062	95.38
390.287	105.38
390.512	91.38
390.736	93.38
390.961	91.38
391.186	73.38
391.411	93.38
391.636	96.38
391.86	86.38
392.085	82.38
392.31	87.38
392.534	85.38
392.759	76.38
392.984	100.38
393.208	84.38
393.433	89.38
393.658	95.38
393.882	87.38
394.107	82.38
394.331	90.38
394.556	86.38
394.78	89.38
395.005	75.38
395.229	91.38
395.454	90.38
395.678	100.38
395.903	93.38
396.127	89.38
396.352	87.38
396.576	88.38
396.801	84.38
397.025	87.38
397.249	91.38
397.474	92.38
397.698	79.38
397.922	91.38
398.147	74.38
398.371	83.38
398.595	78.38
398.82	79.38
399.044	73.38
399.268	81.38
399.492	93.38
399.717	89.38
399.941	95.38
400.165	87.38
400.389	94.38
400.613	91.38
400.837	84.38
401.062	80.38
401.286	73.38
401.51	85.38
401.734	79.38
401.958	94.38
402.182	109.38
402.406	145.38
402.63	126.38
402.854	96.38
403.078	65.38
403.302	94.38
403.526	82.38
403.75	75.38
403.974	80.38
404.198	96.38
404.422	89.38
404.645	75.38
404.869	85.38
405.093	97.38
405.317	91.38
405.541	85.38
405.765	103.38
405.988	103.38
406.212	158.38
406.436	188.38
406.66	124.38
406.883	88.38
407.107	91.38
407.331	95.38
407.555	87.38
407.778	89.38
408.002	99.38
408.226	70.38
408.449	87.38
408.673	71.38
408.896	90.38
409.12	84.38
409.344	78.38
409.567	87.38
409.791	92.38
410.014	102.38
410.238	89.38
410.461	111.38
410.685	97.38
410.908	84.38
411.132	104.38
411.355	94.38
411.578	79.38
411.802	83.38
412.025	76.38
412.249	91.38
412.472	94.38
412.695	90.38
412.919	74.38
413.142	81.38
413.365	84.38
413.589	93.38
413.812	80.38
414.035	91.38
414.258	85.38
414.482	93.38
414.705	94.38
414.928	84.38
415.151	89.38
415.374	85.38
415.597	77.38
415.821	91.38
416.044	91.38
416.267	92.38
416.49	92.38
416.713	90.38
416.936	95.38
417.159	106.38
417.382	80.38
417.605	87.38
417.828	93.38
418.051	91.38
418.274	82.38
418.497	90.38
418.72	73.38
418.943	86.38
419.166	90.38
419.389	95.38
419.611	82.38
419.834	94.38
420.057	86.38
420.28	69.38
420.503	87.38
420.726	70.38
420.948	97.38
421.171	99.38
421.394	85.38
421.617	97.38
421.839	84.38
422.062	95.38
422.285	87.38
422.507	102.38
422.73	95.38
422.953	76.38
423.175	92.38
423.398	94.38
423.621	90.38
423.843	91.38
424.066	84.38
424.288	92.38
424.511	89.38
424.733	89.38
424.956	94.38
425.178	87.38
425.401	86.38
425.623	99.38
425.846	88.38
426.068	100.38
426.291	79.38
426.513	85.38
426.735	87.38
426.958	96.38
427.18	94.38
427.402	118.38
427.625	131.38
427.847	129.38
428.069	113.38
428.292	82.38
428.514	89.38
428.736	75.38
428.958	90.38
429.181	78.38
429.403	94.38
429.625	81.38
429.847	101.38
430.069	93.38
430.292	80.38
430.514	77.38
430.736	85.38
430.958	90.38
431.18	66.38
431.402	86.38
431.624	93.38
431.846	90.38
432.068	70.38
432.29	83.38
432.512	100.38
432.734	79.38
432.956	85.38
433.178	90.38
433.4	92.38
433.622	91.38
433.844	74.38
434.066	66.38
434.287	87.38
434.509	94.38
434.731	79.38
434.953	85.38
435.175	76.38
435.397	108.38
435.618	86.38
435.84	86.38
436.062	100.38
436.284	95.38
436.505	96.38
436.727	92.38
436.949	93.38
437.17	86.38
437.392	77.38
437.614	89.38
437.835	91.38
438.057	96.38
438.278	107.38
438.5	98.38
438.721	111.38
438.943	107.38
439.165	83.38
439.386	100.38
439.608	94.38
439.829	91.38
440.05	114.38
440.272	124.38
440.493	94.38
440.715	85.38
440.936	75.38
441.158	85.38
441.379	86.38
441.6	101.38
441.822	94.38
442.043	89.38
442.264	97.38
442.486	96.38
442.707	81.38
442.928	93.38
443.149	101.38
443.371	110.38
443.592	113.38
443.813	99.38
444.034	88.38
444.255	84.38
444.476	87.38
444.698	84.38
444.919	94.38
445.14	143.38
445.361	112.38
445.582	95.38
445.803	115.38
446.024	113.38
446.245	124.38
446.466	114.38
446.687	104.38
446.908	97.38
447.129	89.38
447.35	87.38
447.571	99.38
447.792	85.38
448.013	97.38
448.234	102.38
448.455	89.38
448.675	113.38
448.896	88.38
449.117	89.38
449.338	110.38
449.559	84.38
449.779	103.38
450	81.38
450.221	71.38
450.442	87.38
450.662	92.38
450.883	99.38
451.104	94.38
451.324	91.38
451.545	87.38
451.766	92.38
451.986	94.38
452.207	94.38
452.428	84.38
452.648	77.38
452.869	88.38
453.089	111.38
453.31	102.38
453.53	91.38
453.751	97.38
453.971	100.38
454.192	108.38
454.412	81.38
454.633	77.38
454.853	78.38
455.073	74.38
455.294	80.38
455.514	85.38
455.734	82.38
455.955	75.38
456.175	71.38
456.395	79.38
456.616	93.38
456.836	92.38
457.056	103.38
457.276	94.38
457.497	76.38
457.717	93.38
457.937	98.38
458.157	81.38
458.377	83.38
458.598	102.38
458.818	121.38
459.038	137.38
459.258	110.38
459.478	92.38
459.698	91.38
459.918	88.38
460.138	99.38
460.358	74.38
460.578	89.38
460.798	101.38
461.018	76.38
461.238	89.38
461.458	85.38
461.678	79.38
461.898	94.38
462.118	96.38
462.338	87.38
462.558	100.38
462.777	89.38
462.997	76.38
463.217	89.38
463.437	82.38
463.657	90.38
463.876	82.38
464.096	90.38
464.316	92.38
464.536	89.38
464.755	84.38
464.975	100.38
465.195	140.38
465.414	148.38
465.634	88.38
465.854	77.38
466.073	68.38
466.293	99.38
466.512	80.38
466.732	95.38
466.951	73.38
467.171	91.38
467.391	85.38
467.61	75.38
467.829	98.38
468.049	132.38
468.268	176.38
468.488	99.38
468.707	89.38
468.927	87.38
469.146	94.38
469.365	87.38
469.585	81.38
469.804	86.38
470.023	99.38
470.243	101.38
470.462	102.38
470.681	106.38
470.901	90.38
471.12	97.38
471.339	87.38
471.558	94.38
471.777	100.38
471.997	127.38
472.216	231.38
472.435	380.38
472.654	134.38
472.873	89.38
473.092	87.38
473.311	89.38
473.53	76.38
473.749	77.38
473.968	94.38
474.187	103.38
474.406	95.38
474.625	87.38
474.844	101.38
475.063	71.38
475.282	78.38
475.501	85.38
475.72	92.38
475.939	78.38
476.158	87.38
476.377	95.38
476.596	82.38
476.814	91.38
477.033	100.38
477.252	100.38
477.471	86.38
477.69	82.38
477.908	90.38
478.127	79.38
478.346	82.38
478.564	91.38
478.783	103.38
479.002	86.38
479.22	87.38
479.439	86.38
479.658	111.38
479.876	91.38
480.095	75.38
480.313	102.38
480.532	99.38
480.751	98.38
480.969	221.38
481.188	661.38
481.406	396.38
481.624	116.38
481.843	88.38
482.061	96.38
482.28	92.38
482.498	80.38
482.717	84.38
482.935	83.38
483.153	98.38
483.372	92.38
483.59	106.38
483.808	100.38
484.027	91.38
484.245	76.38
484.463	82.38
484.681	76.38
484.9	100.38
485.118	90.38
485.336	94.38
485.554	98.38
485.772	101.38
485.99	101.38
486.209	108.38
486.427	112.38
486.645	128.38
486.863	103.38
487.081	98.38
487.299	106.38
487.517	88.38
487.735	103.38
487.953	92.38
488.171	79.38
488.389	100.38
488.607	92.38
488.825	93.38
489.043	82.38
489.261	85.38
489.479	88.38
489.696	81.38
489.914	82.38
490.132	89.38
490.35	81.38
490.568	89.38
490.786	83.38
491.003	84.38
491.221	93.38
491.439	92.38
491.657	83.38
491.874	99.38
492.092	93.38
492.31	81.38
492.527	78.38
492.745	94.38
492.963	88.38
493.18	98.38
493.398	88.38
493.615	86.38
493.833	93.38
494.05	77.38
494.268	85.38
494.485	82.38
494.703	83.38
494.92	76.38
495.138	101.38
495.355	87.38
495.573	96.38
495.79	96.38
496.008	96.38
496.225	95.38
496.442	91.38
496.66	98.38
496.877	79.38
497.094	89.38
497.312	94.38
497.529	83.38
497.746	91.38
497.963	78.38
498.181	89.38
498.398	97.38
498.615	114.38
498.832	106.38
499.049	81.38
499.267	96.38
499.484	78.38
499.701	101.38
499.918	83.38
500.135	97.38
500.352	74.38
500.569	99.38
500.786	90.38
501.003	90.38
501.22	84.38
501.437	74.38
501.654	85.38
501.871	113.38
502.088	86.38
502.305	77.38
502.522	108.38
502.739	84.38
502.956	79.38
503.172	73.38
503.389	91.38
503.606	100.38
503.823	102.38
504.04	91.38
504.256	84.38
504.473	92.38
504.69	85.38
504.907	96.38
505.123	102.38
505.34	92.38
505.557	87.38
505.773	83.38
505.99	94.38
506.207	108.38
506.423	87.38
506.64	76.38
506.856	82.38
507.073	91.38
507.289	90.38
507.506	95.38
507.722	99.38
507.939	100.38
508.155	93.38
508.372	103.38
508.588	85.38
508.805	83.38
509.021	89.38
509.238	92.38
509.454	87.38
509.67	85.38
509.887	112.38
510.103	111.38
510.319	193.38
510.536	636.38
510.752	1875.38
510.968	535.38
511.184	153.38
511.401	91.38
511.617	95.38
511.833	83.38
512.049	80.38
512.265	94.38
512.481	95.38
512.698	94.38
512.914	86.38
513.13	83.38
513.346	84.38
513.562	92.38
513.778	84.38
513.994	99.38
514.21	101.38
514.426	101.38
514.642	121.38
514.858	119.38
515.074	143.38
515.29	351.38
515.506	1113.38
515.721	437.38
515.937	133.38
516.153	112.38
