Data from Circ_1990_H10_HRD10591_00055.txt Node
Date: Wed Jan 03 11:55:15 EST 2024
User: Yrep
Spectrometer: HR+D1059
Trigger mode: 1
Integration Time (sec): 1.000000E-1
Scans to average: 1
Electric dark correction enabled: true
Nonlinearity correction enabled: false
Boxcar width: 0
XAxis mode: Wavelengths
Number of Pixels in Spectrum: 2048
>>>>>Begin Spectral Data<<<<<
223.165	-16.12
223.4	-16.12
223.635	-16.12
223.869	-14.12
224.104	-14.12
224.338	-19.12
224.573	-16.12
224.808	-6.12
225.042	-10.12
225.277	3.88
225.511	-7.12
225.746	-0.12
225.98	24.88
226.215	10.88
226.449	-2.12
226.683	1.88
226.918	34.88
227.152	28.88
227.387	31.88
227.621	37.88
227.856	57.88
228.09	41.88
228.324	53.88
228.559	49.88
228.793	159.88
229.027	461.88
229.262	544.88
229.496	618.88
229.73	811.88
229.964	867.88
230.199	606.88
230.433	498.88
230.667	479.88
230.901	471.88
231.136	439.88
231.37	458.88
231.604	469.88
231.838	477.88
232.072	467.88
232.306	506.88
232.541	493.88
232.775	508.88
233.009	485.88
233.243	484.88
233.477	499.88
233.711	527.88
233.945	531.88
234.179	539.88
234.413	541.88
234.647	556.88
234.881	557.88
235.115	544.88
235.349	572.88
235.583	597.88
235.817	627.88
236.051	683.88
236.285	630.88
236.519	651.88
236.753	737.88
236.987	924.88
237.221	1382.88
237.455	1455.88
237.689	887.88
237.922	770.88
238.156	731.88
238.39	730.88
238.624	686.88
238.858	693.88
239.091	673.88
239.325	698.88
239.559	747.88
239.793	753.88
240.027	805.88
240.26	950.88
240.494	1012.88
240.728	1022.88
240.961	948.88
241.195	848.88
241.429	859.88
241.662	827.88
241.896	825.88
242.13	842.88
242.363	830.88
242.597	854.88
242.83	901.88
243.064	928.88
243.298	923.88
243.531	908.88
243.765	894.88
243.998	933.88
244.232	925.88
244.465	956.88
244.699	975.88
244.932	971.88
245.166	982.88
245.399	983.88
245.633	966.88
245.866	993.88
246.099	978.88
246.333	1005.88
246.566	1029.88
246.8	1055.88
247.033	1060.88
247.266	1093.88
247.5	1188.88
247.733	1246.88
247.966	1229.88
248.2	1233.88
248.433	1248.88
248.666	1324.88
248.899	1411.88
249.133	1541.88
249.366	1559.88
249.599	1512.88
249.832	1416.88
250.066	1573.88
250.299	1973.88
250.532	2505.88
250.765	2426.88
250.998	2217.88
251.231	1925.88
251.465	1701.88
251.698	1596.88
251.931	1578.88
252.164	1539.88
252.397	1569.88
252.63	1570.88
252.863	1641.88
253.096	1781.88
253.329	1817.88
253.562	1759.88
253.795	1684.88
254.028	1675.88
254.261	1769.88
254.494	1971.88
254.727	2282.88
254.96	2416.88
255.193	2172.88
255.426	2190.88
255.659	2430.88
255.892	3288.88
256.124	4287.88
256.357	3531.88
256.59	2620.88
256.823	2221.88
257.056	1987.88
257.289	1920.88
257.521	1868.88
257.754	1811.88
257.987	1769.88
258.22	1779.88
258.452	1724.88
258.685	1727.88
258.918	1755.88
259.151	1774.88
259.383	1851.88
259.616	1819.88
259.849	1924.88
260.081	2063.88
260.314	2265.88
260.547	2121.88
260.779	1954.88
261.012	1907.88
261.244	1861.88
261.477	1822.88
261.71	1839.88
261.942	1914.88
262.175	1873.88
262.407	1836.88
262.64	1741.88
262.872	1791.88
263.105	1763.88
263.337	1793.88
263.57	1806.88
263.802	1827.88
264.035	1781.88
264.267	1827.88
264.499	1799.88
264.732	1836.88
264.964	1850.88
265.197	1794.88
265.429	1837.88
265.661	1839.88
265.894	1844.88
266.126	1891.88
266.358	1869.88
266.591	1979.88
266.823	2011.88
267.055	1992.88
267.287	2000.88
267.52	1963.88
267.752	1997.88
267.984	1958.88
268.216	2023.88
268.448	2046.88
268.681	2131.88
268.913	2241.88
269.145	2485.88
269.377	2449.88
269.609	2322.88
269.841	2378.88
270.073	2426.88
270.306	2705.88
270.538	2865.88
270.77	2635.88
271.002	2548.88
271.234	2540.88
271.466	2729.88
271.698	2781.88
271.93	2838.88
272.162	2835.88
272.394	2684.88
272.626	2593.88
272.858	2468.88
273.09	2406.88
273.322	2460.88
273.553	2336.88
273.785	2395.88
274.017	2431.88
274.249	2408.88
274.481	2384.88
274.713	2459.88
274.945	2494.88
275.176	2464.88
275.408	2471.88
275.64	2511.88
275.872	2556.88
276.104	2573.88
276.335	2534.88
276.567	2717.88
276.799	2847.88
277.031	3230.88
277.262	3316.88
277.494	3180.88
277.726	2850.88
277.957	2771.88
278.189	2681.88
278.421	2630.88
278.652	2653.88
278.884	2581.88
279.115	2655.88
279.347	2680.88
279.579	2701.88
279.81	2767.88
280.042	2863.88
280.273	2999.88
280.505	2937.88
280.736	2822.88
280.968	2769.88
281.199	2724.88
281.431	2683.88
281.662	2708.88
281.894	2699.88
282.125	2763.88
282.356	2929.88
282.588	3058.88
282.819	2903.88
283.051	2746.88
283.282	2733.88
283.513	2747.88
283.745	2835.88
283.976	2802.88
284.207	2776.88
284.439	2753.88
284.67	2786.88
284.901	2794.88
285.132	2831.88
285.364	2820.88
285.595	2775.88
285.826	2806.88
286.057	2913.88
286.288	2813.88
286.52	2839.88
286.751	2877.88
286.982	2921.88
287.213	2922.88
287.444	2901.88
287.675	2991.88
287.906	3106.88
288.138	3103.88
288.369	3076.88
288.6	3081.88
288.831	3050.88
289.062	3043.88
289.293	2980.88
289.524	3055.88
289.755	3034.88
289.986	2938.88
290.217	2947.88
290.448	2971.88
290.679	2990.88
290.91	2980.88
291.141	2997.88
291.371	2983.88
291.602	2951.88
291.833	2937.88
292.064	2941.88
292.295	2950.88
292.526	3022.88
292.757	3024.88
292.987	2955.88
293.218	2934.88
293.449	3014.88
293.68	3005.88
293.91	2983.88
294.141	2963.88
294.372	2911.88
294.603	3068.88
294.833	3013.88
295.064	3075.88
295.295	3023.88
295.525	3034.88
295.756	3054.88
295.987	3200.88
296.217	3382.88
296.448	3279.88
296.679	3115.88
296.909	3101.88
297.14	3186.88
297.37	3174.88
297.601	3168.88
297.831	3171.88
298.062	3191.88
298.292	3220.88
298.523	3230.88
298.753	3219.88
298.984	3186.88
299.214	3287.88
299.445	3218.88
299.675	3316.88
299.905	3334.88
300.136	3286.88
300.366	3278.88
300.597	3379.88
300.827	3441.88
301.057	3439.88
301.288	3541.88
301.518	3489.88
301.748	3514.88
301.979	3644.88
302.209	3586.88
302.439	3597.88
302.669	3497.88
302.9	3457.88
303.13	3515.88
303.36	3573.88
303.59	3597.88
303.82	3624.88
304.051	3567.88
304.281	3492.88
304.511	3467.88
304.741	3470.88
304.971	3472.88
305.201	3403.88
305.431	3473.88
305.661	3431.88
305.891	3411.88
306.121	3477.88
306.352	3510.88
306.582	3498.88
306.812	3399.88
307.042	3510.88
307.272	3626.88
307.502	3714.88
307.731	3607.88
307.961	3485.88
308.191	3465.88
308.421	3475.88
308.651	3472.88
308.881	3509.88
309.111	3573.88
309.341	3574.88
309.571	3625.88
309.8	3710.88
310.03	3814.88
310.26	3879.88
310.49	3781.88
310.72	3951.88
310.949	4004.88
311.179	3944.88
311.409	3855.88
311.639	3841.88
311.868	3857.88
312.098	3881.88
312.328	3958.88
312.557	4150.88
312.787	4297.88
313.017	4100.88
313.246	4025.88
313.476	3910.88
313.706	3974.88
313.935	4043.88
314.165	4161.88
314.394	4185.88
314.624	4145.88
314.853	4026.88
315.083	3982.88
315.312	3926.88
315.542	3909.88
315.771	3847.88
316.001	3897.88
316.23	3825.88
316.46	3940.88
316.689	3968.88
316.919	3996.88
317.148	3995.88
317.377	3979.88
317.607	3982.88
317.836	3986.88
318.065	3936.88
318.295	3875.88
318.524	3875.88
318.753	3854.88
318.983	3875.88
319.212	3893.88
319.441	3971.88
319.67	3986.88
319.9	3902.88
320.129	3940.88
320.358	3970.88
320.587	3908.88
320.816	4048.88
321.046	4088.88
321.275	4084.88
321.504	4095.88
321.733	4153.88
321.962	4224.88
322.191	4263.88
322.42	4407.88
322.649	4422.88
322.878	4529.88
323.108	4751.88
323.337	4914.88
323.566	5109.88
323.795	5429.88
324.024	6014.88
324.253	7844.88
324.482	11680.88
324.71	15623.88
324.939	15623.88
325.168	13669.88
325.397	6982.88
325.626	5571.88
325.855	5285.88
326.084	5221.88
326.313	5262.88
326.542	5347.88
326.77	6107.88
326.999	7766.88
327.228	11209.88
327.457	15140.88
327.686	14659.88
327.914	8917.88
328.143	8120.88
328.372	8381.88
328.6	7175.88
328.829	6495.88
329.058	6685.88
329.287	6769.88
329.515	6569.88
329.744	7087.88
329.972	8510.88
330.201	10751.88
330.43	12096.88
330.658	9365.88
330.887	7829.88
331.115	6758.88
331.344	6046.88
331.572	5827.88
331.801	5849.88
332.03	5856.88
332.258	5711.88
332.486	5830.88
332.715	5963.88
332.943	6197.88
333.172	6434.88
333.4	6780.88
333.629	7294.88
333.857	8188.88
334.085	9697.88
334.314	12228.88
334.542	14481.88
334.771	13742.88
334.999	8925.88
335.227	7321.88
335.455	6537.88
335.684	6133.88
335.912	5844.88
336.14	5621.88
336.369	5605.88
336.597	5652.88
336.825	5483.88
337.053	5313.88
337.281	5198.88
337.51	5167.88
337.738	5172.88
337.966	5068.88
338.194	5059.88
338.422	4909.88
338.65	4875.88
338.878	4803.88
339.106	4880.88
339.334	4818.88
339.562	4798.88
339.79	4685.88
340.018	4723.88
340.246	4688.88
340.474	4690.88
340.702	4599.88
340.93	4659.88
341.158	4635.88
341.386	4655.88
341.614	4702.88
341.842	4606.88
342.07	4547.88
342.298	4547.88
342.526	4497.88
342.754	4453.88
342.981	4545.88
343.209	4587.88
343.437	4851.88
343.665	5029.88
343.893	5330.88
344.12	5333.88
344.348	5155.88
344.576	4986.88
344.804	4884.88
345.031	4932.88
345.259	4889.88
345.487	4629.88
345.714	4545.88
345.942	4447.88
346.17	4453.88
346.397	4460.88
346.625	4399.88
346.853	4371.88
347.08	4314.88
347.308	4435.88
347.535	4493.88
347.763	4540.88
347.99	4512.88
348.218	4501.88
348.445	4522.88
348.673	4475.88
348.9	4390.88
349.128	4290.88
349.355	4295.88
349.583	4290.88
349.81	4208.88
350.037	4226.88
350.265	4255.88
350.492	4247.88
350.72	4212.88
350.947	4290.88
351.174	4376.88
351.402	4375.88
351.629	4338.88
351.856	4389.88
352.083	4530.88
352.311	4428.88
352.538	4525.88
352.765	4441.88
352.992	4379.88
353.22	4319.88
353.447	4303.88
353.674	4228.88
353.901	4171.88
354.128	4119.88
354.355	4080.88
354.583	4180.88
354.81	4117.88
355.037	4126.88
355.264	4011.88
355.491	4064.88
355.718	4093.88
355.945	4139.88
356.172	4103.88
356.399	4063.88
356.626	4130.88
356.853	4129.88
357.08	4101.88
357.307	4075.88
357.534	4073.88
357.761	4066.88
357.988	4145.88
358.215	4086.88
358.441	4146.88
358.668	4113.88
358.895	4261.88
359.122	4175.88
359.349	4213.88
359.576	4429.88
359.802	4691.88
360.029	4914.88
360.256	4844.88
360.483	4623.88
360.709	4378.88
360.936	4369.88
361.163	4382.88
361.39	4469.88
361.616	4371.88
361.843	4349.88
362.07	4393.88
362.296	4457.88
362.523	4322.88
362.749	4403.88
362.976	4313.88
363.203	4281.88
363.429	4292.88
363.656	4291.88
363.882	4278.88
364.109	4182.88
364.335	4228.88
364.562	4238.88
364.788	4178.88
365.015	4269.88
365.241	4228.88
365.468	4293.88
365.694	4260.88
365.92	4349.88
366.147	4226.88
366.373	4214.88
366.599	4269.88
366.826	4209.88
367.052	4120.88
367.278	4236.88
367.505	4209.88
367.731	4266.88
367.957	4228.88
368.184	4298.88
368.41	4376.88
368.636	4466.88
368.862	4427.88
369.089	4340.88
369.315	4296.88
369.541	4284.88
369.767	4336.88
369.993	4327.88
370.219	4371.88
370.445	4389.88
370.672	4352.88
370.898	4423.88
371.124	4435.88
371.35	4518.88
371.576	4479.88
371.802	4381.88
372.028	4467.88
372.254	4395.88
372.48	4476.88
372.706	4529.88
372.932	4619.88
373.158	4578.88
373.384	4465.88
373.61	4486.88
373.835	4519.88
374.061	4492.88
374.287	4626.88
374.513	4673.88
374.739	4795.88
374.965	4895.88
375.191	4877.88
375.416	4809.88
375.642	4631.88
375.868	4681.88
376.094	4559.88
376.319	4532.88
376.545	4508.88
376.771	4459.88
376.997	4468.88
377.222	4461.88
377.448	4464.88
377.674	4460.88
377.899	4352.88
378.125	4418.88
378.35	4344.88
378.576	4333.88
378.802	4328.88
379.027	4434.88
379.253	4369.88
379.478	4380.88
379.704	4420.88
379.929	4373.88
380.155	4371.88
380.38	4446.88
380.606	4463.88
380.831	4422.88
381.057	4447.88
381.282	4457.88
381.507	4538.88
381.733	4537.88
381.958	4549.88
382.184	4568.88
382.409	4653.88
382.634	4725.88
382.86	4695.88
383.085	4728.88
383.31	4790.88
383.535	4842.88
383.761	4861.88
383.986	4965.88
384.211	5054.88
384.436	5172.88
384.662	5246.88
384.887	5302.88
385.112	5310.88
385.337	5359.88
385.562	5317.88
385.787	5421.88
386.013	5539.88
386.238	5544.88
386.463	5429.88
386.688	5399.88
386.913	5333.88
387.138	5343.88
387.363	5280.88
387.588	5234.88
387.813	5282.88
388.038	5312.88
388.263	5353.88
388.488	5424.88
388.713	5285.88
388.938	5233.88
389.163	5244.88
389.387	5174.88
389.612	5203.88
389.837	5183.88
390.062	5166.88
390.287	5261.88
390.512	5134.88
390.736	5296.88
390.961	5418.88
391.186	5451.88
391.411	5645.88
391.636	5737.88
391.86	5902.88
392.085	6029.88
392.31	5830.88
392.534	5761.88
392.759	5625.88
392.984	5509.88
393.208	5459.88
393.433	5474.88
393.658	5442.88
393.882	5432.88
394.107	5535.88
394.331	5588.88
394.556	5520.88
394.78	5555.88
395.005	5659.88
395.229	5768.88
395.454	5861.88
395.678	5983.88
395.903	5980.88
396.127	5948.88
396.352	5789.88
396.576	5654.88
396.801	5600.88
397.025	5643.88
397.249	5872.88
397.474	5913.88
397.698	5957.88
397.922	6128.88
398.147	6205.88
398.371	6331.88
398.595	6386.88
398.82	6730.88
399.044	7277.88
399.268	8082.88
399.492	9041.88
399.717	9710.88
399.941	9539.88
400.165	8991.88
400.389	8277.88
400.613	7485.88
400.837	7046.88
401.062	6901.88
401.286	6776.88
401.51	6722.88
401.734	6660.88
401.958	6866.88
402.182	6906.88
402.406	7085.88
402.63	7054.88
402.854	7223.88
403.078	7263.88
403.302	7392.88
403.526	7542.88
403.75	7581.88
403.974	7658.88
404.198	7641.88
404.422	7911.88
404.645	7944.88
404.869	8123.88
405.093	8774.88
405.317	9245.88
405.541	9124.88
405.765	8251.88
405.988	7954.88
406.212	7889.88
406.436	8047.88
406.66	8056.88
406.883	7962.88
407.107	8518.88
407.331	9165.88
407.555	9588.88
407.778	9247.88
408.002	8473.88
408.226	8189.88
408.449	8028.88
408.673	7836.88
408.896	8040.88
409.12	8161.88
409.344	7605.88
409.567	7344.88
409.791	7426.88
410.014	7258.88
410.238	7182.88
410.461	7252.88
410.685	7277.88
410.908	7355.88
411.132	7581.88
411.355	7581.88
411.578	7216.88
411.802	7140.88
412.025	7374.88
412.249	7844.88
412.472	8385.88
412.695	8991.88
412.919	8229.88
413.142	7668.88
413.365	7392.88
413.589	7178.88
413.812	6879.88
414.035	6775.88
414.258	6859.88
414.482	6810.88
414.705	6896.88
414.928	6722.88
415.151	6761.88
415.374	6678.88
415.597	6638.88
415.821	6605.88
416.044	6686.88
416.267	6503.88
416.49	6477.88
416.713	6574.88
416.936	6547.88
417.159	6573.88
417.382	6748.88
417.605	6859.88
417.828	7003.88
418.051	6913.88
418.274	6754.88
418.497	6729.88
418.72	6797.88
418.943	6767.88
419.166	7203.88
419.389	7571.88
419.611	7567.88
419.834	7537.88
420.057	7659.88
420.28	7886.88
420.503	7740.88
420.726	7459.88
420.948	7389.88
421.171	7604.88
421.394	7380.88
421.617	6892.88
421.839	6785.88
422.062	6926.88
422.285	7090.88
422.507	7708.88
422.73	8219.88
422.953	7491.88
423.175	7123.88
423.398	7229.88
423.621	7145.88
423.843	7435.88
424.066	7404.88
424.288	7132.88
424.511	7469.88
424.733	7919.88
424.956	8359.88
425.178	7910.88
425.401	8021.88
425.623	7922.88
425.846	6973.88
426.068	6793.88
426.291	6787.88
426.513	6706.88
426.735	6827.88
426.958	7408.88
427.18	8196.88
427.402	9410.88
427.625	9772.88
427.847	9021.88
428.069	8739.88
428.292	7282.88
428.514	6524.88
428.736	6262.88
428.958	6206.88
429.181	5965.88
429.403	6017.88
429.625	6117.88
429.847	6475.88
430.069	7092.88
430.292	6633.88
430.514	6031.88
430.736	6053.88
430.958	5911.88
431.18	5844.88
431.402	5785.88
431.624	5835.88
431.846	5866.88
432.068	5929.88
432.29	6023.88
432.512	5894.88
432.734	6009.88
432.956	5908.88
433.178	6029.88
433.4	5999.88
433.622	5939.88
433.844	5925.88
434.066	6004.88
434.287	6025.88
434.509	6235.88
434.731	6498.88
434.953	6668.88
435.175	6699.88
435.397	6870.88
435.618	6703.88
435.84	7190.88
436.062	8030.88
436.284	7913.88
436.505	6685.88
436.727	6422.88
436.949	6188.88
437.17	5958.88
437.392	5956.88
437.614	6222.88
437.835	6527.88
438.057	7592.88
438.278	8088.88
438.5	7922.88
438.721	8800.88
438.943	7697.88
439.165	6518.88
439.386	6331.88
439.608	6469.88
439.829	6603.88
440.05	6962.88
440.272	7403.88
440.493	6639.88
440.715	6387.88
440.936	6270.88
441.158	6326.88
441.379	6445.88
441.6	6790.88
441.822	7009.88
442.043	7457.88
442.264	8282.88
442.486	7939.88
442.707	7031.88
442.928	6893.88
443.149	7143.88
443.371	7392.88
443.592	7785.88
443.813	8886.88
444.034	8684.88
444.255	7663.88
444.476	7466.88
444.698	7569.88
444.919	7708.88
445.14	7531.88
445.361	7528.88
445.582	7722.88
445.803	8433.88
446.024	9105.88
446.245	8653.88
446.466	7686.88
446.687	6587.88
446.908	6145.88
447.129	5924.88
447.35	5812.88
447.571	5879.88
447.792	5698.88
448.013	5705.88
448.234	5997.88
448.455	6716.88
448.675	7883.88
448.896	8317.88
449.117	6871.88
449.338	7073.88
449.559	8464.88
449.779	8551.88
450	6560.88
450.221	5879.88
450.442	5654.88
450.662	5681.88
450.883	5756.88
451.104	5878.88
451.324	5700.88
451.545	5492.88
451.766	5436.88
451.986	5201.88
452.207	5207.88
452.428	5207.88
452.648	5254.88
452.869	5284.88
453.089	5298.88
453.31	5472.88
453.53	5262.88
453.751	5195.88
453.971	5279.88
454.192	5438.88
454.412	5149.88
454.633	5139.88
454.853	5089.88
455.073	5098.88
455.294	5463.88
455.514	6052.88
455.734	5537.88
455.955	4962.88
456.175	4867.88
456.395	4882.88
456.616	4753.88
456.836	4776.88
457.056	4769.88
457.276	4771.88
457.497	4976.88
457.717	4925.88
457.937	4980.88
458.157	5092.88
458.377	5110.88
458.598	5582.88
458.818	6278.88
459.038	7141.88
459.258	7055.88
459.478	6160.88
459.698	6055.88
459.918	6091.88
460.138	6183.88
460.358	6331.88
460.578	6532.88
460.798	6562.88
461.018	6561.88
461.238	6420.88
461.458	6425.88
461.678	6383.88
461.898	6494.88
462.118	6517.88
462.338	6878.88
462.558	7010.88
462.777	7265.88
462.997	7986.88
463.217	8247.88
463.437	8109.88
463.657	7489.88
463.876	7307.88
464.096	7415.88
464.316	7365.88
464.536	7451.88
464.755	7201.88
464.975	7169.88
465.195	7421.88
465.414	7562.88
465.634	6547.88
465.854	6163.88
466.073	5869.88
466.293	5721.88
466.512	5598.88
466.732	5475.88
466.951	5493.88
467.171	5454.88
467.391	5657.88
467.61	5641.88
467.829	5900.88
468.049	6415.88
468.268	7092.88
468.488	6010.88
468.707	5586.88
468.927	5451.88
469.146	5385.88
469.365	5395.88
469.585	5355.88
469.804	5611.88
470.023	5714.88
470.243	5726.88
470.462	5810.88
470.681	6031.88
470.901	5906.88
471.12	5730.88
471.339	5699.88
471.558	5779.88
471.777	5794.88
471.997	6065.88
472.216	7875.88
472.435	11327.88
472.654	8444.88
472.873	6648.88
473.092	6077.88
473.311	5841.88
473.53	5793.88
473.749	5712.88
473.968	6181.88
474.187	7152.88
474.406	6665.88
474.625	5756.88
474.844	5399.88
475.063	5430.88
475.282	5459.88
475.501	5463.88
475.72	5490.88
475.939	5481.88
476.158	5478.88
476.377	5456.88
476.596	5485.88
476.814	5651.88
477.033	5777.88
477.252	5787.88
477.471	5897.88
477.69	5943.88
477.908	6082.88
478.127	6255.88
478.346	6325.88
478.564	6376.88
478.783	6551.88
479.002	6698.88
479.22	6720.88
479.439	6883.88
479.658	6981.88
479.876	7065.88
480.095	7302.88
480.313	7720.88
480.532	7794.88
480.751	8155.88
480.969	9933.88
481.188	14813.88
481.406	14772.88
481.624	10311.88
481.843	8597.88
482.061	7845.88
482.28	7289.88
482.498	7034.88
482.717	6834.88
482.935	6829.88
483.153	6618.88
483.372	6569.88
483.59	6471.88
483.808	6475.88
484.027	6395.88
484.245	6447.88
484.463	6545.88
484.681	6593.88
484.9	6609.88
485.118	6650.88
485.336	6624.88
485.554	6796.88
485.772	6737.88
485.99	6749.88
486.209	6932.88
486.427	6852.88
486.645	6886.88
486.863	7124.88
487.081	6997.88
487.299	6928.88
487.517	6833.88
487.735	6863.88
