Data from Circ_1990_H10_HRD10591_00093.txt Node
Date: Wed Jan 03 11:55:22 EST 2024
User: Yrep
Spectrometer: HR+D1059
Trigger mode: 1
Integration Time (sec): 1.000000E-1
Scans to average: 1
Electric dark correction enabled: true
Nonlinearity correction enabled: false
Boxcar width: 0
XAxis mode: Wavelengths
Number of Pixels in Spectrum: 2048
>>>>>Begin Spectral Data<<<<<
223.165	-22.31
223.4	-22.31
223.635	-22.31
223.869	-27.31
224.104	-20.31
224.338	-17.31
224.573	-19.31
224.808	-8.31
225.042	-15.31
225.277	1.69
225.511	18.69
225.746	14.69
225.98	2.69
226.215	15.69
226.449	9.69
226.683	19.69
226.918	26.69
227.152	20.69
227.387	27.69
227.621	37.69
227.856	48.69
228.09	35.69
228.324	48.69
228.559	49.69
228.793	57.69
229.027	60.69
229.262	69.69
229.496	69.69
229.73	89.69
229.964	76.69
230.199	83.69
230.433	77.69
230.667	70.69
230.901	93.69
231.136	82.69
231.37	80.69
231.604	80.69
231.838	86.69
232.072	70.69
232.306	68.69
232.541	85.69
232.775	78.69
233.009	79.69
233.243	80.69
233.477	95.69
233.711	75.69
233.945	76.69
234.179	89.69
234.413	83.69
234.647	86.69
234.881	90.69
235.115	89.69
235.349	88.69
235.583	63.69
235.817	72.69
236.051	72.69
236.285	76.69
236.519	82.69
236.753	77.69
236.987	79.69
237.221	78.69
237.455	71.69
237.689	83.69
237.922	66.69
238.156	79.69
238.39	80.69
238.624	77.69
238.858	65.69
239.091	86.69
239.325	55.69
239.559	82.69
239.793	75.69
240.027	77.69
240.26	71.69
240.494	67.69
240.728	84.69
240.961	68.69
241.195	82.69
241.429	79.69
241.662	85.69
241.896	81.69
242.13	86.69
242.363	78.69
242.597	63.69
242.83	92.69
243.064	85.69
243.298	74.69
243.531	77.69
243.765	76.69
243.998	71.69
244.232	81.69
244.465	86.69
244.699	65.69
244.932	85.69
245.166	90.69
245.399	75.69
245.633	75.69
245.866	68.69
246.099	81.69
246.333	97.69
246.566	68.69
246.8	74.69
247.033	84.69
247.266	83.69
247.5	89.69
247.733	73.69
247.966	78.69
248.2	65.69
248.433	90.69
248.666	80.69
248.899	79.69
249.133	78.69
249.366	102.69
249.599	89.69
249.832	79.69
250.066	69.69
250.299	76.69
250.532	89.69
250.765	79.69
250.998	73.69
251.231	77.69
251.465	59.69
251.698	73.69
251.931	83.69
252.164	92.69
252.397	72.69
252.63	81.69
252.863	73.69
253.096	89.69
253.329	85.69
253.562	90.69
253.795	94.69
254.028	81.69
254.261	73.69
254.494	86.69
254.727	81.69
254.96	74.69
255.193	78.69
255.426	94.69
255.659	98.69
255.892	78.69
256.124	75.69
256.357	74.69
256.59	67.69
256.823	73.69
257.056	76.69
257.289	85.69
257.521	84.69
257.754	81.69
257.987	96.69
258.22	78.69
258.452	82.69
258.685	84.69
258.918	89.69
259.151	87.69
259.383	77.69
259.616	74.69
259.849	86.69
260.081	64.69
260.314	97.69
260.547	64.69
260.779	81.69
261.012	86.69
261.244	80.69
261.477	81.69
261.71	91.69
261.942	105.69
262.175	101.69
262.407	91.69
262.64	96.69
262.872	74.69
263.105	66.69
263.337	77.69
263.57	79.69
263.802	87.69
264.035	82.69
264.267	89.69
264.499	81.69
264.732	83.69
264.964	87.69
265.197	78.69
265.429	87.69
265.661	82.69
265.894	92.69
266.126	76.69
266.358	74.69
266.591	87.69
266.823	79.69
267.055	78.69
267.287	80.69
267.52	83.69
267.752	78.69
267.984	89.69
268.216	79.69
268.448	84.69
268.681	89.69
268.913	81.69
269.145	91.69
269.377	86.69
269.609	69.69
269.841	86.69
270.073	85.69
270.306	82.69
270.538	83.69
270.77	92.69
271.002	79.69
271.234	81.69
271.466	74.69
271.698	86.69
271.93	81.69
272.162	100.69
272.394	89.69
272.626	79.69
272.858	84.69
273.09	92.69
273.322	91.69
273.553	73.69
273.785	93.69
274.017	82.69
274.249	80.69
274.481	79.69
274.713	85.69
274.945	91.69
275.176	74.69
275.408	90.69
275.64	103.69
275.872	93.69
276.104	86.69
276.335	85.69
276.567	82.69
276.799	95.69
277.031	109.69
277.262	104.69
277.494	107.69
277.726	88.69
277.957	92.69
278.189	77.69
278.421	84.69
278.652	89.69
278.884	89.69
279.115	74.69
279.347	81.69
279.579	83.69
279.81	110.69
280.042	103.69
280.273	132.69
280.505	117.69
280.736	91.69
280.968	93.69
281.199	73.69
281.431	101.69
281.662	86.69
281.894	97.69
282.125	100.69
282.356	98.69
282.588	126.69
282.819	107.69
283.051	84.69
283.282	82.69
283.513	81.69
283.745	80.69
283.976	86.69
284.207	92.69
284.439	78.69
284.67	82.69
284.901	79.69
285.132	69.69
285.364	91.69
285.595	96.69
285.826	84.69
286.057	84.69
286.288	94.69
286.52	113.69
286.751	91.69
286.982	86.69
287.213	93.69
287.444	84.69
287.675	85.69
287.906	86.69
288.138	80.69
288.369	92.69
288.6	94.69
288.831	84.69
289.062	85.69
289.293	87.69
289.524	93.69
289.755	79.69
289.986	93.69
290.217	86.69
290.448	91.69
290.679	84.69
290.91	81.69
291.141	73.69
291.371	81.69
291.602	84.69
291.833	75.69
292.064	93.69
292.295	93.69
292.526	79.69
292.757	70.69
292.987	73.69
293.218	85.69
293.449	86.69
293.68	84.69
293.91	98.69
294.141	91.69
294.372	94.69
294.603	81.69
294.833	64.69
295.064	82.69
295.295	95.69
295.525	102.69
295.756	87.69
295.987	111.69
296.217	121.69
296.448	91.69
296.679	99.69
296.909	87.69
297.14	86.69
297.37	95.69
297.601	90.69
297.831	92.69
298.062	102.69
298.292	93.69
298.523	84.69
298.753	92.69
298.984	84.69
299.214	90.69
299.445	97.69
299.675	94.69
299.905	89.69
300.136	96.69
300.366	100.69
300.597	91.69
300.827	89.69
301.057	81.69
301.288	100.69
301.518	82.69
301.748	78.69
301.979	92.69
302.209	88.69
302.439	98.69
302.669	86.69
302.9	63.69
303.13	84.69
303.36	102.69
303.59	109.69
303.82	101.69
304.051	100.69
304.281	76.69
304.511	81.69
304.741	79.69
304.971	73.69
305.201	93.69
305.431	73.69
305.661	81.69
305.891	89.69
306.121	89.69
306.352	97.69
306.582	99.69
306.812	92.69
307.042	97.69
307.272	118.69
307.502	109.69
307.731	103.69
307.961	94.69
308.191	95.69
308.421	90.69
308.651	68.69
308.881	79.69
309.111	87.69
309.341	99.69
309.571	87.69
309.8	103.69
310.03	99.69
310.26	94.69
310.49	98.69
310.72	86.69
310.949	96.69
311.179	102.69
311.409	89.69
311.639	92.69
311.868	102.69
312.098	99.69
312.328	97.69
312.557	97.69
312.787	97.69
313.017	108.69
313.246	100.69
313.476	79.69
313.706	90.69
313.935	75.69
314.165	86.69
314.394	102.69
314.624	90.69
314.853	94.69
315.083	91.69
315.312	103.69
315.542	106.69
315.771	85.69
316.001	104.69
316.23	87.69
316.46	95.69
316.689	86.69
316.919	92.69
317.148	83.69
317.377	76.69
317.607	82.69
317.836	93.69
318.065	97.69
318.295	84.69
318.524	92.69
318.753	92.69
318.983	85.69
319.212	114.69
319.441	99.69
319.67	94.69
319.9	92.69
320.129	88.69
320.358	89.69
320.587	94.69
320.816	89.69
321.046	85.69
321.275	91.69
321.504	85.69
321.733	97.69
321.962	97.69
322.191	95.69
322.42	97.69
322.649	93.69
322.878	114.69
323.108	124.69
323.337	133.69
323.566	116.69
323.795	147.69
324.024	193.69
324.253	348.69
324.482	715.69
324.71	1433.69
324.939	1906.69
325.168	707.69
325.397	227.69
325.626	136.69
325.855	130.69
326.084	132.69
326.313	119.69
326.542	131.69
326.77	213.69
326.999	370.69
327.228	783.69
327.457	1457.69
327.686	1197.69
327.914	367.69
328.143	248.69
328.372	273.69
328.6	206.69
328.829	124.69
329.058	116.69
329.287	138.69
329.515	111.69
329.744	143.69
329.972	217.69
330.201	336.69
330.43	465.69
330.658	237.69
330.887	155.69
331.115	127.69
331.344	101.69
331.572	107.69
331.801	105.69
332.03	86.69
332.258	100.69
332.486	95.69
332.715	101.69
332.943	81.69
333.172	86.69
333.4	114.69
333.629	104.69
333.857	155.69
334.085	203.69
334.314	335.69
334.542	610.69
334.771	560.69
334.999	190.69
335.227	117.69
335.455	96.69
335.684	94.69
335.912	111.69
336.14	96.69
336.369	105.69
336.597	96.69
336.825	99.69
337.053	85.69
337.281	86.69
337.51	82.69
337.738	83.69
337.966	100.69
338.194	96.69
338.422	89.69
338.65	86.69
338.878	87.69
339.106	82.69
339.334	94.69
339.562	79.69
339.79	90.69
340.018	100.69
340.246	82.69
340.474	91.69
340.702	91.69
340.93	123.69
341.158	101.69
341.386	92.69
341.614	92.69
341.842	92.69
342.07	78.69
342.298	93.69
342.526	95.69
342.754	77.69
342.981	86.69
343.209	86.69
343.437	100.69
343.665	103.69
343.893	108.69
344.12	84.69
344.348	89.69
344.576	84.69
344.804	81.69
345.031	90.69
345.259	93.69
345.487	90.69
345.714	89.69
345.942	98.69
346.17	84.69
346.397	102.69
346.625	99.69
346.853	86.69
347.08	90.69
347.308	85.69
347.535	88.69
347.763	99.69
347.99	83.69
348.218	103.69
348.445	112.69
348.673	88.69
348.9	83.69
349.128	96.69
349.355	84.69
349.583	103.69
349.81	98.69
350.037	75.69
350.265	89.69
350.492	92.69
350.72	93.69
350.947	103.69
351.174	98.69
351.402	99.69
351.629	94.69
351.856	95.69
352.083	98.69
352.311	94.69
352.538	106.69
352.765	103.69
352.992	103.69
353.22	78.69
353.447	109.69
353.674	104.69
353.901	102.69
354.128	100.69
354.355	94.69
354.583	89.69
354.81	87.69
355.037	94.69
355.264	97.69
355.491	93.69
355.718	95.69
355.945	90.69
356.172	114.69
356.399	92.69
356.626	99.69
356.853	87.69
357.08	90.69
357.307	86.69
357.534	96.69
357.761	92.69
357.988	98.69
358.215	98.69
358.441	99.69
358.668	89.69
358.895	79.69
359.122	102.69
359.349	78.69
359.576	93.69
359.802	95.69
360.029	99.69
360.256	109.69
360.483	98.69
360.709	85.69
360.936	77.69
361.163	79.69
361.39	93.69
361.616	96.69
361.843	101.69
362.07	92.69
362.296	93.69
362.523	103.69
362.749	83.69
362.976	103.69
363.203	87.69
363.429	95.69
363.656	91.69
363.882	86.69
364.109	93.69
364.335	71.69
364.562	93.69
364.788	101.69
365.015	87.69
365.241	98.69
365.468	103.69
365.694	84.69
365.92	89.69
366.147	82.69
366.373	89.69
366.599	85.69
366.826	80.69
367.052	93.69
367.278	97.69
367.505	77.69
367.731	92.69
367.957	88.69
368.184	92.69
368.41	111.69
368.636	99.69
368.862	110.69
369.089	98.69
369.315	79.69
369.541	95.69
369.767	93.69
369.993	90.69
370.219	90.69
370.445	91.69
370.672	91.69
370.898	92.69
371.124	81.69
371.35	82.69
371.576	79.69
371.802	81.69
372.028	79.69
372.254	93.69
372.48	90.69
372.706	95.69
372.932	95.69
373.158	90.69
373.384	91.69
373.61	87.69
373.835	104.69
374.061	94.69
374.287	79.69
374.513	82.69
374.739	86.69
374.965	82.69
375.191	95.69
375.416	77.69
375.642	95.69
375.868	94.69
376.094	82.69
376.319	93.69
376.545	81.69
376.771	95.69
376.997	96.69
377.222	89.69
377.448	88.69
377.674	78.69
377.899	79.69
378.125	91.69
378.35	88.69
378.576	85.69
378.802	75.69
379.027	79.69
379.253	103.69
379.478	92.69
379.704	90.69
379.929	94.69
380.155	94.69
380.38	96.69
380.606	89.69
380.831	85.69
381.057	95.69
381.282	95.69
381.507	87.69
381.733	97.69
381.958	84.69
382.184	84.69
382.409	112.69
382.634	102.69
382.86	110.69
383.085	97.69
383.31	96.69
383.535	98.69
383.761	112.69
383.986	116.69
384.211	96.69
384.436	94.69
384.662	96.69
384.887	103.69
385.112	91.69
385.337	100.69
385.562	110.69
385.787	99.69
386.013	104.69
386.238	111.69
386.463	113.69
386.688	114.69
386.913	98.69
387.138	107.69
387.363	100.69
387.588	95.69
387.813	103.69
388.038	106.69
388.263	116.69
388.488	106.69
388.713	93.69
388.938	98.69
389.163	92.69
389.387	99.69
389.612	98.69
389.837	89.69
390.062	82.69
390.287	89.69
390.512	85.69
390.736	77.69
390.961	103.69
391.186	89.69
391.411	90.69
391.636	93.69
391.86	83.69
392.085	99.69
392.31	82.69
392.534	83.69
392.759	86.69
392.984	80.69
393.208	74.69
393.433	91.69
393.658	79.69
393.882	93.69
394.107	89.69
394.331	86.69
394.556	89.69
394.78	84.69
395.005	83.69
395.229	84.69
395.454	77.69
395.678	83.69
395.903	86.69
396.127	86.69
396.352	83.69
396.576	94.69
396.801	78.69
397.025	76.69
397.249	98.69
397.474	77.69
397.698	93.69
397.922	86.69
398.147	75.69
398.371	83.69
398.595	94.69
398.82	80.69
399.044	87.69
399.268	89.69
399.492	78.69
399.717	91.69
399.941	97.69
400.165	90.69
400.389	93.69
400.613	94.69
400.837	101.69
401.062	92.69
401.286	86.69
401.51	87.69
401.734	84.69
401.958	99.69
402.182	114.69
402.406	134.69
402.63	118.69
402.854	86.69
403.078	76.69
403.302	73.69
403.526	89.69
403.75	98.69
403.974	75.69
404.198	96.69
404.422	77.69
404.645	80.69
404.869	95.69
405.093	82.69
405.317	107.69
405.541	107.69
405.765	98.69
405.988	108.69
406.212	157.69
406.436	191.69
406.66	134.69
406.883	82.69
407.107	92.69
407.331	85.69
407.555	81.69
407.778	97.69
408.002	82.69
408.226	93.69
408.449	85.69
408.673	94.69
408.896	99.69
409.12	81.69
409.344	107.69
409.567	89.69
409.791	74.69
410.014	84.69
410.238	94.69
410.461	85.69
410.685	100.69
410.908	90.69
411.132	101.69
411.355	102.69
411.578	92.69
411.802	85.69
412.025	101.69
412.249	95.69
412.472	93.69
412.695	109.69
412.919	99.69
413.142	85.69
413.365	81.69
413.589	97.69
413.812	87.69
414.035	88.69
414.258	77.69
414.482	80.69
414.705	78.69
414.928	82.69
415.151	82.69
415.374	81.69
415.597	91.69
415.821	94.69
416.044	88.69
416.267	99.69
416.49	71.69
416.713	82.69
416.936	92.69
417.159	96.69
417.382	85.69
417.605	99.69
417.828	98.69
418.051	89.69
418.274	90.69
418.497	85.69
418.72	85.69
418.943	83.69
419.166	80.69
419.389	89.69
419.611	79.69
419.834	97.69
420.057	87.69
420.28	79.69
420.503	95.69
420.726	75.69
420.948	92.69
421.171	85.69
421.394	86.69
421.617	93.69
421.839	88.69
422.062	88.69
422.285	100.69
422.507	106.69
422.73	99.69
422.953	109.69
423.175	88.69
423.398	86.69
423.621	85.69
423.843	66.69
424.066	83.69
424.288	69.69
424.511	79.69
424.733	82.69
424.956	102.69
425.178	86.69
425.401	95.69
425.623	84.69
425.846	77.69
426.068	93.69
426.291	98.69
426.513	71.69
426.735	78.69
426.958	83.69
427.18	85.69
427.402	124.69
427.625	153.69
427.847	142.69
428.069	142.69
428.292	98.69
428.514	85.69
428.736	86.69
428.958	93.69
429.181	99.69
429.403	73.69
429.625	96.69
429.847	82.69
430.069	82.69
430.292	87.69
430.514	86.69
430.736	80.69
430.958	76.69
431.18	86.69
431.402	98.69
431.624	90.69
431.846	90.69
432.068	77.69
432.29	73.69
432.512	100.69
432.734	95.69
432.956	96.69
433.178	99.69
433.4	76.69
433.622	93.69
433.844	95.69
434.066	82.69
434.287	89.69
434.509	75.69
434.731	89.69
434.953	94.69
435.175	86.69
435.397	89.69
435.618	84.69
435.84	90.69
436.062	115.69
436.284	114.69
436.505	97.69
436.727	96.69
436.949	94.69
437.17	68.69
437.392	87.69
437.614	71.69
437.835	90.69
438.057	114.69
438.278	99.69
438.5	102.69
438.721	112.69
438.943	101.69
439.165	88.69
439.386	84.69
439.608	86.69
439.829	95.69
440.05	116.69
440.272	132.69
440.493	85.69
440.715	88.69
440.936	83.69
441.158	83.69
441.379	82.69
441.6	92.69
441.822	87.69
442.043	86.69
442.264	99.69
442.486	93.69
442.707	94.69
442.928	115.69
443.149	107.69
443.371	109.69
443.592	107.69
443.813	112.69
444.034	99.69
444.255	91.69
444.476	97.69
444.698	95.69
444.919	91.69
445.14	145.69
445.361	107.69
445.582	109.69
445.803	124.69
446.024	118.69
446.245	117.69
446.466	100.69
446.687	93.69
446.908	87.69
447.129	93.69
447.35	98.69
447.571	86.69
447.792	96.69
448.013	98.69
448.234	94.69
448.455	93.69
448.675	93.69
448.896	86.69
449.117	90.69
449.338	107.69
449.559	107.69
449.779	123.69
450	94.69
450.221	87.69
450.442	90.69
450.662	87.69
450.883	109.69
451.104	109.69
451.324	89.69
451.545	100.69
451.766	83.69
451.986	84.69
452.207	88.69
452.428	94.69
452.648	103.69
452.869	98.69
453.089	108.69
453.31	103.69
453.53	94.69
453.751	89.69
453.971	95.69
454.192	100.69
454.412	86.69
454.633	79.69
454.853	78.69
455.073	79.69
455.294	90.69
455.514	86.69
455.734	87.69
455.955	73.69
456.175	74.69
456.395	77.69
456.616	84.69
456.836	81.69
457.056	85.69
457.276	93.69
457.497	99.69
457.717	89.69
457.937	82.69
458.157	93.69
458.377	95.69
458.598	86.69
458.818	132.69
459.038	132.69
459.258	107.69
459.478	85.69
459.698	89.69
459.918	94.69
460.138	83.69
460.358	82.69
460.578	90.69
460.798	103.69
461.018	83.69
461.238	62.69
461.458	68.69
461.678	74.69
461.898	89.69
462.118	76.69
462.338	85.69
462.558	93.69
462.777	88.69
462.997	87.69
463.217	86.69
463.437	104.69
463.657	84.69
463.876	96.69
464.096	101.69
464.316	81.69
464.536	82.69
464.755	88.69
464.975	94.69
465.195	155.69
465.414	137.69
465.634	90.69
465.854	90.69
466.073	87.69
466.293	82.69
466.512	101.69
466.732	77.69
466.951	76.69
467.171	89.69
467.391	91.69
467.61	95.69
467.829	121.69
468.049	223.69
468.268	302.69
468.488	121.69
468.707	78.69
468.927	92.69
469.146	87.69
469.365	106.69
469.585	83.69
469.804	99.69
470.023	106.69
470.243	94.69
470.462	103.69
470.681	93.69
470.901	65.69
471.12	94.69
471.339	86.69
471.558	98.69
471.777	95.69
471.997	147.69
472.216	407.69
472.435	825.69
472.654	231.69
472.873	118.69
473.092	90.69
473.311	79.69
473.53	96.69
473.749	91.69
473.968	102.69
474.187	93.69
474.406	79.69
474.625	97.69
474.844	75.69
475.063	78.69
475.282	92.69
475.501	105.69
475.72	94.69
475.939	82.69
476.158	90.69
476.377	84.69
476.596	90.69
476.814	79.69
477.033	96.69
477.252	85.69
477.471	96.69
477.69	86.69
477.908	87.69
478.127	94.69
478.346	89.69
478.564	89.69
478.783	101.69
479.002	106.69
479.22	100.69
479.439	112.69
479.658	98.69
479.876	101.69
480.095	82.69
480.313	105.69
480.532	98.69
480.751	146.69
480.969	395.69
481.188	1428.69
481.406	844.69
481.624	177.69
481.843	108.69
482.061	95.69
482.28	85.69
482.498	89.69
482.717	100.69
482.935	97.69
483.153	100.69
483.372	96.69
483.59	99.69
483.808	90.69
484.027	90.69
484.245	68.69
484.463	86.69
484.681	98.69
484.9	101.69
485.118	98.69
485.336	110.69
485.554	91.69
485.772	114.69
485.99	102.69
486.209	105.69
486.427	99.69
486.645	104.69
486.863	111.69
487.081	118.69
487.299	90.69
487.517	103.69
487.735	80.69
487.953	94.69
488.171	101.69
488.389	85.69
488.607	91.69
488.825	111.69
489.043	92.69
489.261	89.69
489.479	74.69
489.696	86.69
489.914	86.69
490.132	88.69
490.35	91.69
490.568	92.69
490.786	90.69
491.003	84.69
491.221	94.69
491.439	97.69
491.657	91.69
491.874	89.69
492.092	95.69
492.31	116.69
492.527	106.69
492.745	89.69
492.963	96.69
493.18	106.69
493.398	89.69
493.615	89.69
493.833	70.69
494.05	70.69
494.268	90.69
494.485	97.69
494.703	89.69
494.92	83.69
495.138	79.69
495.355	89.69
495.573	84.69
495.79	81.69
496.008	97.69
496.225	102.69
496.442	100.69
496.66	89.69
496.877	79.69
497.094	98.69
497.312	83.69
497.529	82.69
497.746	80.69
497.963	87.69
498.181	93.69
498.398	93.69
498.615	97.69
498.832	102.69
499.049	93.69
499.267	97.69
499.484	87.69
499.701	112.69
499.918	108.69
500.135	77.69
500.352	69.69
500.569	86.69
500.786	97.69
501.003	87.69
501.22	85.69
501.437	75.69
501.654	96.69
501.871	106.69
502.088	99.69
502.305	89.69
502.522	92.69
502.739	86.69
502.956	90.69
503.172	78.69
503.389	114.69
503.606	101.69
503.823	101.69
504.04	91.69
504.256	98.69
504.473	98.69
504.69	78.69
504.907	102.69
505.123	95.69
505.34	65.69
505.557	97.69
505.773	83.69
505.99	93.69
506.207	99.69
506.423	100.69
506.64	81.69
506.856	75.69
507.073	92.69
507.289	77.69
507.506	101.69
507.722	99.69
507.939	98.69
508.155	86.69
508.372	92.69
508.588	104.69
508.805	100.69
509.021	111.69
509.238	90.69
509.454	87.69
509.67	105.69
509.887	111.69
510.103	108.69
510.319	176.69
510.536	589.69
510.752	1785.69
510.968	523.69
511.184	132.69
511.401	105.69
511.617	109.69
511.833	95.69
512.049	98.69
512.265	107.69
512.481	90.69
512.698	84.69
512.914	95.69
513.13	85.69
513.346	87.69
513.562	96.69
513.778	87.69
513.994	96.69
514.21	95.69
514.426	115.69
514.642	114.69
514.858	116.69
515.074	148.69
515.29	368.69
515.506	1191.69
515.721	454.69
515.937	137.69
