Data from Circ_1990_H10_HRD10591_00033.txt Node
Date: Wed Jan 03 11:55:10 EST 2024
User: Yrep
Spectrometer: HR+D1059
Trigger mode: 1
Integration Time (sec): 1.000000E-1
Scans to average: 1
Electric dark correction enabled: true
Nonlinearity correction enabled: false
Boxcar width: 0
XAxis mode: Wavelengths
Number of Pixels in Spectrum: 2048
>>>>>Begin Spectral Data<<<<<
223.165	-27.31
223.4	-27.31
223.635	-27.31
223.869	-11.31
224.104	-16.31
224.338	-21.31
224.573	-8.31
224.808	-15.31
225.042	-10.31
225.277	-20.31
225.511	-5.31
225.746	25.69
225.98	-0.31
226.215	22.69
226.449	20.69
226.683	20.69
226.918	21.69
227.152	24.69
227.387	38.69
227.621	35.69
227.856	48.69
228.09	53.69
228.324	66.69
228.559	59.69
228.793	45.69
229.027	66.69
229.262	57.69
229.496	64.69
229.73	75.69
229.964	79.69
230.199	69.69
230.433	78.69
230.667	87.69
230.901	78.69
231.136	67.69
231.37	93.69
231.604	72.69
231.838	69.69
232.072	69.69
232.306	90.69
232.541	95.69
232.775	87.69
233.009	74.69
233.243	90.69
233.477	64.69
233.711	76.69
233.945	82.69
234.179	79.69
234.413	97.69
234.647	94.69
234.881	60.69
235.115	82.69
235.349	88.69
235.583	79.69
235.817	80.69
236.051	89.69
236.285	85.69
236.519	89.69
236.753	83.69
236.987	81.69
237.221	69.69
237.455	76.69
237.689	86.69
237.922	85.69
238.156	82.69
238.39	75.69
238.624	69.69
238.858	78.69
239.091	80.69
239.325	68.69
239.559	78.69
239.793	85.69
240.027	92.69
240.26	80.69
240.494	72.69
240.728	74.69
240.961	74.69
241.195	66.69
241.429	70.69
241.662	75.69
241.896	67.69
242.13	68.69
242.363	73.69
242.597	70.69
242.83	74.69
243.064	68.69
243.298	82.69
243.531	78.69
243.765	82.69
243.998	79.69
244.232	92.69
244.465	84.69
244.699	79.69
244.932	78.69
245.166	84.69
245.399	79.69
245.633	80.69
245.866	77.69
246.099	87.69
246.333	87.69
246.566	77.69
246.8	90.69
247.033	94.69
247.266	79.69
247.5	71.69
247.733	83.69
247.966	95.69
248.2	86.69
248.433	83.69
248.666	83.69
248.899	77.69
249.133	70.69
249.366	93.69
249.599	93.69
249.832	88.69
250.066	84.69
250.299	79.69
250.532	80.69
250.765	76.69
250.998	78.69
251.231	67.69
251.465	79.69
251.698	82.69
251.931	83.69
252.164	81.69
252.397	83.69
252.63	78.69
252.863	91.69
253.096	81.69
253.329	80.69
253.562	74.69
253.795	84.69
254.028	71.69
254.261	80.69
254.494	86.69
254.727	97.69
254.96	79.69
255.193	82.69
255.426	80.69
255.659	85.69
255.892	86.69
256.124	87.69
256.357	74.69
256.59	79.69
256.823	75.69
257.056	71.69
257.289	86.69
257.521	91.69
257.754	63.69
257.987	76.69
258.22	82.69
258.452	79.69
258.685	87.69
258.918	85.69
259.151	81.69
259.383	80.69
259.616	80.69
259.849	59.69
260.081	76.69
260.314	96.69
260.547	86.69
260.779	63.69
261.012	68.69
261.244	78.69
261.477	99.69
261.71	80.69
261.942	110.69
262.175	104.69
262.407	81.69
262.64	84.69
262.872	106.69
263.105	96.69
263.337	86.69
263.57	86.69
263.802	94.69
264.035	75.69
264.267	80.69
264.499	82.69
264.732	86.69
264.964	67.69
265.197	74.69
265.429	67.69
265.661	82.69
265.894	80.69
266.126	84.69
266.358	95.69
266.591	84.69
266.823	67.69
267.055	79.69
267.287	68.69
267.52	80.69
267.752	82.69
267.984	89.69
268.216	89.69
268.448	81.69
268.681	86.69
268.913	84.69
269.145	85.69
269.377	84.69
269.609	85.69
269.841	80.69
270.073	90.69
270.306	80.69
270.538	79.69
270.77	101.69
271.002	77.69
271.234	98.69
271.466	82.69
271.698	74.69
271.93	81.69
272.162	79.69
272.394	101.69
272.626	100.69
272.858	91.69
273.09	94.69
273.322	68.69
273.553	90.69
273.785	70.69
274.017	76.69
274.249	72.69
274.481	75.69
274.713	78.69
274.945	95.69
275.176	87.69
275.408	89.69
275.64	78.69
275.872	94.69
276.104	74.69
276.335	84.69
276.567	100.69
276.799	111.69
277.031	116.69
277.262	91.69
277.494	86.69
277.726	78.69
277.957	78.69
278.189	90.69
278.421	90.69
278.652	91.69
278.884	94.69
279.115	83.69
279.347	82.69
279.579	83.69
279.81	85.69
280.042	85.69
280.273	107.69
280.505	104.69
280.736	87.69
280.968	79.69
281.199	94.69
281.431	94.69
281.662	88.69
281.894	81.69
282.125	98.69
282.356	101.69
282.588	131.69
282.819	111.69
283.051	82.69
283.282	91.69
283.513	82.69
283.745	88.69
283.976	86.69
284.207	89.69
284.439	92.69
284.67	93.69
284.901	93.69
285.132	86.69
285.364	95.69
285.595	85.69
285.826	76.69
286.057	80.69
286.288	74.69
286.52	98.69
286.751	75.69
286.982	78.69
287.213	98.69
287.444	87.69
287.675	88.69
287.906	80.69
288.138	94.69
288.369	90.69
288.6	87.69
288.831	76.69
289.062	99.69
289.293	88.69
289.524	82.69
289.755	85.69
289.986	76.69
290.217	89.69
290.448	90.69
290.679	82.69
290.91	94.69
291.141	86.69
291.371	75.69
291.602	101.69
291.833	88.69
292.064	91.69
292.295	87.69
292.526	82.69
292.757	87.69
292.987	88.69
293.218	81.69
293.449	86.69
293.68	84.69
293.91	86.69
294.141	83.69
294.372	82.69
294.603	87.69
294.833	87.69
295.064	93.69
295.295	86.69
295.525	77.69
295.756	98.69
295.987	110.69
296.217	127.69
296.448	120.69
296.679	80.69
296.909	80.69
297.14	92.69
297.37	98.69
297.601	84.69
297.831	90.69
298.062	88.69
298.292	92.69
298.523	82.69
298.753	93.69
298.984	97.69
299.214	82.69
299.445	82.69
299.675	82.69
299.905	88.69
300.136	95.69
300.366	90.69
300.597	95.69
300.827	98.69
301.057	109.69
301.288	90.69
301.518	92.69
301.748	89.69
301.979	112.69
302.209	100.69
302.439	88.69
302.669	92.69
302.9	85.69
303.13	94.69
303.36	94.69
303.59	109.69
303.82	84.69
304.051	79.69
304.281	81.69
304.511	91.69
304.741	91.69
304.971	78.69
305.201	92.69
305.431	95.69
305.661	89.69
305.891	90.69
306.121	95.69
306.352	99.69
306.582	86.69
306.812	102.69
307.042	97.69
307.272	107.69
307.502	98.69
307.731	98.69
307.961	106.69
308.191	84.69
308.421	91.69
308.651	88.69
308.881	102.69
309.111	88.69
309.341	95.69
309.571	102.69
309.8	94.69
310.03	96.69
310.26	94.69
310.49	85.69
310.72	91.69
310.949	101.69
311.179	113.69
311.409	100.69
311.639	83.69
311.868	110.69
312.098	105.69
312.328	86.69
312.557	91.69
312.787	102.69
313.017	103.69
313.246	79.69
313.476	102.69
313.706	96.69
313.935	77.69
314.165	103.69
314.394	84.69
314.624	95.69
314.853	96.69
315.083	94.69
315.312	98.69
315.542	89.69
315.771	91.69
316.001	82.69
316.23	89.69
316.46	98.69
316.689	97.69
316.919	93.69
317.148	110.69
317.377	85.69
317.607	90.69
317.836	93.69
318.065	86.69
318.295	94.69
318.524	88.69
318.753	98.69
318.983	86.69
319.212	93.69
319.441	91.69
319.67	106.69
319.9	102.69
320.129	81.69
320.358	93.69
320.587	93.69
320.816	77.69
321.046	88.69
321.275	98.69
321.504	97.69
321.733	108.69
321.962	94.69
322.191	84.69
322.42	96.69
322.649	104.69
322.878	111.69
323.108	120.69
323.337	106.69
323.566	115.69
323.795	126.69
324.024	173.69
324.253	315.69
324.482	664.69
324.71	1326.69
324.939	1800.69
325.168	654.69
325.397	199.69
325.626	119.69
325.855	125.69
326.084	126.69
326.313	132.69
326.542	146.69
326.77	206.69
326.999	379.69
327.228	732.69
327.457	1377.69
327.686	1074.69
327.914	315.69
328.143	204.69
328.372	189.69
328.6	144.69
328.829	133.69
329.058	120.69
329.287	116.69
329.515	125.69
329.744	114.69
329.972	162.69
330.201	209.69
330.43	276.69
330.658	183.69
330.887	127.69
331.115	109.69
331.344	107.69
331.572	103.69
331.801	70.69
332.03	90.69
332.258	80.69
332.486	80.69
332.715	92.69
332.943	92.69
333.172	104.69
333.4	90.69
333.629	110.69
333.857	138.69
334.085	144.69
334.314	222.69
334.542	329.69
334.771	316.69
334.999	152.69
335.227	111.69
335.455	93.69
335.684	102.69
335.912	83.69
336.14	86.69
336.369	102.69
336.597	91.69
336.825	82.69
337.053	108.69
337.281	102.69
337.51	94.69
337.738	74.69
337.966	98.69
338.194	98.69
338.422	86.69
338.65	100.69
338.878	100.69
339.106	87.69
339.334	92.69
339.562	91.69
339.79	76.69
340.018	87.69
340.246	86.69
340.474	102.69
340.702	93.69
340.93	93.69
341.158	95.69
341.386	95.69
341.614	90.69
341.842	94.69
342.07	89.69
342.298	97.69
342.526	92.69
342.754	67.69
342.981	82.69
343.209	86.69
343.437	100.69
343.665	85.69
343.893	97.69
344.12	89.69
344.348	94.69
344.576	97.69
344.804	92.69
345.031	104.69
345.259	115.69
345.487	98.69
345.714	92.69
345.942	94.69
346.17	95.69
346.397	92.69
346.625	99.69
346.853	86.69
347.08	89.69
347.308	80.69
347.535	85.69
347.763	79.69
347.99	77.69
348.218	95.69
348.445	100.69
348.673	84.69
348.9	86.69
349.128	99.69
349.355	91.69
349.583	90.69
349.81	101.69
350.037	88.69
350.265	89.69
350.492	84.69
350.72	72.69
350.947	103.69
351.174	106.69
351.402	109.69
351.629	114.69
351.856	110.69
352.083	102.69
352.311	98.69
352.538	112.69
352.765	98.69
352.992	116.69
353.22	119.69
353.447	114.69
353.674	102.69
353.901	107.69
354.128	102.69
354.355	93.69
354.583	103.69
354.81	100.69
355.037	110.69
355.264	108.69
355.491	102.69
355.718	90.69
355.945	85.69
356.172	92.69
356.399	110.69
356.626	84.69
356.853	81.69
357.08	107.69
357.307	111.69
357.534	104.69
357.761	93.69
357.988	86.69
358.215	97.69
358.441	111.69
358.668	86.69
358.895	106.69
359.122	108.69
359.349	87.69
359.576	92.69
359.802	101.69
360.029	121.69
360.256	99.69
360.483	90.69
360.709	97.69
360.936	88.69
361.163	93.69
361.39	92.69
361.616	96.69
361.843	87.69
362.07	83.69
362.296	100.69
362.523	84.69
362.749	94.69
362.976	98.69
363.203	86.69
363.429	74.69
363.656	84.69
363.882	88.69
364.109	94.69
364.335	86.69
364.562	84.69
364.788	86.69
365.015	110.69
365.241	97.69
365.468	104.69
365.694	97.69
365.92	80.69
366.147	86.69
366.373	83.69
366.599	79.69
366.826	96.69
367.052	80.69
367.278	88.69
367.505	86.69
367.731	97.69
367.957	99.69
368.184	84.69
368.41	84.69
368.636	104.69
368.862	101.69
369.089	117.69
369.315	90.69
369.541	94.69
369.767	98.69
369.993	91.69
370.219	81.69
370.445	97.69
370.672	93.69
370.898	98.69
371.124	78.69
371.35	85.69
371.576	90.69
371.802	84.69
372.028	71.69
372.254	85.69
372.48	82.69
372.706	90.69
372.932	92.69
373.158	86.69
373.384	76.69
373.61	100.69
373.835	93.69
374.061	90.69
374.287	92.69
374.513	89.69
374.739	98.69
374.965	92.69
375.191	90.69
375.416	97.69
375.642	94.69
375.868	103.69
376.094	85.69
376.319	95.69
376.545	96.69
376.771	79.69
376.997	90.69
377.222	92.69
377.448	87.69
377.674	94.69
377.899	94.69
378.125	90.69
378.35	106.69
378.576	96.69
378.802	95.69
379.027	102.69
379.253	102.69
379.478	91.69
379.704	94.69
379.929	95.69
380.155	86.69
380.38	91.69
380.606	100.69
380.831	104.69
381.057	102.69
381.282	96.69
381.507	94.69
381.733	93.69
381.958	100.69
382.184	108.69
382.409	102.69
382.634	114.69
382.86	108.69
383.085	125.69
383.31	106.69
383.535	108.69
383.761	121.69
383.986	117.69
384.211	107.69
384.436	118.69
384.662	107.69
384.887	103.69
385.112	133.69
385.337	119.69
385.562	115.69
385.787	125.69
386.013	140.69
386.238	144.69
386.463	133.69
386.688	135.69
386.913	125.69
387.138	119.69
387.363	126.69
387.588	109.69
387.813	107.69
388.038	116.69
388.263	135.69
388.488	144.69
388.713	106.69
388.938	93.69
389.163	93.69
389.387	97.69
389.612	94.69
389.837	95.69
390.062	99.69
390.287	100.69
390.512	89.69
390.736	99.69
390.961	86.69
391.186	74.69
391.411	102.69
391.636	99.69
391.86	109.69
392.085	97.69
392.31	91.69
392.534	93.69
392.759	89.69
392.984	93.69
393.208	93.69
393.433	96.69
393.658	95.69
393.882	86.69
394.107	103.69
394.331	90.69
394.556	79.69
394.78	88.69
395.005	85.69
395.229	88.69
395.454	76.69
395.678	93.69
395.903	91.69
396.127	80.69
396.352	87.69
396.576	81.69
396.801	97.69
397.025	107.69
397.249	74.69
397.474	92.69
397.698	82.69
397.922	93.69
398.147	94.69
398.371	82.69
398.595	96.69
398.82	95.69
399.044	86.69
399.268	82.69
399.492	78.69
399.717	86.69
399.941	84.69
400.165	104.69
400.389	99.69
400.613	93.69
400.837	93.69
401.062	96.69
401.286	92.69
401.51	92.69
401.734	84.69
401.958	97.69
402.182	98.69
402.406	144.69
402.63	105.69
402.854	100.69
403.078	93.69
403.302	81.69
403.526	94.69
403.75	100.69
403.974	84.69
404.198	75.69
404.422	97.69
404.645	84.69
404.869	96.69
405.093	101.69
405.317	114.69
405.541	103.69
405.765	108.69
405.988	103.69
406.212	154.69
406.436	190.69
406.66	146.69
406.883	106.69
407.107	104.69
407.331	91.69
407.555	95.69
407.778	101.69
408.002	95.69
408.226	85.69
408.449	89.69
408.673	96.69
408.896	94.69
409.12	100.69
409.344	80.69
409.567	70.69
409.791	87.69
410.014	102.69
410.238	98.69
410.461	98.69
410.685	109.69
410.908	103.69
411.132	109.69
411.355	82.69
411.578	93.69
411.802	85.69
412.025	81.69
412.249	100.69
412.472	94.69
412.695	101.69
412.919	91.69
413.142	82.69
413.365	99.69
413.589	88.69
413.812	96.69
414.035	100.69
414.258	82.69
414.482	85.69
414.705	95.69
414.928	98.69
415.151	94.69
415.374	96.69
415.597	79.69
415.821	87.69
416.044	90.69
416.267	95.69
416.49	95.69
416.713	96.69
416.936	108.69
417.159	91.69
417.382	90.69
417.605	104.69
417.828	86.69
418.051	94.69
418.274	90.69
418.497	82.69
418.72	91.69
418.943	83.69
419.166	75.69
419.389	79.69
419.611	93.69
419.834	93.69
420.057	101.69
420.28	83.69
420.503	79.69
420.726	94.69
420.948	91.69
421.171	101.69
421.394	99.69
421.617	95.69
421.839	86.69
422.062	88.69
422.285	84.69
422.507	94.69
422.73	98.69
422.953	90.69
423.175	87.69
423.398	83.69
423.621	94.69
423.843	99.69
424.066	91.69
424.288	87.69
424.511	71.69
424.733	97.69
424.956	86.69
425.178	84.69
425.401	97.69
425.623	82.69
425.846	90.69
426.068	85.69
426.291	89.69
426.513	82.69
426.735	98.69
426.958	88.69
427.18	103.69
427.402	142.69
427.625	159.69
427.847	120.69
428.069	117.69
428.292	102.69
428.514	94.69
428.736	83.69
428.958	94.69
429.181	74.69
429.403	83.69
429.625	79.69
429.847	96.69
430.069	102.69
430.292	87.69
430.514	95.69
430.736	87.69
430.958	98.69
431.18	81.69
431.402	92.69
431.624	76.69
431.846	82.69
432.068	90.69
432.29	78.69
432.512	72.69
432.734	76.69
432.956	80.69
433.178	96.69
433.4	93.69
433.622	92.69
433.844	87.69
434.066	86.69
434.287	106.69
434.509	71.69
434.731	64.69
434.953	83.69
435.175	97.69
435.397	83.69
435.618	83.69
435.84	107.69
436.062	110.69
436.284	103.69
436.505	91.69
436.727	100.69
436.949	95.69
437.17	84.69
437.392	99.69
437.614	95.69
437.835	96.69
438.057	110.69
438.278	111.69
438.5	94.69
438.721	115.69
438.943	103.69
439.165	101.69
439.386	84.69
439.608	97.69
439.829	91.69
440.05	108.69
440.272	140.69
440.493	91.69
440.715	74.69
440.936	88.69
441.158	76.69
441.379	84.69
441.6	103.69
441.822	107.69
442.043	86.69
442.264	104.69
442.486	88.69
442.707	87.69
442.928	95.69
443.149	108.69
443.371	122.69
443.592	106.69
443.813	105.69
444.034	90.69
444.255	83.69
444.476	92.69
444.698	82.69
444.919	87.69
445.14	135.69
445.361	107.69
445.582	102.69
445.803	124.69
446.024	119.69
446.245	123.69
446.466	108.69
446.687	99.69
446.908	90.69
447.129	78.69
447.35	90.69
447.571	107.69
447.792	103.69
448.013	94.69
448.234	93.69
448.455	97.69
448.675	94.69
448.896	114.69
449.117	84.69
449.338	96.69
449.559	119.69
449.779	100.69
450	82.69
450.221	102.69
450.442	78.69
450.662	78.69
450.883	100.69
451.104	94.69
451.324	102.69
451.545	98.69
451.766	84.69
451.986	87.69
452.207	96.69
452.428	85.69
452.648	103.69
452.869	89.69
453.089	91.69
453.31	98.69
453.53	79.69
453.751	82.69
453.971	92.69
454.192	96.69
454.412	99.69
454.633	84.69
454.853	69.69
455.073	102.69
455.294	94.69
455.514	88.69
455.734	89.69
455.955	92.69
456.175	80.69
456.395	81.69
456.616	81.69
456.836	99.69
457.056	85.69
457.276	76.69
457.497	76.69
457.717	97.69
457.937	105.69
458.157	84.69
458.377	84.69
458.598	98.69
458.818	130.69
459.038	158.69
459.258	111.69
459.478	95.69
459.698	93.69
459.918	98.69
460.138	68.69
460.358	80.69
460.578	96.69
460.798	90.69
461.018	104.69
461.238	78.69
461.458	74.69
461.678	76.69
461.898	76.69
462.118	80.69
462.338	78.69
462.558	90.69
462.777	83.69
462.997	90.69
463.217	92.69
463.437	80.69
463.657	77.69
463.876	80.69
464.096	70.69
464.316	87.69
464.536	89.69
464.755	86.69
464.975	102.69
465.195	141.69
465.414	123.69
465.634	98.69
465.854	90.69
466.073	77.69
466.293	75.69
466.512	90.69
466.732	85.69
466.951	84.69
467.171	91.69
467.391	101.69
467.61	109.69
467.829	115.69
468.049	167.69
468.268	180.69
468.488	96.69
468.707	90.69
468.927	88.69
469.146	84.69
469.365	103.69
469.585	88.69
469.804	96.69
470.023	100.69
470.243	95.69
470.462	88.69
470.681	107.69
470.901	83.69
471.12	72.69
471.339	94.69
471.558	92.69
471.777	90.69
471.997	127.69
472.216	232.69
472.435	445.69
472.654	166.69
472.873	98.69
473.092	84.69
473.311	85.69
473.53	83.69
473.749	86.69
473.968	82.69
474.187	101.69
474.406	99.69
474.625	97.69
474.844	90.69
475.063	96.69
475.282	95.69
475.501	79.69
475.72	79.69
475.939	77.69
476.158	84.69
476.377	85.69
476.596	76.69
476.814	85.69
477.033	110.69
477.252	100.69
477.471	84.69
477.69	104.69
477.908	85.69
478.127	94.69
478.346	95.69
478.564	101.69
478.783	90.69
479.002	100.69
479.22	93.69
479.439	102.69
479.658	100.69
479.876	92.69
480.095	98.69
480.313	108.69
480.532	102.69
480.751	116.69
480.969	240.69
481.188	780.69
481.406	449.69
481.624	116.69
481.843	89.69
482.061	86.69
482.28	102.69
482.498	93.69
482.717	94.69
482.935	93.69
483.153	87.69
483.372	99.69
483.59	98.69
483.808	84.69
484.027	92.69
484.245	104.69
484.463	81.69
484.681	92.69
484.9	86.69
485.118	107.69
485.336	82.69
485.554	98.69
485.772	99.69
485.99	111.69
486.209	105.69
486.427	104.69
486.645	123.69
486.863	113.69
487.081	114.69
487.299	99.69
487.517	97.69
487.735	95.69
487.953	103.69
488.171	80.69
488.389	106.69
488.607	90.69
488.825	100.69
489.043	79.69
489.261	79.69
489.479	86.69
489.696	82.69
489.914	101.69
490.132	75.69
490.35	91.69
490.568	78.69
490.786	84.69
491.003	84.69
491.221	89.69
491.439	95.69
491.657	90.69
491.874	97.69
492.092	85.69
492.31	88.69
492.527	80.69
492.745	82.69
492.963	99.69
493.18	81.69
493.398	93.69
493.615	93.69
493.833	82.69
494.05	90.69
494.268	98.69
494.485	79.69
494.703	71.69
494.92	81.69
495.138	80.69
495.355	88.69
495.573	83.69
495.79	81.69
496.008	93.69
496.225	92.69
496.442	89.69
496.66	91.69
496.877	95.69
497.094	100.69
497.312	89.69
497.529	80.69
497.746	103.69
497.963	90.69
498.181	92.69
498.398	87.69
498.615	91.69
498.832	99.69
499.049	103.69
499.267	96.69
499.484	97.69
499.701	85.69
499.918	84.69
500.135	85.69
500.352	98.69
500.569	78.69
500.786	96.69
501.003	100.69
501.22	90.69
501.437	94.69
501.654	103.69
501.871	111.69
502.088	82.69
502.305	104.69
502.522	88.69
502.739	90.69
502.956	89.69
503.172	91.69
503.389	89.69
503.606	100.69
503.823	92.69
504.04	85.69
504.256	96.69
504.473	75.69
504.69	94.69
504.907	99.69
505.123	84.69
505.34	100.69
505.557	94.69
505.773	95.69
505.99	95.69
506.207	100.69
506.423	104.69
506.64	83.69
506.856	88.69
507.073	87.69
507.289	100.69
507.506	96.69
507.722	119.69
507.939	110.69
508.155	104.69
508.372	104.69
508.588	91.69
508.805	91.69
509.021	100.69
509.238	92.69
509.454	107.69
509.67	99.69
509.887	109.69
510.103	118.69
510.319	200.69
510.536	608.69
510.752	1882.69
510.968	526.69
511.184	154.69
511.401	101.69
511.617	98.69
511.833	90.69
512.049	90.69
512.265	96.69
512.481	99.69
512.698	86.69
512.914	82.69
513.13	84.69
513.346	99.69
513.562	102.69
513.778	91.69
513.994	101.69
514.21	104.69
514.426	124.69
514.642	122.69
514.858	122.69
515.074	148.69
515.29	356.69
