Data from Circ_1990_H10_HRD10591_00091.txt Node
Date: Wed Jan 03 11:55:22 EST 2024
User: Yrep
Spectrometer: HR+D1059
Trigger mode: 1
Integration Time (sec): 1.000000E-1
Scans to average: 1
Electric dark correction enabled: true
Nonlinearity correction enabled: false
Boxcar width: 0
XAxis mode: Wavelengths
Number of Pixels in Spectrum: 2048
>>>>>Begin Spectral Data<<<<<
223.165	-22.19
223.4	-22.19
223.635	-22.19
223.869	-21.19
224.104	-14.19
224.338	-12.19
224.573	-0.19
224.808	-10.19
225.042	-27.19
225.277	-10.19
225.511	-14.19
225.746	16.81
225.98	11.81
226.215	12.81
226.449	10.81
226.683	22.81
226.918	20.81
227.152	35.81
227.387	35.81
227.621	31.81
227.856	42.81
228.09	45.81
228.324	53.81
228.559	58.81
228.793	40.81
229.027	65.81
229.262	62.81
229.496	67.81
229.73	76.81
229.964	70.81
230.199	79.81
230.433	70.81
230.667	71.81
230.901	74.81
231.136	82.81
231.37	70.81
231.604	87.81
231.838	75.81
232.072	87.81
232.306	83.81
232.541	66.81
232.775	67.81
233.009	82.81
233.243	81.81
233.477	84.81
233.711	91.81
233.945	82.81
234.179	77.81
234.413	90.81
234.647	72.81
234.881	71.81
235.115	81.81
235.349	74.81
235.583	71.81
235.817	65.81
236.051	83.81
236.285	72.81
236.519	77.81
236.753	72.81
236.987	87.81
237.221	80.81
237.455	83.81
237.689	76.81
237.922	71.81
238.156	78.81
238.39	75.81
238.624	57.81
238.858	77.81
239.091	78.81
239.325	73.81
239.559	85.81
239.793	80.81
240.027	71.81
240.26	77.81
240.494	75.81
240.728	80.81
240.961	72.81
241.195	79.81
241.429	67.81
241.662	68.81
241.896	71.81
242.13	83.81
242.363	84.81
242.597	79.81
242.83	86.81
243.064	80.81
243.298	82.81
243.531	75.81
243.765	78.81
243.998	68.81
244.232	74.81
244.465	80.81
244.699	62.81
244.932	59.81
245.166	72.81
245.399	67.81
245.633	75.81
245.866	82.81
246.099	77.81
246.333	85.81
246.566	82.81
246.8	63.81
247.033	82.81
247.266	98.81
247.5	87.81
247.733	73.81
247.966	79.81
248.2	74.81
248.433	66.81
248.666	74.81
248.899	71.81
249.133	96.81
249.366	82.81
249.599	82.81
249.832	89.81
250.066	72.81
250.299	76.81
250.532	80.81
250.765	86.81
250.998	92.81
251.231	79.81
251.465	74.81
251.698	83.81
251.931	92.81
252.164	72.81
252.397	87.81
252.63	82.81
252.863	86.81
253.096	75.81
253.329	77.81
253.562	94.81
253.795	75.81
254.028	83.81
254.261	77.81
254.494	78.81
254.727	92.81
254.96	76.81
255.193	82.81
255.426	74.81
255.659	72.81
255.892	102.81
256.124	85.81
256.357	86.81
256.59	86.81
256.823	83.81
257.056	82.81
257.289	88.81
257.521	97.81
257.754	80.81
257.987	89.81
258.22	86.81
258.452	87.81
258.685	90.81
258.918	83.81
259.151	84.81
259.383	83.81
259.616	75.81
259.849	82.81
260.081	106.81
260.314	84.81
260.547	90.81
260.779	58.81
261.012	85.81
261.244	91.81
261.477	88.81
261.71	95.81
261.942	120.81
262.175	114.81
262.407	90.81
262.64	82.81
262.872	77.81
263.105	86.81
263.337	79.81
263.57	76.81
263.802	62.81
264.035	70.81
264.267	78.81
264.499	85.81
264.732	82.81
264.964	82.81
265.197	72.81
265.429	65.81
265.661	86.81
265.894	95.81
266.126	72.81
266.358	87.81
266.591	80.81
266.823	84.81
267.055	75.81
267.287	75.81
267.52	86.81
267.752	90.81
267.984	78.81
268.216	69.81
268.448	80.81
268.681	83.81
268.913	76.81
269.145	87.81
269.377	90.81
269.609	70.81
269.841	91.81
270.073	83.81
270.306	92.81
270.538	77.81
270.77	76.81
271.002	95.81
271.234	81.81
271.466	84.81
271.698	95.81
271.93	96.81
272.162	89.81
272.394	88.81
272.626	83.81
272.858	74.81
273.09	86.81
273.322	72.81
273.553	89.81
273.785	68.81
274.017	82.81
274.249	80.81
274.481	80.81
274.713	63.81
274.945	83.81
275.176	74.81
275.408	94.81
275.64	98.81
275.872	80.81
276.104	98.81
276.335	90.81
276.567	110.81
276.799	112.81
277.031	128.81
277.262	126.81
277.494	115.81
277.726	102.81
277.957	92.81
278.189	80.81
278.421	89.81
278.652	81.81
278.884	93.81
279.115	101.81
279.347	88.81
279.579	95.81
279.81	84.81
280.042	119.81
280.273	142.81
280.505	112.81
280.736	74.81
280.968	92.81
281.199	92.81
281.431	86.81
281.662	73.81
281.894	86.81
282.125	96.81
282.356	114.81
282.588	132.81
282.819	118.81
283.051	91.81
283.282	82.81
283.513	81.81
283.745	67.81
283.976	82.81
284.207	78.81
284.439	87.81
284.67	99.81
284.901	82.81
285.132	82.81
285.364	80.81
285.595	91.81
285.826	96.81
286.057	92.81
286.288	74.81
286.52	73.81
286.751	86.81
286.982	84.81
287.213	80.81
287.444	97.81
287.675	82.81
287.906	84.81
288.138	86.81
288.369	83.81
288.6	96.81
288.831	87.81
289.062	73.81
289.293	76.81
289.524	82.81
289.755	83.81
289.986	82.81
290.217	78.81
290.448	83.81
290.679	94.81
290.91	85.81
291.141	80.81
291.371	88.81
291.602	87.81
291.833	98.81
292.064	90.81
292.295	87.81
292.526	95.81
292.757	82.81
292.987	73.81
293.218	82.81
293.449	98.81
293.68	83.81
293.91	83.81
294.141	96.81
294.372	95.81
294.603	83.81
294.833	80.81
295.064	92.81
295.295	78.81
295.525	77.81
295.756	92.81
295.987	119.81
296.217	139.81
296.448	126.81
296.679	89.81
296.909	89.81
297.14	110.81
297.37	96.81
297.601	84.81
297.831	77.81
298.062	94.81
298.292	80.81
298.523	94.81
298.753	99.81
298.984	72.81
299.214	78.81
299.445	90.81
299.675	106.81
299.905	95.81
300.136	95.81
300.366	84.81
300.597	71.81
300.827	86.81
301.057	85.81
301.288	72.81
301.518	97.81
301.748	80.81
301.979	90.81
302.209	98.81
302.439	92.81
302.669	72.81
302.9	87.81
303.13	82.81
303.36	99.81
303.59	101.81
303.82	115.81
304.051	100.81
304.281	93.81
304.511	70.81
304.741	77.81
304.971	88.81
305.201	94.81
305.431	98.81
305.661	83.81
305.891	92.81
306.121	90.81
306.352	86.81
306.582	107.81
306.812	93.81
307.042	80.81
307.272	128.81
307.502	133.81
307.731	108.81
307.961	92.81
308.191	103.81
308.421	94.81
308.651	91.81
308.881	79.81
309.111	104.81
309.341	90.81
309.571	99.81
309.8	100.81
310.03	99.81
310.26	91.81
310.49	97.81
310.72	108.81
310.949	112.81
311.179	103.81
311.409	89.81
311.639	79.81
311.868	87.81
312.098	94.81
312.328	94.81
312.557	88.81
312.787	105.81
313.017	97.81
313.246	89.81
313.476	82.81
313.706	83.81
313.935	90.81
314.165	99.81
314.394	98.81
314.624	87.81
314.853	100.81
315.083	86.81
315.312	88.81
315.542	84.81
315.771	90.81
316.001	90.81
316.23	88.81
316.46	75.81
316.689	98.81
316.919	94.81
317.148	97.81
317.377	91.81
317.607	89.81
317.836	99.81
318.065	94.81
318.295	98.81
318.524	82.81
318.753	99.81
318.983	87.81
319.212	93.81
319.441	110.81
319.67	101.81
319.9	78.81
320.129	90.81
320.358	97.81
320.587	97.81
320.816	113.81
321.046	87.81
321.275	86.81
321.504	87.81
321.733	85.81
321.962	100.81
322.191	95.81
322.42	97.81
322.649	97.81
322.878	112.81
323.108	113.81
323.337	117.81
323.566	123.81
323.795	164.81
324.024	210.81
324.253	396.81
324.482	843.81
324.71	1681.81
324.939	2294.81
325.168	854.81
325.397	243.81
325.626	147.81
325.855	118.81
326.084	118.81
326.313	123.81
326.542	145.81
326.77	227.81
326.999	445.81
327.228	914.81
327.457	1759.81
327.686	1412.81
327.914	436.81
328.143	300.81
328.372	344.81
328.6	227.81
328.829	148.81
329.058	134.81
329.287	156.81
329.515	126.81
329.744	156.81
329.972	239.81
330.201	462.81
330.43	636.81
330.658	308.81
330.887	184.81
331.115	138.81
331.344	110.81
331.572	107.81
331.801	114.81
332.03	112.81
332.258	99.81
332.486	95.81
332.715	90.81
332.943	102.81
333.172	102.81
333.4	115.81
333.629	120.81
333.857	162.81
334.085	241.81
334.314	429.81
334.542	806.81
334.771	767.81
334.999	229.81
335.227	126.81
335.455	90.81
335.684	92.81
335.912	94.81
336.14	102.81
336.369	110.81
336.597	101.81
336.825	90.81
337.053	85.81
337.281	101.81
337.51	102.81
337.738	91.81
337.966	96.81
338.194	105.81
338.422	102.81
338.65	89.81
338.878	104.81
339.106	79.81
339.334	68.81
339.562	98.81
339.79	88.81
340.018	91.81
340.246	83.81
340.474	101.81
340.702	90.81
340.93	83.81
341.158	65.81
341.386	89.81
341.614	91.81
341.842	112.81
342.07	91.81
342.298	82.81
342.526	95.81
342.754	94.81
342.981	82.81
343.209	89.81
343.437	91.81
343.665	83.81
343.893	87.81
344.12	77.81
344.348	92.81
344.576	90.81
344.804	95.81
345.031	80.81
345.259	94.81
345.487	80.81
345.714	82.81
345.942	76.81
346.17	88.81
346.397	94.81
346.625	96.81
346.853	85.81
347.08	91.81
347.308	87.81
347.535	94.81
347.763	95.81
347.99	88.81
348.218	106.81
348.445	87.81
348.673	102.81
348.9	98.81
349.128	97.81
349.355	89.81
349.583	99.81
349.81	94.81
350.037	96.81
350.265	97.81
350.492	97.81
350.72	94.81
350.947	98.81
351.174	111.81
351.402	116.81
351.629	95.81
351.856	102.81
352.083	99.81
352.311	100.81
352.538	121.81
352.765	117.81
352.992	111.81
353.22	108.81
353.447	98.81
353.674	98.81
353.901	89.81
354.128	102.81
354.355	102.81
354.583	100.81
354.81	96.81
355.037	90.81
355.264	92.81
355.491	104.81
355.718	98.81
355.945	86.81
356.172	91.81
356.399	102.81
356.626	95.81
356.853	83.81
357.08	75.81
357.307	72.81
357.534	87.81
357.761	74.81
357.988	91.81
358.215	82.81
358.441	83.81
358.668	103.81
358.895	86.81
359.122	88.81
359.349	82.81
359.576	93.81
359.802	112.81
360.029	111.81
360.256	102.81
360.483	98.81
360.709	83.81
360.936	82.81
361.163	91.81
361.39	87.81
361.616	94.81
361.843	82.81
362.07	96.81
362.296	90.81
362.523	89.81
362.749	97.81
362.976	82.81
363.203	83.81
363.429	76.81
363.656	93.81
363.882	97.81
364.109	92.81
364.335	79.81
364.562	90.81
364.788	84.81
365.015	91.81
365.241	96.81
365.468	95.81
365.694	95.81
365.92	85.81
366.147	91.81
366.373	79.81
366.599	92.81
366.826	92.81
367.052	73.81
367.278	95.81
367.505	67.81
367.731	86.81
367.957	109.81
368.184	82.81
368.41	91.81
368.636	92.81
368.862	102.81
369.089	104.81
369.315	86.81
369.541	82.81
369.767	99.81
369.993	88.81
370.219	84.81
370.445	78.81
370.672	90.81
370.898	81.81
371.124	64.81
371.35	82.81
371.576	100.81
371.802	99.81
372.028	87.81
372.254	83.81
372.48	73.81
372.706	88.81
372.932	84.81
373.158	82.81
373.384	85.81
373.61	100.81
373.835	84.81
374.061	81.81
374.287	94.81
374.513	80.81
374.739	86.81
374.965	70.81
375.191	85.81
375.416	87.81
375.642	75.81
375.868	88.81
376.094	87.81
376.319	86.81
376.545	75.81
376.771	90.81
376.997	73.81
377.222	81.81
377.448	88.81
377.674	98.81
377.899	74.81
378.125	101.81
378.35	91.81
378.576	88.81
378.802	80.81
379.027	85.81
379.253	86.81
379.478	90.81
379.704	89.81
379.929	92.81
380.155	83.81
380.38	92.81
380.606	91.81
380.831	90.81
381.057	89.81
381.282	85.81
381.507	92.81
381.733	97.81
381.958	97.81
382.184	88.81
382.409	85.81
382.634	94.81
382.86	93.81
383.085	102.81
383.31	88.81
383.535	106.81
383.761	93.81
383.986	84.81
384.211	102.81
384.436	104.81
384.662	70.81
384.887	92.81
385.112	95.81
385.337	106.81
385.562	91.81
385.787	113.81
386.013	104.81
386.238	116.81
386.463	92.81
386.688	107.81
386.913	89.81
387.138	107.81
387.363	96.81
387.588	90.81
387.813	86.81
388.038	96.81
388.263	107.81
388.488	109.81
388.713	94.81
388.938	103.81
389.163	93.81
389.387	86.81
389.612	85.81
389.837	86.81
390.062	94.81
390.287	87.81
390.512	82.81
390.736	80.81
390.961	81.81
391.186	86.81
391.411	94.81
391.636	86.81
391.86	78.81
392.085	92.81
392.31	93.81
392.534	98.81
392.759	73.81
392.984	86.81
393.208	89.81
393.433	78.81
393.658	82.81
393.882	106.81
394.107	81.81
394.331	84.81
394.556	105.81
394.78	86.81
395.005	87.81
395.229	97.81
395.454	84.81
395.678	94.81
395.903	81.81
396.127	78.81
396.352	71.81
396.576	88.81
396.801	84.81
397.025	65.81
397.249	87.81
397.474	87.81
397.698	63.81
397.922	93.81
398.147	85.81
398.371	86.81
398.595	91.81
398.82	64.81
399.044	74.81
399.268	88.81
399.492	83.81
399.717	80.81
399.941	97.81
400.165	92.81
400.389	84.81
400.613	71.81
400.837	84.81
401.062	78.81
401.286	82.81
401.51	97.81
401.734	91.81
401.958	105.81
402.182	125.81
402.406	162.81
402.63	103.81
402.854	88.81
403.078	90.81
403.302	75.81
403.526	80.81
403.75	89.81
403.974	91.81
404.198	94.81
404.422	74.81
404.645	84.81
404.869	87.81
405.093	104.81
405.317	122.81
405.541	114.81
405.765	102.81
405.988	112.81
406.212	163.81
406.436	232.81
406.66	153.81
406.883	109.81
407.107	86.81
407.331	98.81
407.555	96.81
407.778	97.81
408.002	80.81
408.226	74.81
408.449	86.81
408.673	86.81
408.896	82.81
409.12	87.81
409.344	105.81
409.567	91.81
409.791	90.81
410.014	95.81
410.238	88.81
410.461	93.81
410.685	84.81
410.908	87.81
411.132	83.81
411.355	88.81
411.578	95.81
411.802	79.81
412.025	80.81
412.249	81.81
412.472	93.81
412.695	118.81
412.919	104.81
413.142	95.81
413.365	91.81
413.589	83.81
413.812	86.81
414.035	98.81
414.258	95.81
414.482	90.81
414.705	92.81
414.928	75.81
415.151	74.81
415.374	99.81
415.597	81.81
415.821	75.81
416.044	84.81
416.267	80.81
416.49	79.81
416.713	62.81
416.936	78.81
417.159	88.81
417.382	89.81
417.605	91.81
417.828	102.81
418.051	74.81
418.274	76.81
418.497	87.81
418.72	74.81
418.943	72.81
419.166	81.81
419.389	90.81
419.611	74.81
419.834	75.81
420.057	83.81
420.28	91.81
420.503	71.81
420.726	81.81
420.948	79.81
421.171	95.81
421.394	85.81
421.617	68.81
421.839	89.81
422.062	79.81
422.285	74.81
422.507	95.81
422.73	96.81
422.953	89.81
423.175	86.81
423.398	74.81
423.621	77.81
423.843	67.81
424.066	91.81
424.288	76.81
424.511	86.81
424.733	90.81
424.956	91.81
425.178	97.81
425.401	87.81
425.623	95.81
425.846	95.81
426.068	95.81
426.291	89.81
426.513	91.81
426.735	92.81
426.958	95.81
427.18	108.81
427.402	144.81
427.625	182.81
427.847	182.81
428.069	161.81
428.292	96.81
428.514	83.81
428.736	79.81
428.958	87.81
429.181	86.81
429.403	85.81
429.625	86.81
429.847	86.81
430.069	85.81
430.292	97.81
430.514	92.81
430.736	88.81
430.958	73.81
431.18	79.81
431.402	96.81
431.624	86.81
431.846	88.81
432.068	71.81
432.29	76.81
432.512	85.81
432.734	80.81
432.956	73.81
433.178	80.81
433.4	79.81
433.622	91.81
433.844	78.81
434.066	92.81
434.287	96.81
434.509	87.81
434.731	90.81
434.953	82.81
435.175	87.81
435.397	86.81
435.618	86.81
435.84	108.81
436.062	106.81
436.284	117.81
436.505	92.81
436.727	91.81
436.949	82.81
437.17	95.81
437.392	102.81
437.614	98.81
437.835	111.81
438.057	128.81
438.278	89.81
438.5	110.81
438.721	119.81
438.943	100.81
439.165	90.81
439.386	81.81
439.608	95.81
439.829	91.81
440.05	126.81
440.272	149.81
440.493	109.81
440.715	80.81
440.936	67.81
441.158	83.81
441.379	70.81
441.6	76.81
441.822	98.81
442.043	88.81
442.264	96.81
442.486	99.81
442.707	86.81
442.928	94.81
443.149	123.81
443.371	145.81
443.592	103.81
443.813	115.81
444.034	118.81
444.255	82.81
444.476	88.81
444.698	92.81
444.919	93.81
445.14	139.81
445.361	122.81
445.582	108.81
445.803	136.81
446.024	135.81
446.245	145.81
446.466	123.81
446.687	92.81
446.908	92.81
447.129	73.81
447.35	81.81
447.571	90.81
447.792	84.81
448.013	91.81
448.234	104.81
448.455	84.81
448.675	117.81
448.896	106.81
449.117	91.81
449.338	96.81
449.559	136.81
449.779	122.81
450	97.81
450.221	75.81
450.442	87.81
450.662	100.81
450.883	99.81
451.104	97.81
451.324	87.81
451.545	73.81
451.766	72.81
451.986	84.81
452.207	75.81
452.428	76.81
452.648	95.81
452.869	114.81
453.089	102.81
453.31	113.81
453.53	93.81
453.751	96.81
453.971	104.81
454.192	105.81
454.412	91.81
454.633	83.81
454.853	76.81
455.073	81.81
455.294	93.81
455.514	89.81
455.734	84.81
455.955	70.81
456.175	94.81
456.395	95.81
456.616	70.81
456.836	74.81
457.056	79.81
457.276	79.81
457.497	87.81
457.717	65.81
457.937	72.81
458.157	84.81
458.377	81.81
458.598	89.81
458.818	151.81
459.038	153.81
459.258	113.81
459.478	81.81
459.698	83.81
459.918	86.81
460.138	97.81
460.358	91.81
460.578	92.81
460.798	108.81
461.018	90.81
461.238	80.81
461.458	85.81
461.678	94.81
461.898	80.81
462.118	97.81
462.338	84.81
462.558	80.81
462.777	85.81
462.997	80.81
463.217	90.81
463.437	89.81
463.657	72.81
463.876	85.81
464.096	101.81
464.316	97.81
464.536	86.81
464.755	86.81
464.975	91.81
465.195	182.81
465.414	162.81
465.634	92.81
465.854	93.81
466.073	93.81
466.293	79.81
466.512	81.81
466.732	78.81
466.951	83.81
467.171	93.81
467.391	92.81
467.61	102.81
467.829	140.81
468.049	308.81
468.268	384.81
468.488	124.81
468.707	104.81
468.927	89.81
469.146	83.81
469.365	74.81
469.585	98.81
469.804	95.81
470.023	104.81
470.243	98.81
470.462	91.81
470.681	108.81
470.901	95.81
471.12	82.81
471.339	88.81
471.558	93.81
471.777	109.81
471.997	174.81
472.216	524.81
472.435	1061.81
472.654	280.81
472.873	123.81
473.092	96.81
473.311	81.81
473.53	91.81
473.749	92.81
473.968	94.81
474.187	109.81
474.406	94.81
474.625	76.81
474.844	82.81
475.063	84.81
475.282	81.81
475.501	87.81
475.72	74.81
475.939	86.81
476.158	102.81
476.377	87.81
476.596	90.81
476.814	78.81
477.033	85.81
477.252	91.81
477.471	80.81
477.69	99.81
477.908	86.81
478.127	84.81
478.346	83.81
478.564	97.81
478.783	92.81
479.002	105.81
479.22	103.81
479.439	111.81
479.658	110.81
479.876	100.81
480.095	103.81
480.313	99.81
480.532	127.81
480.751	182.81
480.969	504.81
481.188	1891.81
481.406	1099.81
481.624	208.81
481.843	101.81
482.061	94.81
482.28	104.81
482.498	87.81
482.717	86.81
482.935	84.81
483.153	92.81
483.372	82.81
483.59	83.81
483.808	81.81
484.027	82.81
484.245	89.81
484.463	72.81
484.681	78.81
484.9	88.81
485.118	98.81
485.336	90.81
485.554	103.81
485.772	81.81
485.99	90.81
486.209	99.81
486.427	106.81
486.645	105.81
486.863	102.81
487.081	94.81
487.299	93.81
487.517	94.81
487.735	88.81
487.953	73.81
488.171	82.81
488.389	96.81
488.607	86.81
488.825	94.81
489.043	86.81
489.261	104.81
489.479	90.81
489.696	92.81
489.914	81.81
490.132	94.81
490.35	94.81
490.568	76.81
490.786	86.81
491.003	83.81
491.221	89.81
491.439	98.81
491.657	94.81
491.874	96.81
492.092	92.81
492.31	94.81
492.527	90.81
492.745	88.81
492.963	89.81
493.18	90.81
493.398	82.81
493.615	95.81
493.833	95.81
494.05	96.81
494.268	68.81
494.485	104.81
494.703	73.81
494.92	80.81
495.138	83.81
495.355	84.81
495.573	92.81
495.79	92.81
496.008	93.81
496.225	88.81
496.442	88.81
496.66	93.81
496.877	82.81
497.094	93.81
497.312	86.81
497.529	78.81
497.746	77.81
497.963	84.81
498.181	90.81
498.398	87.81
498.615	112.81
498.832	93.81
499.049	94.81
499.267	94.81
499.484	85.81
499.701	95.81
499.918	99.81
500.135	90.81
500.352	87.81
500.569	94.81
500.786	88.81
501.003	87.81
501.22	95.81
501.437	83.81
501.654	83.81
501.871	107.81
502.088	87.81
502.305	83.81
502.522	90.81
502.739	90.81
502.956	83.81
503.172	104.81
503.389	88.81
503.606	92.81
503.823	105.81
504.04	87.81
504.256	84.81
504.473	80.81
504.69	84.81
504.907	81.81
505.123	85.81
505.34	80.81
505.557	80.81
505.773	89.81
505.99	84.81
506.207	90.81
506.423	90.81
506.64	80.81
506.856	85.81
507.073	92.81
507.289	94.81
507.506	92.81
507.722	120.81
507.939	114.81
508.155	95.81
508.372	98.81
508.588	98.81
508.805	86.81
509.021	100.81
509.238	86.81
509.454	92.81
509.67	88.81
509.887	97.81
510.103	122.81
510.319	210.81
510.536	696.81
510.752	2192.81
510.968	591.81
511.184	137.81
511.401	107.81
511.617	96.81
511.833	104.81
512.049	79.81
512.265	87.81
512.481	92.81
512.698	92.81
512.914	90.81
513.13	96.81
513.346	78.81
513.562	92.81
513.778	106.81
513.994	93.81
514.21	121.81
514.426	134.81
514.642	129.81
514.858	117.81
515.074	174.81
515.29	481.81
515.506	1580.81
515.721	568.81
515.937	163.81
516.153	114.81
