Data from Circ_1990_H10_HRD10591_00061.txt Node
Date: Wed Jan 03 11:55:16 EST 2024
User: Yrep
Spectrometer: HR+D1059
Trigger mode: 1
Integration Time (sec): 1.000000E-1
Scans to average: 1
Electric dark correction enabled: true
Nonlinearity correction enabled: false
Boxcar width: 0
XAxis mode: Wavelengths
Number of Pixels in Spectrum: 2048
>>>>>Begin Spectral Data<<<<<
223.165	-12.62
223.4	-12.62
223.635	-12.62
223.869	-27.62
224.104	-29.62
224.338	-19.62
224.573	-14.62
224.808	-0.62
225.042	11.38
225.277	-9.62
225.511	4.38
225.746	-7.62
225.98	-11.62
226.215	19.38
226.449	24.38
226.683	15.38
226.918	28.38
227.152	30.38
227.387	29.38
227.621	35.38
227.856	51.38
228.09	45.38
228.324	43.38
228.559	51.38
228.793	59.38
229.027	63.38
229.262	65.38
229.496	79.38
229.73	86.38
229.964	82.38
230.199	80.38
230.433	79.38
230.667	80.38
230.901	78.38
231.136	88.38
231.37	98.38
231.604	76.38
231.838	76.38
232.072	81.38
232.306	78.38
232.541	65.38
232.775	84.38
233.009	80.38
233.243	84.38
233.477	82.38
233.711	86.38
233.945	94.38
234.179	88.38
234.413	73.38
234.647	85.38
234.881	78.38
235.115	70.38
235.349	90.38
235.583	85.38
235.817	81.38
236.051	88.38
236.285	71.38
236.519	82.38
236.753	79.38
236.987	65.38
237.221	89.38
237.455	81.38
237.689	68.38
237.922	77.38
238.156	83.38
238.39	75.38
238.624	62.38
238.858	75.38
239.091	78.38
239.325	82.38
239.559	82.38
239.793	76.38
240.027	70.38
240.26	69.38
240.494	77.38
240.728	82.38
240.961	78.38
241.195	76.38
241.429	71.38
241.662	79.38
241.896	70.38
242.13	79.38
242.363	75.38
242.597	83.38
242.83	86.38
243.064	71.38
243.298	84.38
243.531	84.38
243.765	85.38
243.998	69.38
244.232	82.38
244.465	83.38
244.699	86.38
244.932	88.38
245.166	74.38
245.399	88.38
245.633	83.38
245.866	84.38
246.099	76.38
246.333	75.38
246.566	81.38
246.8	75.38
247.033	88.38
247.266	82.38
247.5	78.38
247.733	72.38
247.966	81.38
248.2	80.38
248.433	84.38
248.666	77.38
248.899	76.38
249.133	85.38
249.366	96.38
249.599	104.38
249.832	86.38
250.066	76.38
250.299	81.38
250.532	81.38
250.765	67.38
250.998	78.38
251.231	92.38
251.465	90.38
251.698	78.38
251.931	88.38
252.164	79.38
252.397	77.38
252.63	70.38
252.863	70.38
253.096	102.38
253.329	91.38
253.562	81.38
253.795	84.38
254.028	80.38
254.261	84.38
254.494	68.38
254.727	78.38
254.96	76.38
255.193	82.38
255.426	89.38
255.659	93.38
255.892	84.38
256.124	92.38
256.357	77.38
256.59	86.38
256.823	95.38
257.056	82.38
257.289	82.38
257.521	96.38
257.754	84.38
257.987	80.38
258.22	86.38
258.452	86.38
258.685	79.38
258.918	87.38
259.151	87.38
259.383	96.38
259.616	83.38
259.849	69.38
260.081	83.38
260.314	100.38
260.547	76.38
260.779	90.38
261.012	93.38
261.244	98.38
261.477	94.38
261.71	96.38
261.942	133.38
262.175	131.38
262.407	97.38
262.64	78.38
262.872	76.38
263.105	85.38
263.337	90.38
263.57	77.38
263.802	97.38
264.035	80.38
264.267	85.38
264.499	85.38
264.732	82.38
264.964	82.38
265.197	86.38
265.429	88.38
265.661	80.38
265.894	92.38
266.126	88.38
266.358	82.38
266.591	60.38
266.823	86.38
267.055	66.38
267.287	81.38
267.52	98.38
267.752	70.38
267.984	94.38
268.216	84.38
268.448	88.38
268.681	79.38
268.913	82.38
269.145	79.38
269.377	86.38
269.609	89.38
269.841	93.38
270.073	87.38
270.306	102.38
270.538	93.38
270.77	77.38
271.002	78.38
271.234	100.38
271.466	79.38
271.698	86.38
271.93	86.38
272.162	80.38
272.394	89.38
272.626	70.38
272.858	71.38
273.09	97.38
273.322	67.38
273.553	82.38
273.785	96.38
274.017	86.38
274.249	69.38
274.481	76.38
274.713	86.38
274.945	92.38
275.176	86.38
275.408	85.38
275.64	103.38
275.872	93.38
276.104	82.38
276.335	99.38
276.567	117.38
276.799	128.38
277.031	123.38
277.262	111.38
277.494	109.38
277.726	88.38
277.957	93.38
278.189	92.38
278.421	83.38
278.652	88.38
278.884	96.38
279.115	97.38
279.347	91.38
279.579	79.38
279.81	111.38
280.042	119.38
280.273	144.38
280.505	101.38
280.736	84.38
280.968	82.38
281.199	74.38
281.431	92.38
281.662	85.38
281.894	84.38
282.125	94.38
282.356	116.38
282.588	146.38
282.819	112.38
283.051	89.38
283.282	86.38
283.513	95.38
283.745	90.38
283.976	82.38
284.207	79.38
284.439	74.38
284.67	89.38
284.901	101.38
285.132	86.38
285.364	98.38
285.595	79.38
285.826	87.38
286.057	83.38
286.288	92.38
286.52	88.38
286.751	87.38
286.982	91.38
287.213	89.38
287.444	95.38
287.675	93.38
287.906	85.38
288.138	82.38
288.369	87.38
288.6	98.38
288.831	99.38
289.062	76.38
289.293	71.38
289.524	86.38
289.755	92.38
289.986	94.38
290.217	91.38
290.448	75.38
290.679	84.38
290.91	83.38
291.141	88.38
291.371	86.38
291.602	82.38
291.833	99.38
292.064	89.38
292.295	84.38
292.526	91.38
292.757	91.38
292.987	89.38
293.218	94.38
293.449	87.38
293.68	82.38
293.91	77.38
294.141	85.38
294.372	88.38
294.603	82.38
294.833	78.38
295.064	90.38
295.295	97.38
295.525	83.38
295.756	103.38
295.987	110.38
296.217	121.38
296.448	128.38
296.679	94.38
296.909	91.38
297.14	86.38
297.37	102.38
297.601	91.38
297.831	86.38
298.062	99.38
298.292	86.38
298.523	97.38
298.753	97.38
298.984	98.38
299.214	95.38
299.445	84.38
299.675	82.38
299.905	93.38
300.136	78.38
300.366	87.38
300.597	93.38
300.827	96.38
301.057	94.38
301.288	100.38
301.518	104.38
301.748	94.38
301.979	104.38
302.209	86.38
302.439	92.38
302.669	94.38
302.9	95.38
303.13	90.38
303.36	92.38
303.59	100.38
303.82	109.38
304.051	72.38
304.281	81.38
304.511	89.38
304.741	96.38
304.971	97.38
305.201	108.38
305.431	91.38
305.661	87.38
305.891	95.38
306.121	100.38
306.352	103.38
306.582	103.38
306.812	101.38
307.042	94.38
307.272	115.38
307.502	121.38
307.731	122.38
307.961	100.38
308.191	91.38
308.421	88.38
308.651	82.38
308.881	109.38
309.111	87.38
309.341	117.38
309.571	101.38
309.8	95.38
310.03	96.38
310.26	102.38
310.49	99.38
310.72	103.38
310.949	119.38
311.179	105.38
311.409	95.38
311.639	98.38
311.868	76.38
312.098	96.38
312.328	103.38
312.557	106.38
312.787	122.38
313.017	109.38
313.246	89.38
313.476	113.38
313.706	88.38
313.935	82.38
314.165	88.38
314.394	106.38
314.624	99.38
314.853	103.38
315.083	90.38
315.312	106.38
315.542	109.38
315.771	95.38
316.001	79.38
316.23	107.38
316.46	99.38
316.689	90.38
316.919	91.38
317.148	92.38
317.377	95.38
317.607	91.38
317.836	96.38
318.065	93.38
318.295	99.38
318.524	91.38
318.753	112.38
318.983	100.38
319.212	104.38
319.441	95.38
319.67	104.38
319.9	97.38
320.129	94.38
320.358	87.38
320.587	104.38
320.816	104.38
321.046	104.38
321.275	98.38
321.504	100.38
321.733	97.38
321.962	100.38
322.191	87.38
322.42	104.38
322.649	109.38
322.878	108.38
323.108	120.38
323.337	113.38
323.566	128.38
323.795	155.38
324.024	206.38
324.253	383.38
324.482	826.38
324.71	1662.38
324.939	2264.38
325.168	833.38
325.397	245.38
325.626	162.38
325.855	123.38
326.084	119.38
326.313	132.38
326.542	141.38
326.77	223.38
326.999	460.38
327.228	913.38
327.457	1733.38
327.686	1410.38
327.914	418.38
328.143	296.38
328.372	336.38
328.6	206.38
328.829	127.38
329.058	138.38
329.287	168.38
329.515	121.38
329.744	154.38
329.972	229.38
330.201	422.38
330.43	590.38
330.658	302.38
330.887	174.38
331.115	146.38
331.344	97.38
331.572	113.38
331.801	96.38
332.03	92.38
332.258	109.38
332.486	101.38
332.715	95.38
332.943	94.38
333.172	105.38
333.4	112.38
333.629	113.38
333.857	147.38
334.085	236.38
334.314	406.38
334.542	763.38
334.771	707.38
334.999	227.38
335.227	125.38
335.455	107.38
335.684	97.38
335.912	106.38
336.14	114.38
336.369	99.38
336.597	117.38
336.825	87.38
337.053	94.38
337.281	107.38
337.51	98.38
337.738	92.38
337.966	108.38
338.194	99.38
338.422	99.38
338.65	112.38
338.878	97.38
339.106	102.38
339.334	102.38
339.562	87.38
339.79	94.38
340.018	90.38
340.246	78.38
340.474	99.38
340.702	80.38
340.93	95.38
341.158	87.38
341.386	94.38
341.614	90.38
341.842	96.38
342.07	100.38
342.298	97.38
342.526	79.38
342.754	89.38
342.981	102.38
343.209	80.38
343.437	92.38
343.665	94.38
343.893	111.38
344.12	86.38
344.348	88.38
344.576	85.38
344.804	85.38
345.031	109.38
345.259	78.38
345.487	99.38
345.714	86.38
345.942	82.38
346.17	98.38
346.397	89.38
346.625	102.38
346.853	103.38
347.08	96.38
347.308	103.38
347.535	102.38
347.763	101.38
347.99	93.38
348.218	98.38
348.445	103.38
348.673	107.38
348.9	103.38
349.128	106.38
349.355	84.38
349.583	97.38
349.81	74.38
350.037	88.38
350.265	96.38
350.492	105.38
350.72	84.38
350.947	95.38
351.174	113.38
351.402	104.38
351.629	118.38
351.856	104.38
352.083	108.38
352.311	103.38
352.538	112.38
352.765	109.38
352.992	112.38
353.22	115.38
353.447	108.38
353.674	95.38
353.901	102.38
354.128	97.38
354.355	86.38
354.583	104.38
354.81	104.38
355.037	109.38
355.264	114.38
355.491	97.38
355.718	85.38
355.945	96.38
356.172	99.38
356.399	93.38
356.626	85.38
356.853	98.38
357.08	95.38
357.307	117.38
357.534	97.38
357.761	95.38
357.988	109.38
358.215	94.38
358.441	92.38
358.668	93.38
358.895	93.38
359.122	90.38
359.349	101.38
359.576	88.38
359.802	114.38
360.029	108.38
360.256	130.38
360.483	108.38
360.709	92.38
360.936	83.38
361.163	89.38
361.39	96.38
361.616	89.38
361.843	93.38
362.07	109.38
362.296	101.38
362.523	97.38
362.749	108.38
362.976	99.38
363.203	94.38
363.429	94.38
363.656	93.38
363.882	91.38
364.109	83.38
364.335	94.38
364.562	102.38
364.788	104.38
365.015	82.38
365.241	109.38
365.468	103.38
365.694	90.38
365.92	71.38
366.147	99.38
366.373	93.38
366.599	87.38
366.826	90.38
367.052	88.38
367.278	89.38
367.505	92.38
367.731	82.38
367.957	79.38
368.184	96.38
368.41	100.38
368.636	94.38
368.862	131.38
369.089	110.38
369.315	101.38
369.541	91.38
369.767	90.38
369.993	82.38
370.219	89.38
370.445	87.38
370.672	69.38
370.898	92.38
371.124	94.38
371.35	92.38
371.576	81.38
371.802	86.38
372.028	89.38
372.254	82.38
372.48	78.38
372.706	98.38
372.932	91.38
373.158	87.38
373.384	90.38
373.61	82.38
373.835	90.38
374.061	90.38
374.287	104.38
374.513	95.38
374.739	86.38
374.965	92.38
375.191	100.38
375.416	85.38
375.642	90.38
375.868	86.38
376.094	82.38
376.319	88.38
376.545	87.38
376.771	76.38
376.997	92.38
377.222	98.38
377.448	111.38
377.674	98.38
377.899	88.38
378.125	90.38
378.35	84.38
378.576	106.38
378.802	80.38
379.027	88.38
379.253	95.38
379.478	99.38
379.704	88.38
379.929	93.38
380.155	86.38
380.38	104.38
380.606	101.38
380.831	92.38
381.057	98.38
381.282	86.38
381.507	97.38
381.733	96.38
381.958	116.38
382.184	104.38
382.409	104.38
382.634	100.38
382.86	108.38
383.085	99.38
383.31	101.38
383.535	100.38
383.761	91.38
383.986	92.38
384.211	94.38
384.436	95.38
384.662	104.38
384.887	100.38
385.112	109.38
385.337	115.38
385.562	102.38
385.787	114.38
386.013	116.38
386.238	111.38
386.463	120.38
386.688	110.38
386.913	108.38
387.138	133.38
387.363	107.38
387.588	94.38
387.813	88.38
388.038	111.38
388.263	116.38
388.488	122.38
388.713	119.38
388.938	92.38
389.163	88.38
389.387	87.38
389.612	104.38
389.837	81.38
390.062	93.38
390.287	100.38
390.512	93.38
390.736	88.38
390.961	91.38
391.186	98.38
391.411	88.38
391.636	92.38
391.86	87.38
392.085	91.38
392.31	92.38
392.534	86.38
392.759	93.38
392.984	96.38
393.208	84.38
393.433	68.38
393.658	75.38
393.882	88.38
394.107	92.38
394.331	93.38
394.556	86.38
394.78	90.38
395.005	92.38
395.229	92.38
395.454	97.38
395.678	78.38
395.903	92.38
396.127	85.38
396.352	98.38
396.576	82.38
396.801	87.38
397.025	84.38
397.249	95.38
397.474	91.38
397.698	80.38
397.922	84.38
398.147	79.38
398.371	86.38
398.595	91.38
398.82	77.38
399.044	82.38
399.268	92.38
399.492	94.38
399.717	96.38
399.941	91.38
400.165	95.38
400.389	92.38
400.613	85.38
400.837	81.38
401.062	76.38
401.286	84.38
401.51	80.38
401.734	111.38
401.958	97.38
402.182	122.38
402.406	157.38
402.63	127.38
402.854	104.38
403.078	99.38
403.302	92.38
403.526	87.38
403.75	89.38
403.974	82.38
404.198	80.38
404.422	77.38
404.645	90.38
404.869	82.38
405.093	100.38
405.317	107.38
405.541	112.38
405.765	92.38
405.988	123.38
406.212	174.38
406.436	239.38
406.66	146.38
406.883	107.38
407.107	101.38
407.331	92.38
407.555	97.38
407.778	95.38
408.002	84.38
408.226	92.38
408.449	86.38
408.673	92.38
408.896	84.38
409.12	83.38
409.344	77.38
409.567	88.38
409.791	90.38
410.014	79.38
410.238	96.38
410.461	95.38
410.685	101.38
410.908	94.38
411.132	96.38
411.355	118.38
411.578	106.38
411.802	92.38
412.025	99.38
412.249	89.38
412.472	95.38
412.695	102.38
412.919	110.38
413.142	89.38
413.365	99.38
413.589	95.38
413.812	81.38
414.035	109.38
414.258	83.38
414.482	94.38
414.705	80.38
414.928	94.38
415.151	94.38
415.374	103.38
415.597	86.38
415.821	93.38
416.044	77.38
416.267	80.38
416.49	80.38
416.713	75.38
416.936	86.38
417.159	98.38
417.382	96.38
417.605	94.38
417.828	94.38
418.051	100.38
418.274	87.38
418.497	84.38
418.72	71.38
418.943	82.38
419.166	76.38
419.389	75.38
419.611	79.38
419.834	94.38
420.057	89.38
420.28	95.38
420.503	98.38
420.726	97.38
420.948	98.38
421.171	102.38
421.394	100.38
421.617	81.38
421.839	95.38
422.062	85.38
422.285	104.38
422.507	96.38
422.73	96.38
422.953	100.38
423.175	83.38
423.398	88.38
423.621	79.38
423.843	84.38
424.066	84.38
424.288	96.38
424.511	98.38
424.733	97.38
424.956	103.38
425.178	93.38
425.401	90.38
425.623	106.38
425.846	99.38
426.068	85.38
426.291	91.38
426.513	88.38
426.735	85.38
426.958	93.38
427.18	112.38
427.402	145.38
427.625	193.38
427.847	196.38
428.069	152.38
428.292	95.38
428.514	84.38
428.736	85.38
428.958	84.38
429.181	84.38
429.403	96.38
429.625	89.38
429.847	92.38
430.069	100.38
430.292	107.38
430.514	84.38
430.736	95.38
430.958	87.38
431.18	82.38
431.402	93.38
431.624	90.38
431.846	83.38
432.068	78.38
432.29	104.38
432.512	92.38
432.734	85.38
432.956	100.38
433.178	85.38
433.4	96.38
433.622	86.38
433.844	96.38
434.066	90.38
434.287	86.38
434.509	94.38
434.731	97.38
434.953	90.38
435.175	93.38
435.397	98.38
435.618	94.38
435.84	101.38
436.062	121.38
436.284	104.38
436.505	106.38
436.727	94.38
436.949	90.38
437.17	82.38
437.392	94.38
437.614	90.38
437.835	131.38
438.057	124.38
438.278	115.38
438.5	103.38
438.721	119.38
438.943	102.38
439.165	92.38
439.386	83.38
439.608	84.38
439.829	113.38
440.05	128.38
440.272	167.38
440.493	103.38
440.715	86.38
440.936	83.38
441.158	93.38
441.379	86.38
441.6	96.38
441.822	91.38
442.043	89.38
442.264	95.38
442.486	99.38
442.707	86.38
442.928	120.38
443.149	151.38
443.371	125.38
443.592	115.38
443.813	124.38
444.034	112.38
444.255	92.38
444.476	88.38
444.698	86.38
444.919	74.38
445.14	112.38
445.361	125.38
445.582	108.38
445.803	150.38
446.024	161.38
446.245	130.38
446.466	117.38
446.687	86.38
446.908	84.38
447.129	80.38
447.35	85.38
447.571	100.38
447.792	98.38
448.013	91.38
448.234	114.38
448.455	103.38
448.675	97.38
448.896	130.38
449.117	111.38
449.338	101.38
449.559	140.38
449.779	160.38
450	98.38
450.221	82.38
450.442	108.38
450.662	91.38
450.883	100.38
451.104	130.38
451.324	92.38
451.545	75.38
451.766	75.38
451.986	82.38
452.207	87.38
452.428	98.38
452.648	103.38
452.869	109.38
453.089	106.38
453.31	122.38
453.53	91.38
453.751	99.38
453.971	98.38
454.192	99.38
454.412	88.38
454.633	86.38
454.853	69.38
455.073	86.38
455.294	96.38
455.514	100.38
455.734	102.38
455.955	89.38
456.175	82.38
456.395	77.38
456.616	85.38
456.836	78.38
457.056	84.38
457.276	74.38
457.497	90.38
457.717	86.38
457.937	89.38
458.157	95.38
458.377	98.38
458.598	114.38
458.818	146.38
459.038	164.38
459.258	123.38
459.478	91.38
459.698	95.38
459.918	90.38
460.138	92.38
460.358	94.38
460.578	77.38
460.798	83.38
461.018	85.38
461.238	101.38
461.458	94.38
461.678	79.38
461.898	81.38
462.118	90.38
462.338	84.38
462.558	92.38
462.777	87.38
462.997	86.38
463.217	88.38
463.437	69.38
463.657	102.38
463.876	85.38
464.096	79.38
464.316	89.38
464.536	94.38
464.755	101.38
464.975	104.38
465.195	181.38
465.414	195.38
465.634	88.38
465.854	94.38
466.073	97.38
466.293	87.38
466.512	91.38
466.732	78.38
466.951	90.38
467.171	90.38
467.391	95.38
467.61	103.38
467.829	119.38
468.049	252.38
468.268	332.38
468.488	128.38
468.707	87.38
468.927	95.38
469.146	91.38
469.365	99.38
469.585	83.38
469.804	95.38
470.023	89.38
470.243	96.38
470.462	100.38
470.681	112.38
470.901	92.38
471.12	96.38
471.339	87.38
471.558	94.38
471.777	110.38
471.997	172.38
472.216	483.38
472.435	980.38
472.654	275.38
472.873	104.38
473.092	87.38
473.311	98.38
473.53	98.38
473.749	106.38
473.968	94.38
474.187	111.38
474.406	90.38
474.625	91.38
474.844	83.38
475.063	83.38
475.282	103.38
475.501	92.38
475.72	98.38
475.939	88.38
476.158	87.38
476.377	82.38
476.596	94.38
476.814	98.38
477.033	98.38
477.252	94.38
477.471	96.38
477.69	92.38
477.908	109.38
478.127	72.38
478.346	107.38
478.564	96.38
478.783	92.38
479.002	94.38
479.22	102.38
479.439	110.38
479.658	110.38
479.876	98.38
480.095	114.38
480.313	123.38
480.532	128.38
480.751	174.38
480.969	475.38
481.188	1726.38
481.406	1012.38
481.624	191.38
481.843	98.38
482.061	94.38
482.28	101.38
482.498	88.38
482.717	68.38
482.935	90.38
483.153	82.38
483.372	91.38
483.59	99.38
483.808	94.38
484.027	101.38
484.245	107.38
484.463	91.38
484.681	88.38
484.9	93.38
485.118	93.38
485.336	99.38
485.554	102.38
485.772	88.38
485.99	98.38
486.209	107.38
486.427	106.38
486.645	103.38
486.863	105.38
487.081	109.38
487.299	90.38
487.517	90.38
487.735	93.38
487.953	93.38
488.171	84.38
488.389	87.38
488.607	82.38
488.825	74.38
489.043	96.38
489.261	95.38
489.479	98.38
489.696	86.38
489.914	95.38
490.132	88.38
490.35	95.38
490.568	100.38
490.786	84.38
491.003	74.38
491.221	87.38
491.439	102.38
491.657	82.38
491.874	102.38
492.092	96.38
492.31	100.38
492.527	86.38
492.745	71.38
492.963	86.38
493.18	102.38
493.398	95.38
493.615	95.38
493.833	105.38
494.05	91.38
494.268	83.38
494.485	92.38
494.703	92.38
494.92	71.38
495.138	101.38
495.355	95.38
495.573	86.38
495.79	70.38
496.008	88.38
496.225	84.38
496.442	105.38
496.66	106.38
496.877	85.38
497.094	91.38
497.312	98.38
497.529	93.38
497.746	96.38
497.963	95.38
498.181	94.38
498.398	89.38
498.615	129.38
498.832	104.38
499.049	98.38
499.267	87.38
499.484	105.38
499.701	93.38
499.918	87.38
500.135	86.38
500.352	89.38
500.569	78.38
500.786	94.38
501.003	99.38
501.22	94.38
501.437	98.38
501.654	104.38
501.871	110.38
502.088	86.38
502.305	92.38
502.522	85.38
502.739	101.38
502.956	94.38
503.172	94.38
503.389	90.38
503.606	108.38
503.823	95.38
504.04	103.38
504.256	90.38
504.473	83.38
504.69	86.38
504.907	97.38
505.123	89.38
505.34	87.38
505.557	92.38
505.773	106.38
505.99	82.38
506.207	88.38
506.423	78.38
506.64	93.38
506.856	92.38
507.073	106.38
507.289	89.38
507.506	95.38
507.722	111.38
507.939	110.38
508.155	96.38
508.372	80.38
508.588	86.38
508.805	103.38
509.021	100.38
509.238	98.38
509.454	99.38
509.67	101.38
509.887	110.38
510.103	135.38
510.319	204.38
510.536	716.38
510.752	2209.38
510.968	606.38
511.184	152.38
511.401	120.38
511.617	102.38
511.833	95.38
512.049	101.38
512.265	84.38
512.481	96.38
512.698	96.38
512.914	78.38
513.13	92.38
513.346	100.38
513.562	96.38
513.778	92.38
513.994	92.38
514.21	103.38
514.426	120.38
514.642	142.38
