Data from Circ_1990_H10_HRD10591_00098.txt Node
Date: Wed Jan 03 11:55:23 EST 2024
User: Yrep
Spectrometer: HR+D1059
Trigger mode: 1
Integration Time (sec): 1.000000E-1
Scans to average: 1
Electric dark correction enabled: true
Nonlinearity correction enabled: false
Boxcar width: 0
XAxis mode: Wavelengths
Number of Pixels in Spectrum: 2048
>>>>>Begin Spectral Data<<<<<
223.165	-33.19
223.4	-33.19
223.635	-33.19
223.869	-11.19
224.104	-8.19
224.338	-35.19
224.573	-13.19
224.808	-21.19
225.042	-9.19
225.277	4.81
225.511	-1.19
225.746	1.81
225.98	9.81
226.215	11.81
226.449	15.81
226.683	25.81
226.918	19.81
227.152	42.81
227.387	39.81
227.621	41.81
227.856	40.81
228.09	40.81
228.324	54.81
228.559	51.81
228.793	67.81
229.027	79.81
229.262	66.81
229.496	63.81
229.73	85.81
229.964	95.81
230.199	87.81
230.433	77.81
230.667	83.81
230.901	72.81
231.136	66.81
231.37	80.81
231.604	79.81
231.838	76.81
232.072	91.81
232.306	81.81
232.541	87.81
232.775	68.81
233.009	85.81
233.243	89.81
233.477	72.81
233.711	84.81
233.945	83.81
234.179	85.81
234.413	77.81
234.647	86.81
234.881	75.81
235.115	84.81
235.349	75.81
235.583	75.81
235.817	71.81
236.051	93.81
236.285	79.81
236.519	74.81
236.753	86.81
236.987	96.81
237.221	83.81
237.455	98.81
237.689	67.81
237.922	70.81
238.156	71.81
238.39	85.81
238.624	77.81
238.858	81.81
239.091	69.81
239.325	61.81
239.559	76.81
239.793	66.81
240.027	71.81
240.26	87.81
240.494	88.81
240.728	80.81
240.961	77.81
241.195	66.81
241.429	76.81
241.662	81.81
241.896	82.81
242.13	90.81
242.363	81.81
242.597	70.81
242.83	76.81
243.064	93.81
243.298	78.81
243.531	89.81
243.765	76.81
243.998	85.81
244.232	83.81
244.465	83.81
244.699	76.81
244.932	75.81
245.166	67.81
245.399	85.81
245.633	83.81
245.866	67.81
246.099	72.81
246.333	76.81
246.566	85.81
246.8	79.81
247.033	72.81
247.266	74.81
247.5	83.81
247.733	87.81
247.966	83.81
248.2	85.81
248.433	80.81
248.666	83.81
248.899	81.81
249.133	81.81
249.366	87.81
249.599	94.81
249.832	74.81
250.066	77.81
250.299	85.81
250.532	73.81
250.765	80.81
250.998	85.81
251.231	70.81
251.465	84.81
251.698	78.81
251.931	96.81
252.164	93.81
252.397	94.81
252.63	92.81
252.863	89.81
253.096	74.81
253.329	84.81
253.562	80.81
253.795	81.81
254.028	81.81
254.261	71.81
254.494	81.81
254.727	87.81
254.96	76.81
255.193	82.81
255.426	77.81
255.659	84.81
255.892	86.81
256.124	105.81
256.357	96.81
256.59	95.81
256.823	96.81
257.056	90.81
257.289	92.81
257.521	76.81
257.754	78.81
257.987	84.81
258.22	83.81
258.452	98.81
258.685	85.81
258.918	80.81
259.151	69.81
259.383	66.81
259.616	80.81
259.849	91.81
260.081	102.81
260.314	75.81
260.547	81.81
260.779	95.81
261.012	92.81
261.244	90.81
261.477	94.81
261.71	88.81
261.942	110.81
262.175	113.81
262.407	105.81
262.64	86.81
262.872	89.81
263.105	83.81
263.337	86.81
263.57	68.81
263.802	76.81
264.035	90.81
264.267	86.81
264.499	94.81
264.732	80.81
264.964	71.81
265.197	91.81
265.429	86.81
265.661	85.81
265.894	83.81
266.126	87.81
266.358	83.81
266.591	73.81
266.823	91.81
267.055	92.81
267.287	82.81
267.52	79.81
267.752	76.81
267.984	87.81
268.216	69.81
268.448	84.81
268.681	79.81
268.913	79.81
269.145	85.81
269.377	83.81
269.609	71.81
269.841	90.81
270.073	92.81
270.306	85.81
270.538	87.81
270.77	86.81
271.002	92.81
271.234	99.81
271.466	98.81
271.698	87.81
271.93	80.81
272.162	72.81
272.394	94.81
272.626	91.81
272.858	84.81
273.09	91.81
273.322	79.81
273.553	80.81
273.785	95.81
274.017	93.81
274.249	102.81
274.481	83.81
274.713	83.81
274.945	91.81
275.176	97.81
275.408	95.81
275.64	95.81
275.872	98.81
276.104	90.81
276.335	88.81
276.567	114.81
276.799	112.81
277.031	132.81
277.262	152.81
277.494	119.81
277.726	102.81
277.957	83.81
278.189	78.81
278.421	86.81
278.652	96.81
278.884	87.81
279.115	92.81
279.347	91.81
279.579	100.81
279.81	114.81
280.042	129.81
280.273	168.81
280.505	124.81
280.736	102.81
280.968	91.81
281.199	80.81
281.431	81.81
281.662	93.81
281.894	106.81
282.125	99.81
282.356	118.81
282.588	163.81
282.819	150.81
283.051	92.81
283.282	88.81
283.513	87.81
283.745	79.81
283.976	105.81
284.207	91.81
284.439	99.81
284.67	82.81
284.901	92.81
285.132	80.81
285.364	83.81
285.595	98.81
285.826	81.81
286.057	87.81
286.288	84.81
286.52	87.81
286.751	88.81
286.982	90.81
287.213	89.81
287.444	92.81
287.675	95.81
287.906	76.81
288.138	91.81
288.369	87.81
288.6	102.81
288.831	85.81
289.062	87.81
289.293	86.81
289.524	81.81
289.755	90.81
289.986	95.81
290.217	90.81
290.448	83.81
290.679	84.81
290.91	88.81
291.141	99.81
291.371	99.81
291.602	98.81
291.833	87.81
292.064	85.81
292.295	110.81
292.526	85.81
292.757	102.81
292.987	91.81
293.218	95.81
293.449	92.81
293.68	85.81
293.91	89.81
294.141	94.81
294.372	94.81
294.603	91.81
294.833	71.81
295.064	95.81
295.295	103.81
295.525	88.81
295.756	104.81
295.987	114.81
296.217	149.81
296.448	120.81
296.679	91.81
296.909	86.81
297.14	91.81
297.37	77.81
297.601	88.81
297.831	76.81
298.062	86.81
298.292	88.81
298.523	79.81
298.753	102.81
298.984	86.81
299.214	77.81
299.445	93.81
299.675	102.81
299.905	79.81
300.136	86.81
300.366	81.81
300.597	96.81
300.827	104.81
301.057	120.81
301.288	118.81
301.518	97.81
301.748	105.81
301.979	105.81
302.209	91.81
302.439	104.81
302.669	95.81
302.9	82.81
303.13	101.81
303.36	111.81
303.59	135.81
303.82	120.81
304.051	97.81
304.281	89.81
304.511	87.81
304.741	95.81
304.971	94.81
305.201	96.81
305.431	94.81
305.661	90.81
305.891	100.81
306.121	103.81
306.352	110.81
306.582	106.81
306.812	98.81
307.042	111.81
307.272	116.81
307.502	129.81
307.731	143.81
307.961	102.81
308.191	71.81
308.421	98.81
308.651	88.81
308.881	89.81
309.111	92.81
309.341	100.81
309.571	98.81
309.8	91.81
310.03	98.81
310.26	110.81
310.49	95.81
310.72	102.81
310.949	106.81
311.179	98.81
311.409	104.81
311.639	116.81
311.868	95.81
312.098	87.81
312.328	88.81
312.557	117.81
312.787	117.81
313.017	109.81
313.246	105.81
313.476	100.81
313.706	104.81
313.935	96.81
314.165	114.81
314.394	86.81
314.624	89.81
314.853	102.81
315.083	92.81
315.312	79.81
315.542	100.81
315.771	96.81
316.001	98.81
316.23	78.81
316.46	80.81
316.689	80.81
316.919	93.81
317.148	110.81
317.377	103.81
317.607	105.81
317.836	88.81
318.065	96.81
318.295	97.81
318.524	100.81
318.753	102.81
318.983	107.81
319.212	98.81
319.441	113.81
319.67	123.81
319.9	82.81
320.129	94.81
320.358	91.81
320.587	104.81
320.816	110.81
321.046	104.81
321.275	93.81
321.504	91.81
321.733	99.81
321.962	100.81
322.191	108.81
322.42	109.81
322.649	113.81
322.878	105.81
323.108	125.81
323.337	127.81
323.566	154.81
323.795	189.81
324.024	220.81
324.253	462.81
324.482	945.81
324.71	2020.81
324.939	2669.81
325.168	961.81
325.397	273.81
325.626	155.81
325.855	143.81
326.084	119.81
326.313	132.81
326.542	166.81
326.77	259.81
326.999	516.81
327.228	1109.81
327.457	2022.81
327.686	1611.81
327.914	505.81
328.143	356.81
328.372	407.81
328.6	261.81
328.829	164.81
329.058	175.81
329.287	168.81
329.515	158.81
329.744	171.81
329.972	302.81
330.201	581.81
330.43	769.81
330.658	384.81
330.887	214.81
331.115	171.81
331.344	118.81
331.572	117.81
331.801	115.81
332.03	112.81
332.258	109.81
332.486	94.81
332.715	104.81
332.943	110.81
333.172	116.81
333.4	111.81
333.629	134.81
333.857	171.81
334.085	277.81
334.314	564.81
334.542	1029.81
334.771	934.81
334.999	277.81
335.227	139.81
335.455	119.81
335.684	117.81
335.912	120.81
336.14	111.81
336.369	103.81
336.597	104.81
336.825	117.81
337.053	91.81
337.281	93.81
337.51	89.81
337.738	102.81
337.966	96.81
338.194	120.81
338.422	104.81
338.65	107.81
338.878	91.81
339.106	89.81
339.334	94.81
339.562	91.81
339.79	99.81
340.018	100.81
340.246	88.81
340.474	96.81
340.702	94.81
340.93	101.81
341.158	112.81
341.386	106.81
341.614	115.81
341.842	97.81
342.07	101.81
342.298	111.81
342.526	92.81
342.754	100.81
342.981	86.81
343.209	101.81
343.437	115.81
343.665	88.81
343.893	96.81
344.12	95.81
344.348	89.81
344.576	91.81
344.804	86.81
345.031	94.81
345.259	113.81
345.487	93.81
345.714	103.81
345.942	98.81
346.17	98.81
346.397	98.81
346.625	97.81
346.853	99.81
347.08	94.81
347.308	96.81
347.535	107.81
347.763	108.81
347.99	98.81
348.218	106.81
348.445	86.81
348.673	98.81
348.9	98.81
349.128	98.81
349.355	88.81
349.583	82.81
349.81	113.81
350.037	109.81
350.265	95.81
350.492	101.81
350.72	115.81
350.947	100.81
351.174	114.81
351.402	104.81
351.629	96.81
351.856	102.81
352.083	101.81
352.311	112.81
352.538	128.81
352.765	112.81
352.992	110.81
353.22	112.81
353.447	101.81
353.674	111.81
353.901	94.81
354.128	92.81
354.355	94.81
354.583	84.81
354.81	99.81
355.037	97.81
355.264	94.81
355.491	87.81
355.718	84.81
355.945	95.81
356.172	88.81
356.399	99.81
356.626	78.81
356.853	99.81
357.08	95.81
357.307	101.81
357.534	92.81
357.761	93.81
357.988	87.81
358.215	94.81
358.441	99.81
358.668	97.81
358.895	97.81
359.122	93.81
359.349	88.81
359.576	101.81
359.802	107.81
360.029	123.81
360.256	105.81
360.483	126.81
360.709	79.81
360.936	102.81
361.163	108.81
361.39	99.81
361.616	121.81
361.843	97.81
362.07	105.81
362.296	91.81
362.523	91.81
362.749	93.81
362.976	113.81
363.203	89.81
363.429	87.81
363.656	108.81
363.882	93.81
364.109	94.81
364.335	91.81
364.562	84.81
364.788	103.81
365.015	93.81
365.241	112.81
365.468	129.81
365.694	108.81
365.92	104.81
366.147	99.81
366.373	82.81
366.599	79.81
366.826	77.81
367.052	92.81
367.278	95.81
367.505	96.81
367.731	94.81
367.957	84.81
368.184	107.81
368.41	101.81
368.636	118.81
368.862	109.81
369.089	111.81
369.315	91.81
369.541	95.81
369.767	96.81
369.993	89.81
370.219	84.81
370.445	84.81
370.672	81.81
370.898	80.81
371.124	92.81
371.35	99.81
371.576	90.81
371.802	89.81
372.028	87.81
372.254	78.81
372.48	101.81
372.706	92.81
372.932	101.81
373.158	95.81
373.384	96.81
373.61	95.81
373.835	89.81
374.061	85.81
374.287	105.81
374.513	82.81
374.739	93.81
374.965	82.81
375.191	90.81
375.416	95.81
375.642	87.81
375.868	80.81
376.094	97.81
376.319	89.81
376.545	97.81
376.771	75.81
376.997	87.81
377.222	87.81
377.448	86.81
377.674	91.81
377.899	92.81
378.125	100.81
378.35	96.81
378.576	100.81
378.802	89.81
379.027	99.81
379.253	87.81
379.478	92.81
379.704	94.81
379.929	96.81
380.155	111.81
380.38	96.81
380.606	96.81
380.831	97.81
381.057	95.81
381.282	91.81
381.507	84.81
381.733	92.81
381.958	99.81
382.184	86.81
382.409	105.81
382.634	95.81
382.86	86.81
383.085	84.81
383.31	98.81
383.535	87.81
383.761	104.81
383.986	94.81
384.211	97.81
384.436	116.81
384.662	102.81
384.887	109.81
385.112	112.81
385.337	116.81
385.562	114.81
385.787	117.81
386.013	98.81
386.238	115.81
386.463	112.81
386.688	118.81
386.913	104.81
387.138	102.81
387.363	86.81
387.588	100.81
387.813	100.81
388.038	112.81
388.263	104.81
388.488	124.81
388.713	96.81
388.938	100.81
389.163	75.81
389.387	87.81
389.612	92.81
389.837	102.81
390.062	86.81
390.287	99.81
390.512	97.81
390.736	85.81
390.961	90.81
391.186	92.81
391.411	80.81
391.636	100.81
391.86	85.81
392.085	93.81
392.31	82.81
392.534	85.81
392.759	91.81
392.984	89.81
393.208	92.81
393.433	86.81
393.658	87.81
393.882	71.81
394.107	89.81
394.331	96.81
394.556	82.81
394.78	90.81
395.005	77.81
395.229	98.81
395.454	79.81
395.678	94.81
395.903	71.81
396.127	87.81
396.352	94.81
396.576	99.81
396.801	100.81
397.025	79.81
397.249	83.81
397.474	73.81
397.698	102.81
397.922	75.81
398.147	99.81
398.371	83.81
398.595	87.81
398.82	91.81
399.044	89.81
399.268	82.81
399.492	78.81
399.717	97.81
399.941	92.81
400.165	99.81
400.389	71.81
400.613	81.81
400.837	78.81
401.062	94.81
401.286	87.81
401.51	94.81
401.734	80.81
401.958	94.81
402.182	153.81
402.406	178.81
402.63	121.81
402.854	98.81
403.078	101.81
403.302	104.81
403.526	85.81
403.75	95.81
403.974	83.81
404.198	86.81
404.422	97.81
404.645	87.81
404.869	99.81
405.093	100.81
405.317	133.81
405.541	138.81
405.765	102.81
405.988	122.81
406.212	179.81
406.436	252.81
406.66	169.81
406.883	121.81
407.107	105.81
407.331	98.81
407.555	104.81
407.778	108.81
408.002	110.81
408.226	101.81
408.449	82.81
408.673	93.81
408.896	84.81
409.12	113.81
409.344	99.81
409.567	93.81
409.791	90.81
410.014	115.81
410.238	87.81
410.461	102.81
410.685	100.81
410.908	100.81
411.132	96.81
411.355	99.81
411.578	95.81
411.802	87.81
412.025	91.81
412.249	106.81
412.472	108.81
412.695	136.81
412.919	107.81
413.142	103.81
413.365	102.81
413.589	86.81
413.812	97.81
414.035	82.81
414.258	97.81
414.482	94.81
414.705	96.81
414.928	92.81
415.151	92.81
415.374	92.81
415.597	89.81
415.821	91.81
416.044	81.81
416.267	96.81
416.49	106.81
416.713	87.81
416.936	88.81
417.159	94.81
417.382	88.81
417.605	82.81
417.828	102.81
418.051	99.81
418.274	85.81
418.497	90.81
418.72	95.81
418.943	104.81
419.166	96.81
419.389	87.81
419.611	85.81
419.834	92.81
420.057	93.81
420.28	90.81
420.503	95.81
420.726	91.81
420.948	97.81
421.171	94.81
421.394	95.81
421.617	96.81
421.839	92.81
422.062	88.81
422.285	93.81
422.507	111.81
422.73	123.81
422.953	110.81
423.175	107.81
423.398	89.81
423.621	90.81
423.843	90.81
424.066	88.81
424.288	102.81
424.511	86.81
424.733	107.81
424.956	117.81
425.178	115.81
425.401	99.81
425.623	86.81
425.846	95.81
426.068	102.81
426.291	100.81
426.513	80.81
426.735	96.81
426.958	100.81
427.18	106.81
427.402	164.81
427.625	222.81
427.847	191.81
428.069	175.81
428.292	116.81
428.514	98.81
428.736	86.81
428.958	95.81
429.181	89.81
429.403	88.81
429.625	88.81
429.847	96.81
430.069	103.81
430.292	91.81
430.514	94.81
430.736	90.81
430.958	80.81
431.18	89.81
431.402	84.81
431.624	88.81
431.846	74.81
432.068	93.81
432.29	92.81
432.512	88.81
432.734	93.81
432.956	94.81
433.178	91.81
433.4	100.81
433.622	98.81
433.844	102.81
434.066	104.81
434.287	99.81
434.509	87.81
434.731	84.81
434.953	108.81
435.175	99.81
435.397	83.81
435.618	104.81
435.84	105.81
436.062	126.81
436.284	140.81
436.505	108.81
436.727	98.81
436.949	103.81
437.17	88.81
437.392	91.81
437.614	102.81
437.835	127.81
438.057	147.81
438.278	131.81
438.5	112.81
438.721	142.81
438.943	118.81
439.165	87.81
439.386	90.81
439.608	85.81
439.829	97.81
440.05	132.81
440.272	170.81
440.493	107.81
440.715	100.81
440.936	96.81
441.158	86.81
441.379	84.81
441.6	90.81
441.822	90.81
442.043	92.81
442.264	121.81
442.486	116.81
442.707	93.81
442.928	103.81
443.149	160.81
443.371	163.81
443.592	125.81
443.813	139.81
444.034	118.81
444.255	101.81
444.476	75.81
444.698	102.81
444.919	90.81
445.14	136.81
445.361	123.81
445.582	121.81
445.803	179.81
446.024	160.81
446.245	175.81
446.466	124.81
446.687	93.81
446.908	111.81
447.129	85.81
447.35	79.81
447.571	96.81
447.792	99.81
448.013	97.81
448.234	123.81
448.455	89.81
448.675	114.81
448.896	129.81
449.117	129.81
449.338	117.81
449.559	167.81
449.779	159.81
450	111.81
450.221	94.81
450.442	102.81
450.662	109.81
450.883	116.81
451.104	131.81
451.324	112.81
451.545	99.81
451.766	83.81
451.986	86.81
452.207	103.81
452.428	101.81
452.648	95.81
452.869	116.81
453.089	131.81
453.31	125.81
453.53	104.81
453.751	106.81
453.971	107.81
454.192	125.81
454.412	97.81
454.633	79.81
454.853	87.81
455.073	89.81
455.294	87.81
455.514	112.81
455.734	104.81
455.955	93.81
456.175	86.81
456.395	91.81
456.616	76.81
456.836	91.81
457.056	94.81
457.276	80.81
457.497	75.81
457.717	95.81
457.937	92.81
458.157	101.81
458.377	114.81
458.598	122.81
458.818	179.81
459.038	199.81
459.258	133.81
459.478	109.81
459.698	89.81
459.918	87.81
460.138	83.81
460.358	90.81
460.578	87.81
460.798	76.81
461.018	94.81
461.238	90.81
461.458	95.81
461.678	92.81
461.898	83.81
462.118	82.81
462.338	79.81
462.558	95.81
462.777	88.81
462.997	88.81
463.217	87.81
463.437	91.81
463.657	83.81
463.876	88.81
464.096	95.81
464.316	93.81
464.536	104.81
464.755	91.81
464.975	120.81
465.195	217.81
465.414	187.81
465.634	107.81
465.854	100.81
466.073	94.81
466.293	88.81
466.512	97.81
466.732	81.81
466.951	92.81
467.171	93.81
467.391	105.81
467.61	130.81
467.829	163.81
468.049	345.81
468.268	453.81
468.488	165.81
468.707	100.81
468.927	99.81
469.146	102.81
469.365	94.81
469.585	107.81
469.804	106.81
470.023	109.81
470.243	105.81
470.462	99.81
470.681	123.81
470.901	95.81
471.12	98.81
471.339	87.81
471.558	99.81
471.777	127.81
471.997	210.81
472.216	634.81
472.435	1329.81
472.654	339.81
472.873	122.81
473.092	99.81
473.311	99.81
473.53	97.81
473.749	88.81
473.968	103.81
474.187	123.81
474.406	107.81
474.625	107.81
474.844	91.81
475.063	86.81
475.282	84.81
475.501	82.81
475.72	96.81
475.939	83.81
476.158	109.81
476.377	104.81
476.596	100.81
476.814	106.81
477.033	99.81
477.252	91.81
477.471	95.81
477.69	94.81
477.908	95.81
478.127	85.81
478.346	104.81
478.564	85.81
478.783	94.81
479.002	100.81
479.22	90.81
479.439	113.81
479.658	119.81
479.876	117.81
480.095	100.81
480.313	120.81
480.532	126.81
480.751	195.81
480.969	601.81
481.188	2351.81
481.406	1323.81
481.624	223.81
481.843	113.81
482.061	91.81
482.28	98.81
482.498	82.81
482.717	80.81
482.935	106.81
483.153	97.81
483.372	99.81
483.59	91.81
483.808	94.81
484.027	97.81
484.245	104.81
484.463	97.81
484.681	84.81
484.9	99.81
485.118	88.81
485.336	81.81
485.554	96.81
485.772	100.81
485.99	111.81
486.209	117.81
486.427	95.81
486.645	126.81
486.863	124.81
487.081	96.81
487.299	95.81
487.517	102.81
487.735	104.81
487.953	88.81
488.171	97.81
488.389	121.81
488.607	99.81
488.825	90.81
489.043	89.81
489.261	105.81
489.479	96.81
489.696	103.81
489.914	83.81
490.132	92.81
490.35	93.81
490.568	98.81
490.786	98.81
491.003	89.81
491.221	87.81
491.439	98.81
491.657	100.81
491.874	97.81
492.092	86.81
492.31	95.81
492.527	94.81
492.745	101.81
492.963	113.81
493.18	86.81
493.398	95.81
493.615	116.81
493.833	103.81
494.05	111.81
494.268	92.81
494.485	84.81
494.703	82.81
494.92	104.81
495.138	95.81
495.355	85.81
495.573	96.81
495.79	101.81
496.008	81.81
496.225	97.81
496.442	96.81
496.66	86.81
496.877	95.81
497.094	90.81
497.312	91.81
497.529	90.81
497.746	84.81
497.963	86.81
498.181	106.81
498.398	110.81
498.615	103.81
498.832	118.81
499.049	77.81
499.267	104.81
499.484	100.81
499.701	101.81
499.918	86.81
500.135	96.81
500.352	94.81
500.569	89.81
500.786	101.81
501.003	98.81
501.22	89.81
501.437	85.81
501.654	98.81
501.871	113.81
502.088	92.81
502.305	101.81
502.522	93.81
502.739	96.81
502.956	103.81
503.172	91.81
503.389	104.81
503.606	126.81
503.823	102.81
504.04	104.81
504.256	95.81
504.473	86.81
504.69	103.81
504.907	104.81
505.123	93.81
505.34	100.81
505.557	97.81
505.773	99.81
505.99	90.81
506.207	80.81
506.423	85.81
506.64	75.81
506.856	100.81
507.073	86.81
507.289	92.81
507.506	99.81
507.722	128.81
507.939	117.81
508.155	94.81
508.372	89.81
508.588	87.81
508.805	103.81
509.021	113.81
509.238	116.81
509.454	103.81
509.67	98.81
509.887	125.81
510.103	119.81
510.319	220.81
510.536	790.81
510.752	2432.81
510.968	679.81
511.184	170.81
511.401	109.81
511.617	109.81
511.833	97.81
512.049	85.81
512.265	95.81
512.481	99.81
512.698	105.81
512.914	106.81
513.13	84.81
513.346	94.81
513.562	101.81
