Data from Circ_1990_H10_HRD10591_00052.txt Node
Date: Wed Jan 03 11:55:14 EST 2024
User: Yrep
Spectrometer: HR+D1059
Trigger mode: 1
Integration Time (sec): 1.000000E-1
Scans to average: 1
Electric dark correction enabled: true
Nonlinearity correction enabled: false
Boxcar width: 0
XAxis mode: Wavelengths
Number of Pixels in Spectrum: 2048
>>>>>Begin Spectral Data<<<<<
223.165	-13.5
223.4	-13.5
223.635	-13.5
223.869	-21.5
224.104	-18.5
224.338	-20.5
224.573	-5.5
224.808	-22.5
225.042	-14.5
225.277	-7.5
225.511	-2.5
225.746	-19.5
225.98	15.5
226.215	25.5
226.449	24.5
226.683	19.5
226.918	25.5
227.152	35.5
227.387	30.5
227.621	37.5
227.856	33.5
228.09	37.5
228.324	50.5
228.559	56.5
228.793	64.5
229.027	69.5
229.262	70.5
229.496	75.5
229.73	72.5
229.964	88.5
230.199	68.5
230.433	66.5
230.667	84.5
230.901	62.5
231.136	66.5
231.37	88.5
231.604	83.5
231.838	74.5
232.072	81.5
232.306	80.5
232.541	58.5
232.775	85.5
233.009	72.5
233.243	82.5
233.477	87.5
233.711	68.5
233.945	76.5
234.179	84.5
234.413	87.5
234.647	72.5
234.881	73.5
235.115	85.5
235.349	78.5
235.583	73.5
235.817	78.5
236.051	78.5
236.285	72.5
236.519	88.5
236.753	79.5
236.987	82.5
237.221	80.5
237.455	96.5
237.689	84.5
237.922	87.5
238.156	79.5
238.39	64.5
238.624	79.5
238.858	72.5
239.091	72.5
239.325	72.5
239.559	81.5
239.793	77.5
240.027	75.5
240.26	80.5
240.494	54.5
240.728	72.5
240.961	78.5
241.195	78.5
241.429	72.5
241.662	81.5
241.896	84.5
242.13	85.5
242.363	68.5
242.597	83.5
242.83	80.5
243.064	72.5
243.298	81.5
243.531	68.5
243.765	82.5
243.998	78.5
244.232	81.5
244.465	74.5
244.699	63.5
244.932	79.5
245.166	77.5
245.399	72.5
245.633	60.5
245.866	83.5
246.099	80.5
246.333	74.5
246.566	80.5
246.8	69.5
247.033	77.5
247.266	91.5
247.5	77.5
247.733	83.5
247.966	75.5
248.2	81.5
248.433	78.5
248.666	79.5
248.899	78.5
249.133	92.5
249.366	91.5
249.599	82.5
249.832	94.5
250.066	75.5
250.299	72.5
250.532	73.5
250.765	65.5
250.998	73.5
251.231	94.5
251.465	89.5
251.698	65.5
251.931	83.5
252.164	82.5
252.397	81.5
252.63	84.5
252.863	92.5
253.096	76.5
253.329	81.5
253.562	76.5
253.795	69.5
254.028	91.5
254.261	80.5
254.494	78.5
254.727	80.5
254.96	73.5
255.193	82.5
255.426	94.5
255.659	90.5
255.892	75.5
256.124	82.5
256.357	84.5
256.59	82.5
256.823	75.5
257.056	79.5
257.289	87.5
257.521	83.5
257.754	73.5
257.987	78.5
258.22	78.5
258.452	81.5
258.685	83.5
258.918	76.5
259.151	94.5
259.383	77.5
259.616	83.5
259.849	89.5
260.081	69.5
260.314	80.5
260.547	72.5
260.779	77.5
261.012	82.5
261.244	94.5
261.477	93.5
261.71	94.5
261.942	101.5
262.175	112.5
262.407	85.5
262.64	88.5
262.872	84.5
263.105	77.5
263.337	83.5
263.57	85.5
263.802	86.5
264.035	81.5
264.267	65.5
264.499	80.5
264.732	86.5
264.964	81.5
265.197	86.5
265.429	78.5
265.661	80.5
265.894	89.5
266.126	85.5
266.358	78.5
266.591	100.5
266.823	90.5
267.055	82.5
267.287	78.5
267.52	81.5
267.752	82.5
267.984	69.5
268.216	72.5
268.448	84.5
268.681	85.5
268.913	85.5
269.145	86.5
269.377	78.5
269.609	84.5
269.841	88.5
270.073	82.5
270.306	81.5
270.538	88.5
270.77	86.5
271.002	81.5
271.234	91.5
271.466	88.5
271.698	95.5
271.93	89.5
272.162	89.5
272.394	98.5
272.626	90.5
272.858	84.5
273.09	74.5
273.322	87.5
273.553	75.5
273.785	82.5
274.017	75.5
274.249	81.5
274.481	90.5
274.713	88.5
274.945	76.5
275.176	76.5
275.408	91.5
275.64	85.5
275.872	95.5
276.104	84.5
276.335	101.5
276.567	97.5
276.799	114.5
277.031	113.5
277.262	102.5
277.494	102.5
277.726	91.5
277.957	96.5
278.189	90.5
278.421	92.5
278.652	96.5
278.884	76.5
279.115	95.5
279.347	88.5
279.579	78.5
279.81	78.5
280.042	98.5
280.273	125.5
280.505	125.5
280.736	96.5
280.968	78.5
281.199	76.5
281.431	82.5
281.662	77.5
281.894	85.5
282.125	83.5
282.356	121.5
282.588	131.5
282.819	118.5
283.051	88.5
283.282	85.5
283.513	90.5
283.745	77.5
283.976	76.5
284.207	92.5
284.439	84.5
284.67	86.5
284.901	87.5
285.132	88.5
285.364	88.5
285.595	88.5
285.826	89.5
286.057	102.5
286.288	84.5
286.52	91.5
286.751	72.5
286.982	98.5
287.213	91.5
287.444	82.5
287.675	84.5
287.906	96.5
288.138	75.5
288.369	90.5
288.6	94.5
288.831	87.5
289.062	81.5
289.293	86.5
289.524	82.5
289.755	89.5
289.986	82.5
290.217	84.5
290.448	84.5
290.679	84.5
290.91	85.5
291.141	87.5
291.371	68.5
291.602	89.5
291.833	92.5
292.064	94.5
292.295	73.5
292.526	82.5
292.757	85.5
292.987	89.5
293.218	88.5
293.449	85.5
293.68	69.5
293.91	87.5
294.141	79.5
294.372	89.5
294.603	86.5
294.833	97.5
295.064	85.5
295.295	90.5
295.525	95.5
295.756	85.5
295.987	106.5
296.217	138.5
296.448	123.5
296.679	81.5
296.909	93.5
297.14	68.5
297.37	102.5
297.601	81.5
297.831	89.5
298.062	77.5
298.292	90.5
298.523	82.5
298.753	89.5
298.984	96.5
299.214	102.5
299.445	98.5
299.675	109.5
299.905	89.5
300.136	88.5
300.366	77.5
300.597	88.5
300.827	95.5
301.057	89.5
301.288	114.5
301.518	88.5
301.748	92.5
301.979	107.5
302.209	96.5
302.439	98.5
302.669	81.5
302.9	88.5
303.13	88.5
303.36	78.5
303.59	99.5
303.82	101.5
304.051	97.5
304.281	93.5
304.511	85.5
304.741	83.5
304.971	80.5
305.201	100.5
305.431	85.5
305.661	77.5
305.891	92.5
306.121	89.5
306.352	83.5
306.582	98.5
306.812	93.5
307.042	94.5
307.272	100.5
307.502	114.5
307.731	112.5
307.961	96.5
308.191	82.5
308.421	89.5
308.651	85.5
308.881	78.5
309.111	99.5
309.341	89.5
309.571	92.5
309.8	92.5
310.03	97.5
310.26	100.5
310.49	94.5
310.72	94.5
310.949	95.5
311.179	97.5
311.409	100.5
311.639	94.5
311.868	98.5
312.098	99.5
312.328	84.5
312.557	100.5
312.787	102.5
313.017	89.5
313.246	90.5
313.476	91.5
313.706	83.5
313.935	90.5
314.165	108.5
314.394	99.5
314.624	102.5
314.853	94.5
315.083	92.5
315.312	90.5
315.542	77.5
315.771	80.5
316.001	89.5
316.23	86.5
316.46	95.5
316.689	85.5
316.919	90.5
317.148	88.5
317.377	89.5
317.607	98.5
317.836	87.5
318.065	79.5
318.295	85.5
318.524	76.5
318.753	93.5
318.983	87.5
319.212	84.5
319.441	99.5
319.67	109.5
319.9	92.5
320.129	96.5
320.358	102.5
320.587	100.5
320.816	96.5
321.046	93.5
321.275	97.5
321.504	93.5
321.733	92.5
321.962	102.5
322.191	96.5
322.42	89.5
322.649	100.5
322.878	104.5
323.108	101.5
323.337	124.5
323.566	124.5
323.795	137.5
324.024	189.5
324.253	357.5
324.482	767.5
324.71	1577.5
324.939	2108.5
325.168	766.5
325.397	229.5
325.626	147.5
325.855	136.5
326.084	125.5
326.313	118.5
326.542	138.5
326.77	206.5
326.999	443.5
327.228	867.5
327.457	1574.5
327.686	1217.5
327.914	376.5
328.143	272.5
328.372	267.5
328.6	182.5
328.829	126.5
329.058	125.5
329.287	141.5
329.515	142.5
329.744	142.5
329.972	201.5
330.201	352.5
330.43	469.5
330.658	258.5
330.887	167.5
331.115	131.5
331.344	94.5
331.572	92.5
331.801	102.5
332.03	112.5
332.258	109.5
332.486	98.5
332.715	88.5
332.943	100.5
333.172	102.5
333.4	91.5
333.629	114.5
333.857	127.5
334.085	203.5
334.314	345.5
334.542	594.5
334.771	578.5
334.999	192.5
335.227	112.5
335.455	95.5
335.684	96.5
335.912	110.5
336.14	103.5
336.369	93.5
336.597	96.5
336.825	95.5
337.053	98.5
337.281	94.5
337.51	88.5
337.738	106.5
337.966	98.5
338.194	104.5
338.422	99.5
338.65	100.5
338.878	99.5
339.106	80.5
339.334	93.5
339.562	73.5
339.79	69.5
340.018	80.5
340.246	91.5
340.474	105.5
340.702	92.5
340.93	72.5
341.158	87.5
341.386	81.5
341.614	101.5
341.842	79.5
342.07	90.5
342.298	96.5
342.526	97.5
342.754	94.5
342.981	98.5
343.209	87.5
343.437	85.5
343.665	98.5
343.893	90.5
344.12	92.5
344.348	78.5
344.576	94.5
344.804	106.5
345.031	102.5
345.259	95.5
345.487	102.5
345.714	72.5
345.942	84.5
346.17	88.5
346.397	89.5
346.625	109.5
346.853	85.5
347.08	86.5
347.308	94.5
347.535	95.5
347.763	91.5
347.99	101.5
348.218	94.5
348.445	112.5
348.673	80.5
348.9	110.5
349.128	94.5
349.355	70.5
349.583	96.5
349.81	93.5
350.037	92.5
350.265	92.5
350.492	83.5
350.72	104.5
350.947	88.5
351.174	98.5
351.402	108.5
351.629	107.5
351.856	107.5
352.083	101.5
352.311	96.5
352.538	97.5
352.765	108.5
352.992	110.5
353.22	95.5
353.447	94.5
353.674	97.5
353.901	99.5
354.128	94.5
354.355	98.5
354.583	112.5
354.81	99.5
355.037	100.5
355.264	88.5
355.491	104.5
355.718	91.5
355.945	82.5
356.172	92.5
356.399	86.5
356.626	83.5
356.853	94.5
357.08	96.5
357.307	104.5
357.534	95.5
357.761	99.5
357.988	89.5
358.215	91.5
358.441	90.5
358.668	79.5
358.895	99.5
359.122	94.5
359.349	79.5
359.576	86.5
359.802	100.5
360.029	113.5
360.256	108.5
360.483	92.5
360.709	84.5
360.936	100.5
361.163	108.5
361.39	100.5
361.616	98.5
361.843	92.5
362.07	87.5
362.296	98.5
362.523	83.5
362.749	88.5
362.976	92.5
363.203	100.5
363.429	84.5
363.656	76.5
363.882	93.5
364.109	85.5
364.335	103.5
364.562	97.5
364.788	100.5
365.015	85.5
365.241	96.5
365.468	97.5
365.694	95.5
365.92	87.5
366.147	90.5
366.373	87.5
366.599	83.5
366.826	85.5
367.052	95.5
367.278	86.5
367.505	93.5
367.731	91.5
367.957	109.5
368.184	88.5
368.41	102.5
368.636	108.5
368.862	109.5
369.089	100.5
369.315	80.5
369.541	95.5
369.767	96.5
369.993	96.5
370.219	92.5
370.445	77.5
370.672	76.5
370.898	90.5
371.124	94.5
371.35	82.5
371.576	86.5
371.802	79.5
372.028	80.5
372.254	77.5
372.48	93.5
372.706	84.5
372.932	81.5
373.158	85.5
373.384	87.5
373.61	89.5
373.835	79.5
374.061	87.5
374.287	97.5
374.513	83.5
374.739	85.5
374.965	85.5
375.191	98.5
375.416	101.5
375.642	83.5
375.868	93.5
376.094	85.5
376.319	89.5
376.545	83.5
376.771	85.5
376.997	82.5
377.222	89.5
377.448	81.5
377.674	94.5
377.899	93.5
378.125	106.5
378.35	98.5
378.576	91.5
378.802	91.5
379.027	102.5
379.253	98.5
379.478	90.5
379.704	89.5
379.929	82.5
380.155	97.5
380.38	86.5
380.606	94.5
380.831	102.5
381.057	97.5
381.282	102.5
381.507	81.5
381.733	100.5
381.958	96.5
382.184	103.5
382.409	108.5
382.634	92.5
382.86	95.5
383.085	94.5
383.31	102.5
383.535	97.5
383.761	102.5
383.986	95.5
384.211	106.5
384.436	101.5
384.662	108.5
384.887	106.5
385.112	96.5
385.337	121.5
385.562	110.5
385.787	119.5
386.013	102.5
386.238	128.5
386.463	113.5
386.688	106.5
386.913	89.5
387.138	130.5
387.363	117.5
387.588	108.5
387.813	103.5
388.038	114.5
388.263	113.5
388.488	124.5
388.713	107.5
388.938	85.5
389.163	93.5
389.387	96.5
389.612	97.5
389.837	94.5
390.062	107.5
390.287	107.5
390.512	86.5
390.736	85.5
390.961	92.5
391.186	81.5
391.411	96.5
391.636	90.5
391.86	87.5
392.085	91.5
392.31	86.5
392.534	96.5
392.759	97.5
392.984	80.5
393.208	93.5
393.433	94.5
393.658	88.5
393.882	97.5
394.107	85.5
394.331	87.5
394.556	87.5
394.78	82.5
395.005	76.5
395.229	88.5
395.454	90.5
395.678	80.5
395.903	91.5
396.127	89.5
396.352	80.5
396.576	85.5
396.801	91.5
397.025	82.5
397.249	81.5
397.474	82.5
397.698	98.5
397.922	85.5
398.147	68.5
398.371	74.5
398.595	74.5
398.82	66.5
399.044	76.5
399.268	80.5
399.492	83.5
399.717	87.5
399.941	94.5
400.165	80.5
400.389	83.5
400.613	74.5
400.837	84.5
401.062	96.5
401.286	91.5
401.51	80.5
401.734	85.5
401.958	101.5
402.182	121.5
402.406	149.5
402.63	133.5
402.854	90.5
403.078	78.5
403.302	82.5
403.526	90.5
403.75	78.5
403.974	81.5
404.198	84.5
404.422	97.5
404.645	94.5
404.869	94.5
405.093	121.5
405.317	117.5
405.541	106.5
405.765	101.5
405.988	120.5
406.212	170.5
406.436	223.5
406.66	140.5
406.883	100.5
407.107	90.5
407.331	76.5
407.555	90.5
407.778	101.5
408.002	85.5
408.226	86.5
408.449	77.5
408.673	82.5
408.896	97.5
409.12	95.5
409.344	84.5
409.567	88.5
409.791	92.5
410.014	86.5
410.238	96.5
410.461	84.5
410.685	91.5
410.908	81.5
411.132	114.5
411.355	94.5
411.578	97.5
411.802	94.5
412.025	97.5
412.249	97.5
412.472	106.5
412.695	95.5
412.919	105.5
413.142	96.5
413.365	109.5
413.589	77.5
413.812	91.5
414.035	98.5
414.258	81.5
414.482	72.5
414.705	94.5
414.928	79.5
415.151	81.5
415.374	85.5
415.597	84.5
415.821	85.5
416.044	84.5
416.267	93.5
416.49	77.5
416.713	102.5
416.936	88.5
417.159	78.5
417.382	84.5
417.605	95.5
417.828	95.5
418.051	96.5
418.274	87.5
418.497	78.5
418.72	82.5
418.943	91.5
419.166	99.5
419.389	94.5
419.611	91.5
419.834	90.5
420.057	95.5
420.28	94.5
420.503	91.5
420.726	81.5
420.948	78.5
421.171	100.5
421.394	101.5
421.617	83.5
421.839	86.5
422.062	102.5
422.285	79.5
422.507	95.5
422.73	102.5
422.953	98.5
423.175	87.5
423.398	81.5
423.621	82.5
423.843	82.5
424.066	97.5
424.288	95.5
424.511	74.5
424.733	105.5
424.956	99.5
425.178	104.5
425.401	92.5
425.623	90.5
425.846	95.5
426.068	100.5
426.291	86.5
426.513	77.5
426.735	84.5
426.958	101.5
427.18	126.5
427.402	142.5
427.625	172.5
427.847	145.5
428.069	132.5
428.292	103.5
428.514	88.5
428.736	84.5
428.958	77.5
429.181	82.5
429.403	102.5
429.625	101.5
429.847	82.5
430.069	99.5
430.292	89.5
430.514	85.5
430.736	83.5
430.958	86.5
431.18	90.5
431.402	83.5
431.624	91.5
431.846	68.5
432.068	74.5
432.29	84.5
432.512	100.5
432.734	92.5
432.956	92.5
433.178	98.5
433.4	111.5
433.622	108.5
433.844	92.5
434.066	82.5
434.287	95.5
434.509	76.5
434.731	85.5
434.953	84.5
435.175	84.5
435.397	95.5
435.618	80.5
435.84	88.5
436.062	120.5
436.284	99.5
436.505	107.5
436.727	94.5
436.949	86.5
437.17	89.5
437.392	94.5
437.614	102.5
437.835	108.5
438.057	109.5
438.278	120.5
438.5	117.5
438.721	117.5
438.943	99.5
439.165	87.5
439.386	85.5
439.608	99.5
439.829	84.5
440.05	108.5
440.272	137.5
440.493	94.5
440.715	96.5
440.936	102.5
441.158	92.5
441.379	87.5
441.6	84.5
441.822	93.5
442.043	105.5
442.264	111.5
442.486	96.5
442.707	98.5
442.928	124.5
443.149	133.5
443.371	130.5
443.592	111.5
443.813	112.5
444.034	95.5
444.255	82.5
444.476	82.5
444.698	96.5
444.919	90.5
445.14	141.5
445.361	125.5
445.582	109.5
445.803	135.5
446.024	133.5
446.245	117.5
446.466	114.5
446.687	94.5
446.908	79.5
447.129	93.5
447.35	97.5
447.571	93.5
447.792	85.5
448.013	91.5
448.234	96.5
448.455	103.5
448.675	110.5
448.896	107.5
449.117	101.5
449.338	107.5
449.559	129.5
449.779	133.5
450	92.5
450.221	70.5
450.442	73.5
450.662	93.5
450.883	106.5
451.104	115.5
451.324	91.5
451.545	85.5
451.766	95.5
451.986	75.5
452.207	85.5
452.428	88.5
452.648	90.5
452.869	95.5
453.089	101.5
453.31	111.5
453.53	73.5
453.751	77.5
453.971	104.5
454.192	107.5
454.412	96.5
454.633	86.5
454.853	84.5
455.073	89.5
455.294	99.5
455.514	90.5
455.734	82.5
455.955	76.5
456.175	76.5
456.395	92.5
456.616	85.5
456.836	97.5
457.056	84.5
457.276	74.5
457.497	82.5
457.717	84.5
457.937	85.5
458.157	78.5
458.377	78.5
458.598	108.5
458.818	142.5
459.038	168.5
459.258	121.5
459.478	96.5
459.698	80.5
459.918	86.5
460.138	87.5
460.358	100.5
460.578	76.5
460.798	80.5
461.018	83.5
461.238	76.5
461.458	82.5
461.678	76.5
461.898	89.5
462.118	86.5
462.338	88.5
462.558	78.5
462.777	72.5
462.997	80.5
463.217	101.5
463.437	87.5
463.657	94.5
463.876	83.5
464.096	97.5
464.316	85.5
464.536	100.5
464.755	82.5
464.975	107.5
465.195	166.5
465.414	152.5
465.634	88.5
465.854	85.5
466.073	97.5
466.293	95.5
466.512	101.5
466.732	77.5
466.951	89.5
467.171	92.5
467.391	98.5
467.61	101.5
467.829	110.5
468.049	220.5
468.268	282.5
468.488	126.5
468.707	104.5
468.927	102.5
469.146	91.5
469.365	90.5
469.585	92.5
469.804	95.5
470.023	95.5
470.243	101.5
470.462	99.5
470.681	110.5
470.901	89.5
471.12	84.5
471.339	94.5
471.558	90.5
471.777	104.5
471.997	145.5
472.216	397.5
472.435	812.5
472.654	249.5
472.873	95.5
473.092	91.5
473.311	76.5
473.53	80.5
473.749	95.5
473.968	91.5
474.187	116.5
474.406	97.5
474.625	90.5
474.844	98.5
475.063	87.5
475.282	66.5
475.501	86.5
475.72	96.5
475.939	93.5
476.158	80.5
476.377	84.5
476.596	82.5
476.814	91.5
477.033	84.5
477.252	100.5
477.471	83.5
477.69	85.5
477.908	90.5
478.127	70.5
478.346	88.5
478.564	86.5
478.783	104.5
479.002	91.5
479.22	85.5
479.439	103.5
479.658	102.5
479.876	93.5
480.095	89.5
480.313	97.5
480.532	121.5
480.751	138.5
480.969	387.5
481.188	1390.5
481.406	845.5
481.624	155.5
481.843	107.5
482.061	84.5
482.28	81.5
482.498	83.5
482.717	87.5
482.935	90.5
483.153	89.5
483.372	83.5
483.59	95.5
483.808	95.5
484.027	94.5
484.245	110.5
484.463	76.5
484.681	88.5
484.9	88.5
485.118	90.5
485.336	102.5
485.554	91.5
485.772	95.5
485.99	98.5
486.209	93.5
486.427	102.5
486.645	109.5
486.863	111.5
487.081	84.5
487.299	113.5
487.517	88.5
487.735	90.5
487.953	88.5
488.171	77.5
488.389	88.5
488.607	100.5
488.825	101.5
489.043	88.5
489.261	97.5
489.479	93.5
489.696	90.5
489.914	91.5
490.132	97.5
490.35	78.5
490.568	85.5
490.786	98.5
491.003	81.5
491.221	82.5
491.439	86.5
491.657	97.5
491.874	96.5
492.092	93.5
492.31	93.5
492.527	78.5
492.745	111.5
492.963	93.5
493.18	95.5
493.398	74.5
493.615	104.5
493.833	103.5
494.05	81.5
494.268	89.5
494.485	106.5
494.703	89.5
494.92	100.5
495.138	90.5
495.355	84.5
495.573	92.5
495.79	85.5
496.008	69.5
496.225	90.5
496.442	69.5
496.66	104.5
496.877	97.5
497.094	96.5
497.312	90.5
497.529	92.5
497.746	85.5
497.963	74.5
498.181	88.5
498.398	106.5
498.615	113.5
498.832	86.5
499.049	87.5
499.267	88.5
499.484	80.5
499.701	84.5
499.918	79.5
500.135	91.5
500.352	96.5
500.569	83.5
500.786	89.5
501.003	99.5
501.22	98.5
501.437	88.5
501.654	88.5
501.871	107.5
502.088	99.5
502.305	84.5
502.522	82.5
502.739	86.5
502.956	94.5
503.172	98.5
503.389	97.5
503.606	113.5
503.823	81.5
504.04	97.5
504.256	96.5
504.473	89.5
504.69	95.5
504.907	98.5
505.123	88.5
505.34	91.5
505.557	78.5
505.773	92.5
505.99	88.5
506.207	83.5
506.423	90.5
506.64	85.5
506.856	88.5
507.073	94.5
507.289	84.5
507.506	90.5
507.722	101.5
507.939	103.5
508.155	90.5
508.372	94.5
508.588	106.5
508.805	98.5
509.021	94.5
509.238	79.5
509.454	79.5
509.67	106.5
509.887	96.5
510.103	117.5
510.319	182.5
510.536	695.5
510.752	2185.5
510.968	620.5
511.184	144.5
511.401	124.5
511.617	100.5
511.833	98.5
512.049	100.5
512.265	88.5
512.481	96.5
512.698	79.5
512.914	89.5
513.13	77.5
513.346	93.5
513.562	94.5
513.778	97.5
513.994	88.5
514.21	101.5
514.426	110.5
514.642	126.5
514.858	129.5
515.074	147.5
515.29	453.5
515.506	1471.5
515.721	531.5
515.937	153.5
516.153	105.5
516.369	105.5
516.585	90.5
516.801	95.5
517.016	86.5
517.232	86.5
517.448	104.5
517.664	96.5
517.879	101.5
518.095	91.5
518.311	88.5
518.527	93.5
518.742	77.5
518.958	77.5
519.173	89.5
519.389	91.5
519.605	91.5
519.82	99.5
520.036	116.5
520.251	130.5
520.467	107.5
520.682	105.5
520.898	96.5
521.113	110.5
521.329	125.5
521.544	209.5
521.76	575.5
521.975	2418.5
522.19	1434.5
522.406	302.5
522.621	130.5
522.836	93.5
523.052	101.5
523.267	101.5
523.482	99.5
523.698	102.5
523.913	121.5
524.128	98.5
524.343	100.5
524.559	90.5
524.774	80.5
524.989	99.5
525.204	120.5
525.419	101.5
525.634	96.5
525.849	85.5
526.064	94.5
526.28	89.5
526.495	87.5
526.71	93.5
526.925	93.5
527.14	84.5
527.355	78.5
527.57	96.5
527.785	92.5
527.999	99.5
528.214	94.5
528.429	99.5
528.644	102.5
528.859	92.5
529.074	99.5
529.289	116.5
529.503	171.5
529.718	96.5
529.933	107.5
530.148	74.5
530.363	76.5
530.577	85.5
530.792	84.5
531.007	77.5
531.221	88.5
531.436	84.5
531.651	79.5
531.865	90.5
532.08	94.5
532.295	77.5
532.509	93.5
532.724	91.5
532.938	77.5
533.153	108.5
533.367	92.5
533.582	81.5
533.796	81.5
534.011	101.5
534.225	91.5
534.44	93.5
534.654	89.5
534.868	80.5
535.083	101.5
