Data from Circ_1990_H10_HRD10591_00072.txt Node
Date: Wed Jan 03 11:55:18 EST 2024
User: Yrep
Spectrometer: HR+D1059
Trigger mode: 1
Integration Time (sec): 1.000000E-1
Scans to average: 1
Electric dark correction enabled: true
Nonlinearity correction enabled: false
Boxcar width: 0
XAxis mode: Wavelengths
Number of Pixels in Spectrum: 2048
>>>>>Begin Spectral Data<<<<<
223.165	-16.75
223.4	-16.75
223.635	-16.75
223.869	-15.75
224.104	-19.75
224.338	-9.75
224.573	-28.75
224.808	-0.75
225.042	-9.75
225.277	-7.75
225.511	6.25
225.746	5.25
225.98	11.25
226.215	0.25
226.449	18.25
226.683	19.25
226.918	21.25
227.152	27.25
227.387	40.25
227.621	46.25
227.856	51.25
228.09	39.25
228.324	46.25
228.559	54.25
228.793	64.25
229.027	67.25
229.262	66.25
229.496	67.25
229.73	88.25
229.964	74.25
230.199	76.25
230.433	76.25
230.667	72.25
230.901	82.25
231.136	76.25
231.37	75.25
231.604	80.25
231.838	69.25
232.072	78.25
232.306	95.25
232.541	85.25
232.775	83.25
233.009	88.25
233.243	90.25
233.477	86.25
233.711	93.25
233.945	86.25
234.179	69.25
234.413	86.25
234.647	74.25
234.881	95.25
235.115	84.25
235.349	87.25
235.583	82.25
235.817	87.25
236.051	80.25
236.285	76.25
236.519	78.25
236.753	63.25
236.987	96.25
237.221	94.25
237.455	86.25
237.689	84.25
237.922	71.25
238.156	80.25
238.39	70.25
238.624	69.25
238.858	84.25
239.091	72.25
239.325	74.25
239.559	63.25
239.793	70.25
240.027	83.25
240.26	70.25
240.494	79.25
240.728	82.25
240.961	88.25
241.195	81.25
241.429	80.25
241.662	71.25
241.896	80.25
242.13	83.25
242.363	70.25
242.597	82.25
242.83	77.25
243.064	73.25
243.298	77.25
243.531	80.25
243.765	80.25
243.998	79.25
244.232	79.25
244.465	81.25
244.699	87.25
244.932	74.25
245.166	82.25
245.399	74.25
245.633	78.25
245.866	70.25
246.099	82.25
246.333	69.25
246.566	74.25
246.8	74.25
247.033	81.25
247.266	82.25
247.5	87.25
247.733	80.25
247.966	90.25
248.2	83.25
248.433	72.25
248.666	84.25
248.899	75.25
249.133	102.25
249.366	123.25
249.599	98.25
249.832	82.25
250.066	84.25
250.299	81.25
250.532	86.25
250.765	75.25
250.998	82.25
251.231	88.25
251.465	77.25
251.698	79.25
251.931	86.25
252.164	95.25
252.397	61.25
252.63	87.25
252.863	72.25
253.096	63.25
253.329	101.25
253.562	82.25
253.795	86.25
254.028	92.25
254.261	76.25
254.494	88.25
254.727	103.25
254.96	93.25
255.193	77.25
255.426	72.25
255.659	78.25
255.892	87.25
256.124	102.25
256.357	79.25
256.59	86.25
256.823	79.25
257.056	88.25
257.289	70.25
257.521	86.25
257.754	84.25
257.987	82.25
258.22	92.25
258.452	96.25
258.685	95.25
258.918	77.25
259.151	78.25
259.383	82.25
259.616	85.25
259.849	82.25
260.081	84.25
260.314	90.25
260.547	83.25
260.779	91.25
261.012	89.25
261.244	101.25
261.477	80.25
261.71	97.25
261.942	108.25
262.175	130.25
262.407	94.25
262.64	92.25
262.872	91.25
263.105	95.25
263.337	91.25
263.57	90.25
263.802	76.25
264.035	95.25
264.267	72.25
264.499	95.25
264.732	87.25
264.964	84.25
265.197	91.25
265.429	87.25
265.661	77.25
265.894	90.25
266.126	90.25
266.358	72.25
266.591	81.25
266.823	91.25
267.055	76.25
267.287	75.25
267.52	83.25
267.752	82.25
267.984	91.25
268.216	77.25
268.448	76.25
268.681	83.25
268.913	77.25
269.145	94.25
269.377	85.25
269.609	69.25
269.841	92.25
270.073	94.25
270.306	92.25
270.538	92.25
270.77	82.25
271.002	71.25
271.234	88.25
271.466	99.25
271.698	95.25
271.93	77.25
272.162	79.25
272.394	85.25
272.626	102.25
272.858	79.25
273.09	79.25
273.322	92.25
273.553	93.25
273.785	87.25
274.017	77.25
274.249	92.25
274.481	80.25
274.713	74.25
274.945	93.25
275.176	86.25
275.408	91.25
275.64	81.25
275.872	87.25
276.104	112.25
276.335	98.25
276.567	107.25
276.799	118.25
277.031	131.25
277.262	121.25
277.494	106.25
277.726	89.25
277.957	97.25
278.189	76.25
278.421	91.25
278.652	88.25
278.884	78.25
279.115	88.25
279.347	87.25
279.579	90.25
279.81	107.25
280.042	111.25
280.273	161.25
280.505	114.25
280.736	91.25
280.968	82.25
281.199	84.25
281.431	88.25
281.662	77.25
281.894	90.25
282.125	112.25
282.356	123.25
282.588	145.25
282.819	126.25
283.051	100.25
283.282	98.25
283.513	83.25
283.745	90.25
283.976	91.25
284.207	84.25
284.439	92.25
284.67	90.25
284.901	96.25
285.132	83.25
285.364	90.25
285.595	76.25
285.826	111.25
286.057	95.25
286.288	87.25
286.52	93.25
286.751	82.25
286.982	77.25
287.213	91.25
287.444	91.25
287.675	80.25
287.906	92.25
288.138	102.25
288.369	90.25
288.6	89.25
288.831	98.25
289.062	93.25
289.293	92.25
289.524	88.25
289.755	66.25
289.986	79.25
290.217	81.25
290.448	99.25
290.679	88.25
290.91	107.25
291.141	97.25
291.371	94.25
291.602	93.25
291.833	78.25
292.064	86.25
292.295	94.25
292.526	89.25
292.757	88.25
292.987	89.25
293.218	80.25
293.449	85.25
293.68	79.25
293.91	92.25
294.141	109.25
294.372	78.25
294.603	83.25
294.833	90.25
295.064	112.25
295.295	109.25
295.525	91.25
295.756	102.25
295.987	100.25
296.217	142.25
296.448	129.25
296.679	97.25
296.909	74.25
297.14	70.25
297.37	88.25
297.601	106.25
297.831	102.25
298.062	89.25
298.292	92.25
298.523	109.25
298.753	94.25
298.984	90.25
299.214	88.25
299.445	100.25
299.675	95.25
299.905	99.25
300.136	81.25
300.366	84.25
300.597	93.25
300.827	89.25
301.057	100.25
301.288	120.25
301.518	98.25
301.748	80.25
301.979	114.25
302.209	100.25
302.439	104.25
302.669	95.25
302.9	86.25
303.13	106.25
303.36	87.25
303.59	105.25
303.82	119.25
304.051	110.25
304.281	86.25
304.511	92.25
304.741	86.25
304.971	78.25
305.201	88.25
305.431	101.25
305.661	95.25
305.891	99.25
306.121	98.25
306.352	111.25
306.582	94.25
306.812	94.25
307.042	96.25
307.272	115.25
307.502	114.25
307.731	140.25
307.961	109.25
308.191	98.25
308.421	86.25
308.651	91.25
308.881	88.25
309.111	98.25
309.341	90.25
309.571	98.25
309.8	107.25
310.03	103.25
310.26	104.25
310.49	95.25
310.72	90.25
310.949	107.25
311.179	104.25
311.409	92.25
311.639	104.25
311.868	114.25
312.098	98.25
312.328	96.25
312.557	107.25
312.787	109.25
313.017	96.25
313.246	96.25
313.476	92.25
313.706	99.25
313.935	95.25
314.165	92.25
314.394	100.25
314.624	100.25
314.853	101.25
315.083	87.25
315.312	111.25
315.542	86.25
315.771	86.25
316.001	86.25
316.23	103.25
316.46	100.25
316.689	101.25
316.919	102.25
317.148	95.25
317.377	99.25
317.607	99.25
317.836	77.25
318.065	99.25
318.295	87.25
318.524	95.25
318.753	86.25
318.983	95.25
319.212	102.25
319.441	98.25
319.67	116.25
319.9	83.25
320.129	94.25
320.358	91.25
320.587	88.25
320.816	96.25
321.046	95.25
321.275	101.25
321.504	107.25
321.733	86.25
321.962	103.25
322.191	102.25
322.42	109.25
322.649	120.25
322.878	116.25
323.108	116.25
323.337	122.25
323.566	143.25
323.795	156.25
324.024	198.25
324.253	424.25
324.482	821.25
324.71	1693.25
324.939	2278.25
325.168	832.25
325.397	247.25
325.626	155.25
325.855	126.25
326.084	118.25
326.313	131.25
326.542	168.25
326.77	230.25
326.999	464.25
327.228	934.25
327.457	1704.25
327.686	1344.25
327.914	422.25
328.143	327.25
328.372	340.25
328.6	217.25
328.829	142.25
329.058	141.25
329.287	160.25
329.515	160.25
329.744	180.25
329.972	242.25
330.201	486.25
330.43	679.25
330.658	331.25
330.887	192.25
331.115	151.25
331.344	111.25
331.572	123.25
331.801	118.25
332.03	121.25
332.258	96.25
332.486	91.25
332.715	109.25
332.943	100.25
333.172	101.25
333.4	110.25
333.629	128.25
333.857	158.25
334.085	261.25
334.314	466.25
334.542	822.25
334.771	796.25
334.999	252.25
335.227	124.25
335.455	115.25
335.684	113.25
335.912	96.25
336.14	104.25
336.369	106.25
336.597	109.25
336.825	107.25
337.053	94.25
337.281	103.25
337.51	99.25
337.738	82.25
337.966	90.25
338.194	110.25
338.422	110.25
338.65	91.25
338.878	92.25
339.106	100.25
339.334	100.25
339.562	97.25
339.79	101.25
340.018	86.25
340.246	91.25
340.474	97.25
340.702	100.25
340.93	85.25
341.158	90.25
341.386	87.25
341.614	89.25
341.842	95.25
342.07	91.25
342.298	99.25
342.526	98.25
342.754	84.25
342.981	97.25
343.209	89.25
343.437	104.25
343.665	106.25
343.893	93.25
344.12	84.25
344.348	98.25
344.576	101.25
344.804	96.25
345.031	99.25
345.259	96.25
345.487	90.25
345.714	88.25
345.942	91.25
346.17	85.25
346.397	95.25
346.625	93.25
346.853	86.25
347.08	100.25
347.308	105.25
347.535	103.25
347.763	108.25
347.99	112.25
348.218	109.25
348.445	113.25
348.673	103.25
348.9	109.25
349.128	105.25
349.355	100.25
349.583	94.25
349.81	93.25
350.037	83.25
350.265	84.25
350.492	93.25
350.72	89.25
350.947	94.25
351.174	102.25
351.402	131.25
351.629	99.25
351.856	101.25
352.083	102.25
352.311	110.25
352.538	112.25
352.765	125.25
352.992	134.25
353.22	122.25
353.447	115.25
353.674	94.25
353.901	87.25
354.128	122.25
354.355	92.25
354.583	91.25
354.81	99.25
355.037	95.25
355.264	88.25
355.491	82.25
355.718	90.25
355.945	85.25
356.172	85.25
356.399	87.25
356.626	91.25
356.853	83.25
357.08	95.25
357.307	94.25
357.534	86.25
357.761	93.25
357.988	92.25
358.215	83.25
358.441	89.25
358.668	102.25
358.895	101.25
359.122	93.25
359.349	96.25
359.576	94.25
359.802	105.25
360.029	119.25
360.256	114.25
360.483	110.25
360.709	87.25
360.936	112.25
361.163	87.25
361.39	87.25
361.616	96.25
361.843	84.25
362.07	93.25
362.296	80.25
362.523	87.25
362.749	105.25
362.976	89.25
363.203	92.25
363.429	83.25
363.656	98.25
363.882	93.25
364.109	85.25
364.335	86.25
364.562	97.25
364.788	88.25
365.015	101.25
365.241	95.25
365.468	91.25
365.694	105.25
365.92	84.25
366.147	101.25
366.373	82.25
366.599	88.25
366.826	92.25
367.052	92.25
367.278	102.25
367.505	93.25
367.731	95.25
367.957	87.25
368.184	85.25
368.41	100.25
368.636	111.25
368.862	106.25
369.089	104.25
369.315	94.25
369.541	91.25
369.767	90.25
369.993	98.25
370.219	90.25
370.445	90.25
370.672	92.25
370.898	99.25
371.124	90.25
371.35	92.25
371.576	87.25
371.802	92.25
372.028	96.25
372.254	88.25
372.48	100.25
372.706	93.25
372.932	76.25
373.158	88.25
373.384	101.25
373.61	84.25
373.835	100.25
374.061	95.25
374.287	96.25
374.513	84.25
374.739	90.25
374.965	87.25
375.191	93.25
375.416	91.25
375.642	92.25
375.868	79.25
376.094	83.25
376.319	86.25
376.545	82.25
376.771	74.25
376.997	79.25
377.222	104.25
377.448	97.25
377.674	93.25
377.899	90.25
378.125	98.25
378.35	101.25
378.576	93.25
378.802	91.25
379.027	97.25
379.253	100.25
379.478	88.25
379.704	86.25
379.929	96.25
380.155	110.25
380.38	92.25
380.606	99.25
380.831	104.25
381.057	94.25
381.282	95.25
381.507	92.25
381.733	92.25
381.958	84.25
382.184	121.25
382.409	106.25
382.634	108.25
382.86	110.25
383.085	100.25
383.31	92.25
383.535	102.25
383.761	101.25
383.986	85.25
384.211	98.25
384.436	109.25
384.662	96.25
384.887	101.25
385.112	114.25
385.337	119.25
385.562	104.25
385.787	104.25
386.013	114.25
386.238	110.25
386.463	108.25
386.688	107.25
386.913	108.25
387.138	119.25
387.363	94.25
387.588	108.25
387.813	114.25
388.038	111.25
388.263	132.25
388.488	112.25
388.713	101.25
388.938	94.25
389.163	85.25
389.387	91.25
389.612	90.25
389.837	80.25
390.062	101.25
390.287	87.25
390.512	106.25
390.736	103.25
390.961	101.25
391.186	90.25
391.411	104.25
391.636	84.25
391.86	77.25
392.085	85.25
392.31	94.25
392.534	90.25
392.759	83.25
392.984	76.25
393.208	85.25
393.433	98.25
393.658	85.25
393.882	86.25
394.107	78.25
394.331	100.25
394.556	80.25
394.78	107.25
395.005	69.25
395.229	86.25
395.454	79.25
395.678	89.25
395.903	95.25
396.127	87.25
396.352	95.25
396.576	91.25
396.801	90.25
397.025	77.25
397.249	97.25
397.474	95.25
397.698	85.25
397.922	97.25
398.147	90.25
398.371	86.25
398.595	84.25
398.82	85.25
399.044	96.25
399.268	87.25
399.492	88.25
399.717	82.25
399.941	102.25
400.165	98.25
400.389	104.25
400.613	98.25
400.837	87.25
401.062	92.25
401.286	82.25
401.51	81.25
401.734	88.25
401.958	97.25
402.182	134.25
402.406	170.25
402.63	126.25
402.854	92.25
403.078	84.25
403.302	96.25
403.526	93.25
403.75	95.25
403.974	88.25
404.198	87.25
404.422	86.25
404.645	87.25
404.869	93.25
405.093	97.25
405.317	114.25
405.541	123.25
405.765	96.25
405.988	125.25
406.212	195.25
406.436	253.25
406.66	161.25
406.883	114.25
407.107	104.25
407.331	98.25
407.555	112.25
407.778	94.25
408.002	110.25
408.226	101.25
408.449	89.25
408.673	80.25
408.896	96.25
409.12	102.25
409.344	80.25
409.567	87.25
409.791	91.25
410.014	95.25
410.238	104.25
410.461	100.25
410.685	102.25
410.908	95.25
411.132	98.25
411.355	90.25
411.578	88.25
411.802	79.25
412.025	100.25
412.249	104.25
412.472	109.25
412.695	110.25
412.919	89.25
413.142	95.25
413.365	93.25
413.589	103.25
413.812	100.25
414.035	88.25
414.258	93.25
414.482	97.25
414.705	92.25
414.928	105.25
415.151	94.25
415.374	80.25
415.597	93.25
415.821	98.25
416.044	98.25
416.267	86.25
416.49	91.25
416.713	88.25
416.936	99.25
417.159	86.25
417.382	103.25
417.605	92.25
417.828	108.25
418.051	85.25
418.274	87.25
418.497	71.25
418.72	82.25
418.943	75.25
419.166	106.25
419.389	100.25
419.611	102.25
419.834	101.25
420.057	99.25
420.28	93.25
420.503	95.25
420.726	80.25
420.948	78.25
421.171	99.25
421.394	106.25
421.617	94.25
421.839	81.25
422.062	96.25
422.285	96.25
422.507	96.25
422.73	99.25
422.953	94.25
423.175	82.25
423.398	92.25
423.621	93.25
423.843	90.25
424.066	91.25
424.288	75.25
424.511	90.25
424.733	103.25
424.956	112.25
425.178	103.25
425.401	95.25
425.623	101.25
425.846	109.25
426.068	96.25
426.291	94.25
426.513	88.25
426.735	94.25
426.958	91.25
427.18	125.25
427.402	146.25
427.625	207.25
427.847	198.25
428.069	159.25
428.292	103.25
428.514	78.25
428.736	81.25
428.958	95.25
429.181	93.25
429.403	78.25
429.625	83.25
429.847	86.25
430.069	108.25
430.292	105.25
430.514	101.25
430.736	88.25
430.958	79.25
431.18	86.25
431.402	96.25
431.624	79.25
431.846	94.25
432.068	101.25
432.29	68.25
432.512	87.25
432.734	83.25
432.956	93.25
433.178	98.25
433.4	96.25
433.622	92.25
433.844	98.25
434.066	93.25
434.287	102.25
434.509	97.25
434.731	100.25
434.953	80.25
435.175	82.25
435.397	93.25
435.618	92.25
435.84	106.25
436.062	120.25
436.284	107.25
436.505	95.25
436.727	94.25
436.949	86.25
437.17	81.25
437.392	81.25
437.614	100.25
437.835	114.25
438.057	122.25
438.278	117.25
438.5	92.25
438.721	127.25
438.943	104.25
439.165	98.25
439.386	78.25
439.608	90.25
439.829	99.25
440.05	122.25
440.272	163.25
440.493	101.25
440.715	90.25
440.936	83.25
441.158	92.25
441.379	92.25
441.6	100.25
441.822	95.25
442.043	94.25
442.264	109.25
442.486	111.25
442.707	99.25
442.928	110.25
443.149	142.25
443.371	142.25
443.592	117.25
443.813	129.25
444.034	102.25
444.255	86.25
444.476	81.25
444.698	115.25
444.919	104.25
445.14	125.25
445.361	130.25
445.582	119.25
445.803	158.25
446.024	138.25
446.245	144.25
446.466	110.25
446.687	90.25
446.908	101.25
447.129	86.25
447.35	74.25
447.571	95.25
447.792	102.25
448.013	103.25
448.234	117.25
448.455	108.25
448.675	128.25
448.896	118.25
449.117	100.25
449.338	109.25
449.559	131.25
449.779	140.25
450	101.25
450.221	92.25
450.442	87.25
450.662	94.25
450.883	108.25
451.104	121.25
451.324	98.25
451.545	93.25
451.766	82.25
451.986	77.25
452.207	98.25
452.428	67.25
452.648	103.25
452.869	103.25
453.089	112.25
453.31	111.25
453.53	86.25
453.751	76.25
453.971	110.25
454.192	115.25
454.412	106.25
454.633	92.25
454.853	86.25
455.073	85.25
455.294	85.25
455.514	111.25
455.734	81.25
455.955	77.25
456.175	66.25
456.395	78.25
456.616	76.25
456.836	91.25
457.056	77.25
457.276	88.25
457.497	90.25
457.717	98.25
457.937	83.25
458.157	82.25
458.377	81.25
458.598	104.25
458.818	167.25
459.038	182.25
459.258	140.25
459.478	96.25
459.698	86.25
459.918	78.25
460.138	82.25
460.358	84.25
460.578	86.25
460.798	90.25
461.018	85.25
461.238	73.25
461.458	94.25
461.678	92.25
461.898	87.25
462.118	91.25
462.338	83.25
462.558	82.25
462.777	83.25
462.997	101.25
463.217	90.25
463.437	88.25
463.657	88.25
463.876	78.25
464.096	98.25
464.316	84.25
464.536	106.25
464.755	110.25
464.975	117.25
465.195	194.25
465.414	184.25
465.634	109.25
465.854	96.25
466.073	83.25
466.293	82.25
466.512	85.25
466.732	80.25
466.951	111.25
467.171	108.25
467.391	105.25
467.61	124.25
467.829	136.25
468.049	311.25
468.268	422.25
468.488	163.25
468.707	96.25
468.927	92.25
469.146	84.25
469.365	87.25
469.585	100.25
469.804	99.25
470.023	88.25
470.243	87.25
470.462	115.25
470.681	120.25
470.901	95.25
471.12	84.25
471.339	87.25
471.558	108.25
471.777	101.25
471.997	179.25
472.216	550.25
472.435	1185.25
472.654	318.25
472.873	122.25
473.092	101.25
473.311	93.25
473.53	94.25
473.749	89.25
473.968	97.25
474.187	107.25
474.406	104.25
474.625	79.25
474.844	100.25
475.063	78.25
475.282	85.25
475.501	91.25
475.72	94.25
475.939	94.25
476.158	91.25
476.377	99.25
476.596	90.25
476.814	89.25
477.033	84.25
477.252	76.25
477.471	86.25
477.69	91.25
477.908	99.25
478.127	94.25
478.346	82.25
478.564	102.25
478.783	97.25
479.002	107.25
479.22	91.25
479.439	112.25
479.658	111.25
479.876	105.25
480.095	89.25
480.313	116.25
480.532	132.25
480.751	195.25
480.969	514.25
481.188	2029.25
481.406	1172.25
481.624	230.25
481.843	111.25
482.061	103.25
482.28	97.25
482.498	108.25
482.717	104.25
482.935	98.25
483.153	80.25
483.372	85.25
483.59	78.25
483.808	78.25
484.027	88.25
484.245	99.25
484.463	98.25
484.681	100.25
484.9	98.25
485.118	103.25
485.336	87.25
485.554	95.25
485.772	104.25
485.99	101.25
486.209	111.25
486.427	106.25
486.645	117.25
486.863	134.25
487.081	110.25
487.299	104.25
487.517	105.25
487.735	97.25
487.953	84.25
488.171	91.25
488.389	97.25
488.607	95.25
488.825	89.25
489.043	87.25
489.261	88.25
489.479	99.25
489.696	88.25
489.914	77.25
490.132	86.25
490.35	100.25
490.568	99.25
490.786	87.25
491.003	86.25
491.221	97.25
491.439	103.25
491.657	104.25
491.874	91.25
492.092	86.25
492.31	101.25
492.527	94.25
492.745	90.25
492.963	83.25
493.18	102.25
493.398	102.25
493.615	104.25
493.833	95.25
494.05	92.25
494.268	84.25
494.485	99.25
494.703	87.25
494.92	96.25
495.138	78.25
495.355	111.25
495.573	79.25
495.79	68.25
496.008	96.25
496.225	88.25
496.442	77.25
496.66	87.25
496.877	80.25
497.094	78.25
497.312	90.25
497.529	90.25
497.746	93.25
497.963	83.25
498.181	80.25
498.398	90.25
498.615	118.25
498.832	95.25
499.049	96.25
499.267	112.25
499.484	92.25
499.701	82.25
499.918	98.25
500.135	86.25
500.352	82.25
500.569	84.25
500.786	102.25
501.003	86.25
501.22	110.25
501.437	90.25
501.654	105.25
501.871	119.25
502.088	108.25
502.305	92.25
502.522	103.25
502.739	85.25
502.956	97.25
503.172	84.25
503.389	102.25
503.606	115.25
503.823	87.25
504.04	106.25
504.256	87.25
504.473	80.25
504.69	93.25
504.907	87.25
505.123	104.25
505.34	98.25
505.557	87.25
505.773	80.25
505.99	93.25
506.207	64.25
506.423	81.25
506.64	87.25
506.856	92.25
507.073	95.25
507.289	108.25
507.506	100.25
507.722	122.25
507.939	118.25
508.155	101.25
508.372	100.25
508.588	86.25
508.805	100.25
509.021	89.25
509.238	104.25
509.454	101.25
509.67	109.25
509.887	115.25
510.103	132.25
510.319	206.25
510.536	766.25
510.752	2517.25
510.968	686.25
511.184	158.25
511.401	109.25
511.617	92.25
511.833	89.25
512.049	82.25
512.265	89.25
512.481	100.25
512.698	92.25
512.914	107.25
513.13	101.25
513.346	85.25
513.562	98.25
513.778	91.25
513.994	99.25
