Data from Circ_1990_H10_HRD10591_00019.txt Node
Date: Wed Jan 03 11:55:07 EST 2024
User: Yrep
Spectrometer: HR+D1059
Trigger mode: 1
Integration Time (sec): 1.000000E-1
Scans to average: 1
Electric dark correction enabled: true
Nonlinearity correction enabled: false
Boxcar width: 0
XAxis mode: Wavelengths
Number of Pixels in Spectrum: 2048
>>>>>Begin Spectral Data<<<<<
223.165	-18.19
223.4	-18.19
223.635	-18.19
223.869	-19.19
224.104	-25.19
224.338	-14.19
224.573	-12.19
224.808	-16.19
225.042	-7.19
225.277	-17.19
225.511	1.81
225.746	13.81
225.98	6.81
226.215	13.81
226.449	17.81
226.683	13.81
226.918	28.81
227.152	32.81
227.387	24.81
227.621	42.81
227.856	53.81
228.09	47.81
228.324	51.81
228.559	62.81
228.793	51.81
229.027	63.81
229.262	69.81
229.496	77.81
229.73	82.81
229.964	82.81
230.199	76.81
230.433	87.81
230.667	79.81
230.901	88.81
231.136	77.81
231.37	68.81
231.604	74.81
231.838	95.81
232.072	73.81
232.306	92.81
232.541	71.81
232.775	77.81
233.009	97.81
233.243	93.81
233.477	72.81
233.711	83.81
233.945	79.81
234.179	84.81
234.413	92.81
234.647	70.81
234.881	91.81
235.115	82.81
235.349	78.81
235.583	82.81
235.817	71.81
236.051	80.81
236.285	86.81
236.519	70.81
236.753	84.81
236.987	59.81
237.221	85.81
237.455	87.81
237.689	74.81
237.922	75.81
238.156	90.81
238.39	59.81
238.624	67.81
238.858	82.81
239.091	93.81
239.325	73.81
239.559	85.81
239.793	81.81
240.027	67.81
240.26	89.81
240.494	81.81
240.728	78.81
240.961	85.81
241.195	72.81
241.429	71.81
241.662	80.81
241.896	79.81
242.13	89.81
242.363	81.81
242.597	70.81
242.83	81.81
243.064	63.81
243.298	78.81
243.531	97.81
243.765	78.81
243.998	84.81
244.232	77.81
244.465	81.81
244.699	80.81
244.932	66.81
245.166	66.81
245.399	82.81
245.633	83.81
245.866	74.81
246.099	84.81
246.333	67.81
246.566	89.81
246.8	66.81
247.033	93.81
247.266	97.81
247.5	87.81
247.733	91.81
247.966	85.81
248.2	76.81
248.433	84.81
248.666	81.81
248.899	98.81
249.133	83.81
249.366	90.81
249.599	105.81
249.832	91.81
250.066	103.81
250.299	81.81
250.532	83.81
250.765	91.81
250.998	77.81
251.231	83.81
251.465	85.81
251.698	79.81
251.931	99.81
252.164	95.81
252.397	85.81
252.63	85.81
252.863	89.81
253.096	83.81
253.329	96.81
253.562	88.81
253.795	97.81
254.028	74.81
254.261	80.81
254.494	59.81
254.727	84.81
254.96	96.81
255.193	97.81
255.426	67.81
255.659	87.81
255.892	86.81
256.124	63.81
256.357	95.81
256.59	94.81
256.823	92.81
257.056	88.81
257.289	84.81
257.521	88.81
257.754	82.81
257.987	77.81
258.22	97.81
258.452	79.81
258.685	77.81
258.918	90.81
259.151	87.81
259.383	89.81
259.616	87.81
259.849	90.81
260.081	84.81
260.314	84.81
260.547	93.81
260.779	99.81
261.012	74.81
261.244	82.81
261.477	85.81
261.71	89.81
261.942	87.81
262.175	89.81
262.407	83.81
262.64	85.81
262.872	95.81
263.105	81.81
263.337	93.81
263.57	86.81
263.802	88.81
264.035	71.81
264.267	82.81
264.499	79.81
264.732	84.81
264.964	74.81
265.197	83.81
265.429	89.81
265.661	87.81
265.894	78.81
266.126	83.81
266.358	77.81
266.591	99.81
266.823	79.81
267.055	77.81
267.287	91.81
267.52	109.81
267.752	85.81
267.984	77.81
268.216	83.81
268.448	83.81
268.681	98.81
268.913	78.81
269.145	77.81
269.377	83.81
269.609	88.81
269.841	84.81
270.073	83.81
270.306	77.81
270.538	81.81
270.77	77.81
271.002	87.81
271.234	93.81
271.466	98.81
271.698	75.81
271.93	74.81
272.162	89.81
272.394	93.81
272.626	90.81
272.858	93.81
273.09	100.81
273.322	90.81
273.553	78.81
273.785	71.81
274.017	83.81
274.249	85.81
274.481	87.81
274.713	81.81
274.945	87.81
275.176	100.81
275.408	84.81
275.64	74.81
275.872	97.81
276.104	67.81
276.335	85.81
276.567	97.81
276.799	90.81
277.031	110.81
277.262	93.81
277.494	100.81
277.726	87.81
277.957	83.81
278.189	102.81
278.421	101.81
278.652	82.81
278.884	87.81
279.115	94.81
279.347	75.81
279.579	102.81
279.81	101.81
280.042	83.81
280.273	95.81
280.505	90.81
280.736	90.81
280.968	90.81
281.199	89.81
281.431	92.81
281.662	97.81
281.894	102.81
282.125	89.81
282.356	110.81
282.588	115.81
282.819	108.81
283.051	88.81
283.282	84.81
283.513	93.81
283.745	92.81
283.976	91.81
284.207	82.81
284.439	93.81
284.67	85.81
284.901	86.81
285.132	85.81
285.364	88.81
285.595	106.81
285.826	88.81
286.057	91.81
286.288	76.81
286.52	83.81
286.751	89.81
286.982	95.81
287.213	75.81
287.444	94.81
287.675	97.81
287.906	91.81
288.138	110.81
288.369	92.81
288.6	77.81
288.831	88.81
289.062	86.81
289.293	81.81
289.524	99.81
289.755	86.81
289.986	98.81
290.217	83.81
290.448	79.81
290.679	84.81
290.91	74.81
291.141	86.81
291.371	76.81
291.602	91.81
291.833	83.81
292.064	80.81
292.295	90.81
292.526	86.81
292.757	85.81
292.987	100.81
293.218	86.81
293.449	95.81
293.68	83.81
293.91	90.81
294.141	79.81
294.372	89.81
294.603	95.81
294.833	101.81
295.064	83.81
295.295	85.81
295.525	105.81
295.756	96.81
295.987	119.81
296.217	128.81
296.448	104.81
296.679	102.81
296.909	105.81
297.14	84.81
297.37	97.81
297.601	95.81
297.831	88.81
298.062	92.81
298.292	83.81
298.523	90.81
298.753	99.81
298.984	87.81
299.214	102.81
299.445	98.81
299.675	90.81
299.905	90.81
300.136	82.81
300.366	94.81
300.597	83.81
300.827	94.81
301.057	104.81
301.288	96.81
301.518	104.81
301.748	89.81
301.979	95.81
302.209	91.81
302.439	100.81
302.669	101.81
302.9	94.81
303.13	98.81
303.36	105.81
303.59	97.81
303.82	110.81
304.051	109.81
304.281	93.81
304.511	88.81
304.741	90.81
304.971	87.81
305.201	101.81
305.431	83.81
305.661	97.81
305.891	98.81
306.121	87.81
306.352	91.81
306.582	86.81
306.812	90.81
307.042	83.81
307.272	97.81
307.502	92.81
307.731	114.81
307.961	89.81
308.191	90.81
308.421	89.81
308.651	82.81
308.881	98.81
309.111	86.81
309.341	90.81
309.571	93.81
309.8	93.81
310.03	102.81
310.26	94.81
310.49	103.81
310.72	117.81
310.949	101.81
311.179	98.81
311.409	94.81
311.639	94.81
311.868	102.81
312.098	91.81
312.328	95.81
312.557	84.81
312.787	95.81
313.017	85.81
313.246	83.81
313.476	95.81
313.706	98.81
313.935	109.81
314.165	104.81
314.394	109.81
314.624	99.81
314.853	94.81
315.083	103.81
315.312	102.81
315.542	101.81
315.771	91.81
316.001	100.81
316.23	98.81
316.46	92.81
316.689	96.81
316.919	99.81
317.148	84.81
317.377	84.81
317.607	98.81
317.836	97.81
318.065	98.81
318.295	97.81
318.524	87.81
318.753	90.81
318.983	104.81
319.212	94.81
319.441	83.81
319.67	110.81
319.9	107.81
320.129	66.81
320.358	97.81
320.587	94.81
320.816	98.81
321.046	101.81
321.275	91.81
321.504	106.81
321.733	94.81
321.962	93.81
322.191	96.81
322.42	89.81
322.649	105.81
322.878	111.81
323.108	112.81
323.337	119.81
323.566	116.81
323.795	128.81
324.024	171.81
324.253	299.81
324.482	650.81
324.71	1301.81
324.939	1702.81
325.168	641.81
325.397	225.81
325.626	134.81
325.855	124.81
326.084	117.81
326.313	116.81
326.542	131.81
326.77	199.81
326.999	375.81
327.228	755.81
327.457	1333.81
327.686	1054.81
327.914	298.81
328.143	183.81
328.372	153.81
328.6	139.81
328.829	114.81
329.058	123.81
329.287	119.81
329.515	109.81
329.744	115.81
329.972	134.81
330.201	178.81
330.43	211.81
330.658	144.81
330.887	137.81
331.115	127.81
331.344	87.81
331.572	91.81
331.801	94.81
332.03	93.81
332.258	95.81
332.486	85.81
332.715	98.81
332.943	114.81
333.172	101.81
333.4	97.81
333.629	113.81
333.857	110.81
334.085	130.81
334.314	178.81
334.542	240.81
334.771	239.81
334.999	110.81
335.227	110.81
335.455	92.81
335.684	94.81
335.912	107.81
336.14	90.81
336.369	110.81
336.597	92.81
336.825	105.81
337.053	94.81
337.281	106.81
337.51	95.81
337.738	88.81
337.966	83.81
338.194	81.81
338.422	93.81
338.65	87.81
338.878	108.81
339.106	95.81
339.334	105.81
339.562	82.81
339.79	97.81
340.018	87.81
340.246	100.81
340.474	86.81
340.702	90.81
340.93	100.81
341.158	105.81
341.386	96.81
341.614	91.81
341.842	93.81
342.07	94.81
342.298	84.81
342.526	99.81
342.754	98.81
342.981	81.81
343.209	92.81
343.437	110.81
343.665	97.81
343.893	97.81
344.12	107.81
344.348	92.81
344.576	82.81
344.804	79.81
345.031	95.81
345.259	95.81
345.487	79.81
345.714	94.81
345.942	95.81
346.17	103.81
346.397	89.81
346.625	91.81
346.853	97.81
347.08	90.81
347.308	96.81
347.535	93.81
347.763	88.81
347.99	107.81
348.218	108.81
348.445	97.81
348.673	103.81
348.9	105.81
349.128	96.81
349.355	89.81
349.583	106.81
349.81	91.81
350.037	102.81
350.265	91.81
350.492	95.81
350.72	98.81
350.947	105.81
351.174	117.81
351.402	115.81
351.629	107.81
351.856	97.81
352.083	86.81
352.311	94.81
352.538	95.81
352.765	113.81
352.992	121.81
353.22	107.81
353.447	98.81
353.674	109.81
353.901	96.81
354.128	89.81
354.355	103.81
354.583	104.81
354.81	114.81
355.037	102.81
355.264	100.81
355.491	95.81
355.718	105.81
355.945	94.81
356.172	102.81
356.399	114.81
356.626	105.81
356.853	90.81
357.08	98.81
357.307	94.81
357.534	90.81
357.761	115.81
357.988	107.81
358.215	117.81
358.441	95.81
358.668	112.81
358.895	93.81
359.122	100.81
359.349	106.81
359.576	95.81
359.802	96.81
360.029	102.81
360.256	99.81
360.483	118.81
360.709	81.81
360.936	103.81
361.163	96.81
361.39	89.81
361.616	98.81
361.843	89.81
362.07	110.81
362.296	87.81
362.523	87.81
362.749	86.81
362.976	90.81
363.203	110.81
363.429	98.81
363.656	95.81
363.882	86.81
364.109	89.81
364.335	88.81
364.562	82.81
364.788	84.81
365.015	93.81
365.241	93.81
365.468	104.81
365.694	96.81
365.92	99.81
366.147	99.81
366.373	94.81
366.599	102.81
366.826	95.81
367.052	83.81
367.278	82.81
367.505	98.81
367.731	99.81
367.957	102.81
368.184	81.81
368.41	99.81
368.636	98.81
368.862	103.81
369.089	117.81
369.315	91.81
369.541	103.81
369.767	80.81
369.993	96.81
370.219	89.81
370.445	94.81
370.672	110.81
370.898	87.81
371.124	87.81
371.35	78.81
371.576	90.81
371.802	90.81
372.028	89.81
372.254	83.81
372.48	73.81
372.706	85.81
372.932	100.81
373.158	83.81
373.384	89.81
373.61	84.81
373.835	83.81
374.061	95.81
374.287	107.81
374.513	106.81
374.739	94.81
374.965	98.81
375.191	113.81
375.416	95.81
375.642	91.81
375.868	109.81
376.094	88.81
376.319	98.81
376.545	93.81
376.771	93.81
376.997	91.81
377.222	103.81
377.448	109.81
377.674	108.81
377.899	94.81
378.125	82.81
378.35	100.81
378.576	104.81
378.802	110.81
379.027	101.81
379.253	109.81
379.478	95.81
379.704	90.81
379.929	113.81
380.155	104.81
380.38	113.81
380.606	109.81
380.831	119.81
381.057	106.81
381.282	107.81
381.507	109.81
381.733	106.81
381.958	110.81
382.184	118.81
382.409	110.81
382.634	108.81
382.86	118.81
383.085	120.81
383.31	119.81
383.535	118.81
383.761	121.81
383.986	112.81
384.211	123.81
384.436	135.81
384.662	123.81
384.887	137.81
385.112	147.81
385.337	155.81
385.562	134.81
385.787	128.81
386.013	138.81
386.238	139.81
386.463	137.81
386.688	126.81
386.913	132.81
387.138	147.81
387.363	133.81
387.588	119.81
387.813	118.81
388.038	129.81
388.263	157.81
388.488	145.81
388.713	123.81
388.938	105.81
389.163	90.81
389.387	121.81
389.612	108.81
389.837	95.81
390.062	99.81
390.287	102.81
390.512	83.81
390.736	97.81
390.961	93.81
391.186	95.81
391.411	99.81
391.636	84.81
391.86	90.81
392.085	85.81
392.31	99.81
392.534	97.81
392.759	91.81
392.984	102.81
393.208	85.81
393.433	98.81
393.658	100.81
393.882	91.81
394.107	93.81
394.331	89.81
394.556	90.81
394.78	96.81
395.005	85.81
395.229	106.81
395.454	74.81
395.678	88.81
395.903	72.81
396.127	91.81
396.352	104.81
396.576	104.81
396.801	99.81
397.025	100.81
397.249	88.81
397.474	94.81
397.698	77.81
397.922	75.81
398.147	96.81
398.371	79.81
398.595	93.81
398.82	104.81
399.044	85.81
399.268	77.81
399.492	77.81
399.717	88.81
399.941	82.81
400.165	101.81
400.389	87.81
400.613	74.81
400.837	98.81
401.062	91.81
401.286	84.81
401.51	93.81
401.734	98.81
401.958	95.81
402.182	122.81
402.406	129.81
402.63	105.81
402.854	98.81
403.078	81.81
403.302	80.81
403.526	87.81
403.75	90.81
403.974	94.81
404.198	87.81
404.422	89.81
404.645	90.81
404.869	105.81
405.093	101.81
405.317	121.81
405.541	101.81
405.765	95.81
405.988	113.81
406.212	137.81
406.436	180.81
406.66	120.81
406.883	99.81
407.107	89.81
407.331	86.81
407.555	106.81
407.778	87.81
408.002	88.81
408.226	82.81
408.449	89.81
408.673	99.81
408.896	93.81
409.12	103.81
409.344	87.81
409.567	90.81
409.791	90.81
410.014	84.81
410.238	94.81
410.461	87.81
410.685	98.81
410.908	93.81
411.132	93.81
411.355	106.81
411.578	99.81
411.802	94.81
412.025	98.81
412.249	96.81
412.472	111.81
412.695	121.81
412.919	96.81
413.142	85.81
413.365	102.81
413.589	86.81
413.812	81.81
414.035	86.81
414.258	93.81
414.482	100.81
414.705	94.81
414.928	103.81
415.151	97.81
415.374	103.81
415.597	97.81
415.821	95.81
416.044	93.81
416.267	89.81
416.49	88.81
416.713	96.81
416.936	99.81
417.159	96.81
417.382	94.81
417.605	88.81
417.828	84.81
418.051	98.81
418.274	101.81
418.497	81.81
418.72	96.81
418.943	98.81
419.166	88.81
419.389	90.81
419.611	95.81
419.834	84.81
420.057	93.81
420.28	88.81
420.503	87.81
420.726	95.81
420.948	93.81
421.171	95.81
421.394	94.81
421.617	93.81
421.839	98.81
422.062	90.81
422.285	81.81
422.507	99.81
422.73	96.81
422.953	91.81
423.175	89.81
423.398	88.81
423.621	93.81
423.843	92.81
424.066	87.81
424.288	97.81
424.511	91.81
424.733	91.81
424.956	111.81
425.178	88.81
425.401	106.81
425.623	97.81
425.846	105.81
426.068	86.81
426.291	90.81
426.513	102.81
426.735	87.81
426.958	97.81
427.18	88.81
427.402	122.81
427.625	128.81
427.847	132.81
428.069	127.81
428.292	110.81
428.514	95.81
428.736	84.81
428.958	82.81
429.181	77.81
429.403	69.81
429.625	74.81
429.847	97.81
430.069	97.81
430.292	91.81
430.514	80.81
430.736	82.81
430.958	91.81
431.18	83.81
431.402	76.81
431.624	78.81
431.846	85.81
432.068	97.81
432.29	109.81
432.512	88.81
432.734	85.81
432.956	98.81
433.178	94.81
433.4	98.81
433.622	93.81
433.844	95.81
434.066	81.81
434.287	101.81
434.509	103.81
434.731	81.81
434.953	91.81
435.175	94.81
435.397	107.81
435.618	93.81
435.84	111.81
436.062	118.81
436.284	107.81
436.505	97.81
436.727	96.81
436.949	92.81
437.17	90.81
437.392	91.81
437.614	106.81
437.835	90.81
438.057	111.81
438.278	95.81
438.5	91.81
438.721	102.81
438.943	105.81
439.165	90.81
439.386	86.81
439.608	95.81
439.829	109.81
440.05	116.81
440.272	120.81
440.493	78.81
440.715	97.81
440.936	93.81
441.158	83.81
441.379	80.81
441.6	103.81
441.822	95.81
442.043	98.81
442.264	104.81
442.486	105.81
442.707	95.81
442.928	99.81
443.149	102.81
443.371	129.81
443.592	106.81
443.813	112.81
444.034	90.81
444.255	91.81
444.476	93.81
444.698	101.81
444.919	82.81
445.14	119.81
445.361	119.81
445.582	110.81
445.803	126.81
446.024	104.81
446.245	122.81
446.466	110.81
446.687	90.81
446.908	100.81
447.129	89.81
447.35	74.81
447.571	89.81
447.792	79.81
448.013	95.81
448.234	100.81
448.455	101.81
448.675	96.81
448.896	113.81
449.117	100.81
449.338	96.81
449.559	124.81
449.779	119.81
450	83.81
450.221	93.81
450.442	93.81
450.662	89.81
450.883	110.81
451.104	93.81
451.324	101.81
451.545	87.81
451.766	94.81
451.986	90.81
452.207	77.81
452.428	90.81
452.648	95.81
452.869	102.81
453.089	107.81
453.31	110.81
453.53	90.81
453.751	118.81
453.971	103.81
454.192	118.81
454.412	91.81
454.633	81.81
454.853	93.81
455.073	89.81
455.294	91.81
455.514	98.81
455.734	81.81
455.955	93.81
456.175	92.81
456.395	82.81
456.616	86.81
456.836	84.81
457.056	95.81
457.276	89.81
457.497	68.81
457.717	96.81
457.937	95.81
458.157	87.81
458.377	90.81
458.598	91.81
458.818	128.81
459.038	120.81
459.258	120.81
459.478	89.81
459.698	95.81
459.918	92.81
460.138	82.81
460.358	89.81
460.578	101.81
460.798	100.81
461.018	110.81
461.238	105.81
461.458	93.81
461.678	88.81
461.898	89.81
462.118	89.81
462.338	103.81
462.558	109.81
462.777	81.81
462.997	94.81
463.217	87.81
463.437	90.81
463.657	98.81
463.876	83.81
464.096	88.81
464.316	98.81
464.536	81.81
464.755	81.81
464.975	101.81
465.195	130.81
465.414	130.81
465.634	99.81
465.854	94.81
466.073	105.81
466.293	97.81
466.512	92.81
466.732	98.81
466.951	88.81
467.171	89.81
467.391	101.81
467.61	99.81
467.829	117.81
468.049	130.81
468.268	173.81
468.488	102.81
468.707	97.81
468.927	79.81
469.146	100.81
469.365	84.81
469.585	92.81
469.804	106.81
470.023	115.81
470.243	90.81
470.462	97.81
470.681	107.81
470.901	87.81
471.12	102.81
471.339	98.81
471.558	88.81
471.777	100.81
471.997	99.81
472.216	185.81
472.435	310.81
472.654	136.81
472.873	102.81
473.092	99.81
473.311	91.81
473.53	95.81
473.749	83.81
473.968	93.81
474.187	93.81
474.406	84.81
474.625	85.81
474.844	93.81
475.063	83.81
475.282	95.81
475.501	83.81
475.72	80.81
475.939	90.81
476.158	82.81
476.377	102.81
476.596	96.81
476.814	90.81
477.033	88.81
477.252	92.81
477.471	107.81
477.69	90.81
477.908	98.81
478.127	88.81
478.346	99.81
478.564	110.81
478.783	99.81
479.002	89.81
479.22	104.81
479.439	89.81
479.658	105.81
479.876	100.81
480.095	90.81
480.313	92.81
480.532	97.81
480.751	103.81
480.969	188.81
481.188	507.81
481.406	323.81
481.624	122.81
481.843	91.81
482.061	109.81
482.28	99.81
482.498	94.81
482.717	78.81
482.935	90.81
483.153	87.81
483.372	89.81
483.59	86.81
483.808	91.81
484.027	85.81
484.245	89.81
484.463	85.81
484.681	96.81
484.9	82.81
485.118	99.81
485.336	100.81
485.554	100.81
485.772	110.81
485.99	115.81
486.209	111.81
486.427	106.81
486.645	111.81
486.863	120.81
487.081	121.81
487.299	104.81
487.517	94.81
487.735	92.81
487.953	91.81
488.171	96.81
488.389	102.81
488.607	85.81
488.825	93.81
489.043	87.81
489.261	95.81
489.479	83.81
489.696	103.81
489.914	99.81
490.132	65.81
490.35	83.81
490.568	98.81
490.786	98.81
491.003	78.81
491.221	97.81
491.439	100.81
491.657	101.81
491.874	91.81
492.092	93.81
492.31	96.81
492.527	78.81
492.745	89.81
492.963	88.81
493.18	88.81
493.398	89.81
493.615	111.81
493.833	91.81
494.05	91.81
494.268	94.81
494.485	97.81
494.703	90.81
494.92	104.81
495.138	88.81
495.355	102.81
495.573	103.81
495.79	89.81
496.008	90.81
496.225	97.81
496.442	95.81
496.66	77.81
496.877	86.81
497.094	89.81
497.312	98.81
497.529	104.81
497.746	101.81
497.963	101.81
498.181	99.81
498.398	102.81
498.615	91.81
498.832	89.81
499.049	102.81
499.267	99.81
499.484	85.81
499.701	99.81
499.918	103.81
500.135	101.81
500.352	104.81
500.569	93.81
500.786	111.81
501.003	89.81
501.22	89.81
501.437	100.81
501.654	100.81
501.871	98.81
502.088	100.81
502.305	96.81
502.522	90.81
502.739	87.81
502.956	104.81
503.172	93.81
503.389	92.81
503.606	92.81
503.823	87.81
504.04	101.81
504.256	94.81
504.473	97.81
504.69	100.81
504.907	109.81
505.123	86.81
505.34	88.81
505.557	100.81
505.773	102.81
505.99	69.81
506.207	101.81
506.423	82.81
506.64	93.81
506.856	93.81
507.073	102.81
507.289	105.81
507.506	104.81
507.722	111.81
507.939	100.81
508.155	106.81
508.372	93.81
508.588	86.81
508.805	105.81
509.021	98.81
509.238	109.81
509.454	110.81
509.67	102.81
509.887	98.81
510.103	123.81
510.319	202.81
510.536	571.81
510.752	1787.81
510.968	497.81
511.184	130.81
511.401	106.81
511.617	100.81
511.833	97.81
512.049	99.81
512.265	97.81
512.481	91.81
512.698	105.81
512.914	106.81
513.13	110.81
513.346	88.81
513.562	92.81
513.778	93.81
513.994	107.81
514.21	88.81
514.426	100.81
