Data from Circ_1990_H10_HRD10591_00053.txt Node
Date: Wed Jan 03 11:55:14 EST 2024
User: Yrep
Spectrometer: HR+D1059
Trigger mode: 1
Integration Time (sec): 1.000000E-1
Scans to average: 1
Electric dark correction enabled: true
Nonlinearity correction enabled: false
Boxcar width: 0
XAxis mode: Wavelengths
Number of Pixels in Spectrum: 2048
>>>>>Begin Spectral Data<<<<<
223.165	-28.25
223.4	-28.25
223.635	-28.25
223.869	-25.25
224.104	-18.25
224.338	-25.25
224.573	-9.25
224.808	-19.25
225.042	-14.25
225.277	-6.25
225.511	16.75
225.746	-2.25
225.98	-4.25
226.215	19.75
226.449	20.75
226.683	29.75
226.918	32.75
227.152	32.75
227.387	32.75
227.621	46.75
227.856	34.75
228.09	19.75
228.324	31.75
228.559	52.75
228.793	60.75
229.027	64.75
229.262	53.75
229.496	69.75
229.73	75.75
229.964	88.75
230.199	74.75
230.433	75.75
230.667	67.75
230.901	67.75
231.136	73.75
231.37	75.75
231.604	80.75
231.838	74.75
232.072	106.75
232.306	84.75
232.541	76.75
232.775	77.75
233.009	79.75
233.243	76.75
233.477	87.75
233.711	86.75
233.945	78.75
234.179	80.75
234.413	89.75
234.647	88.75
234.881	81.75
235.115	86.75
235.349	77.75
235.583	70.75
235.817	65.75
236.051	78.75
236.285	81.75
236.519	73.75
236.753	84.75
236.987	91.75
237.221	84.75
237.455	101.75
237.689	66.75
237.922	78.75
238.156	82.75
238.39	79.75
238.624	56.75
238.858	68.75
239.091	68.75
239.325	82.75
239.559	80.75
239.793	62.75
240.027	72.75
240.26	67.75
240.494	69.75
240.728	76.75
240.961	70.75
241.195	76.75
241.429	74.75
241.662	74.75
241.896	73.75
242.13	69.75
242.363	69.75
242.597	74.75
242.83	64.75
243.064	80.75
243.298	84.75
243.531	75.75
243.765	82.75
243.998	78.75
244.232	80.75
244.465	81.75
244.699	81.75
244.932	71.75
245.166	89.75
245.399	62.75
245.633	88.75
245.866	72.75
246.099	78.75
246.333	85.75
246.566	90.75
246.8	81.75
247.033	68.75
247.266	60.75
247.5	74.75
247.733	94.75
247.966	72.75
248.2	78.75
248.433	77.75
248.666	80.75
248.899	74.75
249.133	74.75
249.366	95.75
249.599	96.75
249.832	68.75
250.066	67.75
250.299	74.75
250.532	80.75
250.765	81.75
250.998	86.75
251.231	82.75
251.465	89.75
251.698	80.75
251.931	88.75
252.164	84.75
252.397	77.75
252.63	86.75
252.863	91.75
253.096	92.75
253.329	59.75
253.562	74.75
253.795	91.75
254.028	70.75
254.261	73.75
254.494	86.75
254.727	85.75
254.96	89.75
255.193	90.75
255.426	78.75
255.659	77.75
255.892	84.75
256.124	81.75
256.357	70.75
256.59	69.75
256.823	79.75
257.056	72.75
257.289	91.75
257.521	72.75
257.754	76.75
257.987	92.75
258.22	74.75
258.452	94.75
258.685	92.75
258.918	80.75
259.151	63.75
259.383	74.75
259.616	70.75
259.849	84.75
260.081	92.75
260.314	73.75
260.547	61.75
260.779	86.75
261.012	88.75
261.244	89.75
261.477	92.75
261.71	84.75
261.942	105.75
262.175	107.75
262.407	82.75
262.64	91.75
262.872	89.75
263.105	87.75
263.337	81.75
263.57	78.75
263.802	80.75
264.035	86.75
264.267	83.75
264.499	84.75
264.732	80.75
264.964	77.75
265.197	84.75
265.429	89.75
265.661	97.75
265.894	82.75
266.126	76.75
266.358	79.75
266.591	66.75
266.823	79.75
267.055	73.75
267.287	79.75
267.52	74.75
267.752	73.75
267.984	80.75
268.216	64.75
268.448	81.75
268.681	94.75
268.913	77.75
269.145	81.75
269.377	84.75
269.609	90.75
269.841	90.75
270.073	93.75
270.306	85.75
270.538	75.75
270.77	76.75
271.002	72.75
271.234	72.75
271.466	89.75
271.698	93.75
271.93	93.75
272.162	68.75
272.394	66.75
272.626	90.75
272.858	75.75
273.09	78.75
273.322	77.75
273.553	74.75
273.785	74.75
274.017	64.75
274.249	75.75
274.481	76.75
274.713	86.75
274.945	76.75
275.176	87.75
275.408	83.75
275.64	90.75
275.872	86.75
276.104	78.75
276.335	78.75
276.567	98.75
276.799	107.75
277.031	104.75
277.262	118.75
277.494	101.75
277.726	77.75
277.957	71.75
278.189	71.75
278.421	90.75
278.652	85.75
278.884	85.75
279.115	90.75
279.347	84.75
279.579	89.75
279.81	86.75
280.042	114.75
280.273	123.75
280.505	120.75
280.736	98.75
280.968	88.75
281.199	84.75
281.431	86.75
281.662	74.75
281.894	97.75
282.125	95.75
282.356	109.75
282.588	122.75
282.819	116.75
283.051	96.75
283.282	93.75
283.513	92.75
283.745	88.75
283.976	80.75
284.207	96.75
284.439	78.75
284.67	69.75
284.901	94.75
285.132	94.75
285.364	104.75
285.595	86.75
285.826	88.75
286.057	99.75
286.288	95.75
286.52	75.75
286.751	80.75
286.982	60.75
287.213	80.75
287.444	97.75
287.675	93.75
287.906	97.75
288.138	83.75
288.369	92.75
288.6	78.75
288.831	74.75
289.062	86.75
289.293	76.75
289.524	80.75
289.755	88.75
289.986	78.75
290.217	98.75
290.448	76.75
290.679	93.75
290.91	89.75
291.141	74.75
291.371	93.75
291.602	88.75
291.833	84.75
292.064	89.75
292.295	91.75
292.526	92.75
292.757	79.75
292.987	77.75
293.218	83.75
293.449	91.75
293.68	88.75
293.91	85.75
294.141	97.75
294.372	86.75
294.603	85.75
294.833	91.75
295.064	78.75
295.295	93.75
295.525	102.75
295.756	97.75
295.987	116.75
296.217	124.75
296.448	108.75
296.679	83.75
296.909	87.75
297.14	78.75
297.37	88.75
297.601	86.75
297.831	87.75
298.062	98.75
298.292	88.75
298.523	98.75
298.753	96.75
298.984	92.75
299.214	98.75
299.445	80.75
299.675	85.75
299.905	88.75
300.136	78.75
300.366	89.75
300.597	88.75
300.827	84.75
301.057	89.75
301.288	93.75
301.518	88.75
301.748	102.75
301.979	94.75
302.209	93.75
302.439	104.75
302.669	77.75
302.9	76.75
303.13	106.75
303.36	102.75
303.59	106.75
303.82	115.75
304.051	100.75
304.281	80.75
304.511	84.75
304.741	86.75
304.971	86.75
305.201	82.75
305.431	80.75
305.661	75.75
305.891	91.75
306.121	99.75
306.352	105.75
306.582	99.75
306.812	89.75
307.042	99.75
307.272	114.75
307.502	122.75
307.731	99.75
307.961	100.75
308.191	91.75
308.421	85.75
308.651	87.75
308.881	86.75
309.111	96.75
309.341	101.75
309.571	99.75
309.8	104.75
310.03	97.75
310.26	107.75
310.49	99.75
310.72	98.75
310.949	106.75
311.179	108.75
311.409	94.75
311.639	89.75
311.868	93.75
312.098	98.75
312.328	98.75
312.557	106.75
312.787	95.75
313.017	99.75
313.246	94.75
313.476	88.75
313.706	92.75
313.935	83.75
314.165	103.75
314.394	107.75
314.624	113.75
314.853	100.75
315.083	91.75
315.312	87.75
315.542	96.75
315.771	100.75
316.001	82.75
316.23	93.75
316.46	96.75
316.689	84.75
316.919	97.75
317.148	92.75
317.377	94.75
317.607	92.75
317.836	91.75
318.065	91.75
318.295	88.75
318.524	96.75
318.753	88.75
318.983	90.75
319.212	93.75
319.441	102.75
319.67	106.75
319.9	91.75
320.129	77.75
320.358	103.75
320.587	100.75
320.816	94.75
321.046	93.75
321.275	99.75
321.504	89.75
321.733	99.75
321.962	75.75
322.191	101.75
322.42	97.75
322.649	115.75
322.878	114.75
323.108	100.75
323.337	129.75
323.566	129.75
323.795	141.75
324.024	189.75
324.253	374.75
324.482	812.75
324.71	1694.75
324.939	2275.75
325.168	821.75
325.397	238.75
325.626	140.75
325.855	129.75
326.084	120.75
326.313	131.75
326.542	143.75
326.77	216.75
326.999	432.75
327.228	957.75
327.457	1741.75
327.686	1400.75
327.914	422.75
328.143	282.75
328.372	307.75
328.6	203.75
328.829	140.75
329.058	144.75
329.287	142.75
329.515	120.75
329.744	152.75
329.972	211.75
330.201	402.75
330.43	552.75
330.658	290.75
330.887	200.75
331.115	137.75
331.344	115.75
331.572	113.75
331.801	98.75
332.03	102.75
332.258	111.75
332.486	99.75
332.715	94.75
332.943	103.75
333.172	108.75
333.4	83.75
333.629	121.75
333.857	141.75
334.085	214.75
334.314	397.75
334.542	689.75
334.771	630.75
334.999	213.75
335.227	131.75
335.455	117.75
335.684	104.75
335.912	122.75
336.14	90.75
336.369	94.75
336.597	107.75
336.825	92.75
337.053	99.75
337.281	82.75
337.51	83.75
337.738	97.75
337.966	107.75
338.194	84.75
338.422	101.75
338.65	91.75
338.878	92.75
339.106	102.75
339.334	97.75
339.562	90.75
339.79	95.75
340.018	91.75
340.246	92.75
340.474	100.75
340.702	94.75
340.93	81.75
341.158	92.75
341.386	97.75
341.614	99.75
341.842	99.75
342.07	95.75
342.298	89.75
342.526	80.75
342.754	98.75
342.981	98.75
343.209	87.75
343.437	96.75
343.665	78.75
343.893	95.75
344.12	92.75
344.348	100.75
344.576	84.75
344.804	91.75
345.031	82.75
345.259	103.75
345.487	82.75
345.714	93.75
345.942	88.75
346.17	85.75
346.397	94.75
346.625	83.75
346.853	89.75
347.08	97.75
347.308	95.75
347.535	107.75
347.763	105.75
347.99	96.75
348.218	104.75
348.445	94.75
348.673	91.75
348.9	99.75
349.128	93.75
349.355	92.75
349.583	91.75
349.81	91.75
350.037	96.75
350.265	111.75
350.492	103.75
350.72	90.75
350.947	101.75
351.174	101.75
351.402	109.75
351.629	113.75
351.856	104.75
352.083	92.75
352.311	113.75
352.538	98.75
352.765	112.75
352.992	102.75
353.22	113.75
353.447	94.75
353.674	98.75
353.901	93.75
354.128	94.75
354.355	103.75
354.583	101.75
354.81	92.75
355.037	100.75
355.264	94.75
355.491	103.75
355.718	86.75
355.945	91.75
356.172	96.75
356.399	90.75
356.626	87.75
356.853	87.75
357.08	97.75
357.307	88.75
357.534	89.75
357.761	107.75
357.988	101.75
358.215	103.75
358.441	94.75
358.668	108.75
358.895	86.75
359.122	88.75
359.349	89.75
359.576	93.75
359.802	91.75
360.029	117.75
360.256	110.75
360.483	102.75
360.709	87.75
360.936	100.75
361.163	104.75
361.39	88.75
361.616	92.75
361.843	102.75
362.07	103.75
362.296	105.75
362.523	96.75
362.749	82.75
362.976	72.75
363.203	82.75
363.429	83.75
363.656	84.75
363.882	95.75
364.109	83.75
364.335	105.75
364.562	86.75
364.788	86.75
365.015	100.75
365.241	97.75
365.468	125.75
365.694	110.75
365.92	86.75
366.147	81.75
366.373	102.75
366.599	93.75
366.826	100.75
367.052	89.75
367.278	92.75
367.505	77.75
367.731	94.75
367.957	86.75
368.184	86.75
368.41	105.75
368.636	116.75
368.862	112.75
369.089	108.75
369.315	86.75
369.541	95.75
369.767	83.75
369.993	98.75
370.219	83.75
370.445	78.75
370.672	86.75
370.898	86.75
371.124	83.75
371.35	76.75
371.576	88.75
371.802	86.75
372.028	84.75
372.254	86.75
372.48	81.75
372.706	86.75
372.932	77.75
373.158	86.75
373.384	81.75
373.61	92.75
373.835	90.75
374.061	92.75
374.287	94.75
374.513	99.75
374.739	82.75
374.965	89.75
375.191	99.75
375.416	90.75
375.642	89.75
375.868	105.75
376.094	84.75
376.319	74.75
376.545	75.75
376.771	79.75
376.997	98.75
377.222	83.75
377.448	107.75
377.674	92.75
377.899	95.75
378.125	92.75
378.35	90.75
378.576	76.75
378.802	101.75
379.027	99.75
379.253	88.75
379.478	98.75
379.704	109.75
379.929	84.75
380.155	99.75
380.38	95.75
380.606	90.75
380.831	80.75
381.057	98.75
381.282	103.75
381.507	96.75
381.733	91.75
381.958	84.75
382.184	108.75
382.409	98.75
382.634	88.75
382.86	99.75
383.085	104.75
383.31	113.75
383.535	103.75
383.761	93.75
383.986	91.75
384.211	110.75
384.436	98.75
384.662	98.75
384.887	103.75
385.112	121.75
385.337	94.75
385.562	90.75
385.787	112.75
386.013	125.75
386.238	124.75
386.463	105.75
386.688	102.75
386.913	110.75
387.138	110.75
387.363	103.75
387.588	90.75
387.813	98.75
388.038	112.75
388.263	114.75
388.488	119.75
388.713	99.75
388.938	104.75
389.163	87.75
389.387	95.75
389.612	91.75
389.837	86.75
390.062	88.75
390.287	93.75
390.512	83.75
390.736	87.75
390.961	91.75
391.186	92.75
391.411	91.75
391.636	88.75
391.86	79.75
392.085	80.75
392.31	86.75
392.534	68.75
392.759	90.75
392.984	88.75
393.208	86.75
393.433	96.75
393.658	96.75
393.882	81.75
394.107	74.75
394.331	88.75
394.556	74.75
394.78	76.75
395.005	87.75
395.229	97.75
395.454	92.75
395.678	79.75
395.903	84.75
396.127	87.75
396.352	74.75
396.576	93.75
396.801	93.75
397.025	87.75
397.249	94.75
397.474	80.75
397.698	76.75
397.922	91.75
398.147	83.75
398.371	103.75
398.595	57.75
398.82	85.75
399.044	79.75
399.268	77.75
399.492	80.75
399.717	100.75
399.941	87.75
400.165	94.75
400.389	98.75
400.613	70.75
400.837	87.75
401.062	78.75
401.286	88.75
401.51	84.75
401.734	88.75
401.958	93.75
402.182	114.75
402.406	156.75
402.63	112.75
402.854	93.75
403.078	94.75
403.302	84.75
403.526	80.75
403.75	91.75
403.974	86.75
404.198	92.75
404.422	97.75
404.645	88.75
404.869	97.75
405.093	107.75
405.317	122.75
405.541	117.75
405.765	109.75
405.988	115.75
406.212	163.75
406.436	219.75
406.66	157.75
406.883	98.75
407.107	84.75
407.331	96.75
407.555	91.75
407.778	97.75
408.002	89.75
408.226	100.75
408.449	72.75
408.673	79.75
408.896	91.75
409.12	91.75
409.344	96.75
409.567	89.75
409.791	81.75
410.014	76.75
410.238	90.75
410.461	104.75
410.685	97.75
410.908	98.75
411.132	121.75
411.355	108.75
411.578	94.75
411.802	92.75
412.025	101.75
412.249	76.75
412.472	107.75
412.695	115.75
412.919	110.75
413.142	100.75
413.365	95.75
413.589	101.75
413.812	91.75
414.035	89.75
414.258	84.75
414.482	92.75
414.705	97.75
414.928	84.75
415.151	85.75
415.374	88.75
415.597	93.75
415.821	97.75
416.044	97.75
416.267	70.75
416.49	81.75
416.713	73.75
416.936	92.75
417.159	98.75
417.382	89.75
417.605	86.75
417.828	89.75
418.051	101.75
418.274	85.75
418.497	90.75
418.72	68.75
418.943	88.75
419.166	84.75
419.389	92.75
419.611	91.75
419.834	82.75
420.057	84.75
420.28	90.75
420.503	88.75
420.726	97.75
420.948	88.75
421.171	96.75
421.394	88.75
421.617	90.75
421.839	87.75
422.062	76.75
422.285	89.75
422.507	102.75
422.73	110.75
422.953	95.75
423.175	83.75
423.398	107.75
423.621	100.75
423.843	93.75
424.066	100.75
424.288	95.75
424.511	103.75
424.733	101.75
424.956	99.75
425.178	103.75
425.401	124.75
425.623	112.75
425.846	94.75
426.068	97.75
426.291	98.75
426.513	80.75
426.735	95.75
426.958	94.75
427.18	96.75
427.402	150.75
427.625	181.75
427.847	165.75
428.069	170.75
428.292	118.75
428.514	92.75
428.736	90.75
428.958	78.75
429.181	78.75
429.403	93.75
429.625	86.75
429.847	107.75
430.069	112.75
430.292	91.75
430.514	86.75
430.736	84.75
430.958	82.75
431.18	79.75
431.402	102.75
431.624	85.75
431.846	85.75
432.068	80.75
432.29	96.75
432.512	90.75
432.734	91.75
432.956	92.75
433.178	89.75
433.4	96.75
433.622	88.75
433.844	77.75
434.066	94.75
434.287	94.75
434.509	93.75
434.731	90.75
434.953	93.75
435.175	81.75
435.397	77.75
435.618	91.75
435.84	97.75
436.062	139.75
436.284	123.75
436.505	95.75
436.727	81.75
436.949	92.75
437.17	81.75
437.392	86.75
437.614	101.75
437.835	113.75
438.057	115.75
438.278	128.75
438.5	112.75
438.721	119.75
438.943	94.75
439.165	84.75
439.386	96.75
439.608	98.75
439.829	95.75
440.05	120.75
440.272	144.75
440.493	92.75
440.715	90.75
440.936	80.75
441.158	70.75
441.379	96.75
441.6	99.75
441.822	82.75
442.043	101.75
442.264	102.75
442.486	104.75
442.707	83.75
442.928	96.75
443.149	124.75
443.371	120.75
443.592	109.75
443.813	104.75
444.034	105.75
444.255	93.75
444.476	77.75
444.698	92.75
444.919	107.75
445.14	122.75
445.361	113.75
445.582	120.75
445.803	148.75
446.024	146.75
446.245	148.75
446.466	111.75
446.687	92.75
446.908	75.75
447.129	74.75
447.35	81.75
447.571	93.75
447.792	100.75
448.013	92.75
448.234	110.75
448.455	102.75
448.675	126.75
448.896	113.75
449.117	94.75
449.338	103.75
449.559	144.75
449.779	130.75
450	97.75
450.221	85.75
450.442	108.75
450.662	72.75
450.883	87.75
451.104	110.75
451.324	90.75
451.545	93.75
451.766	77.75
451.986	85.75
452.207	76.75
452.428	86.75
452.648	72.75
452.869	109.75
453.089	115.75
453.31	123.75
453.53	108.75
453.751	97.75
453.971	101.75
454.192	110.75
454.412	100.75
454.633	101.75
454.853	85.75
455.073	106.75
455.294	91.75
455.514	102.75
455.734	91.75
455.955	86.75
456.175	85.75
456.395	86.75
456.616	85.75
456.836	66.75
457.056	85.75
457.276	79.75
457.497	82.75
457.717	69.75
457.937	83.75
458.157	85.75
458.377	99.75
458.598	108.75
458.818	148.75
459.038	160.75
459.258	114.75
459.478	88.75
459.698	97.75
459.918	92.75
460.138	90.75
460.358	86.75
460.578	89.75
460.798	96.75
461.018	85.75
461.238	85.75
461.458	84.75
461.678	89.75
461.898	83.75
462.118	69.75
462.338	86.75
462.558	87.75
462.777	90.75
462.997	76.75
463.217	89.75
463.437	96.75
463.657	96.75
463.876	93.75
464.096	77.75
464.316	84.75
464.536	79.75
464.755	78.75
464.975	111.75
465.195	164.75
465.414	164.75
465.634	97.75
465.854	98.75
466.073	84.75
466.293	85.75
466.512	84.75
466.732	85.75
466.951	98.75
467.171	99.75
467.391	99.75
467.61	107.75
467.829	125.75
468.049	236.75
468.268	308.75
468.488	113.75
468.707	82.75
468.927	83.75
469.146	96.75
469.365	89.75
469.585	80.75
469.804	93.75
470.023	92.75
470.243	91.75
470.462	95.75
470.681	100.75
470.901	84.75
471.12	80.75
471.339	75.75
471.558	100.75
471.777	94.75
471.997	154.75
472.216	408.75
472.435	865.75
472.654	257.75
472.873	110.75
473.092	105.75
473.311	86.75
473.53	84.75
473.749	89.75
473.968	94.75
474.187	105.75
474.406	90.75
474.625	88.75
474.844	89.75
475.063	92.75
475.282	99.75
475.501	91.75
475.72	72.75
475.939	88.75
476.158	74.75
476.377	82.75
476.596	84.75
476.814	94.75
477.033	82.75
477.252	86.75
477.471	89.75
477.69	93.75
477.908	73.75
478.127	93.75
478.346	92.75
478.564	81.75
478.783	105.75
479.002	98.75
479.22	90.75
479.439	101.75
479.658	132.75
479.876	95.75
480.095	102.75
480.313	106.75
480.532	101.75
480.751	146.75
480.969	389.75
481.188	1522.75
481.406	919.75
481.624	205.75
481.843	99.75
482.061	100.75
482.28	80.75
482.498	91.75
482.717	85.75
482.935	78.75
483.153	88.75
483.372	86.75
483.59	98.75
483.808	82.75
484.027	98.75
484.245	89.75
484.463	93.75
484.681	86.75
484.9	83.75
485.118	86.75
485.336	76.75
485.554	82.75
485.772	106.75
485.99	104.75
486.209	98.75
486.427	99.75
486.645	123.75
486.863	101.75
487.081	90.75
487.299	109.75
487.517	100.75
487.735	90.75
487.953	77.75
488.171	75.75
488.389	91.75
488.607	100.75
488.825	97.75
489.043	89.75
489.261	83.75
489.479	90.75
489.696	87.75
489.914	105.75
490.132	86.75
490.35	91.75
490.568	87.75
490.786	88.75
491.003	80.75
491.221	76.75
491.439	82.75
491.657	90.75
491.874	94.75
492.092	86.75
492.31	85.75
492.527	94.75
492.745	90.75
492.963	105.75
493.18	86.75
493.398	76.75
493.615	105.75
493.833	87.75
494.05	87.75
494.268	98.75
494.485	78.75
494.703	93.75
494.92	90.75
495.138	82.75
495.355	78.75
495.573	78.75
495.79	87.75
496.008	106.75
496.225	96.75
496.442	84.75
496.66	85.75
496.877	90.75
497.094	86.75
497.312	94.75
497.529	103.75
497.746	86.75
497.963	91.75
498.181	98.75
498.398	101.75
498.615	101.75
498.832	96.75
499.049	80.75
499.267	99.75
499.484	78.75
499.701	92.75
499.918	100.75
500.135	74.75
500.352	97.75
500.569	102.75
500.786	90.75
501.003	98.75
501.22	82.75
501.437	89.75
501.654	104.75
501.871	112.75
502.088	100.75
502.305	102.75
502.522	80.75
502.739	85.75
502.956	90.75
503.172	86.75
503.389	93.75
503.606	113.75
503.823	101.75
504.04	76.75
504.256	89.75
504.473	80.75
504.69	79.75
504.907	91.75
505.123	84.75
505.34	89.75
505.557	93.75
505.773	93.75
505.99	93.75
506.207	78.75
506.423	82.75
506.64	93.75
506.856	89.75
507.073	82.75
507.289	101.75
507.506	78.75
507.722	116.75
507.939	106.75
508.155	92.75
508.372	83.75
508.588	83.75
508.805	100.75
509.021	92.75
509.238	84.75
509.454	101.75
509.67	96.75
509.887	100.75
510.103	123.75
510.319	193.75
510.536	636.75
510.752	2056.75
510.968	571.75
511.184	152.75
511.401	116.75
511.617	98.75
511.833	98.75
512.049	94.75
512.265	92.75
512.481	81.75
512.698	89.75
512.914	78.75
513.13	96.75
513.346	100.75
513.562	89.75
513.778	92.75
513.994	111.75
514.21	101.75
514.426	123.75
514.642	117.75
514.858	112.75
515.074	150.75
515.29	457.75
