Data from Circ_1990_H10_HRD10591_00049.txt Node
Date: Wed Jan 03 11:55:13 EST 2024
User: Yrep
Spectrometer: HR+D1059
Trigger mode: 1
Integration Time (sec): 1.000000E-1
Scans to average: 1
Electric dark correction enabled: true
Nonlinearity correction enabled: false
Boxcar width: 0
XAxis mode: Wavelengths
Number of Pixels in Spectrum: 2048
>>>>>Begin Spectral Data<<<<<
223.165	-14.19
223.4	-14.19
223.635	-14.19
223.869	-17.19
224.104	-25.19
224.338	-20.19
224.573	-23.19
224.808	-18.19
225.042	-9.19
225.277	-8.19
225.511	-9.19
225.746	-0.19
225.98	16.81
226.215	12.81
226.449	22.81
226.683	35.81
226.918	35.81
227.152	20.81
227.387	24.81
227.621	38.81
227.856	56.81
228.09	64.81
228.324	42.81
228.559	41.81
228.793	66.81
229.027	63.81
229.262	69.81
229.496	79.81
229.73	76.81
229.964	93.81
230.199	71.81
230.433	68.81
230.667	79.81
230.901	78.81
231.136	77.81
231.37	78.81
231.604	67.81
231.838	79.81
232.072	87.81
232.306	76.81
232.541	79.81
232.775	72.81
233.009	84.81
233.243	91.81
233.477	81.81
233.711	72.81
233.945	91.81
234.179	94.81
234.413	85.81
234.647	79.81
234.881	94.81
235.115	92.81
235.349	66.81
235.583	74.81
235.817	88.81
236.051	75.81
236.285	71.81
236.519	92.81
236.753	89.81
236.987	86.81
237.221	93.81
237.455	102.81
237.689	74.81
237.922	95.81
238.156	79.81
238.39	92.81
238.624	95.81
238.858	82.81
239.091	75.81
239.325	88.81
239.559	86.81
239.793	70.81
240.027	75.81
240.26	82.81
240.494	71.81
240.728	69.81
240.961	82.81
241.195	82.81
241.429	72.81
241.662	78.81
241.896	81.81
242.13	78.81
242.363	68.81
242.597	77.81
242.83	77.81
243.064	80.81
243.298	80.81
243.531	71.81
243.765	71.81
243.998	62.81
244.232	82.81
244.465	87.81
244.699	85.81
244.932	76.81
245.166	77.81
245.399	83.81
245.633	82.81
245.866	91.81
246.099	71.81
246.333	82.81
246.566	79.81
246.8	74.81
247.033	89.81
247.266	76.81
247.5	86.81
247.733	69.81
247.966	87.81
248.2	79.81
248.433	87.81
248.666	78.81
248.899	85.81
249.133	93.81
249.366	119.81
249.599	88.81
249.832	86.81
250.066	79.81
250.299	65.81
250.532	82.81
250.765	87.81
250.998	73.81
251.231	78.81
251.465	77.81
251.698	71.81
251.931	82.81
252.164	79.81
252.397	82.81
252.63	82.81
252.863	98.81
253.096	81.81
253.329	82.81
253.562	69.81
253.795	84.81
254.028	88.81
254.261	79.81
254.494	86.81
254.727	79.81
254.96	87.81
255.193	77.81
255.426	71.81
255.659	84.81
255.892	96.81
256.124	70.81
256.357	81.81
256.59	87.81
256.823	77.81
257.056	98.81
257.289	73.81
257.521	89.81
257.754	84.81
257.987	81.81
258.22	90.81
258.452	92.81
258.685	87.81
258.918	83.81
259.151	83.81
259.383	93.81
259.616	81.81
259.849	73.81
260.081	87.81
260.314	81.81
260.547	87.81
260.779	88.81
261.012	86.81
261.244	92.81
261.477	92.81
261.71	84.81
261.942	95.81
262.175	113.81
262.407	84.81
262.64	96.81
262.872	91.81
263.105	71.81
263.337	72.81
263.57	71.81
263.802	83.81
264.035	82.81
264.267	84.81
264.499	86.81
264.732	75.81
264.964	84.81
265.197	89.81
265.429	85.81
265.661	87.81
265.894	84.81
266.126	93.81
266.358	90.81
266.591	85.81
266.823	70.81
267.055	81.81
267.287	75.81
267.52	83.81
267.752	93.81
267.984	78.81
268.216	89.81
268.448	93.81
268.681	96.81
268.913	86.81
269.145	96.81
269.377	84.81
269.609	91.81
269.841	96.81
270.073	99.81
270.306	79.81
270.538	87.81
270.77	79.81
271.002	79.81
271.234	100.81
271.466	87.81
271.698	84.81
271.93	90.81
272.162	94.81
272.394	86.81
272.626	96.81
272.858	87.81
273.09	102.81
273.322	91.81
273.553	87.81
273.785	86.81
274.017	76.81
274.249	80.81
274.481	95.81
274.713	84.81
274.945	90.81
275.176	88.81
275.408	87.81
275.64	92.81
275.872	108.81
276.104	88.81
276.335	80.81
276.567	106.81
276.799	114.81
277.031	91.81
277.262	116.81
277.494	97.81
277.726	85.81
277.957	100.81
278.189	99.81
278.421	88.81
278.652	77.81
278.884	88.81
279.115	85.81
279.347	80.81
279.579	88.81
279.81	95.81
280.042	111.81
280.273	125.81
280.505	99.81
280.736	101.81
280.968	76.81
281.199	83.81
281.431	79.81
281.662	97.81
281.894	97.81
282.125	94.81
282.356	100.81
282.588	125.81
282.819	111.81
283.051	92.81
283.282	93.81
283.513	87.81
283.745	79.81
283.976	97.81
284.207	94.81
284.439	88.81
284.67	83.81
284.901	91.81
285.132	74.81
285.364	93.81
285.595	92.81
285.826	85.81
286.057	87.81
286.288	98.81
286.52	83.81
286.751	103.81
286.982	83.81
287.213	100.81
287.444	100.81
287.675	107.81
287.906	83.81
288.138	85.81
288.369	92.81
288.6	90.81
288.831	92.81
289.062	75.81
289.293	87.81
289.524	103.81
289.755	97.81
289.986	95.81
290.217	85.81
290.448	98.81
290.679	75.81
290.91	93.81
291.141	89.81
291.371	87.81
291.602	95.81
291.833	89.81
292.064	99.81
292.295	87.81
292.526	96.81
292.757	102.81
292.987	99.81
293.218	87.81
293.449	93.81
293.68	102.81
293.91	87.81
294.141	88.81
294.372	91.81
294.603	84.81
294.833	94.81
295.064	96.81
295.295	100.81
295.525	80.81
295.756	111.81
295.987	116.81
296.217	148.81
296.448	130.81
296.679	100.81
296.909	92.81
297.14	102.81
297.37	100.81
297.601	87.81
297.831	84.81
298.062	102.81
298.292	95.81
298.523	79.81
298.753	83.81
298.984	80.81
299.214	78.81
299.445	83.81
299.675	101.81
299.905	94.81
300.136	91.81
300.366	97.81
300.597	96.81
300.827	99.81
301.057	102.81
301.288	118.81
301.518	101.81
301.748	91.81
301.979	103.81
302.209	97.81
302.439	92.81
302.669	96.81
302.9	88.81
303.13	102.81
303.36	94.81
303.59	95.81
303.82	111.81
304.051	105.81
304.281	96.81
304.511	87.81
304.741	85.81
304.971	77.81
305.201	99.81
305.431	92.81
305.661	100.81
305.891	105.81
306.121	92.81
306.352	104.81
306.582	98.81
306.812	93.81
307.042	97.81
307.272	121.81
307.502	111.81
307.731	119.81
307.961	103.81
308.191	88.81
308.421	97.81
308.651	86.81
308.881	96.81
309.111	89.81
309.341	102.81
309.571	86.81
309.8	95.81
310.03	91.81
310.26	95.81
310.49	106.81
310.72	110.81
310.949	104.81
311.179	110.81
311.409	102.81
311.639	102.81
311.868	107.81
312.098	88.81
312.328	100.81
312.557	101.81
312.787	117.81
313.017	94.81
313.246	101.81
313.476	92.81
313.706	90.81
313.935	105.81
314.165	116.81
314.394	97.81
314.624	111.81
314.853	92.81
315.083	91.81
315.312	86.81
315.542	91.81
315.771	90.81
316.001	96.81
316.23	94.81
316.46	103.81
316.689	81.81
316.919	105.81
317.148	96.81
317.377	99.81
317.607	94.81
317.836	81.81
318.065	85.81
318.295	82.81
318.524	84.81
318.753	104.81
318.983	91.81
319.212	100.81
319.441	111.81
319.67	113.81
319.9	90.81
320.129	86.81
320.358	99.81
320.587	104.81
320.816	108.81
321.046	99.81
321.275	99.81
321.504	94.81
321.733	112.81
321.962	102.81
322.191	111.81
322.42	118.81
322.649	103.81
322.878	107.81
323.108	119.81
323.337	125.81
323.566	124.81
323.795	149.81
324.024	197.81
324.253	382.81
324.482	832.81
324.71	1657.81
324.939	2245.81
325.168	826.81
325.397	241.81
325.626	141.81
325.855	135.81
326.084	133.81
326.313	130.81
326.542	139.81
326.77	222.81
326.999	433.81
327.228	953.81
327.457	1719.81
327.686	1372.81
327.914	417.81
328.143	273.81
328.372	286.81
328.6	185.81
328.829	136.81
329.058	149.81
329.287	138.81
329.515	126.81
329.744	149.81
329.972	218.81
330.201	371.81
330.43	513.81
330.658	275.81
330.887	180.81
331.115	134.81
331.344	107.81
331.572	109.81
331.801	98.81
332.03	102.81
332.258	98.81
332.486	108.81
332.715	91.81
332.943	87.81
333.172	93.81
333.4	107.81
333.629	135.81
333.857	146.81
334.085	199.81
334.314	358.81
334.542	642.81
334.771	592.81
334.999	197.81
335.227	116.81
335.455	109.81
335.684	110.81
335.912	99.81
336.14	107.81
336.369	83.81
336.597	110.81
336.825	97.81
337.053	77.81
337.281	98.81
337.51	83.81
337.738	99.81
337.966	96.81
338.194	97.81
338.422	101.81
338.65	100.81
338.878	98.81
339.106	83.81
339.334	104.81
339.562	97.81
339.79	85.81
340.018	85.81
340.246	88.81
340.474	105.81
340.702	89.81
340.93	90.81
341.158	83.81
341.386	95.81
341.614	94.81
341.842	95.81
342.07	103.81
342.298	103.81
342.526	84.81
342.754	92.81
342.981	93.81
343.209	93.81
343.437	88.81
343.665	97.81
343.893	95.81
344.12	90.81
344.348	87.81
344.576	93.81
344.804	95.81
345.031	85.81
345.259	83.81
345.487	92.81
345.714	93.81
345.942	88.81
346.17	87.81
346.397	95.81
346.625	93.81
346.853	98.81
347.08	87.81
347.308	106.81
347.535	84.81
347.763	99.81
347.99	104.81
348.218	97.81
348.445	94.81
348.673	119.81
348.9	97.81
349.128	90.81
349.355	102.81
349.583	101.81
349.81	105.81
350.037	92.81
350.265	93.81
350.492	92.81
350.72	88.81
350.947	106.81
351.174	115.81
351.402	112.81
351.629	105.81
351.856	96.81
352.083	96.81
352.311	117.81
352.538	105.81
352.765	105.81
352.992	116.81
353.22	99.81
353.447	99.81
353.674	102.81
353.901	95.81
354.128	88.81
354.355	100.81
354.583	82.81
354.81	98.81
355.037	80.81
355.264	106.81
355.491	91.81
355.718	94.81
355.945	91.81
356.172	93.81
356.399	106.81
356.626	104.81
356.853	99.81
357.08	103.81
357.307	92.81
357.534	86.81
357.761	93.81
357.988	88.81
358.215	101.81
358.441	107.81
358.668	91.81
358.895	85.81
359.122	91.81
359.349	92.81
359.576	104.81
359.802	110.81
360.029	101.81
360.256	116.81
360.483	105.81
360.709	85.81
360.936	90.81
361.163	88.81
361.39	95.81
361.616	93.81
361.843	97.81
362.07	99.81
362.296	103.81
362.523	92.81
362.749	83.81
362.976	85.81
363.203	86.81
363.429	96.81
363.656	96.81
363.882	89.81
364.109	91.81
364.335	91.81
364.562	116.81
364.788	90.81
365.015	84.81
365.241	87.81
365.468	117.81
365.694	99.81
365.92	92.81
366.147	98.81
366.373	75.81
366.599	89.81
366.826	86.81
367.052	72.81
367.278	78.81
367.505	86.81
367.731	89.81
367.957	91.81
368.184	107.81
368.41	95.81
368.636	105.81
368.862	121.81
369.089	100.81
369.315	90.81
369.541	98.81
369.767	99.81
369.993	87.81
370.219	89.81
370.445	91.81
370.672	97.81
370.898	88.81
371.124	98.81
371.35	94.81
371.576	95.81
371.802	85.81
372.028	76.81
372.254	75.81
372.48	96.81
372.706	83.81
372.932	87.81
373.158	90.81
373.384	80.81
373.61	88.81
373.835	76.81
374.061	92.81
374.287	82.81
374.513	105.81
374.739	104.81
374.965	101.81
375.191	86.81
375.416	93.81
375.642	102.81
375.868	103.81
376.094	103.81
376.319	105.81
376.545	102.81
376.771	85.81
376.997	87.81
377.222	79.81
377.448	97.81
377.674	99.81
377.899	76.81
378.125	98.81
378.35	109.81
378.576	87.81
378.802	77.81
379.027	98.81
379.253	87.81
379.478	83.81
379.704	107.81
379.929	105.81
380.155	100.81
380.38	95.81
380.606	100.81
380.831	110.81
381.057	91.81
381.282	115.81
381.507	100.81
381.733	97.81
381.958	90.81
382.184	94.81
382.409	111.81
382.634	96.81
382.86	95.81
383.085	103.81
383.31	115.81
383.535	103.81
383.761	117.81
383.986	100.81
384.211	99.81
384.436	101.81
384.662	111.81
384.887	98.81
385.112	112.81
385.337	108.81
385.562	105.81
385.787	113.81
386.013	109.81
386.238	112.81
386.463	104.81
386.688	107.81
386.913	117.81
387.138	116.81
387.363	103.81
387.588	101.81
387.813	124.81
388.038	123.81
388.263	122.81
388.488	114.81
388.713	100.81
388.938	94.81
389.163	93.81
389.387	105.81
389.612	104.81
389.837	96.81
390.062	98.81
390.287	86.81
390.512	87.81
390.736	95.81
390.961	94.81
391.186	89.81
391.411	91.81
391.636	83.81
391.86	85.81
392.085	100.81
392.31	93.81
392.534	89.81
392.759	92.81
392.984	75.81
393.208	87.81
393.433	82.81
393.658	89.81
393.882	91.81
394.107	91.81
394.331	80.81
394.556	75.81
394.78	84.81
395.005	90.81
395.229	84.81
395.454	71.81
395.678	67.81
395.903	84.81
396.127	80.81
396.352	88.81
396.576	94.81
396.801	97.81
397.025	80.81
397.249	91.81
397.474	97.81
397.698	89.81
397.922	91.81
398.147	83.81
398.371	99.81
398.595	82.81
398.82	81.81
399.044	85.81
399.268	96.81
399.492	91.81
399.717	88.81
399.941	84.81
400.165	92.81
400.389	91.81
400.613	68.81
400.837	77.81
401.062	84.81
401.286	92.81
401.51	86.81
401.734	96.81
401.958	98.81
402.182	111.81
402.406	149.81
402.63	126.81
402.854	79.81
403.078	80.81
403.302	83.81
403.526	94.81
403.75	109.81
403.974	90.81
404.198	87.81
404.422	88.81
404.645	83.81
404.869	80.81
405.093	104.81
405.317	107.81
405.541	115.81
405.765	107.81
405.988	105.81
406.212	148.81
406.436	213.81
406.66	136.81
406.883	111.81
407.107	110.81
407.331	100.81
407.555	99.81
407.778	113.81
408.002	103.81
408.226	73.81
408.449	88.81
408.673	82.81
408.896	93.81
409.12	105.81
409.344	104.81
409.567	87.81
409.791	101.81
410.014	94.81
410.238	86.81
410.461	93.81
410.685	100.81
410.908	93.81
411.132	113.81
411.355	102.81
411.578	109.81
411.802	83.81
412.025	99.81
412.249	101.81
412.472	95.81
412.695	117.81
412.919	107.81
413.142	107.81
413.365	78.81
413.589	75.81
413.812	89.81
414.035	103.81
414.258	85.81
414.482	104.81
414.705	92.81
414.928	95.81
415.151	108.81
415.374	86.81
415.597	99.81
415.821	94.81
416.044	93.81
416.267	86.81
416.49	83.81
416.713	92.81
416.936	100.81
417.159	101.81
417.382	103.81
417.605	81.81
417.828	111.81
418.051	92.81
418.274	87.81
418.497	94.81
418.72	97.81
418.943	97.81
419.166	92.81
419.389	89.81
419.611	92.81
419.834	93.81
420.057	91.81
420.28	72.81
420.503	87.81
420.726	88.81
420.948	91.81
421.171	87.81
421.394	91.81
421.617	102.81
421.839	84.81
422.062	95.81
422.285	96.81
422.507	93.81
422.73	113.81
422.953	99.81
423.175	82.81
423.398	101.81
423.621	88.81
423.843	80.81
424.066	101.81
424.288	84.81
424.511	98.81
424.733	106.81
424.956	98.81
425.178	110.81
425.401	111.81
425.623	105.81
425.846	96.81
426.068	97.81
426.291	96.81
426.513	100.81
426.735	91.81
426.958	99.81
427.18	104.81
427.402	153.81
427.625	210.81
427.847	169.81
428.069	159.81
428.292	110.81
428.514	86.81
428.736	96.81
428.958	87.81
429.181	97.81
429.403	84.81
429.625	91.81
429.847	96.81
430.069	114.81
430.292	100.81
430.514	91.81
430.736	98.81
430.958	82.81
431.18	86.81
431.402	87.81
431.624	92.81
431.846	93.81
432.068	85.81
432.29	94.81
432.512	89.81
432.734	105.81
432.956	99.81
433.178	109.81
433.4	106.81
433.622	102.81
433.844	104.81
434.066	84.81
434.287	91.81
434.509	90.81
434.731	82.81
434.953	99.81
435.175	80.81
435.397	85.81
435.618	97.81
435.84	112.81
436.062	130.81
436.284	118.81
436.505	94.81
436.727	99.81
436.949	100.81
437.17	105.81
437.392	89.81
437.614	98.81
437.835	95.81
438.057	109.81
438.278	116.81
438.5	117.81
438.721	119.81
438.943	105.81
439.165	95.81
439.386	91.81
439.608	88.81
439.829	90.81
440.05	120.81
440.272	159.81
440.493	109.81
440.715	91.81
440.936	93.81
441.158	99.81
441.379	85.81
441.6	88.81
441.822	95.81
442.043	95.81
442.264	95.81
442.486	102.81
442.707	92.81
442.928	107.81
443.149	127.81
443.371	138.81
443.592	106.81
443.813	115.81
444.034	110.81
444.255	83.81
444.476	86.81
444.698	79.81
444.919	99.81
445.14	136.81
445.361	129.81
445.582	122.81
445.803	155.81
446.024	138.81
446.245	147.81
446.466	117.81
446.687	91.81
446.908	87.81
447.129	91.81
447.35	81.81
447.571	97.81
447.792	100.81
448.013	93.81
448.234	99.81
448.455	103.81
448.675	116.81
448.896	121.81
449.117	115.81
449.338	109.81
449.559	137.81
449.779	128.81
450	99.81
450.221	94.81
450.442	82.81
450.662	95.81
450.883	103.81
451.104	118.81
451.324	91.81
451.545	93.81
451.766	89.81
451.986	84.81
452.207	84.81
452.428	91.81
452.648	96.81
452.869	114.81
453.089	124.81
453.31	115.81
453.53	83.81
453.751	95.81
453.971	116.81
454.192	113.81
454.412	105.81
454.633	93.81
454.853	84.81
455.073	87.81
455.294	82.81
455.514	102.81
455.734	83.81
455.955	88.81
456.175	70.81
456.395	88.81
456.616	92.81
456.836	76.81
457.056	81.81
457.276	93.81
457.497	94.81
457.717	96.81
457.937	92.81
458.157	94.81
458.377	96.81
458.598	133.81
458.818	161.81
459.038	165.81
459.258	105.81
459.478	91.81
459.698	93.81
459.918	89.81
460.138	88.81
460.358	101.81
460.578	96.81
460.798	95.81
461.018	85.81
461.238	81.81
461.458	78.81
461.678	94.81
461.898	83.81
462.118	83.81
462.338	92.81
462.558	97.81
462.777	71.81
462.997	85.81
463.217	92.81
463.437	88.81
463.657	87.81
463.876	85.81
464.096	97.81
464.316	88.81
464.536	85.81
464.755	97.81
464.975	113.81
465.195	173.81
465.414	169.81
465.634	111.81
465.854	102.81
466.073	73.81
466.293	89.81
466.512	88.81
466.732	96.81
466.951	87.81
467.171	99.81
467.391	99.81
467.61	110.81
467.829	135.81
468.049	231.81
468.268	303.81
468.488	120.81
468.707	99.81
468.927	77.81
469.146	88.81
469.365	97.81
469.585	86.81
469.804	92.81
470.023	117.81
470.243	103.81
470.462	111.81
470.681	103.81
470.901	87.81
471.12	97.81
471.339	91.81
471.558	100.81
471.777	101.81
471.997	150.81
472.216	397.81
472.435	800.81
472.654	228.81
472.873	105.81
473.092	92.81
473.311	74.81
473.53	94.81
473.749	87.81
473.968	87.81
474.187	116.81
474.406	108.81
474.625	85.81
474.844	89.81
475.063	65.81
475.282	90.81
475.501	91.81
475.72	98.81
475.939	92.81
476.158	97.81
476.377	87.81
476.596	91.81
476.814	105.81
477.033	95.81
477.252	83.81
477.471	101.81
477.69	102.81
477.908	92.81
478.127	67.81
478.346	93.81
478.564	100.81
478.783	107.81
479.002	99.81
479.22	104.81
479.439	102.81
479.658	116.81
479.876	87.81
480.095	100.81
480.313	95.81
480.532	111.81
480.751	147.81
480.969	399.81
481.188	1379.81
481.406	840.81
481.624	191.81
481.843	106.81
482.061	98.81
482.28	89.81
482.498	91.81
482.717	85.81
482.935	87.81
483.153	82.81
483.372	95.81
483.59	88.81
483.808	104.81
484.027	95.81
484.245	95.81
484.463	84.81
484.681	98.81
484.9	93.81
485.118	101.81
485.336	95.81
485.554	101.81
485.772	103.81
485.99	111.81
486.209	95.81
486.427	97.81
486.645	119.81
486.863	127.81
487.081	108.81
487.299	99.81
487.517	99.81
487.735	100.81
487.953	91.81
488.171	109.81
488.389	105.81
488.607	99.81
488.825	88.81
489.043	96.81
489.261	102.81
489.479	96.81
489.696	89.81
489.914	70.81
490.132	73.81
490.35	92.81
490.568	101.81
490.786	102.81
491.003	87.81
491.221	76.81
491.439	100.81
491.657	91.81
491.874	97.81
492.092	88.81
492.31	103.81
492.527	92.81
492.745	70.81
492.963	85.81
493.18	97.81
493.398	97.81
493.615	88.81
493.833	90.81
494.05	88.81
494.268	90.81
494.485	104.81
494.703	98.81
494.92	104.81
495.138	93.81
495.355	79.81
495.573	94.81
495.79	91.81
496.008	99.81
496.225	98.81
496.442	88.81
496.66	107.81
496.877	87.81
497.094	80.81
497.312	73.81
497.529	102.81
497.746	98.81
497.963	93.81
498.181	92.81
498.398	94.81
498.615	110.81
498.832	105.81
499.049	83.81
499.267	97.81
499.484	82.81
499.701	87.81
499.918	91.81
500.135	95.81
500.352	100.81
500.569	89.81
500.786	92.81
501.003	79.81
501.22	98.81
501.437	102.81
501.654	96.81
501.871	113.81
502.088	103.81
502.305	100.81
502.522	98.81
502.739	93.81
502.956	86.81
503.172	95.81
503.389	102.81
503.606	114.81
503.823	97.81
504.04	93.81
504.256	85.81
504.473	83.81
504.69	94.81
504.907	93.81
505.123	91.81
505.34	83.81
505.557	86.81
505.773	89.81
505.99	75.81
506.207	97.81
506.423	101.81
506.64	89.81
506.856	86.81
507.073	88.81
507.289	93.81
507.506	93.81
507.722	110.81
507.939	92.81
508.155	110.81
508.372	102.81
508.588	90.81
508.805	87.81
509.021	94.81
509.238	109.81
509.454	102.81
509.67	98.81
509.887	91.81
510.103	120.81
510.319	211.81
510.536	670.81
510.752	2106.81
510.968	570.81
511.184	146.81
511.401	105.81
511.617	104.81
511.833	113.81
512.049	98.81
512.265	90.81
512.481	94.81
512.698	97.81
512.914	93.81
513.13	88.81
513.346	102.81
513.562	91.81
513.778	99.81
513.994	95.81
514.21	96.81
