Data from Circ_1990_H10_HRD10591_00076.txt Node
Date: Wed Jan 03 11:55:19 EST 2024
User: Yrep
Spectrometer: HR+D1059
Trigger mode: 1
Integration Time (sec): 1.000000E-1
Scans to average: 1
Electric dark correction enabled: true
Nonlinearity correction enabled: false
Boxcar width: 0
XAxis mode: Wavelengths
Number of Pixels in Spectrum: 2048
>>>>>Begin Spectral Data<<<<<
223.165	-14.88
223.4	-14.88
223.635	-14.88
223.869	-27.88
224.104	-17.88
224.338	-20.88
224.573	-16.88
224.808	-13.88
225.042	-9.88
225.277	-9.88
225.511	14.12
225.746	0.12
225.98	14.12
226.215	14.12
226.449	15.12
226.683	28.12
226.918	19.12
227.152	27.12
227.387	37.12
227.621	47.12
227.856	41.12
228.09	52.12
228.324	54.12
228.559	50.12
228.793	41.12
229.027	49.12
229.262	70.12
229.496	71.12
229.73	92.12
229.964	88.12
230.199	88.12
230.433	73.12
230.667	75.12
230.901	72.12
231.136	66.12
231.37	96.12
231.604	91.12
231.838	82.12
232.072	78.12
232.306	85.12
232.541	90.12
232.775	74.12
233.009	90.12
233.243	88.12
233.477	106.12
233.711	87.12
233.945	81.12
234.179	83.12
234.413	88.12
234.647	75.12
234.881	72.12
235.115	64.12
235.349	89.12
235.583	94.12
235.817	83.12
236.051	88.12
236.285	84.12
236.519	67.12
236.753	83.12
236.987	92.12
237.221	97.12
237.455	82.12
237.689	91.12
237.922	83.12
238.156	82.12
238.39	79.12
238.624	68.12
238.858	87.12
239.091	92.12
239.325	85.12
239.559	82.12
239.793	73.12
240.027	82.12
240.26	68.12
240.494	84.12
240.728	87.12
240.961	86.12
241.195	76.12
241.429	75.12
241.662	73.12
241.896	83.12
242.13	87.12
242.363	73.12
242.597	96.12
242.83	74.12
243.064	78.12
243.298	97.12
243.531	84.12
243.765	87.12
243.998	68.12
244.232	86.12
244.465	74.12
244.699	89.12
244.932	75.12
245.166	77.12
245.399	82.12
245.633	91.12
245.866	82.12
246.099	82.12
246.333	80.12
246.566	67.12
246.8	83.12
247.033	86.12
247.266	74.12
247.5	78.12
247.733	74.12
247.966	89.12
248.2	87.12
248.433	89.12
248.666	82.12
248.899	81.12
249.133	83.12
249.366	101.12
249.599	103.12
249.832	75.12
250.066	88.12
250.299	74.12
250.532	86.12
250.765	94.12
250.998	81.12
251.231	83.12
251.465	71.12
251.698	96.12
251.931	88.12
252.164	92.12
252.397	94.12
252.63	95.12
252.863	93.12
253.096	78.12
253.329	68.12
253.562	72.12
253.795	78.12
254.028	82.12
254.261	92.12
254.494	74.12
254.727	95.12
254.96	87.12
255.193	94.12
255.426	89.12
255.659	87.12
255.892	72.12
256.124	82.12
256.357	82.12
256.59	85.12
256.823	88.12
257.056	95.12
257.289	92.12
257.521	92.12
257.754	55.12
257.987	85.12
258.22	95.12
258.452	81.12
258.685	76.12
258.918	70.12
259.151	83.12
259.383	84.12
259.616	91.12
259.849	84.12
260.081	87.12
260.314	84.12
260.547	84.12
260.779	87.12
261.012	96.12
261.244	98.12
261.477	79.12
261.71	100.12
261.942	109.12
262.175	127.12
262.407	96.12
262.64	92.12
262.872	81.12
263.105	85.12
263.337	94.12
263.57	79.12
263.802	83.12
264.035	84.12
264.267	88.12
264.499	94.12
264.732	87.12
264.964	93.12
265.197	96.12
265.429	98.12
265.661	81.12
265.894	104.12
266.126	83.12
266.358	94.12
266.591	100.12
266.823	98.12
267.055	75.12
267.287	89.12
267.52	88.12
267.752	82.12
267.984	99.12
268.216	80.12
268.448	69.12
268.681	93.12
268.913	99.12
269.145	91.12
269.377	94.12
269.609	88.12
269.841	82.12
270.073	71.12
270.306	85.12
270.538	84.12
270.77	90.12
271.002	100.12
271.234	82.12
271.466	91.12
271.698	90.12
271.93	78.12
272.162	95.12
272.394	101.12
272.626	92.12
272.858	91.12
273.09	91.12
273.322	91.12
273.553	89.12
273.785	86.12
274.017	84.12
274.249	93.12
274.481	94.12
274.713	81.12
274.945	98.12
275.176	99.12
275.408	97.12
275.64	94.12
275.872	94.12
276.104	90.12
276.335	92.12
276.567	100.12
276.799	118.12
277.031	120.12
277.262	117.12
277.494	91.12
277.726	92.12
277.957	82.12
278.189	88.12
278.421	95.12
278.652	91.12
278.884	82.12
279.115	90.12
279.347	92.12
279.579	104.12
279.81	86.12
280.042	139.12
280.273	145.12
280.505	119.12
280.736	96.12
280.968	93.12
281.199	94.12
281.431	80.12
281.662	87.12
281.894	95.12
282.125	92.12
282.356	126.12
282.588	148.12
282.819	131.12
283.051	106.12
283.282	85.12
283.513	100.12
283.745	111.12
283.976	97.12
284.207	84.12
284.439	102.12
284.67	92.12
284.901	89.12
285.132	84.12
285.364	87.12
285.595	86.12
285.826	82.12
286.057	103.12
286.288	94.12
286.52	83.12
286.751	92.12
286.982	86.12
287.213	95.12
287.444	77.12
287.675	91.12
287.906	101.12
288.138	88.12
288.369	91.12
288.6	100.12
288.831	92.12
289.062	90.12
289.293	90.12
289.524	82.12
289.755	89.12
289.986	92.12
290.217	90.12
290.448	90.12
290.679	80.12
290.91	100.12
291.141	84.12
291.371	104.12
291.602	87.12
291.833	84.12
292.064	93.12
292.295	90.12
292.526	96.12
292.757	98.12
292.987	92.12
293.218	94.12
293.449	93.12
293.68	92.12
293.91	87.12
294.141	87.12
294.372	86.12
294.603	87.12
294.833	89.12
295.064	102.12
295.295	96.12
295.525	100.12
295.756	99.12
295.987	103.12
296.217	133.12
296.448	125.12
296.679	90.12
296.909	78.12
297.14	94.12
297.37	110.12
297.601	102.12
297.831	85.12
298.062	105.12
298.292	85.12
298.523	95.12
298.753	83.12
298.984	92.12
299.214	95.12
299.445	91.12
299.675	105.12
299.905	100.12
300.136	97.12
300.366	99.12
300.597	96.12
300.827	75.12
301.057	102.12
301.288	110.12
301.518	99.12
301.748	88.12
301.979	114.12
302.209	94.12
302.439	97.12
302.669	96.12
302.9	99.12
303.13	76.12
303.36	99.12
303.59	118.12
303.82	132.12
304.051	108.12
304.281	101.12
304.511	104.12
304.741	90.12
304.971	104.12
305.201	110.12
305.431	101.12
305.661	84.12
305.891	101.12
306.121	94.12
306.352	100.12
306.582	111.12
306.812	115.12
307.042	112.12
307.272	122.12
307.502	124.12
307.731	122.12
307.961	104.12
308.191	89.12
308.421	96.12
308.651	91.12
308.881	92.12
309.111	100.12
309.341	100.12
309.571	116.12
309.8	99.12
310.03	110.12
310.26	100.12
310.49	100.12
310.72	98.12
310.949	100.12
311.179	119.12
311.409	105.12
311.639	105.12
311.868	101.12
312.098	95.12
312.328	94.12
312.557	111.12
312.787	115.12
313.017	106.12
313.246	104.12
313.476	86.12
313.706	100.12
313.935	101.12
314.165	99.12
314.394	96.12
314.624	95.12
314.853	113.12
315.083	113.12
315.312	112.12
315.542	105.12
315.771	94.12
316.001	102.12
316.23	95.12
316.46	98.12
316.689	93.12
316.919	104.12
317.148	107.12
317.377	107.12
317.607	101.12
317.836	79.12
318.065	92.12
318.295	84.12
318.524	99.12
318.753	110.12
318.983	102.12
319.212	84.12
319.441	107.12
319.67	97.12
319.9	97.12
320.129	86.12
320.358	95.12
320.587	98.12
320.816	112.12
321.046	107.12
321.275	96.12
321.504	96.12
321.733	86.12
321.962	105.12
322.191	119.12
322.42	96.12
322.649	123.12
322.878	106.12
323.108	115.12
323.337	121.12
323.566	142.12
323.795	164.12
324.024	224.12
324.253	428.12
324.482	913.12
324.71	1885.12
324.939	2618.12
325.168	950.12
325.397	279.12
325.626	162.12
325.855	124.12
326.084	134.12
326.313	153.12
326.542	187.12
326.77	251.12
326.999	519.12
327.228	1045.12
327.457	2040.12
327.686	1590.12
327.914	455.12
328.143	304.12
328.372	342.12
328.6	222.12
328.829	143.12
329.058	133.12
329.287	158.12
329.515	125.12
329.744	163.12
329.972	245.12
330.201	448.12
330.43	606.12
330.658	320.12
330.887	206.12
331.115	160.12
331.344	128.12
331.572	96.12
331.801	108.12
332.03	122.12
332.258	98.12
332.486	111.12
332.715	99.12
332.943	105.12
333.172	102.12
333.4	126.12
333.629	130.12
333.857	159.12
334.085	235.12
334.314	433.12
334.542	790.12
334.771	742.12
334.999	237.12
335.227	130.12
335.455	112.12
335.684	91.12
335.912	116.12
336.14	106.12
336.369	107.12
336.597	97.12
336.825	108.12
337.053	102.12
337.281	95.12
337.51	98.12
337.738	99.12
337.966	94.12
338.194	92.12
338.422	102.12
338.65	97.12
338.878	105.12
339.106	95.12
339.334	92.12
339.562	111.12
339.79	89.12
340.018	102.12
340.246	97.12
340.474	99.12
340.702	111.12
340.93	99.12
341.158	99.12
341.386	107.12
341.614	106.12
341.842	101.12
342.07	81.12
342.298	101.12
342.526	96.12
342.754	101.12
342.981	102.12
343.209	80.12
343.437	87.12
343.665	91.12
343.893	114.12
344.12	90.12
344.348	98.12
344.576	107.12
344.804	89.12
345.031	115.12
345.259	111.12
345.487	98.12
345.714	105.12
345.942	100.12
346.17	104.12
346.397	92.12
346.625	86.12
346.853	93.12
347.08	100.12
347.308	98.12
347.535	96.12
347.763	111.12
347.99	100.12
348.218	103.12
348.445	112.12
348.673	115.12
348.9	111.12
349.128	102.12
349.355	95.12
349.583	91.12
349.81	95.12
350.037	103.12
350.265	103.12
350.492	96.12
350.72	108.12
350.947	117.12
351.174	103.12
351.402	105.12
351.629	107.12
351.856	110.12
352.083	104.12
352.311	127.12
352.538	111.12
352.765	101.12
352.992	135.12
353.22	128.12
353.447	107.12
353.674	107.12
353.901	107.12
354.128	117.12
354.355	97.12
354.583	98.12
354.81	101.12
355.037	104.12
355.264	108.12
355.491	101.12
355.718	106.12
355.945	91.12
356.172	104.12
356.399	102.12
356.626	95.12
356.853	98.12
357.08	85.12
357.307	99.12
357.534	109.12
357.761	98.12
357.988	101.12
358.215	93.12
358.441	91.12
358.668	103.12
358.895	103.12
359.122	75.12
359.349	106.12
359.576	116.12
359.802	112.12
360.029	111.12
360.256	119.12
360.483	114.12
360.709	87.12
360.936	106.12
361.163	96.12
361.39	106.12
361.616	90.12
361.843	104.12
362.07	112.12
362.296	111.12
362.523	84.12
362.749	92.12
362.976	108.12
363.203	105.12
363.429	98.12
363.656	107.12
363.882	89.12
364.109	86.12
364.335	98.12
364.562	81.12
364.788	102.12
365.015	84.12
365.241	103.12
365.468	118.12
365.694	88.12
365.92	98.12
366.147	98.12
366.373	81.12
366.599	86.12
366.826	91.12
367.052	108.12
367.278	92.12
367.505	99.12
367.731	108.12
367.957	99.12
368.184	94.12
368.41	104.12
368.636	107.12
368.862	122.12
369.089	103.12
369.315	94.12
369.541	95.12
369.767	96.12
369.993	92.12
370.219	91.12
370.445	99.12
370.672	80.12
370.898	85.12
371.124	106.12
371.35	97.12
371.576	85.12
371.802	80.12
372.028	95.12
372.254	102.12
372.48	80.12
372.706	86.12
372.932	99.12
373.158	99.12
373.384	86.12
373.61	96.12
373.835	108.12
374.061	102.12
374.287	102.12
374.513	111.12
374.739	107.12
374.965	87.12
375.191	103.12
375.416	95.12
375.642	87.12
375.868	85.12
376.094	89.12
376.319	89.12
376.545	88.12
376.771	101.12
376.997	101.12
377.222	90.12
377.448	102.12
377.674	82.12
377.899	87.12
378.125	97.12
378.35	105.12
378.576	93.12
378.802	106.12
379.027	94.12
379.253	95.12
379.478	85.12
379.704	84.12
379.929	95.12
380.155	112.12
380.38	98.12
380.606	107.12
380.831	95.12
381.057	107.12
381.282	100.12
381.507	94.12
381.733	112.12
381.958	90.12
382.184	95.12
382.409	104.12
382.634	104.12
382.86	103.12
383.085	97.12
383.31	107.12
383.535	111.12
383.761	91.12
383.986	112.12
384.211	101.12
384.436	86.12
384.662	105.12
384.887	105.12
385.112	121.12
385.337	124.12
385.562	115.12
385.787	123.12
386.013	106.12
386.238	137.12
386.463	127.12
386.688	105.12
386.913	102.12
387.138	102.12
387.363	110.12
387.588	119.12
387.813	105.12
388.038	107.12
388.263	119.12
388.488	121.12
388.713	112.12
388.938	107.12
389.163	90.12
389.387	100.12
389.612	106.12
389.837	96.12
390.062	95.12
390.287	105.12
390.512	97.12
390.736	90.12
390.961	98.12
391.186	106.12
391.411	101.12
391.636	91.12
391.86	94.12
392.085	94.12
392.31	95.12
392.534	93.12
392.759	94.12
392.984	87.12
393.208	98.12
393.433	87.12
393.658	84.12
393.882	98.12
394.107	81.12
394.331	96.12
394.556	81.12
394.78	79.12
395.005	82.12
395.229	103.12
395.454	102.12
395.678	100.12
395.903	86.12
396.127	95.12
396.352	83.12
396.576	98.12
396.801	95.12
397.025	95.12
397.249	94.12
397.474	91.12
397.698	87.12
397.922	76.12
398.147	74.12
398.371	84.12
398.595	85.12
398.82	80.12
399.044	94.12
399.268	82.12
399.492	104.12
399.717	101.12
399.941	106.12
400.165	96.12
400.389	95.12
400.613	99.12
400.837	102.12
401.062	90.12
401.286	90.12
401.51	107.12
401.734	71.12
401.958	108.12
402.182	118.12
402.406	166.12
402.63	134.12
402.854	101.12
403.078	84.12
403.302	108.12
403.526	85.12
403.75	95.12
403.974	101.12
404.198	83.12
404.422	100.12
404.645	81.12
404.869	108.12
405.093	121.12
405.317	126.12
405.541	123.12
405.765	108.12
405.988	125.12
406.212	188.12
406.436	246.12
406.66	171.12
406.883	100.12
407.107	91.12
407.331	100.12
407.555	103.12
407.778	110.12
408.002	97.12
408.226	104.12
408.449	85.12
408.673	83.12
408.896	104.12
409.12	114.12
409.344	93.12
409.567	98.12
409.791	94.12
410.014	91.12
410.238	100.12
410.461	87.12
410.685	96.12
410.908	107.12
411.132	122.12
411.355	114.12
411.578	100.12
411.802	83.12
412.025	99.12
412.249	90.12
412.472	112.12
412.695	124.12
412.919	84.12
413.142	94.12
413.365	95.12
413.589	85.12
413.812	94.12
414.035	104.12
414.258	91.12
414.482	97.12
414.705	88.12
414.928	93.12
415.151	92.12
415.374	86.12
415.597	98.12
415.821	101.12
416.044	85.12
416.267	95.12
416.49	97.12
416.713	94.12
416.936	98.12
417.159	82.12
417.382	91.12
417.605	105.12
417.828	99.12
418.051	99.12
418.274	92.12
418.497	91.12
418.72	95.12
418.943	92.12
419.166	96.12
419.389	79.12
419.611	102.12
419.834	90.12
420.057	81.12
420.28	101.12
420.503	100.12
420.726	87.12
420.948	95.12
421.171	111.12
421.394	83.12
421.617	91.12
421.839	96.12
422.062	89.12
422.285	99.12
422.507	94.12
422.73	113.12
422.953	108.12
423.175	103.12
423.398	86.12
423.621	91.12
423.843	89.12
424.066	104.12
424.288	111.12
424.511	106.12
424.733	101.12
424.956	116.12
425.178	107.12
425.401	100.12
425.623	107.12
425.846	95.12
426.068	99.12
426.291	107.12
426.513	104.12
426.735	95.12
426.958	121.12
427.18	122.12
427.402	166.12
427.625	209.12
427.847	193.12
428.069	178.12
428.292	113.12
428.514	96.12
428.736	108.12
428.958	95.12
429.181	100.12
429.403	98.12
429.625	95.12
429.847	101.12
430.069	107.12
430.292	97.12
430.514	96.12
430.736	94.12
430.958	87.12
431.18	96.12
431.402	90.12
431.624	91.12
431.846	97.12
432.068	83.12
432.29	84.12
432.512	97.12
432.734	98.12
432.956	76.12
433.178	98.12
433.4	100.12
433.622	83.12
433.844	95.12
434.066	101.12
434.287	92.12
434.509	97.12
434.731	88.12
434.953	97.12
435.175	99.12
435.397	102.12
435.618	93.12
435.84	111.12
436.062	141.12
436.284	127.12
436.505	112.12
436.727	115.12
436.949	84.12
437.17	100.12
437.392	92.12
437.614	98.12
437.835	112.12
438.057	136.12
438.278	115.12
438.5	106.12
438.721	144.12
438.943	107.12
439.165	102.12
439.386	97.12
439.608	93.12
439.829	111.12
440.05	137.12
440.272	153.12
440.493	102.12
440.715	90.12
440.936	98.12
441.158	89.12
441.379	90.12
441.6	101.12
441.822	109.12
442.043	96.12
442.264	111.12
442.486	113.12
442.707	95.12
442.928	118.12
443.149	151.12
443.371	151.12
443.592	132.12
443.813	116.12
444.034	128.12
444.255	106.12
444.476	94.12
444.698	87.12
444.919	95.12
445.14	133.12
445.361	132.12
445.582	122.12
445.803	159.12
446.024	155.12
446.245	148.12
446.466	107.12
446.687	101.12
446.908	99.12
447.129	92.12
447.35	112.12
447.571	93.12
447.792	94.12
448.013	103.12
448.234	110.12
448.455	111.12
448.675	128.12
448.896	127.12
449.117	108.12
449.338	109.12
449.559	158.12
449.779	138.12
450	88.12
450.221	94.12
450.442	76.12
450.662	98.12
450.883	111.12
451.104	124.12
451.324	99.12
451.545	100.12
451.766	88.12
451.986	82.12
452.207	82.12
452.428	89.12
452.648	118.12
452.869	120.12
453.089	127.12
453.31	132.12
453.53	97.12
453.751	88.12
453.971	110.12
454.192	123.12
454.412	90.12
454.633	88.12
454.853	95.12
455.073	97.12
455.294	100.12
455.514	102.12
455.734	89.12
455.955	98.12
456.175	89.12
456.395	89.12
456.616	76.12
456.836	88.12
457.056	82.12
457.276	87.12
457.497	81.12
457.717	84.12
457.937	96.12
458.157	89.12
458.377	99.12
458.598	112.12
458.818	170.12
459.038	186.12
459.258	131.12
459.478	94.12
459.698	103.12
459.918	91.12
460.138	98.12
460.358	70.12
460.578	82.12
460.798	92.12
461.018	90.12
461.238	72.12
461.458	82.12
461.678	99.12
461.898	82.12
462.118	86.12
462.338	90.12
462.558	87.12
462.777	90.12
462.997	95.12
463.217	103.12
463.437	100.12
463.657	77.12
463.876	83.12
464.096	101.12
464.316	97.12
464.536	105.12
464.755	100.12
464.975	104.12
465.195	178.12
465.414	174.12
465.634	98.12
465.854	92.12
466.073	89.12
466.293	95.12
466.512	94.12
466.732	92.12
466.951	113.12
467.171	112.12
467.391	92.12
467.61	112.12
467.829	132.12
468.049	271.12
468.268	376.12
468.488	134.12
468.707	98.12
468.927	93.12
469.146	86.12
469.365	81.12
469.585	89.12
469.804	107.12
470.023	103.12
470.243	102.12
470.462	105.12
470.681	122.12
470.901	101.12
471.12	106.12
471.339	97.12
471.558	100.12
471.777	111.12
471.997	168.12
472.216	491.12
472.435	1041.12
472.654	288.12
472.873	112.12
473.092	92.12
473.311	96.12
473.53	97.12
473.749	84.12
473.968	100.12
474.187	127.12
474.406	108.12
474.625	94.12
474.844	90.12
475.063	82.12
475.282	98.12
475.501	97.12
475.72	88.12
475.939	80.12
476.158	102.12
476.377	79.12
476.596	94.12
476.814	108.12
477.033	105.12
477.252	98.12
477.471	98.12
477.69	93.12
477.908	98.12
478.127	97.12
478.346	94.12
478.564	88.12
478.783	115.12
479.002	108.12
479.22	121.12
479.439	118.12
479.658	114.12
479.876	114.12
480.095	113.12
480.313	109.12
480.532	99.12
480.751	177.12
480.969	492.12
481.188	1838.12
481.406	1072.12
481.624	190.12
481.843	105.12
482.061	92.12
482.28	95.12
482.498	85.12
482.717	102.12
482.935	112.12
483.153	96.12
483.372	84.12
483.59	100.12
483.808	94.12
484.027	108.12
484.245	107.12
484.463	111.12
484.681	96.12
484.9	97.12
485.118	103.12
485.336	90.12
485.554	91.12
485.772	102.12
485.99	125.12
486.209	122.12
486.427	106.12
486.645	109.12
486.863	130.12
487.081	104.12
487.299	95.12
487.517	97.12
487.735	105.12
487.953	90.12
488.171	86.12
488.389	99.12
488.607	99.12
488.825	95.12
489.043	89.12
489.261	92.12
489.479	90.12
489.696	96.12
489.914	96.12
490.132	85.12
490.35	90.12
490.568	105.12
490.786	99.12
491.003	102.12
491.221	84.12
491.439	95.12
491.657	103.12
491.874	98.12
492.092	95.12
492.31	100.12
492.527	92.12
492.745	89.12
492.963	92.12
493.18	93.12
493.398	91.12
493.615	98.12
493.833	105.12
494.05	101.12
494.268	94.12
494.485	78.12
494.703	78.12
494.92	100.12
495.138	92.12
495.355	97.12
495.573	101.12
495.79	97.12
496.008	108.12
496.225	99.12
496.442	92.12
496.66	105.12
496.877	99.12
497.094	102.12
497.312	103.12
497.529	101.12
497.746	87.12
497.963	88.12
498.181	95.12
498.398	116.12
498.615	102.12
498.832	94.12
499.049	99.12
499.267	94.12
499.484	94.12
499.701	92.12
499.918	101.12
500.135	96.12
500.352	91.12
500.569	104.12
500.786	107.12
501.003	103.12
501.22	99.12
501.437	84.12
501.654	107.12
501.871	126.12
502.088	99.12
502.305	94.12
502.522	83.12
502.739	78.12
502.956	98.12
503.172	103.12
503.389	110.12
503.606	104.12
503.823	106.12
504.04	103.12
504.256	108.12
504.473	94.12
504.69	88.12
504.907	91.12
505.123	87.12
505.34	86.12
505.557	95.12
505.773	86.12
505.99	92.12
506.207	104.12
506.423	104.12
506.64	94.12
506.856	90.12
507.073	99.12
507.289	102.12
507.506	101.12
507.722	111.12
507.939	116.12
508.155	97.12
508.372	95.12
508.588	102.12
508.805	108.12
509.021	91.12
509.238	102.12
509.454	103.12
509.67	90.12
509.887	103.12
510.103	150.12
510.319	218.12
510.536	783.12
510.752	2422.12
510.968	692.12
511.184	164.12
511.401	122.12
511.617	118.12
511.833	107.12
512.049	98.12
512.265	100.12
512.481	100.12
