Data from Circ_1990_H10_HRD10591_00080.txt Node
Date: Wed Jan 03 11:55:20 EST 2024
User: Yrep
Spectrometer: HR+D1059
Trigger mode: 1
Integration Time (sec): 1.000000E-1
Scans to average: 1
Electric dark correction enabled: true
Nonlinearity correction enabled: false
Boxcar width: 0
XAxis mode: Wavelengths
Number of Pixels in Spectrum: 2048
>>>>>Begin Spectral Data<<<<<
223.165	-25.75
223.4	-25.75
223.635	-25.75
223.869	-19.75
224.104	-19.75
224.338	-3.75
224.573	-19.75
224.808	-6.75
225.042	-5.75
225.277	1.25
225.511	-10.75
225.746	21.25
225.98	2.25
226.215	16.25
226.449	24.25
226.683	16.25
226.918	11.25
227.152	19.25
227.387	29.25
227.621	21.25
227.856	48.25
228.09	48.25
228.324	48.25
228.559	42.25
228.793	60.25
229.027	57.25
229.262	62.25
229.496	67.25
229.73	76.25
229.964	98.25
230.199	75.25
230.433	70.25
230.667	76.25
230.901	90.25
231.136	89.25
231.37	64.25
231.604	77.25
231.838	83.25
232.072	60.25
232.306	73.25
232.541	79.25
232.775	82.25
233.009	69.25
233.243	76.25
233.477	65.25
233.711	76.25
233.945	67.25
234.179	80.25
234.413	76.25
234.647	76.25
234.881	79.25
235.115	65.25
235.349	74.25
235.583	83.25
235.817	65.25
236.051	70.25
236.285	75.25
236.519	88.25
236.753	56.25
236.987	65.25
237.221	65.25
237.455	96.25
237.689	65.25
237.922	54.25
238.156	74.25
238.39	64.25
238.624	78.25
238.858	72.25
239.091	61.25
239.325	61.25
239.559	66.25
239.793	76.25
240.027	72.25
240.26	80.25
240.494	78.25
240.728	75.25
240.961	79.25
241.195	68.25
241.429	78.25
241.662	72.25
241.896	69.25
242.13	67.25
242.363	81.25
242.597	67.25
242.83	80.25
243.064	80.25
243.298	68.25
243.531	70.25
243.765	94.25
243.998	78.25
244.232	83.25
244.465	76.25
244.699	76.25
244.932	88.25
245.166	76.25
245.399	78.25
245.633	75.25
245.866	68.25
246.099	81.25
246.333	89.25
246.566	74.25
246.8	73.25
247.033	85.25
247.266	79.25
247.5	80.25
247.733	84.25
247.966	88.25
248.2	81.25
248.433	83.25
248.666	72.25
248.899	78.25
249.133	106.25
249.366	102.25
249.599	92.25
249.832	85.25
250.066	84.25
250.299	91.25
250.532	79.25
250.765	102.25
250.998	94.25
251.231	54.25
251.465	76.25
251.698	77.25
251.931	69.25
252.164	78.25
252.397	74.25
252.63	68.25
252.863	72.25
253.096	76.25
253.329	75.25
253.562	65.25
253.795	85.25
254.028	76.25
254.261	79.25
254.494	87.25
254.727	97.25
254.96	85.25
255.193	77.25
255.426	70.25
255.659	76.25
255.892	78.25
256.124	85.25
256.357	82.25
256.59	91.25
256.823	81.25
257.056	77.25
257.289	80.25
257.521	83.25
257.754	79.25
257.987	85.25
258.22	94.25
258.452	88.25
258.685	81.25
258.918	78.25
259.151	80.25
259.383	91.25
259.616	78.25
259.849	96.25
260.081	84.25
260.314	81.25
260.547	72.25
260.779	96.25
261.012	82.25
261.244	96.25
261.477	96.25
261.71	90.25
261.942	95.25
262.175	119.25
262.407	87.25
262.64	79.25
262.872	84.25
263.105	88.25
263.337	76.25
263.57	77.25
263.802	70.25
264.035	82.25
264.267	62.25
264.499	81.25
264.732	81.25
264.964	68.25
265.197	68.25
265.429	76.25
265.661	69.25
265.894	76.25
266.126	84.25
266.358	86.25
266.591	80.25
266.823	82.25
267.055	76.25
267.287	88.25
267.52	75.25
267.752	94.25
267.984	90.25
268.216	87.25
268.448	85.25
268.681	86.25
268.913	88.25
269.145	89.25
269.377	75.25
269.609	65.25
269.841	75.25
270.073	76.25
270.306	79.25
270.538	67.25
270.77	66.25
271.002	84.25
271.234	99.25
271.466	87.25
271.698	97.25
271.93	84.25
272.162	74.25
272.394	91.25
272.626	73.25
272.858	85.25
273.09	80.25
273.322	85.25
273.553	84.25
273.785	79.25
274.017	74.25
274.249	92.25
274.481	82.25
274.713	82.25
274.945	81.25
275.176	90.25
275.408	80.25
275.64	85.25
275.872	99.25
276.104	87.25
276.335	80.25
276.567	96.25
276.799	117.25
277.031	115.25
277.262	112.25
277.494	97.25
277.726	93.25
277.957	88.25
278.189	72.25
278.421	99.25
278.652	89.25
278.884	77.25
279.115	98.25
279.347	78.25
279.579	98.25
279.81	95.25
280.042	117.25
280.273	134.25
280.505	122.25
280.736	96.25
280.968	84.25
281.199	87.25
281.431	82.25
281.662	88.25
281.894	96.25
282.125	88.25
282.356	102.25
282.588	137.25
282.819	100.25
283.051	94.25
283.282	91.25
283.513	86.25
283.745	91.25
283.976	99.25
284.207	92.25
284.439	73.25
284.67	86.25
284.901	91.25
285.132	87.25
285.364	81.25
285.595	68.25
285.826	83.25
286.057	96.25
286.288	96.25
286.52	94.25
286.751	90.25
286.982	92.25
287.213	95.25
287.444	80.25
287.675	81.25
287.906	74.25
288.138	90.25
288.369	86.25
288.6	94.25
288.831	89.25
289.062	92.25
289.293	92.25
289.524	82.25
289.755	67.25
289.986	88.25
290.217	90.25
290.448	82.25
290.679	83.25
290.91	79.25
291.141	77.25
291.371	94.25
291.602	87.25
291.833	98.25
292.064	90.25
292.295	85.25
292.526	78.25
292.757	87.25
292.987	97.25
293.218	82.25
293.449	81.25
293.68	86.25
293.91	91.25
294.141	78.25
294.372	85.25
294.603	96.25
294.833	84.25
295.064	86.25
295.295	95.25
295.525	95.25
295.756	108.25
295.987	100.25
296.217	131.25
296.448	112.25
296.679	96.25
296.909	89.25
297.14	79.25
297.37	102.25
297.601	82.25
297.831	92.25
298.062	96.25
298.292	91.25
298.523	85.25
298.753	85.25
298.984	98.25
299.214	80.25
299.445	83.25
299.675	89.25
299.905	83.25
300.136	87.25
300.366	81.25
300.597	86.25
300.827	93.25
301.057	101.25
301.288	93.25
301.518	92.25
301.748	92.25
301.979	102.25
302.209	87.25
302.439	77.25
302.669	81.25
302.9	93.25
303.13	86.25
303.36	93.25
303.59	108.25
303.82	101.25
304.051	89.25
304.281	99.25
304.511	83.25
304.741	78.25
304.971	83.25
305.201	70.25
305.431	78.25
305.661	90.25
305.891	82.25
306.121	85.25
306.352	105.25
306.582	94.25
306.812	85.25
307.042	94.25
307.272	106.25
307.502	116.25
307.731	126.25
307.961	115.25
308.191	89.25
308.421	108.25
308.651	103.25
308.881	109.25
309.111	93.25
309.341	96.25
309.571	83.25
309.8	90.25
310.03	95.25
310.26	97.25
310.49	83.25
310.72	92.25
310.949	99.25
311.179	92.25
311.409	83.25
311.639	86.25
311.868	91.25
312.098	77.25
312.328	95.25
312.557	107.25
312.787	104.25
313.017	96.25
313.246	92.25
313.476	96.25
313.706	97.25
313.935	98.25
314.165	93.25
314.394	101.25
314.624	83.25
314.853	108.25
315.083	98.25
315.312	96.25
315.542	85.25
315.771	85.25
316.001	78.25
316.23	89.25
316.46	82.25
316.689	102.25
316.919	100.25
317.148	101.25
317.377	94.25
317.607	84.25
317.836	82.25
318.065	82.25
318.295	95.25
318.524	74.25
318.753	96.25
318.983	94.25
319.212	96.25
319.441	85.25
319.67	106.25
319.9	94.25
320.129	84.25
320.358	76.25
320.587	92.25
320.816	102.25
321.046	94.25
321.275	109.25
321.504	68.25
321.733	104.25
321.962	102.25
322.191	84.25
322.42	108.25
322.649	111.25
322.878	104.25
323.108	118.25
323.337	124.25
323.566	108.25
323.795	135.25
324.024	191.25
324.253	340.25
324.482	763.25
324.71	1525.25
324.939	2090.25
325.168	769.25
325.397	225.25
325.626	135.25
325.855	120.25
326.084	118.25
326.313	128.25
326.542	145.25
326.77	222.25
326.999	429.25
327.228	850.25
327.457	1612.25
327.686	1323.25
327.914	400.25
328.143	283.25
328.372	300.25
328.6	188.25
328.829	123.25
329.058	131.25
329.287	145.25
329.515	129.25
329.744	148.25
329.972	220.25
330.201	394.25
330.43	551.25
330.658	264.25
330.887	163.25
331.115	138.25
331.344	96.25
331.572	108.25
331.801	99.25
332.03	112.25
332.258	98.25
332.486	82.25
332.715	96.25
332.943	115.25
333.172	92.25
333.4	110.25
333.629	123.25
333.857	156.25
334.085	212.25
334.314	412.25
334.542	696.25
334.771	655.25
334.999	225.25
335.227	108.25
335.455	107.25
335.684	114.25
335.912	98.25
336.14	103.25
336.369	99.25
336.597	98.25
336.825	89.25
337.053	97.25
337.281	97.25
337.51	91.25
337.738	92.25
337.966	78.25
338.194	86.25
338.422	93.25
338.65	101.25
338.878	75.25
339.106	85.25
339.334	96.25
339.562	85.25
339.79	90.25
340.018	84.25
340.246	90.25
340.474	90.25
340.702	93.25
340.93	93.25
341.158	79.25
341.386	92.25
341.614	90.25
341.842	90.25
342.07	92.25
342.298	80.25
342.526	90.25
342.754	80.25
342.981	85.25
343.209	101.25
343.437	101.25
343.665	89.25
343.893	99.25
344.12	100.25
344.348	97.25
344.576	94.25
344.804	105.25
345.031	92.25
345.259	85.25
345.487	72.25
345.714	91.25
345.942	93.25
346.17	85.25
346.397	87.25
346.625	93.25
346.853	86.25
347.08	78.25
347.308	88.25
347.535	91.25
347.763	79.25
347.99	97.25
348.218	101.25
348.445	89.25
348.673	97.25
348.9	108.25
349.128	92.25
349.355	87.25
349.583	96.25
349.81	105.25
350.037	82.25
350.265	96.25
350.492	87.25
350.72	86.25
350.947	99.25
351.174	109.25
351.402	107.25
351.629	93.25
351.856	112.25
352.083	108.25
352.311	100.25
352.538	107.25
352.765	108.25
352.992	111.25
353.22	108.25
353.447	105.25
353.674	94.25
353.901	95.25
354.128	100.25
354.355	112.25
354.583	109.25
354.81	105.25
355.037	86.25
355.264	98.25
355.491	98.25
355.718	76.25
355.945	100.25
356.172	97.25
356.399	82.25
356.626	77.25
356.853	79.25
357.08	88.25
357.307	78.25
357.534	100.25
357.761	86.25
357.988	89.25
358.215	85.25
358.441	97.25
358.668	92.25
358.895	90.25
359.122	100.25
359.349	101.25
359.576	97.25
359.802	94.25
360.029	112.25
360.256	90.25
360.483	98.25
360.709	90.25
360.936	93.25
361.163	93.25
361.39	105.25
361.616	86.25
361.843	81.25
362.07	88.25
362.296	99.25
362.523	84.25
362.749	98.25
362.976	92.25
363.203	78.25
363.429	60.25
363.656	101.25
363.882	90.25
364.109	79.25
364.335	90.25
364.562	83.25
364.788	92.25
365.015	91.25
365.241	107.25
365.468	108.25
365.694	90.25
365.92	97.25
366.147	83.25
366.373	85.25
366.599	90.25
366.826	90.25
367.052	78.25
367.278	94.25
367.505	86.25
367.731	91.25
367.957	86.25
368.184	92.25
368.41	101.25
368.636	106.25
368.862	122.25
369.089	95.25
369.315	81.25
369.541	86.25
369.767	95.25
369.993	89.25
370.219	77.25
370.445	97.25
370.672	80.25
370.898	98.25
371.124	93.25
371.35	81.25
371.576	93.25
371.802	75.25
372.028	90.25
372.254	94.25
372.48	81.25
372.706	76.25
372.932	101.25
373.158	90.25
373.384	96.25
373.61	91.25
373.835	98.25
374.061	80.25
374.287	100.25
374.513	83.25
374.739	79.25
374.965	100.25
375.191	92.25
375.416	92.25
375.642	93.25
375.868	96.25
376.094	95.25
376.319	78.25
376.545	85.25
376.771	97.25
376.997	86.25
377.222	75.25
377.448	98.25
377.674	106.25
377.899	95.25
378.125	84.25
378.35	88.25
378.576	86.25
378.802	95.25
379.027	86.25
379.253	93.25
379.478	94.25
379.704	92.25
379.929	99.25
380.155	84.25
380.38	100.25
380.606	105.25
380.831	92.25
381.057	95.25
381.282	97.25
381.507	94.25
381.733	100.25
381.958	97.25
382.184	101.25
382.409	88.25
382.634	118.25
382.86	105.25
383.085	108.25
383.31	106.25
383.535	99.25
383.761	92.25
383.986	99.25
384.211	106.25
384.436	103.25
384.662	115.25
384.887	109.25
385.112	91.25
385.337	106.25
385.562	105.25
385.787	97.25
386.013	112.25
386.238	101.25
386.463	112.25
386.688	99.25
386.913	100.25
387.138	111.25
387.363	104.25
387.588	99.25
387.813	97.25
388.038	99.25
388.263	117.25
388.488	114.25
388.713	100.25
388.938	97.25
389.163	97.25
389.387	93.25
389.612	75.25
389.837	93.25
390.062	98.25
390.287	82.25
390.512	90.25
390.736	93.25
390.961	84.25
391.186	102.25
391.411	91.25
391.636	90.25
391.86	78.25
392.085	89.25
392.31	83.25
392.534	82.25
392.759	98.25
392.984	91.25
393.208	89.25
393.433	92.25
393.658	76.25
393.882	91.25
394.107	86.25
394.331	79.25
394.556	83.25
394.78	96.25
395.005	91.25
395.229	89.25
395.454	81.25
395.678	83.25
395.903	77.25
396.127	86.25
396.352	94.25
396.576	75.25
396.801	69.25
397.025	98.25
397.249	81.25
397.474	79.25
397.698	78.25
397.922	79.25
398.147	84.25
398.371	73.25
398.595	78.25
398.82	84.25
399.044	100.25
399.268	84.25
399.492	88.25
399.717	86.25
399.941	83.25
400.165	86.25
400.389	89.25
400.613	90.25
400.837	86.25
401.062	103.25
401.286	93.25
401.51	105.25
401.734	80.25
401.958	98.25
402.182	121.25
402.406	125.25
402.63	119.25
402.854	84.25
403.078	88.25
403.302	88.25
403.526	96.25
403.75	83.25
403.974	80.25
404.198	93.25
404.422	78.25
404.645	105.25
404.869	104.25
405.093	98.25
405.317	115.25
405.541	118.25
405.765	102.25
405.988	111.25
406.212	150.25
406.436	229.25
406.66	137.25
406.883	101.25
407.107	97.25
407.331	84.25
407.555	93.25
407.778	89.25
408.002	95.25
408.226	91.25
408.449	92.25
408.673	85.25
408.896	97.25
409.12	99.25
409.344	95.25
409.567	82.25
409.791	98.25
410.014	74.25
410.238	97.25
410.461	90.25
410.685	79.25
410.908	94.25
411.132	95.25
411.355	102.25
411.578	67.25
411.802	99.25
412.025	88.25
412.249	98.25
412.472	109.25
412.695	98.25
412.919	92.25
413.142	97.25
413.365	85.25
413.589	65.25
413.812	85.25
414.035	78.25
414.258	82.25
414.482	89.25
414.705	76.25
414.928	85.25
415.151	82.25
415.374	100.25
415.597	83.25
415.821	83.25
416.044	93.25
416.267	95.25
416.49	88.25
416.713	84.25
416.936	84.25
417.159	93.25
417.382	87.25
417.605	98.25
417.828	90.25
418.051	88.25
418.274	84.25
418.497	86.25
418.72	78.25
418.943	89.25
419.166	81.25
419.389	88.25
419.611	88.25
419.834	92.25
420.057	91.25
420.28	91.25
420.503	106.25
420.726	85.25
420.948	94.25
421.171	83.25
421.394	83.25
421.617	78.25
421.839	84.25
422.062	79.25
422.285	78.25
422.507	103.25
422.73	91.25
422.953	91.25
423.175	87.25
423.398	84.25
423.621	82.25
423.843	75.25
424.066	86.25
424.288	87.25
424.511	90.25
424.733	99.25
424.956	112.25
425.178	97.25
425.401	87.25
425.623	113.25
425.846	93.25
426.068	92.25
426.291	111.25
426.513	94.25
426.735	94.25
426.958	93.25
427.18	107.25
427.402	132.25
427.625	182.25
427.847	166.25
428.069	166.25
428.292	104.25
428.514	63.25
428.736	84.25
428.958	90.25
429.181	91.25
429.403	86.25
429.625	86.25
429.847	94.25
430.069	105.25
430.292	87.25
430.514	91.25
430.736	90.25
430.958	78.25
431.18	66.25
431.402	88.25
431.624	95.25
431.846	99.25
432.068	97.25
432.29	88.25
432.512	78.25
432.734	91.25
432.956	84.25
433.178	93.25
433.4	94.25
433.622	83.25
433.844	102.25
434.066	102.25
434.287	92.25
434.509	81.25
434.731	80.25
434.953	89.25
435.175	80.25
435.397	75.25
435.618	102.25
435.84	93.25
436.062	136.25
436.284	127.25
436.505	96.25
436.727	90.25
436.949	92.25
437.17	96.25
437.392	83.25
437.614	82.25
437.835	102.25
438.057	116.25
438.278	105.25
438.5	126.25
438.721	114.25
438.943	103.25
439.165	80.25
439.386	79.25
439.608	80.25
439.829	88.25
440.05	125.25
440.272	155.25
440.493	104.25
440.715	95.25
440.936	73.25
441.158	78.25
441.379	78.25
441.6	96.25
441.822	100.25
442.043	85.25
442.264	109.25
442.486	103.25
442.707	97.25
442.928	100.25
443.149	132.25
443.371	137.25
443.592	114.25
443.813	125.25
444.034	99.25
444.255	88.25
444.476	103.25
444.698	78.25
444.919	89.25
445.14	134.25
445.361	107.25
445.582	105.25
445.803	144.25
446.024	144.25
446.245	128.25
446.466	109.25
446.687	89.25
446.908	91.25
447.129	77.25
447.35	99.25
447.571	92.25
447.792	91.25
448.013	86.25
448.234	96.25
448.455	97.25
448.675	91.25
448.896	118.25
449.117	106.25
449.338	97.25
449.559	132.25
449.779	123.25
450	83.25
450.221	78.25
450.442	79.25
450.662	77.25
450.883	102.25
451.104	115.25
451.324	84.25
451.545	85.25
451.766	84.25
451.986	91.25
452.207	101.25
452.428	87.25
452.648	96.25
452.869	105.25
453.089	100.25
453.31	125.25
453.53	94.25
453.751	106.25
453.971	104.25
454.192	106.25
454.412	84.25
454.633	81.25
454.853	88.25
455.073	94.25
455.294	81.25
455.514	82.25
455.734	79.25
455.955	90.25
456.175	74.25
456.395	90.25
456.616	75.25
456.836	93.25
457.056	85.25
457.276	91.25
457.497	86.25
457.717	80.25
457.937	72.25
458.157	76.25
458.377	82.25
458.598	86.25
458.818	137.25
459.038	152.25
459.258	115.25
459.478	96.25
459.698	94.25
459.918	100.25
460.138	86.25
460.358	83.25
460.578	66.25
460.798	103.25
461.018	97.25
461.238	89.25
461.458	107.25
461.678	78.25
461.898	70.25
462.118	72.25
462.338	75.25
462.558	83.25
462.777	94.25
462.997	95.25
463.217	82.25
463.437	96.25
463.657	90.25
463.876	93.25
464.096	91.25
464.316	94.25
464.536	96.25
464.755	85.25
464.975	102.25
465.195	164.25
465.414	162.25
465.634	111.25
465.854	93.25
466.073	67.25
466.293	76.25
466.512	81.25
466.732	94.25
466.951	92.25
467.171	91.25
467.391	97.25
467.61	113.25
467.829	137.25
468.049	269.25
468.268	332.25
468.488	131.25
468.707	96.25
468.927	84.25
469.146	86.25
469.365	86.25
469.585	96.25
469.804	99.25
470.023	96.25
470.243	89.25
470.462	98.25
470.681	125.25
470.901	94.25
471.12	91.25
471.339	84.25
471.558	89.25
471.777	103.25
471.997	180.25
472.216	496.25
472.435	942.25
472.654	265.25
472.873	108.25
473.092	106.25
473.311	81.25
473.53	72.25
473.749	92.25
473.968	91.25
474.187	99.25
474.406	79.25
474.625	86.25
474.844	100.25
475.063	86.25
475.282	88.25
475.501	65.25
475.72	69.25
475.939	92.25
476.158	89.25
476.377	97.25
476.596	80.25
476.814	97.25
477.033	92.25
477.252	76.25
477.471	79.25
477.69	105.25
477.908	93.25
478.127	90.25
478.346	99.25
478.564	96.25
478.783	95.25
479.002	84.25
479.22	84.25
479.439	103.25
479.658	97.25
479.876	109.25
480.095	89.25
480.313	106.25
480.532	118.25
480.751	165.25
480.969	453.25
481.188	1722.25
481.406	989.25
481.624	190.25
481.843	106.25
482.061	86.25
482.28	90.25
482.498	89.25
482.717	90.25
482.935	76.25
483.153	95.25
483.372	73.25
483.59	84.25
483.808	88.25
484.027	88.25
484.245	95.25
484.463	98.25
484.681	91.25
484.9	104.25
485.118	107.25
485.336	84.25
485.554	96.25
485.772	104.25
485.99	111.25
486.209	113.25
486.427	116.25
486.645	109.25
486.863	114.25
487.081	102.25
487.299	94.25
487.517	92.25
487.735	92.25
487.953	88.25
488.171	97.25
488.389	88.25
488.607	100.25
488.825	94.25
489.043	77.25
489.261	83.25
489.479	78.25
489.696	84.25
489.914	93.25
490.132	88.25
490.35	106.25
490.568	78.25
490.786	86.25
491.003	89.25
491.221	96.25
491.439	96.25
491.657	97.25
491.874	79.25
492.092	77.25
492.31	100.25
492.527	80.25
492.745	93.25
492.963	97.25
493.18	98.25
493.398	102.25
493.615	99.25
493.833	90.25
494.05	91.25
494.268	84.25
494.485	83.25
494.703	85.25
494.92	90.25
495.138	80.25
495.355	91.25
495.573	98.25
495.79	91.25
496.008	88.25
496.225	83.25
496.442	94.25
496.66	86.25
496.877	91.25
497.094	74.25
497.312	92.25
497.529	103.25
497.746	81.25
497.963	80.25
498.181	97.25
498.398	88.25
498.615	110.25
498.832	107.25
499.049	75.25
499.267	84.25
499.484	90.25
499.701	102.25
499.918	77.25
500.135	92.25
500.352	93.25
500.569	69.25
500.786	85.25
501.003	88.25
501.22	98.25
501.437	93.25
501.654	78.25
501.871	84.25
502.088	82.25
502.305	100.25
502.522	89.25
502.739	81.25
502.956	92.25
503.172	92.25
503.389	95.25
503.606	110.25
503.823	94.25
504.04	89.25
504.256	89.25
504.473	91.25
504.69	84.25
504.907	93.25
505.123	99.25
505.34	90.25
505.557	89.25
505.773	89.25
505.99	86.25
506.207	93.25
506.423	88.25
506.64	99.25
506.856	96.25
507.073	85.25
507.289	89.25
507.506	89.25
507.722	112.25
507.939	102.25
508.155	92.25
508.372	84.25
508.588	90.25
508.805	89.25
509.021	79.25
509.238	84.25
509.454	95.25
509.67	98.25
509.887	107.25
510.103	115.25
510.319	193.25
510.536	664.25
510.752	2108.25
510.968	602.25
511.184	145.25
511.401	109.25
511.617	98.25
511.833	85.25
512.049	88.25
512.265	99.25
512.481	81.25
512.698	81.25
512.914	94.25
513.13	92.25
513.346	93.25
513.562	96.25
513.778	81.25
513.994	93.25
514.21	90.25
514.426	123.25
514.642	148.25
514.858	133.25
515.074	158.25
515.29	426.25
515.506	1446.25
515.721	528.25
