Data from Uncirc_2009_H10_HRD10591_00088.txt Node
Date: Wed Jan 03 10:12:19 EST 2024
User: Yrep
Spectrometer: HR+D1059
Trigger mode: 1
Integration Time (sec): 1.000000E-1
Scans to average: 1
Electric dark correction enabled: true
Nonlinearity correction enabled: false
Boxcar width: 0
XAxis mode: Wavelengths
Number of Pixels in Spectrum: 2048
>>>>>Begin Spectral Data<<<<<
223.165	-20.81
223.4	-20.81
223.635	-20.81
223.869	-9.81
224.104	1.19
224.338	-19.81
224.573	-24.81
224.808	-23.81
225.042	-3.81
225.277	9.19
225.511	0.19
225.746	9.19
225.98	2.19
226.215	24.19
226.449	4.19
226.683	-1.81
226.918	30.19
227.152	24.19
227.387	39.19
227.621	43.19
227.856	45.19
228.09	33.19
228.324	44.19
228.559	45.19
228.793	58.19
229.027	70.19
229.262	76.19
229.496	70.19
229.73	56.19
229.964	76.19
230.199	79.19
230.433	79.19
230.667	62.19
230.901	72.19
231.136	74.19
231.37	85.19
231.604	78.19
231.838	69.19
232.072	83.19
232.306	72.19
232.541	75.19
232.775	68.19
233.009	68.19
233.243	89.19
233.477	83.19
233.711	92.19
233.945	83.19
234.179	87.19
234.413	75.19
234.647	90.19
234.881	78.19
235.115	74.19
235.349	71.19
235.583	79.19
235.817	73.19
236.051	69.19
236.285	80.19
236.519	70.19
236.753	66.19
236.987	63.19
237.221	73.19
237.455	84.19
237.689	75.19
237.922	74.19
238.156	80.19
238.39	93.19
238.624	76.19
238.858	75.19
239.091	71.19
239.325	79.19
239.559	72.19
239.793	73.19
240.027	77.19
240.26	74.19
240.494	82.19
240.728	66.19
240.961	62.19
241.195	66.19
241.429	71.19
241.662	75.19
241.896	75.19
242.13	69.19
242.363	64.19
242.597	82.19
242.83	63.19
243.064	87.19
243.298	69.19
243.531	72.19
243.765	64.19
243.998	83.19
244.232	72.19
244.465	86.19
244.699	65.19
244.932	87.19
245.166	90.19
245.399	66.19
245.633	73.19
245.866	74.19
246.099	76.19
246.333	79.19
246.566	78.19
246.8	74.19
247.033	82.19
247.266	81.19
247.5	69.19
247.733	69.19
247.966	74.19
248.2	77.19
248.433	77.19
248.666	72.19
248.899	80.19
249.133	76.19
249.366	74.19
249.599	95.19
249.832	75.19
250.066	80.19
250.299	75.19
250.532	72.19
250.765	91.19
250.998	78.19
251.231	84.19
251.465	69.19
251.698	75.19
251.931	90.19
252.164	72.19
252.397	89.19
252.63	84.19
252.863	77.19
253.096	73.19
253.329	76.19
253.562	78.19
253.795	86.19
254.028	87.19
254.261	89.19
254.494	75.19
254.727	81.19
254.96	85.19
255.193	85.19
255.426	69.19
255.659	74.19
255.892	79.19
256.124	77.19
256.357	89.19
256.59	93.19
256.823	89.19
257.056	94.19
257.289	81.19
257.521	68.19
257.754	77.19
257.987	76.19
258.22	78.19
258.452	79.19
258.685	99.19
258.918	86.19
259.151	68.19
259.383	78.19
259.616	77.19
259.849	80.19
260.081	84.19
260.314	83.19
260.547	75.19
260.779	82.19
261.012	86.19
261.244	95.19
261.477	93.19
261.71	76.19
261.942	98.19
262.175	94.19
262.407	87.19
262.64	77.19
262.872	77.19
263.105	79.19
263.337	83.19
263.57	86.19
263.802	76.19
264.035	82.19
264.267	73.19
264.499	67.19
264.732	68.19
264.964	77.19
265.197	78.19
265.429	71.19
265.661	78.19
265.894	89.19
266.126	75.19
266.358	74.19
266.591	85.19
266.823	73.19
267.055	89.19
267.287	92.19
267.52	81.19
267.752	82.19
267.984	67.19
268.216	86.19
268.448	79.19
268.681	78.19
268.913	79.19
269.145	83.19
269.377	82.19
269.609	77.19
269.841	92.19
270.073	76.19
270.306	66.19
270.538	80.19
270.77	93.19
271.002	84.19
271.234	94.19
271.466	91.19
271.698	90.19
271.93	82.19
272.162	88.19
272.394	73.19
272.626	89.19
272.858	73.19
273.09	66.19
273.322	83.19
273.553	77.19
273.785	83.19
274.017	76.19
274.249	82.19
274.481	85.19
274.713	76.19
274.945	71.19
275.176	92.19
275.408	73.19
275.64	81.19
275.872	78.19
276.104	98.19
276.335	88.19
276.567	81.19
276.799	109.19
277.031	100.19
277.262	77.19
277.494	86.19
277.726	83.19
277.957	90.19
278.189	93.19
278.421	80.19
278.652	92.19
278.884	83.19
279.115	96.19
279.347	86.19
279.579	95.19
279.81	81.19
280.042	93.19
280.273	93.19
280.505	89.19
280.736	91.19
280.968	75.19
281.199	79.19
281.431	84.19
281.662	98.19
281.894	74.19
282.125	89.19
282.356	104.19
282.588	105.19
282.819	108.19
283.051	103.19
283.282	95.19
283.513	86.19
283.745	83.19
283.976	85.19
284.207	96.19
284.439	98.19
284.67	88.19
284.901	84.19
285.132	90.19
285.364	78.19
285.595	74.19
285.826	86.19
286.057	89.19
286.288	75.19
286.52	104.19
286.751	91.19
286.982	84.19
287.213	82.19
287.444	90.19
287.675	75.19
287.906	86.19
288.138	78.19
288.369	94.19
288.6	91.19
288.831	74.19
289.062	79.19
289.293	66.19
289.524	78.19
289.755	75.19
289.986	101.19
290.217	82.19
290.448	68.19
290.679	83.19
290.91	87.19
291.141	86.19
291.371	73.19
291.602	84.19
291.833	61.19
292.064	80.19
292.295	84.19
292.526	80.19
292.757	74.19
292.987	86.19
293.218	82.19
293.449	79.19
293.68	79.19
293.91	91.19
294.141	93.19
294.372	79.19
294.603	102.19
294.833	86.19
295.064	86.19
295.295	79.19
295.525	84.19
295.756	105.19
295.987	97.19
296.217	111.19
296.448	107.19
296.679	94.19
296.909	85.19
297.14	88.19
297.37	87.19
297.601	80.19
297.831	79.19
298.062	86.19
298.292	80.19
298.523	78.19
298.753	77.19
298.984	94.19
299.214	74.19
299.445	93.19
299.675	103.19
299.905	80.19
300.136	88.19
300.366	77.19
300.597	99.19
300.827	94.19
301.057	104.19
301.288	95.19
301.518	86.19
301.748	85.19
301.979	105.19
302.209	100.19
302.439	108.19
302.669	75.19
302.9	87.19
303.13	95.19
303.36	90.19
303.59	118.19
303.82	87.19
304.051	93.19
304.281	92.19
304.511	84.19
304.741	80.19
304.971	86.19
305.201	84.19
305.431	101.19
305.661	86.19
305.891	86.19
306.121	89.19
306.352	96.19
306.582	97.19
306.812	89.19
307.042	95.19
307.272	79.19
307.502	89.19
307.731	87.19
307.961	87.19
308.191	105.19
308.421	91.19
308.651	95.19
308.881	95.19
309.111	89.19
309.341	99.19
309.571	87.19
309.8	76.19
310.03	97.19
310.26	68.19
310.49	102.19
310.72	99.19
310.949	102.19
311.179	82.19
311.409	92.19
311.639	86.19
311.868	94.19
312.098	86.19
312.328	91.19
312.557	101.19
312.787	102.19
313.017	99.19
313.246	76.19
313.476	83.19
313.706	93.19
313.935	90.19
314.165	90.19
314.394	102.19
314.624	92.19
314.853	78.19
315.083	99.19
315.312	76.19
315.542	100.19
315.771	87.19
316.001	84.19
316.23	89.19
316.46	83.19
316.689	79.19
316.919	97.19
317.148	91.19
317.377	110.19
317.607	123.19
317.836	105.19
318.065	70.19
318.295	93.19
318.524	93.19
318.753	84.19
318.983	71.19
319.212	97.19
319.441	95.19
319.67	104.19
319.9	99.19
320.129	78.19
320.358	82.19
320.587	79.19
320.816	80.19
321.046	88.19
321.275	87.19
321.504	82.19
321.733	100.19
321.962	85.19
322.191	94.19
322.42	93.19
322.649	105.19
322.878	101.19
323.108	113.19
323.337	116.19
323.566	105.19
323.795	117.19
324.024	173.19
324.253	323.19
324.482	650.19
324.71	1357.19
324.939	1742.19
325.168	660.19
325.397	212.19
325.626	134.19
325.855	120.19
326.084	143.19
326.313	146.19
326.542	158.19
326.77	199.19
326.999	376.19
327.228	765.19
327.457	1360.19
327.686	1094.19
327.914	315.19
328.143	143.19
328.372	118.19
328.6	100.19
328.829	105.19
329.058	108.19
329.287	109.19
329.515	104.19
329.744	104.19
329.972	110.19
330.201	109.19
330.43	123.19
330.658	106.19
330.887	102.19
331.115	108.19
331.344	90.19
331.572	77.19
331.801	97.19
332.03	105.19
332.258	102.19
332.486	90.19
332.715	103.19
332.943	90.19
333.172	96.19
333.4	105.19
333.629	95.19
333.857	93.19
334.085	102.19
334.314	93.19
334.542	124.19
334.771	117.19
334.999	96.19
335.227	91.19
335.455	87.19
335.684	90.19
335.912	95.19
336.14	93.19
336.369	93.19
336.597	102.19
336.825	90.19
337.053	78.19
337.281	97.19
337.51	90.19
337.738	82.19
337.966	92.19
338.194	84.19
338.422	83.19
338.65	76.19
338.878	86.19
339.106	83.19
339.334	85.19
339.562	93.19
339.79	93.19
340.018	77.19
340.246	80.19
340.474	87.19
340.702	98.19
340.93	86.19
341.158	78.19
341.386	83.19
341.614	102.19
341.842	80.19
342.07	83.19
342.298	86.19
342.526	72.19
342.754	74.19
342.981	78.19
343.209	89.19
343.437	93.19
343.665	69.19
343.893	84.19
344.12	85.19
344.348	89.19
344.576	94.19
344.804	88.19
345.031	87.19
345.259	88.19
345.487	87.19
345.714	83.19
345.942	90.19
346.17	81.19
346.397	89.19
346.625	88.19
346.853	85.19
347.08	95.19
347.308	91.19
347.535	99.19
347.763	82.19
347.99	92.19
348.218	91.19
348.445	103.19
348.673	83.19
348.9	93.19
349.128	92.19
349.355	78.19
349.583	89.19
349.81	84.19
350.037	72.19
350.265	92.19
350.492	92.19
350.72	92.19
350.947	116.19
351.174	109.19
351.402	91.19
351.629	100.19
351.856	91.19
352.083	93.19
352.311	110.19
352.538	94.19
352.765	108.19
352.992	107.19
353.22	96.19
353.447	110.19
353.674	110.19
353.901	76.19
354.128	97.19
354.355	87.19
354.583	110.19
354.81	80.19
355.037	88.19
355.264	87.19
355.491	82.19
355.718	91.19
355.945	93.19
356.172	92.19
356.399	102.19
356.626	87.19
356.853	73.19
357.08	90.19
357.307	91.19
357.534	101.19
357.761	94.19
357.988	99.19
358.215	88.19
358.441	90.19
358.668	83.19
358.895	71.19
359.122	78.19
359.349	82.19
359.576	73.19
359.802	83.19
360.029	85.19
360.256	84.19
360.483	84.19
360.709	91.19
360.936	88.19
361.163	102.19
361.39	84.19
361.616	87.19
361.843	83.19
362.07	82.19
362.296	93.19
362.523	96.19
362.749	66.19
362.976	74.19
363.203	95.19
363.429	75.19
363.656	88.19
363.882	95.19
364.109	100.19
364.335	91.19
364.562	91.19
364.788	76.19
365.015	88.19
365.241	94.19
365.468	105.19
365.694	108.19
365.92	94.19
366.147	90.19
366.373	84.19
366.599	80.19
366.826	85.19
367.052	90.19
367.278	82.19
367.505	107.19
367.731	96.19
367.957	88.19
368.184	86.19
368.41	88.19
368.636	98.19
368.862	100.19
369.089	83.19
369.315	90.19
369.541	82.19
369.767	97.19
369.993	80.19
370.219	79.19
370.445	72.19
370.672	85.19
370.898	91.19
371.124	83.19
371.35	88.19
371.576	96.19
371.802	86.19
372.028	77.19
372.254	77.19
372.48	80.19
372.706	91.19
372.932	90.19
373.158	85.19
373.384	81.19
373.61	97.19
373.835	91.19
374.061	87.19
374.287	89.19
374.513	74.19
374.739	72.19
374.965	104.19
375.191	96.19
375.416	86.19
375.642	91.19
375.868	108.19
376.094	75.19
376.319	85.19
376.545	81.19
376.771	109.19
376.997	80.19
377.222	78.19
377.448	80.19
377.674	85.19
377.899	78.19
378.125	88.19
378.35	92.19
378.576	84.19
378.802	92.19
379.027	94.19
379.253	99.19
379.478	94.19
379.704	82.19
379.929	92.19
380.155	99.19
380.38	92.19
380.606	82.19
380.831	96.19
381.057	96.19
381.282	94.19
381.507	90.19
381.733	88.19
381.958	79.19
382.184	97.19
382.409	98.19
382.634	100.19
382.86	96.19
383.085	99.19
383.31	82.19
383.535	98.19
383.761	99.19
383.986	80.19
384.211	98.19
384.436	97.19
384.662	84.19
384.887	101.19
385.112	102.19
385.337	101.19
385.562	102.19
385.787	89.19
386.013	105.19
386.238	116.19
386.463	93.19
386.688	94.19
386.913	98.19
387.138	94.19
387.363	93.19
387.588	106.19
387.813	99.19
388.038	105.19
388.263	119.19
388.488	100.19
388.713	95.19
388.938	84.19
389.163	100.19
389.387	94.19
389.612	94.19
389.837	79.19
390.062	86.19
390.287	81.19
390.512	86.19
390.736	85.19
390.961	73.19
391.186	91.19
391.411	91.19
391.636	95.19
391.86	96.19
392.085	83.19
392.31	70.19
392.534	77.19
392.759	86.19
392.984	73.19
393.208	91.19
393.433	84.19
393.658	79.19
393.882	79.19
394.107	87.19
394.331	97.19
394.556	90.19
394.78	92.19
395.005	85.19
395.229	84.19
395.454	83.19
395.678	75.19
395.903	74.19
396.127	90.19
396.352	86.19
396.576	78.19
396.801	71.19
397.025	86.19
397.249	88.19
397.474	96.19
397.698	90.19
397.922	73.19
398.147	61.19
398.371	85.19
398.595	84.19
398.82	76.19
399.044	79.19
399.268	82.19
399.492	64.19
399.717	83.19
399.941	74.19
400.165	99.19
400.389	90.19
400.613	88.19
400.837	84.19
401.062	74.19
401.286	73.19
401.51	77.19
401.734	86.19
401.958	95.19
402.182	114.19
402.406	130.19
402.63	93.19
402.854	92.19
403.078	82.19
403.302	86.19
403.526	83.19
403.75	71.19
403.974	88.19
404.198	91.19
404.422	95.19
404.645	80.19
404.869	84.19
405.093	94.19
405.317	90.19
405.541	84.19
405.765	85.19
405.988	99.19
406.212	134.19
406.436	164.19
406.66	118.19
406.883	91.19
407.107	86.19
407.331	98.19
407.555	91.19
407.778	87.19
408.002	65.19
408.226	88.19
408.449	78.19
408.673	83.19
408.896	87.19
409.12	76.19
409.344	72.19
409.567	87.19
409.791	89.19
410.014	97.19
410.238	93.19
410.461	100.19
410.685	87.19
410.908	97.19
411.132	91.19
411.355	78.19
411.578	86.19
411.802	85.19
412.025	84.19
412.249	83.19
412.472	80.19
412.695	87.19
412.919	88.19
413.142	89.19
413.365	95.19
413.589	76.19
413.812	80.19
414.035	94.19
414.258	93.19
414.482	92.19
414.705	96.19
414.928	79.19
415.151	87.19
415.374	89.19
415.597	77.19
415.821	69.19
416.044	66.19
416.267	79.19
416.49	95.19
416.713	85.19
416.936	87.19
417.159	81.19
417.382	71.19
417.605	97.19
417.828	81.19
418.051	86.19
418.274	87.19
418.497	69.19
418.72	59.19
418.943	96.19
419.166	83.19
419.389	93.19
419.611	86.19
419.834	77.19
420.057	87.19
420.28	79.19
420.503	74.19
420.726	75.19
420.948	84.19
421.171	96.19
421.394	88.19
421.617	88.19
421.839	86.19
422.062	70.19
422.285	89.19
422.507	93.19
422.73	77.19
422.953	77.19
423.175	78.19
423.398	88.19
423.621	90.19
423.843	94.19
424.066	85.19
424.288	82.19
424.511	83.19
424.733	66.19
424.956	91.19
425.178	98.19
425.401	96.19
425.623	92.19
425.846	78.19
426.068	84.19
426.291	78.19
426.513	92.19
426.735	78.19
426.958	88.19
427.18	101.19
427.402	112.19
427.625	134.19
427.847	109.19
428.069	95.19
428.292	85.19
428.514	72.19
428.736	84.19
428.958	82.19
429.181	68.19
429.403	96.19
429.625	92.19
429.847	80.19
430.069	104.19
430.292	74.19
430.514	84.19
430.736	79.19
430.958	82.19
431.18	86.19
431.402	87.19
431.624	85.19
431.846	72.19
432.068	77.19
432.29	78.19
432.512	86.19
432.734	92.19
432.956	90.19
433.178	99.19
433.4	91.19
433.622	82.19
433.844	78.19
434.066	94.19
434.287	76.19
434.509	89.19
434.731	86.19
434.953	90.19
435.175	66.19
435.397	72.19
435.618	82.19
435.84	83.19
436.062	122.19
436.284	105.19
436.505	90.19
436.727	104.19
436.949	84.19
437.17	84.19
437.392	81.19
437.614	90.19
437.835	90.19
438.057	90.19
438.278	93.19
438.5	90.19
438.721	114.19
438.943	87.19
439.165	96.19
439.386	95.19
439.608	87.19
439.829	91.19
440.05	94.19
440.272	111.19
440.493	99.19
440.715	78.19
440.936	86.19
441.158	85.19
441.379	78.19
441.6	82.19
441.822	98.19
442.043	86.19
442.264	95.19
442.486	92.19
442.707	83.19
442.928	98.19
443.149	96.19
443.371	96.19
443.592	99.19
443.813	84.19
444.034	93.19
444.255	85.19
444.476	94.19
444.698	70.19
444.919	89.19
445.14	124.19
445.361	97.19
445.582	96.19
445.803	121.19
446.024	110.19
446.245	119.19
446.466	96.19
446.687	94.19
446.908	75.19
447.129	80.19
447.35	94.19
447.571	82.19
447.792	90.19
448.013	87.19
448.234	93.19
448.455	102.19
448.675	86.19
448.896	92.19
449.117	92.19
449.338	80.19
449.559	107.19
449.779	131.19
450	95.19
450.221	86.19
450.442	91.19
450.662	84.19
450.883	108.19
451.104	101.19
451.324	83.19
451.545	86.19
451.766	88.19
451.986	94.19
452.207	95.19
452.428	86.19
452.648	92.19
452.869	92.19
453.089	98.19
453.31	109.19
453.53	86.19
453.751	85.19
453.971	96.19
454.192	94.19
454.412	83.19
454.633	87.19
454.853	92.19
455.073	91.19
455.294	90.19
455.514	96.19
455.734	77.19
455.955	72.19
456.175	92.19
456.395	100.19
456.616	94.19
456.836	92.19
457.056	84.19
457.276	75.19
457.497	86.19
457.717	87.19
457.937	79.19
458.157	93.19
458.377	80.19
458.598	88.19
458.818	113.19
459.038	122.19
459.258	101.19
459.478	103.19
459.698	78.19
459.918	68.19
460.138	85.19
460.358	78.19
460.578	82.19
460.798	103.19
461.018	89.19
461.238	92.19
461.458	72.19
461.678	92.19
461.898	88.19
462.118	84.19
462.338	67.19
462.558	88.19
462.777	86.19
462.997	80.19
463.217	71.19
463.437	85.19
463.657	80.19
463.876	84.19
464.096	86.19
464.316	88.19
464.536	82.19
464.755	92.19
464.975	98.19
465.195	109.19
465.414	126.19
465.634	88.19
465.854	101.19
466.073	87.19
466.293	82.19
466.512	77.19
466.732	73.19
466.951	80.19
467.171	92.19
467.391	94.19
467.61	93.19
467.829	92.19
468.049	94.19
468.268	104.19
468.488	89.19
468.707	84.19
468.927	71.19
469.146	88.19
469.365	69.19
469.585	82.19
469.804	84.19
470.023	88.19
470.243	96.19
470.462	87.19
470.681	107.19
470.901	78.19
471.12	92.19
471.339	99.19
471.558	84.19
471.777	73.19
471.997	93.19
472.216	98.19
472.435	105.19
472.654	93.19
472.873	88.19
473.092	79.19
473.311	91.19
473.53	77.19
473.749	71.19
473.968	100.19
474.187	85.19
474.406	90.19
474.625	79.19
474.844	82.19
475.063	84.19
475.282	96.19
475.501	84.19
475.72	85.19
475.939	83.19
476.158	75.19
476.377	77.19
476.596	85.19
476.814	94.19
477.033	78.19
477.252	96.19
477.471	91.19
477.69	73.19
477.908	86.19
478.127	82.19
478.346	85.19
478.564	79.19
478.783	97.19
479.002	86.19
479.22	83.19
479.439	110.19
479.658	94.19
479.876	85.19
480.095	85.19
480.313	103.19
480.532	89.19
480.751	80.19
480.969	96.19
481.188	148.19
481.406	125.19
481.624	90.19
481.843	93.19
482.061	90.19
482.28	80.19
482.498	67.19
482.717	88.19
482.935	80.19
483.153	90.19
483.372	105.19
483.59	95.19
483.808	80.19
484.027	81.19
484.245	89.19
484.463	94.19
484.681	94.19
484.9	91.19
485.118	96.19
485.336	90.19
485.554	72.19
485.772	84.19
485.99	102.19
486.209	115.19
486.427	103.19
486.645	105.19
486.863	107.19
487.081	103.19
487.299	98.19
487.517	99.19
487.735	84.19
487.953	91.19
488.171	92.19
488.389	104.19
488.607	78.19
488.825	93.19
489.043	85.19
489.261	95.19
489.479	88.19
489.696	91.19
489.914	84.19
490.132	72.19
490.35	72.19
490.568	68.19
490.786	102.19
491.003	98.19
491.221	81.19
491.439	98.19
491.657	82.19
491.874	84.19
492.092	86.19
492.31	94.19
492.527	72.19
492.745	82.19
492.963	95.19
493.18	80.19
493.398	86.19
493.615	88.19
493.833	90.19
494.05	84.19
494.268	79.19
494.485	78.19
494.703	83.19
494.92	94.19
495.138	75.19
495.355	90.19
495.573	100.19
495.79	93.19
496.008	86.19
496.225	84.19
496.442	86.19
496.66	94.19
496.877	86.19
497.094	80.19
497.312	84.19
497.529	72.19
497.746	73.19
497.963	98.19
498.181	96.19
498.398	98.19
498.615	100.19
498.832	100.19
499.049	73.19
499.267	82.19
499.484	97.19
499.701	91.19
499.918	79.19
500.135	86.19
500.352	91.19
500.569	88.19
500.786	102.19
501.003	86.19
501.22	88.19
501.437	87.19
501.654	92.19
501.871	93.19
502.088	89.19
502.305	78.19
502.522	111.19
502.739	89.19
502.956	75.19
503.172	85.19
503.389	85.19
503.606	88.19
503.823	81.19
504.04	87.19
504.256	79.19
504.473	97.19
504.69	87.19
504.907	93.19
505.123	85.19
505.34	100.19
505.557	88.19
505.773	85.19
505.99	78.19
506.207	82.19
506.423	79.19
506.64	88.19
506.856	92.19
507.073	83.19
507.289	82.19
507.506	91.19
507.722	94.19
507.939	94.19
508.155	98.19
508.372	83.19
508.588	90.19
508.805	79.19
509.021	81.19
509.238	100.19
509.454	97.19
509.67	108.19
509.887	108.19
510.103	109.19
510.319	169.19
510.536	542.19
510.752	1635.19
510.968	504.19
511.184	126.19
511.401	91.19
511.617	99.19
511.833	101.19
512.049	90.19
512.265	88.19
512.481	77.19
512.698	93.19
512.914	103.19
513.13	88.19
513.346	87.19
513.562	88.19
513.778	95.19
513.994	87.19
514.21	96.19
514.426	96.19
514.642	121.19
514.858	101.19
515.074	128.19
515.29	310.19
515.506	961.19
515.721	377.19
515.937	128.19
516.153	106.19
516.369	93.19
516.585	89.19
516.801	81.19
517.016	86.19
517.232	108.19
517.448	87.19
