Data from Uncirc_2009_H10_HRD10591_00013.txt Node
Date: Wed Jan 03 10:12:04 EST 2024
User: Yrep
Spectrometer: HR+D1059
Trigger mode: 1
Integration Time (sec): 1.000000E-1
Scans to average: 1
Electric dark correction enabled: true
Nonlinearity correction enabled: false
Boxcar width: 0
XAxis mode: Wavelengths
Number of Pixels in Spectrum: 2048
>>>>>Begin Spectral Data<<<<<
223.165	-25.25
223.4	-25.25
223.635	-25.25
223.869	-4.25
224.104	-21.25
224.338	-23.25
224.573	-25.25
224.808	-5.25
225.042	-2.25
225.277	-10.25
225.511	1.75
225.746	3.75
225.98	5.75
226.215	11.75
226.449	7.75
226.683	23.75
226.918	35.75
227.152	26.75
227.387	26.75
227.621	38.75
227.856	49.75
228.09	40.75
228.324	46.75
228.559	55.75
228.793	55.75
229.027	57.75
229.262	62.75
229.496	60.75
229.73	82.75
229.964	84.75
230.199	61.75
230.433	73.75
230.667	68.75
230.901	75.75
231.136	75.75
231.37	66.75
231.604	82.75
231.838	61.75
232.072	81.75
232.306	80.75
232.541	76.75
232.775	78.75
233.009	73.75
233.243	71.75
233.477	75.75
233.711	73.75
233.945	76.75
234.179	79.75
234.413	78.75
234.647	78.75
234.881	91.75
235.115	67.75
235.349	73.75
235.583	79.75
235.817	72.75
236.051	74.75
236.285	70.75
236.519	84.75
236.753	71.75
236.987	79.75
237.221	66.75
237.455	71.75
237.689	72.75
237.922	71.75
238.156	69.75
238.39	65.75
238.624	62.75
238.858	82.75
239.091	64.75
239.325	62.75
239.559	78.75
239.793	76.75
240.027	74.75
240.26	73.75
240.494	78.75
240.728	67.75
240.961	74.75
241.195	63.75
241.429	83.75
241.662	68.75
241.896	60.75
242.13	69.75
242.363	82.75
242.597	76.75
242.83	74.75
243.064	69.75
243.298	81.75
243.531	74.75
243.765	57.75
243.998	71.75
244.232	75.75
244.465	77.75
244.699	65.75
244.932	70.75
245.166	65.75
245.399	67.75
245.633	70.75
245.866	77.75
246.099	72.75
246.333	92.75
246.566	79.75
246.8	68.75
247.033	79.75
247.266	74.75
247.5	73.75
247.733	81.75
247.966	73.75
248.2	80.75
248.433	71.75
248.666	80.75
248.899	94.75
249.133	82.75
249.366	85.75
249.599	93.75
249.832	76.75
250.066	89.75
250.299	65.75
250.532	74.75
250.765	67.75
250.998	66.75
251.231	93.75
251.465	85.75
251.698	68.75
251.931	75.75
252.164	77.75
252.397	77.75
252.63	70.75
252.863	68.75
253.096	69.75
253.329	78.75
253.562	77.75
253.795	86.75
254.028	93.75
254.261	79.75
254.494	81.75
254.727	75.75
254.96	78.75
255.193	69.75
255.426	66.75
255.659	78.75
255.892	73.75
256.124	84.75
256.357	78.75
256.59	82.75
256.823	65.75
257.056	71.75
257.289	76.75
257.521	87.75
257.754	77.75
257.987	75.75
258.22	80.75
258.452	73.75
258.685	79.75
258.918	84.75
259.151	72.75
259.383	77.75
259.616	89.75
259.849	72.75
260.081	78.75
260.314	88.75
260.547	78.75
260.779	60.75
261.012	70.75
261.244	79.75
261.477	78.75
261.71	84.75
261.942	88.75
262.175	89.75
262.407	87.75
262.64	79.75
262.872	77.75
263.105	66.75
263.337	77.75
263.57	75.75
263.802	89.75
264.035	83.75
264.267	71.75
264.499	73.75
264.732	81.75
264.964	82.75
265.197	75.75
265.429	68.75
265.661	85.75
265.894	73.75
266.126	73.75
266.358	77.75
266.591	70.75
266.823	85.75
267.055	67.75
267.287	75.75
267.52	76.75
267.752	90.75
267.984	88.75
268.216	76.75
268.448	83.75
268.681	86.75
268.913	67.75
269.145	98.75
269.377	89.75
269.609	81.75
269.841	76.75
270.073	81.75
270.306	74.75
270.538	87.75
270.77	86.75
271.002	77.75
271.234	78.75
271.466	90.75
271.698	85.75
271.93	86.75
272.162	86.75
272.394	77.75
272.626	75.75
272.858	65.75
273.09	74.75
273.322	75.75
273.553	70.75
273.785	85.75
274.017	79.75
274.249	82.75
274.481	85.75
274.713	92.75
274.945	86.75
275.176	82.75
275.408	91.75
275.64	78.75
275.872	90.75
276.104	72.75
276.335	95.75
276.567	87.75
276.799	97.75
277.031	82.75
277.262	95.75
277.494	83.75
277.726	72.75
277.957	88.75
278.189	94.75
278.421	93.75
278.652	84.75
278.884	74.75
279.115	87.75
279.347	83.75
279.579	92.75
279.81	85.75
280.042	84.75
280.273	83.75
280.505	81.75
280.736	70.75
280.968	73.75
281.199	83.75
281.431	80.75
281.662	85.75
281.894	105.75
282.125	95.75
282.356	105.75
282.588	106.75
282.819	104.75
283.051	89.75
283.282	83.75
283.513	85.75
283.745	93.75
283.976	91.75
284.207	111.75
284.439	96.75
284.67	92.75
284.901	86.75
285.132	79.75
285.364	72.75
285.595	97.75
285.826	98.75
286.057	79.75
286.288	91.75
286.52	90.75
286.751	85.75
286.982	89.75
287.213	74.75
287.444	70.75
287.675	85.75
287.906	83.75
288.138	96.75
288.369	81.75
288.6	89.75
288.831	89.75
289.062	89.75
289.293	78.75
289.524	84.75
289.755	91.75
289.986	85.75
290.217	92.75
290.448	88.75
290.679	72.75
290.91	81.75
291.141	84.75
291.371	89.75
291.602	81.75
291.833	85.75
292.064	87.75
292.295	78.75
292.526	86.75
292.757	67.75
292.987	85.75
293.218	72.75
293.449	88.75
293.68	82.75
293.91	79.75
294.141	74.75
294.372	89.75
294.603	94.75
294.833	94.75
295.064	87.75
295.295	88.75
295.525	76.75
295.756	98.75
295.987	99.75
296.217	123.75
296.448	100.75
296.679	85.75
296.909	78.75
297.14	90.75
297.37	92.75
297.601	88.75
297.831	87.75
298.062	90.75
298.292	78.75
298.523	92.75
298.753	89.75
298.984	83.75
299.214	94.75
299.445	90.75
299.675	97.75
299.905	80.75
300.136	98.75
300.366	93.75
300.597	70.75
300.827	82.75
301.057	97.75
301.288	92.75
301.518	85.75
301.748	84.75
301.979	99.75
302.209	89.75
302.439	81.75
302.669	85.75
302.9	80.75
303.13	89.75
303.36	95.75
303.59	100.75
303.82	83.75
304.051	92.75
304.281	88.75
304.511	95.75
304.741	81.75
304.971	63.75
305.201	89.75
305.431	85.75
305.661	82.75
305.891	94.75
306.121	93.75
306.352	89.75
306.582	88.75
306.812	91.75
307.042	79.75
307.272	89.75
307.502	84.75
307.731	74.75
307.961	103.75
308.191	82.75
308.421	95.75
308.651	104.75
308.881	84.75
309.111	84.75
309.341	102.75
309.571	86.75
309.8	86.75
310.03	94.75
310.26	83.75
310.49	74.75
310.72	95.75
310.949	109.75
311.179	88.75
311.409	89.75
311.639	97.75
311.868	94.75
312.098	92.75
312.328	77.75
312.557	74.75
312.787	81.75
313.017	94.75
313.246	98.75
313.476	77.75
313.706	84.75
313.935	78.75
314.165	95.75
314.394	97.75
314.624	83.75
314.853	95.75
315.083	109.75
315.312	101.75
315.542	88.75
315.771	91.75
316.001	91.75
316.23	97.75
316.46	86.75
316.689	81.75
316.919	86.75
317.148	82.75
317.377	102.75
317.607	109.75
317.836	94.75
318.065	90.75
318.295	92.75
318.524	85.75
318.753	81.75
318.983	89.75
319.212	85.75
319.441	97.75
319.67	89.75
319.9	90.75
320.129	88.75
320.358	97.75
320.587	92.75
320.816	94.75
321.046	84.75
321.275	89.75
321.504	85.75
321.733	90.75
321.962	91.75
322.191	93.75
322.42	92.75
322.649	95.75
322.878	102.75
323.108	97.75
323.337	108.75
323.566	93.75
323.795	124.75
324.024	170.75
324.253	319.75
324.482	673.75
324.71	1310.75
324.939	1687.75
325.168	625.75
325.397	209.75
325.626	131.75
325.855	122.75
326.084	117.75
326.313	139.75
326.542	146.75
326.77	197.75
326.999	391.75
327.228	753.75
327.457	1315.75
327.686	1042.75
327.914	303.75
328.143	147.75
328.372	121.75
328.6	104.75
328.829	95.75
329.058	108.75
329.287	109.75
329.515	91.75
329.744	100.75
329.972	92.75
330.201	103.75
330.43	113.75
330.658	109.75
330.887	115.75
331.115	119.75
331.344	97.75
331.572	83.75
331.801	90.75
332.03	87.75
332.258	102.75
332.486	87.75
332.715	90.75
332.943	90.75
333.172	103.75
333.4	92.75
333.629	90.75
333.857	102.75
334.085	92.75
334.314	99.75
334.542	110.75
334.771	106.75
334.999	102.75
335.227	89.75
335.455	73.75
335.684	92.75
335.912	87.75
336.14	89.75
336.369	75.75
336.597	101.75
336.825	79.75
337.053	86.75
337.281	91.75
337.51	93.75
337.738	92.75
337.966	74.75
338.194	79.75
338.422	85.75
338.65	92.75
338.878	94.75
339.106	83.75
339.334	92.75
339.562	89.75
339.79	80.75
340.018	84.75
340.246	87.75
340.474	91.75
340.702	89.75
340.93	97.75
341.158	83.75
341.386	86.75
341.614	86.75
341.842	93.75
342.07	89.75
342.298	83.75
342.526	83.75
342.754	83.75
342.981	83.75
343.209	90.75
343.437	103.75
343.665	96.75
343.893	90.75
344.12	83.75
344.348	80.75
344.576	85.75
344.804	90.75
345.031	87.75
345.259	86.75
345.487	95.75
345.714	84.75
345.942	81.75
346.17	84.75
346.397	85.75
346.625	83.75
346.853	86.75
347.08	92.75
347.308	94.75
347.535	94.75
347.763	95.75
347.99	80.75
348.218	86.75
348.445	96.75
348.673	106.75
348.9	104.75
349.128	91.75
349.355	98.75
349.583	82.75
349.81	83.75
350.037	83.75
350.265	78.75
350.492	89.75
350.72	91.75
350.947	95.75
351.174	86.75
351.402	102.75
351.629	95.75
351.856	103.75
352.083	93.75
352.311	108.75
352.538	107.75
352.765	91.75
352.992	110.75
353.22	117.75
353.447	91.75
353.674	102.75
353.901	103.75
354.128	86.75
354.355	101.75
354.583	93.75
354.81	104.75
355.037	107.75
355.264	90.75
355.491	73.75
355.718	90.75
355.945	87.75
356.172	90.75
356.399	93.75
356.626	93.75
356.853	86.75
357.08	91.75
357.307	95.75
357.534	84.75
357.761	95.75
357.988	102.75
358.215	81.75
358.441	87.75
358.668	79.75
358.895	97.75
359.122	78.75
359.349	76.75
359.576	78.75
359.802	88.75
360.029	86.75
360.256	92.75
360.483	89.75
360.709	82.75
360.936	85.75
361.163	91.75
361.39	74.75
361.616	94.75
361.843	87.75
362.07	90.75
362.296	74.75
362.523	81.75
362.749	80.75
362.976	97.75
363.203	86.75
363.429	74.75
363.656	91.75
363.882	82.75
364.109	95.75
364.335	88.75
364.562	84.75
364.788	69.75
365.015	86.75
365.241	83.75
365.468	97.75
365.694	83.75
365.92	83.75
366.147	90.75
366.373	82.75
366.599	101.75
366.826	75.75
367.052	100.75
367.278	85.75
367.505	93.75
367.731	86.75
367.957	81.75
368.184	70.75
368.41	89.75
368.636	94.75
368.862	102.75
369.089	100.75
369.315	75.75
369.541	69.75
369.767	99.75
369.993	79.75
370.219	75.75
370.445	94.75
370.672	82.75
370.898	73.75
371.124	92.75
371.35	88.75
371.576	83.75
371.802	83.75
372.028	87.75
372.254	78.75
372.48	71.75
372.706	82.75
372.932	90.75
373.158	86.75
373.384	84.75
373.61	74.75
373.835	86.75
374.061	83.75
374.287	78.75
374.513	100.75
374.739	92.75
374.965	69.75
375.191	92.75
375.416	101.75
375.642	65.75
375.868	89.75
376.094	85.75
376.319	89.75
376.545	74.75
376.771	81.75
376.997	97.75
377.222	83.75
377.448	96.75
377.674	102.75
377.899	101.75
378.125	89.75
378.35	81.75
378.576	86.75
378.802	93.75
379.027	90.75
379.253	98.75
379.478	86.75
379.704	102.75
379.929	106.75
380.155	100.75
380.38	83.75
380.606	79.75
380.831	87.75
381.057	103.75
381.282	96.75
381.507	92.75
381.733	98.75
381.958	86.75
382.184	98.75
382.409	105.75
382.634	90.75
382.86	80.75
383.085	98.75
383.31	100.75
383.535	94.75
383.761	95.75
383.986	79.75
384.211	98.75
384.436	107.75
384.662	95.75
384.887	99.75
385.112	107.75
385.337	104.75
385.562	103.75
385.787	108.75
386.013	107.75
386.238	104.75
386.463	90.75
386.688	92.75
386.913	95.75
387.138	113.75
387.363	100.75
387.588	98.75
387.813	105.75
388.038	96.75
388.263	112.75
388.488	119.75
388.713	83.75
388.938	77.75
389.163	84.75
389.387	90.75
389.612	92.75
389.837	84.75
390.062	86.75
390.287	91.75
390.512	92.75
390.736	92.75
390.961	96.75
391.186	109.75
391.411	106.75
391.636	79.75
391.86	85.75
392.085	90.75
392.31	84.75
392.534	69.75
392.759	92.75
392.984	89.75
393.208	70.75
393.433	90.75
393.658	76.75
393.882	88.75
394.107	69.75
394.331	86.75
394.556	88.75
394.78	76.75
395.005	76.75
395.229	86.75
395.454	83.75
395.678	87.75
395.903	92.75
396.127	92.75
396.352	88.75
396.576	79.75
396.801	91.75
397.025	75.75
397.249	94.75
397.474	82.75
397.698	92.75
397.922	90.75
398.147	82.75
398.371	79.75
398.595	80.75
398.82	78.75
399.044	81.75
399.268	88.75
399.492	76.75
399.717	73.75
399.941	73.75
400.165	87.75
400.389	88.75
400.613	75.75
400.837	75.75
401.062	90.75
401.286	79.75
401.51	83.75
401.734	77.75
401.958	86.75
402.182	112.75
402.406	104.75
402.63	100.75
402.854	87.75
403.078	91.75
403.302	73.75
403.526	78.75
403.75	94.75
403.974	87.75
404.198	74.75
404.422	81.75
404.645	82.75
404.869	88.75
405.093	92.75
405.317	84.75
405.541	92.75
405.765	87.75
405.988	107.75
406.212	142.75
406.436	161.75
406.66	118.75
406.883	85.75
407.107	92.75
407.331	82.75
407.555	91.75
407.778	102.75
408.002	95.75
408.226	95.75
408.449	84.75
408.673	95.75
408.896	78.75
409.12	84.75
409.344	79.75
409.567	90.75
409.791	76.75
410.014	84.75
410.238	91.75
410.461	95.75
410.685	79.75
410.908	79.75
411.132	92.75
411.355	107.75
411.578	99.75
411.802	92.75
412.025	87.75
412.249	85.75
412.472	94.75
412.695	98.75
412.919	82.75
413.142	78.75
413.365	89.75
413.589	90.75
413.812	83.75
414.035	92.75
414.258	75.75
414.482	85.75
414.705	87.75
414.928	91.75
415.151	98.75
415.374	73.75
415.597	87.75
415.821	87.75
416.044	95.75
416.267	85.75
416.49	94.75
416.713	100.75
416.936	90.75
417.159	84.75
417.382	85.75
417.605	87.75
417.828	78.75
418.051	82.75
418.274	82.75
418.497	78.75
418.72	86.75
418.943	78.75
419.166	82.75
419.389	78.75
419.611	85.75
419.834	87.75
420.057	93.75
420.28	79.75
420.503	70.75
420.726	88.75
420.948	90.75
421.171	87.75
421.394	95.75
421.617	77.75
421.839	81.75
422.062	106.75
422.285	76.75
422.507	84.75
422.73	94.75
422.953	90.75
423.175	79.75
423.398	82.75
423.621	72.75
423.843	75.75
424.066	72.75
424.288	72.75
424.511	83.75
424.733	80.75
424.956	98.75
425.178	82.75
425.401	90.75
425.623	91.75
425.846	91.75
426.068	96.75
426.291	81.75
426.513	93.75
426.735	82.75
426.958	74.75
427.18	89.75
427.402	117.75
427.625	129.75
427.847	93.75
428.069	95.75
428.292	87.75
428.514	89.75
428.736	85.75
428.958	72.75
429.181	76.75
429.403	71.75
429.625	87.75
429.847	97.75
430.069	84.75
430.292	78.75
430.514	91.75
430.736	74.75
430.958	94.75
431.18	72.75
431.402	76.75
431.624	69.75
431.846	74.75
432.068	78.75
432.29	90.75
432.512	85.75
432.734	82.75
432.956	81.75
433.178	102.75
433.4	80.75
433.622	87.75
433.844	100.75
434.066	106.75
434.287	81.75
434.509	95.75
434.731	99.75
434.953	67.75
435.175	66.75
435.397	87.75
435.618	84.75
435.84	106.75
436.062	109.75
436.284	99.75
436.505	86.75
436.727	74.75
436.949	72.75
437.17	72.75
437.392	86.75
437.614	90.75
437.835	86.75
438.057	102.75
438.278	98.75
438.5	97.75
438.721	97.75
438.943	97.75
439.165	85.75
439.386	83.75
439.608	78.75
439.829	87.75
440.05	104.75
440.272	119.75
440.493	101.75
440.715	86.75
440.936	79.75
441.158	99.75
441.379	88.75
441.6	90.75
441.822	75.75
442.043	90.75
442.264	94.75
442.486	91.75
442.707	89.75
442.928	92.75
443.149	104.75
443.371	100.75
443.592	86.75
443.813	111.75
444.034	99.75
444.255	86.75
444.476	86.75
444.698	76.75
444.919	91.75
445.14	126.75
445.361	105.75
445.582	104.75
445.803	105.75
446.024	102.75
446.245	104.75
446.466	107.75
446.687	90.75
446.908	75.75
447.129	83.75
447.35	83.75
447.571	86.75
447.792	93.75
448.013	84.75
448.234	79.75
448.455	83.75
448.675	90.75
448.896	85.75
449.117	94.75
449.338	88.75
449.559	111.75
449.779	114.75
450	84.75
450.221	78.75
450.442	92.75
450.662	86.75
450.883	79.75
451.104	100.75
451.324	98.75
451.545	73.75
451.766	77.75
451.986	81.75
452.207	80.75
452.428	90.75
452.648	94.75
452.869	88.75
453.089	93.75
453.31	105.75
453.53	90.75
453.751	84.75
453.971	84.75
454.192	99.75
454.412	92.75
454.633	78.75
454.853	86.75
455.073	86.75
455.294	91.75
455.514	84.75
455.734	78.75
455.955	90.75
456.175	81.75
456.395	88.75
456.616	90.75
456.836	92.75
457.056	84.75
457.276	92.75
457.497	83.75
457.717	83.75
457.937	81.75
458.157	84.75
458.377	91.75
458.598	92.75
458.818	109.75
459.038	126.75
459.258	94.75
459.478	102.75
459.698	77.75
459.918	70.75
460.138	79.75
460.358	93.75
460.578	82.75
460.798	85.75
461.018	80.75
461.238	74.75
461.458	84.75
461.678	87.75
461.898	70.75
462.118	84.75
462.338	79.75
462.558	95.75
462.777	83.75
462.997	76.75
463.217	73.75
463.437	68.75
463.657	76.75
463.876	87.75
464.096	86.75
464.316	81.75
464.536	91.75
464.755	70.75
464.975	74.75
465.195	121.75
465.414	129.75
465.634	85.75
465.854	91.75
466.073	85.75
466.293	83.75
466.512	83.75
466.732	80.75
466.951	79.75
467.171	83.75
467.391	77.75
467.61	91.75
467.829	74.75
468.049	78.75
468.268	92.75
468.488	87.75
468.707	70.75
468.927	74.75
469.146	73.75
469.365	92.75
469.585	89.75
469.804	76.75
470.023	86.75
470.243	105.75
470.462	96.75
470.681	90.75
470.901	97.75
471.12	90.75
471.339	80.75
471.558	67.75
471.777	87.75
471.997	79.75
472.216	95.75
472.435	131.75
472.654	104.75
472.873	91.75
473.092	80.75
473.311	76.75
473.53	86.75
473.749	89.75
473.968	86.75
474.187	93.75
474.406	79.75
474.625	83.75
474.844	72.75
475.063	92.75
475.282	88.75
475.501	89.75
475.72	97.75
475.939	93.75
476.158	81.75
476.377	75.75
476.596	92.75
476.814	89.75
477.033	86.75
477.252	106.75
477.471	84.75
477.69	90.75
477.908	85.75
478.127	82.75
478.346	94.75
478.564	71.75
478.783	58.75
479.002	98.75
479.22	91.75
479.439	102.75
479.658	102.75
479.876	86.75
480.095	90.75
480.313	78.75
480.532	95.75
480.751	75.75
480.969	101.75
481.188	153.75
481.406	110.75
481.624	83.75
481.843	81.75
482.061	91.75
482.28	95.75
482.498	76.75
482.717	96.75
482.935	85.75
483.153	99.75
483.372	98.75
483.59	99.75
483.808	87.75
484.027	76.75
484.245	72.75
484.463	76.75
484.681	101.75
484.9	83.75
485.118	92.75
485.336	89.75
485.554	91.75
485.772	97.75
485.99	92.75
486.209	118.75
486.427	106.75
486.645	103.75
486.863	98.75
487.081	103.75
487.299	100.75
487.517	97.75
487.735	84.75
487.953	79.75
488.171	84.75
488.389	84.75
488.607	82.75
488.825	85.75
489.043	90.75
489.261	80.75
489.479	82.75
489.696	77.75
489.914	98.75
490.132	91.75
490.35	83.75
490.568	87.75
490.786	67.75
491.003	80.75
491.221	91.75
491.439	74.75
491.657	93.75
491.874	95.75
492.092	93.75
492.31	78.75
492.527	93.75
492.745	85.75
492.963	90.75
493.18	98.75
493.398	101.75
493.615	100.75
493.833	87.75
494.05	70.75
494.268	83.75
494.485	90.75
494.703	94.75
494.92	92.75
495.138	83.75
495.355	104.75
495.573	90.75
495.79	81.75
496.008	93.75
496.225	86.75
496.442	79.75
496.66	91.75
496.877	67.75
497.094	80.75
497.312	87.75
497.529	74.75
497.746	77.75
497.963	82.75
498.181	89.75
498.398	102.75
498.615	83.75
498.832	106.75
499.049	85.75
499.267	85.75
499.484	78.75
499.701	92.75
499.918	86.75
500.135	87.75
500.352	99.75
500.569	97.75
500.786	95.75
501.003	93.75
501.22	94.75
501.437	103.75
501.654	84.75
501.871	90.75
502.088	83.75
502.305	97.75
502.522	93.75
502.739	73.75
502.956	82.75
503.172	87.75
503.389	78.75
503.606	88.75
503.823	91.75
504.04	94.75
504.256	85.75
504.473	88.75
504.69	76.75
504.907	98.75
505.123	97.75
505.34	101.75
505.557	93.75
505.773	97.75
505.99	95.75
506.207	93.75
506.423	90.75
506.64	76.75
506.856	99.75
507.073	95.75
507.289	92.75
507.506	88.75
507.722	92.75
507.939	99.75
508.155	84.75
508.372	101.75
508.588	92.75
508.805	93.75
509.021	89.75
509.238	84.75
509.454	85.75
509.67	82.75
509.887	88.75
510.103	99.75
510.319	179.75
510.536	549.75
510.752	1571.75
510.968	469.75
511.184	120.75
511.401	103.75
511.617	88.75
511.833	78.75
512.049	83.75
512.265	90.75
512.481	82.75
512.698	88.75
512.914	81.75
513.13	107.75
513.346	98.75
513.562	94.75
513.778	96.75
513.994	90.75
514.21	94.75
514.426	91.75
514.642	116.75
514.858	98.75
515.074	141.75
515.29	311.75
515.506	897.75
515.721	340.75
515.937	134.75
516.153	110.75
516.369	98.75
516.585	94.75
516.801	108.75
517.016	90.75
517.232	87.75
517.448	85.75
517.664	86.75
