Data from Uncirc_2009_H10_HRD10591_00053.txt Node
Date: Wed Jan 03 10:12:12 EST 2024
User: Yrep
Spectrometer: HR+D1059
Trigger mode: 1
Integration Time (sec): 1.000000E-1
Scans to average: 1
Electric dark correction enabled: true
Nonlinearity correction enabled: false
Boxcar width: 0
XAxis mode: Wavelengths
Number of Pixels in Spectrum: 2048
>>>>>Begin Spectral Data<<<<<
223.165	-17.75
223.4	-17.75
223.635	-17.75
223.869	-17.75
224.104	-21.75
224.338	-8.75
224.573	0.25
224.808	-21.75
225.042	-23.75
225.277	-4.75
225.511	5.25
225.746	4.25
225.98	6.25
226.215	18.25
226.449	20.25
226.683	16.25
226.918	18.25
227.152	27.25
227.387	41.25
227.621	41.25
227.856	40.25
228.09	38.25
228.324	60.25
228.559	53.25
228.793	48.25
229.027	79.25
229.262	60.25
229.496	77.25
229.73	82.25
229.964	77.25
230.199	79.25
230.433	72.25
230.667	68.25
230.901	87.25
231.136	77.25
231.37	74.25
231.604	74.25
231.838	61.25
232.072	72.25
232.306	70.25
232.541	89.25
232.775	76.25
233.009	84.25
233.243	64.25
233.477	89.25
233.711	99.25
233.945	82.25
234.179	77.25
234.413	83.25
234.647	75.25
234.881	77.25
235.115	78.25
235.349	87.25
235.583	76.25
235.817	96.25
236.051	79.25
236.285	76.25
236.519	86.25
236.753	81.25
236.987	71.25
237.221	74.25
237.455	58.25
237.689	79.25
237.922	85.25
238.156	69.25
238.39	73.25
238.624	87.25
238.858	72.25
239.091	80.25
239.325	73.25
239.559	78.25
239.793	88.25
240.027	77.25
240.26	62.25
240.494	68.25
240.728	60.25
240.961	57.25
241.195	81.25
241.429	68.25
241.662	68.25
241.896	80.25
242.13	70.25
242.363	69.25
242.597	75.25
242.83	84.25
243.064	67.25
243.298	81.25
243.531	91.25
243.765	68.25
243.998	80.25
244.232	77.25
244.465	77.25
244.699	81.25
244.932	76.25
245.166	81.25
245.399	68.25
245.633	76.25
245.866	75.25
246.099	73.25
246.333	87.25
246.566	88.25
246.8	86.25
247.033	78.25
247.266	79.25
247.5	71.25
247.733	85.25
247.966	79.25
248.2	81.25
248.433	76.25
248.666	68.25
248.899	94.25
249.133	77.25
249.366	81.25
249.599	87.25
249.832	84.25
250.066	75.25
250.299	69.25
250.532	70.25
250.765	80.25
250.998	82.25
251.231	68.25
251.465	75.25
251.698	71.25
251.931	81.25
252.164	87.25
252.397	79.25
252.63	65.25
252.863	76.25
253.096	73.25
253.329	71.25
253.562	74.25
253.795	79.25
254.028	75.25
254.261	65.25
254.494	74.25
254.727	82.25
254.96	88.25
255.193	79.25
255.426	77.25
255.659	81.25
255.892	81.25
256.124	71.25
256.357	80.25
256.59	76.25
256.823	71.25
257.056	69.25
257.289	76.25
257.521	77.25
257.754	73.25
257.987	70.25
258.22	79.25
258.452	82.25
258.685	74.25
258.918	85.25
259.151	76.25
259.383	72.25
259.616	88.25
259.849	59.25
260.081	89.25
260.314	69.25
260.547	82.25
260.779	88.25
261.012	85.25
261.244	80.25
261.477	72.25
261.71	82.25
261.942	93.25
262.175	86.25
262.407	107.25
262.64	76.25
262.872	86.25
263.105	86.25
263.337	82.25
263.57	84.25
263.802	85.25
264.035	73.25
264.267	77.25
264.499	82.25
264.732	70.25
264.964	80.25
265.197	74.25
265.429	88.25
265.661	85.25
265.894	76.25
266.126	70.25
266.358	83.25
266.591	93.25
266.823	72.25
267.055	87.25
267.287	81.25
267.52	75.25
267.752	90.25
267.984	81.25
268.216	93.25
268.448	93.25
268.681	90.25
268.913	71.25
269.145	90.25
269.377	79.25
269.609	89.25
269.841	70.25
270.073	89.25
270.306	72.25
270.538	92.25
270.77	84.25
271.002	88.25
271.234	82.25
271.466	77.25
271.698	93.25
271.93	94.25
272.162	93.25
272.394	72.25
272.626	73.25
272.858	91.25
273.09	73.25
273.322	92.25
273.553	82.25
273.785	92.25
274.017	86.25
274.249	75.25
274.481	88.25
274.713	74.25
274.945	82.25
275.176	79.25
275.408	79.25
275.64	100.25
275.872	87.25
276.104	92.25
276.335	90.25
276.567	92.25
276.799	102.25
277.031	95.25
277.262	97.25
277.494	75.25
277.726	72.25
277.957	98.25
278.189	88.25
278.421	72.25
278.652	78.25
278.884	75.25
279.115	85.25
279.347	76.25
279.579	81.25
279.81	78.25
280.042	89.25
280.273	87.25
280.505	80.25
280.736	81.25
280.968	88.25
281.199	73.25
281.431	80.25
281.662	74.25
281.894	86.25
282.125	105.25
282.356	102.25
282.588	110.25
282.819	108.25
283.051	89.25
283.282	80.25
283.513	82.25
283.745	81.25
283.976	92.25
284.207	103.25
284.439	93.25
284.67	97.25
284.901	81.25
285.132	80.25
285.364	93.25
285.595	109.25
285.826	89.25
286.057	93.25
286.288	82.25
286.52	76.25
286.751	88.25
286.982	89.25
287.213	93.25
287.444	89.25
287.675	92.25
287.906	82.25
288.138	98.25
288.369	94.25
288.6	94.25
288.831	85.25
289.062	87.25
289.293	85.25
289.524	85.25
289.755	84.25
289.986	79.25
290.217	89.25
290.448	98.25
290.679	93.25
290.91	77.25
291.141	87.25
291.371	86.25
291.602	92.25
291.833	86.25
292.064	81.25
292.295	81.25
292.526	86.25
292.757	84.25
292.987	86.25
293.218	72.25
293.449	86.25
293.68	87.25
293.91	85.25
294.141	77.25
294.372	94.25
294.603	87.25
294.833	95.25
295.064	98.25
295.295	85.25
295.525	82.25
295.756	95.25
295.987	109.25
296.217	136.25
296.448	103.25
296.679	90.25
296.909	85.25
297.14	77.25
297.37	88.25
297.601	86.25
297.831	100.25
298.062	91.25
298.292	88.25
298.523	98.25
298.753	76.25
298.984	86.25
299.214	78.25
299.445	102.25
299.675	92.25
299.905	104.25
300.136	92.25
300.366	84.25
300.597	85.25
300.827	92.25
301.057	101.25
301.288	104.25
301.518	110.25
301.748	73.25
301.979	101.25
302.209	103.25
302.439	96.25
302.669	97.25
302.9	76.25
303.13	92.25
303.36	109.25
303.59	124.25
303.82	108.25
304.051	96.25
304.281	82.25
304.511	88.25
304.741	93.25
304.971	79.25
305.201	90.25
305.431	85.25
305.661	95.25
305.891	94.25
306.121	102.25
306.352	92.25
306.582	101.25
306.812	90.25
307.042	90.25
307.272	91.25
307.502	94.25
307.731	96.25
307.961	81.25
308.191	92.25
308.421	95.25
308.651	100.25
308.881	94.25
309.111	86.25
309.341	94.25
309.571	100.25
309.8	90.25
310.03	82.25
310.26	85.25
310.49	79.25
310.72	89.25
310.949	95.25
311.179	96.25
311.409	82.25
311.639	93.25
311.868	88.25
312.098	96.25
312.328	89.25
312.557	104.25
312.787	90.25
313.017	103.25
313.246	97.25
313.476	97.25
313.706	92.25
313.935	100.25
314.165	98.25
314.394	95.25
314.624	97.25
314.853	106.25
315.083	102.25
315.312	96.25
315.542	97.25
315.771	85.25
316.001	90.25
316.23	96.25
316.46	88.25
316.689	91.25
316.919	82.25
317.148	84.25
317.377	109.25
317.607	112.25
317.836	113.25
318.065	101.25
318.295	94.25
318.524	87.25
318.753	93.25
318.983	97.25
319.212	94.25
319.441	93.25
319.67	107.25
319.9	86.25
320.129	101.25
320.358	93.25
320.587	88.25
320.816	78.25
321.046	95.25
321.275	101.25
321.504	93.25
321.733	99.25
321.962	98.25
322.191	104.25
322.42	109.25
322.649	109.25
322.878	113.25
323.108	117.25
323.337	125.25
323.566	119.25
323.795	137.25
324.024	170.25
324.253	324.25
324.482	675.25
324.71	1386.25
324.939	1780.25
325.168	682.25
325.397	218.25
325.626	146.25
325.855	136.25
326.084	133.25
326.313	128.25
326.542	174.25
326.77	215.25
326.999	391.25
327.228	808.25
327.457	1412.25
327.686	1129.25
327.914	317.25
328.143	164.25
328.372	117.25
328.6	109.25
328.829	109.25
329.058	104.25
329.287	116.25
329.515	128.25
329.744	97.25
329.972	105.25
330.201	101.25
330.43	110.25
330.658	110.25
330.887	116.25
331.115	120.25
331.344	92.25
331.572	100.25
331.801	117.25
332.03	102.25
332.258	80.25
332.486	89.25
332.715	94.25
332.943	84.25
333.172	94.25
333.4	104.25
333.629	128.25
333.857	112.25
334.085	118.25
334.314	103.25
334.542	106.25
334.771	114.25
334.999	90.25
335.227	94.25
335.455	104.25
335.684	84.25
335.912	91.25
336.14	101.25
336.369	94.25
336.597	81.25
336.825	91.25
337.053	92.25
337.281	98.25
337.51	108.25
337.738	93.25
337.966	79.25
338.194	82.25
338.422	93.25
338.65	99.25
338.878	92.25
339.106	81.25
339.334	87.25
339.562	84.25
339.79	77.25
340.018	88.25
340.246	85.25
340.474	89.25
340.702	91.25
340.93	73.25
341.158	84.25
341.386	86.25
341.614	77.25
341.842	102.25
342.07	87.25
342.298	78.25
342.526	88.25
342.754	84.25
342.981	82.25
343.209	105.25
343.437	92.25
343.665	83.25
343.893	90.25
344.12	97.25
344.348	94.25
344.576	84.25
344.804	95.25
345.031	89.25
345.259	90.25
345.487	101.25
345.714	95.25
345.942	104.25
346.17	104.25
346.397	90.25
346.625	94.25
346.853	94.25
347.08	81.25
347.308	94.25
347.535	90.25
347.763	94.25
347.99	89.25
348.218	105.25
348.445	95.25
348.673	84.25
348.9	87.25
349.128	100.25
349.355	96.25
349.583	83.25
349.81	83.25
350.037	88.25
350.265	89.25
350.492	108.25
350.72	81.25
350.947	103.25
351.174	104.25
351.402	109.25
351.629	95.25
351.856	90.25
352.083	90.25
352.311	103.25
352.538	87.25
352.765	100.25
352.992	109.25
353.22	104.25
353.447	101.25
353.674	107.25
353.901	98.25
354.128	81.25
354.355	87.25
354.583	99.25
354.81	98.25
355.037	87.25
355.264	94.25
355.491	93.25
355.718	86.25
355.945	96.25
356.172	105.25
356.399	90.25
356.626	100.25
356.853	79.25
357.08	91.25
357.307	92.25
357.534	94.25
357.761	94.25
357.988	85.25
358.215	93.25
358.441	90.25
358.668	103.25
358.895	82.25
359.122	85.25
359.349	92.25
359.576	96.25
359.802	90.25
360.029	104.25
360.256	103.25
360.483	93.25
360.709	82.25
360.936	113.25
361.163	93.25
361.39	90.25
361.616	89.25
361.843	77.25
362.07	77.25
362.296	101.25
362.523	100.25
362.749	96.25
362.976	94.25
363.203	96.25
363.429	102.25
363.656	84.25
363.882	82.25
364.109	98.25
364.335	81.25
364.562	100.25
364.788	81.25
365.015	85.25
365.241	101.25
365.468	94.25
365.694	102.25
365.92	92.25
366.147	86.25
366.373	79.25
366.599	97.25
366.826	98.25
367.052	90.25
367.278	89.25
367.505	88.25
367.731	104.25
367.957	91.25
368.184	96.25
368.41	86.25
368.636	96.25
368.862	117.25
369.089	95.25
369.315	96.25
369.541	94.25
369.767	95.25
369.993	80.25
370.219	84.25
370.445	69.25
370.672	88.25
370.898	86.25
371.124	85.25
371.35	67.25
371.576	76.25
371.802	89.25
372.028	92.25
372.254	88.25
372.48	76.25
372.706	99.25
372.932	101.25
373.158	101.25
373.384	81.25
373.61	96.25
373.835	90.25
374.061	95.25
374.287	89.25
374.513	76.25
374.739	91.25
374.965	99.25
375.191	84.25
375.416	101.25
375.642	98.25
375.868	77.25
376.094	88.25
376.319	73.25
376.545	96.25
376.771	92.25
376.997	85.25
377.222	93.25
377.448	97.25
377.674	101.25
377.899	97.25
378.125	92.25
378.35	106.25
378.576	95.25
378.802	94.25
379.027	90.25
379.253	91.25
379.478	95.25
379.704	81.25
379.929	88.25
380.155	92.25
380.38	91.25
380.606	102.25
380.831	95.25
381.057	104.25
381.282	95.25
381.507	84.25
381.733	87.25
381.958	90.25
382.184	100.25
382.409	106.25
382.634	86.25
382.86	106.25
383.085	92.25
383.31	112.25
383.535	97.25
383.761	89.25
383.986	100.25
384.211	96.25
384.436	97.25
384.662	99.25
384.887	84.25
385.112	97.25
385.337	96.25
385.562	88.25
385.787	111.25
386.013	90.25
386.238	122.25
386.463	114.25
386.688	95.25
386.913	102.25
387.138	99.25
387.363	92.25
387.588	97.25
387.813	97.25
388.038	101.25
388.263	108.25
388.488	104.25
388.713	104.25
388.938	96.25
389.163	97.25
389.387	112.25
389.612	103.25
389.837	77.25
390.062	86.25
390.287	90.25
390.512	87.25
390.736	90.25
390.961	65.25
391.186	85.25
391.411	94.25
391.636	82.25
391.86	85.25
392.085	78.25
392.31	90.25
392.534	82.25
392.759	88.25
392.984	91.25
393.208	75.25
393.433	92.25
393.658	89.25
393.882	84.25
394.107	94.25
394.331	81.25
394.556	84.25
394.78	93.25
395.005	95.25
395.229	94.25
395.454	84.25
395.678	96.25
395.903	89.25
396.127	103.25
396.352	93.25
396.576	95.25
396.801	90.25
397.025	100.25
397.249	88.25
397.474	97.25
397.698	86.25
397.922	87.25
398.147	94.25
398.371	90.25
398.595	81.25
398.82	90.25
399.044	93.25
399.268	86.25
399.492	91.25
399.717	88.25
399.941	100.25
400.165	86.25
400.389	82.25
400.613	75.25
400.837	88.25
401.062	92.25
401.286	99.25
401.51	81.25
401.734	90.25
401.958	107.25
402.182	100.25
402.406	128.25
402.63	104.25
402.854	98.25
403.078	100.25
403.302	85.25
403.526	105.25
403.75	100.25
403.974	88.25
404.198	91.25
404.422	81.25
404.645	88.25
404.869	91.25
405.093	90.25
405.317	88.25
405.541	104.25
405.765	94.25
405.988	93.25
406.212	133.25
406.436	171.25
406.66	127.25
406.883	89.25
407.107	100.25
407.331	100.25
407.555	85.25
407.778	85.25
408.002	89.25
408.226	92.25
408.449	93.25
408.673	103.25
408.896	90.25
409.12	88.25
409.344	95.25
409.567	98.25
409.791	97.25
410.014	82.25
410.238	87.25
410.461	93.25
410.685	95.25
410.908	87.25
411.132	103.25
411.355	111.25
411.578	86.25
411.802	93.25
412.025	90.25
412.249	84.25
412.472	88.25
412.695	98.25
412.919	81.25
413.142	80.25
413.365	95.25
413.589	90.25
413.812	100.25
414.035	68.25
414.258	84.25
414.482	95.25
414.705	88.25
414.928	100.25
415.151	83.25
415.374	104.25
415.597	89.25
415.821	87.25
416.044	88.25
416.267	88.25
416.49	90.25
416.713	97.25
416.936	89.25
417.159	83.25
417.382	103.25
417.605	83.25
417.828	98.25
418.051	97.25
418.274	94.25
418.497	107.25
418.72	75.25
418.943	99.25
419.166	86.25
419.389	88.25
419.611	95.25
419.834	79.25
420.057	93.25
420.28	80.25
420.503	99.25
420.726	89.25
420.948	87.25
421.171	101.25
421.394	94.25
421.617	94.25
421.839	89.25
422.062	78.25
422.285	81.25
422.507	112.25
422.73	91.25
422.953	86.25
423.175	86.25
423.398	91.25
423.621	83.25
423.843	91.25
424.066	88.25
424.288	90.25
424.511	95.25
424.733	96.25
424.956	106.25
425.178	91.25
425.401	100.25
425.623	101.25
425.846	92.25
426.068	91.25
426.291	93.25
426.513	80.25
426.735	100.25
426.958	95.25
427.18	88.25
427.402	110.25
427.625	139.25
427.847	118.25
428.069	112.25
428.292	85.25
428.514	103.25
428.736	82.25
428.958	80.25
429.181	96.25
429.403	79.25
429.625	79.25
429.847	94.25
430.069	98.25
430.292	91.25
430.514	88.25
430.736	79.25
430.958	84.25
431.18	81.25
431.402	79.25
431.624	77.25
431.846	91.25
432.068	101.25
432.29	95.25
432.512	83.25
432.734	70.25
432.956	79.25
433.178	103.25
433.4	83.25
433.622	85.25
433.844	76.25
434.066	96.25
434.287	86.25
434.509	86.25
434.731	99.25
434.953	89.25
435.175	73.25
435.397	90.25
435.618	86.25
435.84	94.25
436.062	113.25
436.284	114.25
436.505	100.25
436.727	76.25
436.949	75.25
437.17	82.25
437.392	78.25
437.614	89.25
437.835	103.25
438.057	102.25
438.278	103.25
438.5	92.25
438.721	109.25
438.943	96.25
439.165	88.25
439.386	93.25
439.608	103.25
439.829	95.25
440.05	100.25
440.272	124.25
440.493	83.25
440.715	90.25
440.936	77.25
441.158	76.25
441.379	77.25
441.6	81.25
441.822	88.25
442.043	94.25
442.264	112.25
442.486	78.25
442.707	85.25
442.928	95.25
443.149	121.25
443.371	113.25
443.592	106.25
443.813	107.25
444.034	108.25
444.255	93.25
444.476	75.25
444.698	74.25
444.919	83.25
445.14	131.25
445.361	122.25
445.582	102.25
445.803	104.25
446.024	119.25
446.245	111.25
446.466	100.25
446.687	91.25
446.908	79.25
447.129	79.25
447.35	96.25
447.571	94.25
447.792	94.25
448.013	104.25
448.234	99.25
448.455	80.25
448.675	98.25
448.896	110.25
449.117	104.25
449.338	98.25
449.559	115.25
449.779	111.25
450	87.25
450.221	75.25
450.442	75.25
450.662	92.25
450.883	100.25
451.104	93.25
451.324	77.25
451.545	89.25
451.766	88.25
451.986	77.25
452.207	87.25
452.428	100.25
452.648	112.25
452.869	106.25
453.089	102.25
453.31	107.25
453.53	83.25
453.751	92.25
453.971	91.25
454.192	97.25
454.412	89.25
454.633	89.25
454.853	87.25
455.073	80.25
455.294	74.25
455.514	86.25
455.734	79.25
455.955	90.25
456.175	93.25
456.395	90.25
456.616	81.25
456.836	92.25
457.056	80.25
457.276	73.25
457.497	101.25
457.717	71.25
457.937	84.25
458.157	86.25
458.377	78.25
458.598	109.25
458.818	119.25
459.038	138.25
459.258	125.25
459.478	96.25
459.698	75.25
459.918	82.25
460.138	84.25
460.358	90.25
460.578	104.25
460.798	95.25
461.018	89.25
461.238	87.25
461.458	85.25
461.678	79.25
461.898	73.25
462.118	88.25
462.338	107.25
462.558	79.25
462.777	88.25
462.997	89.25
463.217	76.25
463.437	79.25
463.657	78.25
463.876	78.25
464.096	82.25
464.316	101.25
464.536	87.25
464.755	109.25
464.975	101.25
465.195	141.25
465.414	106.25
465.634	102.25
465.854	84.25
466.073	85.25
466.293	89.25
466.512	84.25
466.732	95.25
466.951	91.25
467.171	86.25
467.391	85.25
467.61	78.25
467.829	95.25
468.049	92.25
468.268	95.25
468.488	86.25
468.707	88.25
468.927	82.25
469.146	91.25
469.365	92.25
469.585	83.25
469.804	87.25
470.023	95.25
470.243	93.25
470.462	86.25
470.681	89.25
470.901	78.25
471.12	79.25
471.339	78.25
471.558	83.25
471.777	85.25
471.997	97.25
472.216	113.25
472.435	129.25
472.654	85.25
472.873	85.25
473.092	82.25
473.311	89.25
473.53	86.25
473.749	95.25
473.968	79.25
474.187	91.25
474.406	85.25
474.625	98.25
474.844	84.25
475.063	87.25
475.282	82.25
475.501	84.25
475.72	97.25
475.939	88.25
476.158	93.25
476.377	85.25
476.596	84.25
476.814	58.25
477.033	85.25
477.252	89.25
477.471	95.25
477.69	80.25
477.908	91.25
478.127	91.25
478.346	76.25
478.564	100.25
478.783	82.25
479.002	88.25
479.22	84.25
479.439	85.25
479.658	94.25
479.876	72.25
480.095	96.25
480.313	85.25
480.532	82.25
480.751	85.25
480.969	108.25
481.188	171.25
481.406	117.25
481.624	94.25
481.843	92.25
482.061	78.25
482.28	87.25
482.498	91.25
482.717	80.25
482.935	96.25
483.153	92.25
483.372	87.25
483.59	94.25
483.808	75.25
484.027	82.25
484.245	85.25
484.463	92.25
484.681	110.25
484.9	99.25
485.118	108.25
485.336	84.25
485.554	93.25
485.772	96.25
485.99	104.25
486.209	105.25
486.427	105.25
486.645	126.25
486.863	110.25
487.081	97.25
487.299	93.25
487.517	91.25
487.735	98.25
487.953	90.25
488.171	88.25
488.389	108.25
488.607	96.25
488.825	87.25
489.043	96.25
489.261	75.25
489.479	92.25
489.696	91.25
489.914	86.25
490.132	89.25
490.35	81.25
490.568	74.25
490.786	81.25
491.003	94.25
491.221	87.25
491.439	102.25
491.657	92.25
491.874	89.25
492.092	89.25
492.31	94.25
492.527	90.25
492.745	81.25
492.963	90.25
493.18	89.25
493.398	93.25
493.615	97.25
493.833	98.25
494.05	89.25
494.268	83.25
494.485	92.25
494.703	80.25
494.92	91.25
495.138	80.25
495.355	97.25
495.573	89.25
495.79	90.25
496.008	90.25
496.225	81.25
496.442	86.25
496.66	91.25
496.877	91.25
497.094	92.25
497.312	90.25
497.529	81.25
497.746	81.25
497.963	91.25
498.181	92.25
498.398	98.25
498.615	98.25
498.832	95.25
499.049	82.25
499.267	86.25
499.484	74.25
499.701	87.25
499.918	76.25
500.135	93.25
500.352	90.25
500.569	78.25
500.786	87.25
501.003	80.25
501.22	74.25
501.437	94.25
501.654	90.25
501.871	106.25
502.088	89.25
502.305	97.25
502.522	84.25
502.739	96.25
502.956	70.25
503.172	86.25
503.389	82.25
503.606	88.25
503.823	86.25
504.04	103.25
504.256	80.25
504.473	98.25
504.69	79.25
504.907	93.25
505.123	80.25
505.34	94.25
505.557	72.25
505.773	80.25
505.99	94.25
506.207	88.25
506.423	90.25
506.64	92.25
506.856	98.25
507.073	79.25
507.289	86.25
507.506	87.25
507.722	94.25
507.939	113.25
508.155	95.25
508.372	86.25
508.588	94.25
508.805	97.25
509.021	101.25
509.238	90.25
509.454	98.25
509.67	86.25
509.887	98.25
510.103	95.25
510.319	163.25
510.536	530.25
510.752	1657.25
510.968	488.25
511.184	148.25
511.401	95.25
511.617	89.25
511.833	86.25
512.049	78.25
512.265	86.25
512.481	81.25
512.698	81.25
512.914	81.25
513.13	106.25
513.346	95.25
513.562	94.25
513.778	83.25
513.994	108.25
514.21	80.25
514.426	99.25
514.642	118.25
514.858	111.25
515.074	133.25
515.29	313.25
515.506	982.25
515.721	400.25
515.937	123.25
516.153	86.25
516.369	85.25
