Data from Uncirc_2009_H10_HRD10591_00062.txt Node
Date: Wed Jan 03 10:12:14 EST 2024
User: Yrep
Spectrometer: HR+D1059
Trigger mode: 1
Integration Time (sec): 1.000000E-1
Scans to average: 1
Electric dark correction enabled: true
Nonlinearity correction enabled: false
Boxcar width: 0
XAxis mode: Wavelengths
Number of Pixels in Spectrum: 2048
>>>>>Begin Spectral Data<<<<<
223.165	-19.31
223.4	-19.31
223.635	-19.31
223.869	-18.31
224.104	-14.31
224.338	-26.31
224.573	5.69
224.808	-24.31
225.042	-17.31
225.277	2.69
225.511	1.69
225.746	1.69
225.98	8.69
226.215	5.69
226.449	13.69
226.683	17.69
226.918	31.69
227.152	30.69
227.387	50.69
227.621	26.69
227.856	46.69
228.09	46.69
228.324	44.69
228.559	61.69
228.793	55.69
229.027	58.69
229.262	63.69
229.496	62.69
229.73	81.69
229.964	76.69
230.199	62.69
230.433	77.69
230.667	75.69
230.901	74.69
231.136	87.69
231.37	80.69
231.604	82.69
231.838	79.69
232.072	67.69
232.306	88.69
232.541	81.69
232.775	74.69
233.009	73.69
233.243	83.69
233.477	80.69
233.711	98.69
233.945	70.69
234.179	80.69
234.413	87.69
234.647	55.69
234.881	76.69
235.115	74.69
235.349	88.69
235.583	94.69
235.817	91.69
236.051	86.69
236.285	73.69
236.519	74.69
236.753	82.69
236.987	67.69
237.221	87.69
237.455	84.69
237.689	76.69
237.922	84.69
238.156	75.69
238.39	85.69
238.624	63.69
238.858	65.69
239.091	77.69
239.325	73.69
239.559	63.69
239.793	86.69
240.027	69.69
240.26	77.69
240.494	72.69
240.728	90.69
240.961	77.69
241.195	98.69
241.429	80.69
241.662	86.69
241.896	70.69
242.13	62.69
242.363	75.69
242.597	75.69
242.83	77.69
243.064	71.69
243.298	75.69
243.531	85.69
243.765	82.69
243.998	80.69
244.232	64.69
244.465	76.69
244.699	87.69
244.932	70.69
245.166	79.69
245.399	71.69
245.633	78.69
245.866	78.69
246.099	82.69
246.333	72.69
246.566	79.69
246.8	88.69
247.033	76.69
247.266	85.69
247.5	78.69
247.733	82.69
247.966	85.69
248.2	83.69
248.433	71.69
248.666	80.69
248.899	89.69
249.133	81.69
249.366	85.69
249.599	102.69
249.832	76.69
250.066	73.69
250.299	77.69
250.532	85.69
250.765	73.69
250.998	80.69
251.231	68.69
251.465	79.69
251.698	69.69
251.931	87.69
252.164	86.69
252.397	79.69
252.63	82.69
252.863	85.69
253.096	79.69
253.329	75.69
253.562	84.69
253.795	74.69
254.028	68.69
254.261	91.69
254.494	92.69
254.727	76.69
254.96	90.69
255.193	90.69
255.426	73.69
255.659	82.69
255.892	72.69
256.124	80.69
256.357	76.69
256.59	80.69
256.823	78.69
257.056	78.69
257.289	75.69
257.521	91.69
257.754	78.69
257.987	79.69
258.22	79.69
258.452	80.69
258.685	79.69
258.918	76.69
259.151	85.69
259.383	78.69
259.616	78.69
259.849	76.69
260.081	82.69
260.314	74.69
260.547	78.69
260.779	77.69
261.012	67.69
261.244	82.69
261.477	94.69
261.71	87.69
261.942	98.69
262.175	100.69
262.407	75.69
262.64	78.69
262.872	80.69
263.105	83.69
263.337	78.69
263.57	86.69
263.802	86.69
264.035	85.69
264.267	71.69
264.499	86.69
264.732	94.69
264.964	87.69
265.197	94.69
265.429	90.69
265.661	88.69
265.894	92.69
266.126	78.69
266.358	84.69
266.591	89.69
266.823	71.69
267.055	75.69
267.287	74.69
267.52	90.69
267.752	89.69
267.984	87.69
268.216	86.69
268.448	75.69
268.681	82.69
268.913	73.69
269.145	84.69
269.377	78.69
269.609	83.69
269.841	79.69
270.073	92.69
270.306	79.69
270.538	86.69
270.77	98.69
271.002	93.69
271.234	100.69
271.466	100.69
271.698	92.69
271.93	82.69
272.162	68.69
272.394	90.69
272.626	85.69
272.858	75.69
273.09	86.69
273.322	91.69
273.553	81.69
273.785	84.69
274.017	80.69
274.249	74.69
274.481	82.69
274.713	89.69
274.945	104.69
275.176	98.69
275.408	81.69
275.64	84.69
275.872	69.69
276.104	81.69
276.335	78.69
276.567	88.69
276.799	94.69
277.031	91.69
277.262	95.69
277.494	90.69
277.726	91.69
277.957	92.69
278.189	86.69
278.421	79.69
278.652	92.69
278.884	85.69
279.115	97.69
279.347	91.69
279.579	105.69
279.81	90.69
280.042	86.69
280.273	82.69
280.505	83.69
280.736	85.69
280.968	90.69
281.199	97.69
281.431	79.69
281.662	81.69
281.894	90.69
282.125	100.69
282.356	87.69
282.588	120.69
282.819	111.69
283.051	105.69
283.282	89.69
283.513	99.69
283.745	101.69
283.976	95.69
284.207	101.69
284.439	95.69
284.67	95.69
284.901	89.69
285.132	96.69
285.364	96.69
285.595	76.69
285.826	80.69
286.057	91.69
286.288	88.69
286.52	86.69
286.751	86.69
286.982	97.69
287.213	86.69
287.444	81.69
287.675	77.69
287.906	92.69
288.138	80.69
288.369	84.69
288.6	77.69
288.831	91.69
289.062	83.69
289.293	94.69
289.524	80.69
289.755	92.69
289.986	94.69
290.217	88.69
290.448	86.69
290.679	96.69
290.91	80.69
291.141	81.69
291.371	92.69
291.602	77.69
291.833	80.69
292.064	80.69
292.295	79.69
292.526	84.69
292.757	87.69
292.987	85.69
293.218	87.69
293.449	89.69
293.68	89.69
293.91	88.69
294.141	95.69
294.372	75.69
294.603	100.69
294.833	96.69
295.064	104.69
295.295	90.69
295.525	98.69
295.756	118.69
295.987	111.69
296.217	122.69
296.448	119.69
296.679	82.69
296.909	93.69
297.14	102.69
297.37	88.69
297.601	79.69
297.831	72.69
298.062	89.69
298.292	81.69
298.523	81.69
298.753	111.69
298.984	88.69
299.214	82.69
299.445	92.69
299.675	89.69
299.905	81.69
300.136	89.69
300.366	82.69
300.597	99.69
300.827	100.69
301.057	97.69
301.288	105.69
301.518	104.69
301.748	87.69
301.979	96.69
302.209	84.69
302.439	83.69
302.669	79.69
302.9	84.69
303.13	81.69
303.36	100.69
303.59	99.69
303.82	99.69
304.051	113.69
304.281	93.69
304.511	101.69
304.741	94.69
304.971	82.69
305.201	96.69
305.431	92.69
305.661	85.69
305.891	83.69
306.121	80.69
306.352	82.69
306.582	96.69
306.812	95.69
307.042	97.69
307.272	91.69
307.502	93.69
307.731	81.69
307.961	79.69
308.191	85.69
308.421	95.69
308.651	90.69
308.881	89.69
309.111	85.69
309.341	95.69
309.571	90.69
309.8	89.69
310.03	91.69
310.26	93.69
310.49	92.69
310.72	96.69
310.949	101.69
311.179	103.69
311.409	101.69
311.639	93.69
311.868	88.69
312.098	92.69
312.328	87.69
312.557	101.69
312.787	105.69
313.017	105.69
313.246	98.69
313.476	94.69
313.706	96.69
313.935	88.69
314.165	102.69
314.394	96.69
314.624	97.69
314.853	90.69
315.083	89.69
315.312	94.69
315.542	91.69
315.771	90.69
316.001	78.69
316.23	73.69
316.46	86.69
316.689	96.69
316.919	92.69
317.148	97.69
317.377	112.69
317.607	125.69
317.836	126.69
318.065	93.69
318.295	87.69
318.524	94.69
318.753	95.69
318.983	96.69
319.212	94.69
319.441	85.69
319.67	93.69
319.9	76.69
320.129	102.69
320.358	91.69
320.587	85.69
320.816	99.69
321.046	96.69
321.275	97.69
321.504	110.69
321.733	96.69
321.962	97.69
322.191	98.69
322.42	88.69
322.649	97.69
322.878	101.69
323.108	98.69
323.337	106.69
323.566	128.69
323.795	138.69
324.024	182.69
324.253	345.69
324.482	674.69
324.71	1368.69
324.939	1774.69
325.168	660.69
325.397	216.69
325.626	135.69
325.855	116.69
326.084	142.69
326.313	141.69
326.542	166.69
326.77	207.69
326.999	392.69
327.228	801.69
327.457	1354.69
327.686	1131.69
327.914	312.69
328.143	177.69
328.372	134.69
328.6	120.69
328.829	87.69
329.058	118.69
329.287	109.69
329.515	103.69
329.744	109.69
329.972	101.69
330.201	114.69
330.43	116.69
330.658	108.69
330.887	111.69
331.115	98.69
331.344	91.69
331.572	100.69
331.801	90.69
332.03	100.69
332.258	97.69
332.486	86.69
332.715	85.69
332.943	88.69
333.172	113.69
333.4	85.69
333.629	97.69
333.857	104.69
334.085	105.69
334.314	111.69
334.542	126.69
334.771	107.69
334.999	92.69
335.227	81.69
335.455	88.69
335.684	86.69
335.912	100.69
336.14	94.69
336.369	96.69
336.597	92.69
336.825	98.69
337.053	94.69
337.281	91.69
337.51	100.69
337.738	93.69
337.966	94.69
338.194	106.69
338.422	101.69
338.65	90.69
338.878	93.69
339.106	100.69
339.334	92.69
339.562	78.69
339.79	85.69
340.018	96.69
340.246	78.69
340.474	103.69
340.702	88.69
340.93	85.69
341.158	73.69
341.386	80.69
341.614	93.69
341.842	94.69
342.07	92.69
342.298	74.69
342.526	93.69
342.754	93.69
342.981	91.69
343.209	92.69
343.437	91.69
343.665	92.69
343.893	82.69
344.12	94.69
344.348	97.69
344.576	91.69
344.804	87.69
345.031	100.69
345.259	82.69
345.487	88.69
345.714	85.69
345.942	79.69
346.17	82.69
346.397	93.69
346.625	88.69
346.853	75.69
347.08	91.69
347.308	95.69
347.535	97.69
347.763	100.69
347.99	104.69
348.218	110.69
348.445	102.69
348.673	89.69
348.9	82.69
349.128	93.69
349.355	81.69
349.583	85.69
349.81	90.69
350.037	98.69
350.265	107.69
350.492	109.69
350.72	94.69
350.947	98.69
351.174	109.69
351.402	94.69
351.629	94.69
351.856	97.69
352.083	110.69
352.311	103.69
352.538	112.69
352.765	121.69
352.992	113.69
353.22	109.69
353.447	91.69
353.674	96.69
353.901	98.69
354.128	100.69
354.355	102.69
354.583	104.69
354.81	102.69
355.037	97.69
355.264	93.69
355.491	109.69
355.718	97.69
355.945	96.69
356.172	95.69
356.399	83.69
356.626	88.69
356.853	96.69
357.08	79.69
357.307	94.69
357.534	103.69
357.761	88.69
357.988	106.69
358.215	96.69
358.441	107.69
358.668	94.69
358.895	79.69
359.122	89.69
359.349	90.69
359.576	105.69
359.802	94.69
360.029	93.69
360.256	104.69
360.483	109.69
360.709	103.69
360.936	90.69
361.163	86.69
361.39	81.69
361.616	92.69
361.843	100.69
362.07	100.69
362.296	79.69
362.523	95.69
362.749	86.69
362.976	93.69
363.203	89.69
363.429	92.69
363.656	82.69
363.882	100.69
364.109	97.69
364.335	102.69
364.562	92.69
364.788	86.69
365.015	92.69
365.241	96.69
365.468	95.69
365.694	95.69
365.92	89.69
366.147	81.69
366.373	92.69
366.599	100.69
366.826	78.69
367.052	88.69
367.278	101.69
367.505	83.69
367.731	91.69
367.957	77.69
368.184	89.69
368.41	104.69
368.636	87.69
368.862	116.69
369.089	99.69
369.315	88.69
369.541	92.69
369.767	109.69
369.993	86.69
370.219	95.69
370.445	102.69
370.672	82.69
370.898	93.69
371.124	76.69
371.35	94.69
371.576	93.69
371.802	94.69
372.028	85.69
372.254	95.69
372.48	95.69
372.706	78.69
372.932	94.69
373.158	91.69
373.384	103.69
373.61	100.69
373.835	88.69
374.061	76.69
374.287	86.69
374.513	99.69
374.739	86.69
374.965	90.69
375.191	91.69
375.416	79.69
375.642	86.69
375.868	88.69
376.094	88.69
376.319	92.69
376.545	79.69
376.771	82.69
376.997	86.69
377.222	83.69
377.448	94.69
377.674	98.69
377.899	85.69
378.125	97.69
378.35	96.69
378.576	91.69
378.802	75.69
379.027	95.69
379.253	108.69
379.478	95.69
379.704	80.69
379.929	87.69
380.155	108.69
380.38	95.69
380.606	85.69
380.831	96.69
381.057	107.69
381.282	96.69
381.507	102.69
381.733	113.69
381.958	95.69
382.184	100.69
382.409	95.69
382.634	106.69
382.86	105.69
383.085	87.69
383.31	109.69
383.535	105.69
383.761	87.69
383.986	101.69
384.211	86.69
384.436	100.69
384.662	85.69
384.887	95.69
385.112	92.69
385.337	104.69
385.562	109.69
385.787	97.69
386.013	97.69
386.238	103.69
386.463	101.69
386.688	111.69
386.913	99.69
387.138	100.69
387.363	86.69
387.588	94.69
387.813	110.69
388.038	103.69
388.263	110.69
388.488	106.69
388.713	92.69
388.938	109.69
389.163	118.69
389.387	95.69
389.612	108.69
389.837	87.69
390.062	99.69
390.287	81.69
390.512	94.69
390.736	98.69
390.961	104.69
391.186	90.69
391.411	93.69
391.636	87.69
391.86	96.69
392.085	89.69
392.31	82.69
392.534	92.69
392.759	93.69
392.984	92.69
393.208	74.69
393.433	90.69
393.658	85.69
393.882	96.69
394.107	83.69
394.331	85.69
394.556	84.69
394.78	87.69
395.005	89.69
395.229	97.69
395.454	82.69
395.678	91.69
395.903	92.69
396.127	93.69
396.352	81.69
396.576	91.69
396.801	81.69
397.025	87.69
397.249	95.69
397.474	89.69
397.698	89.69
397.922	91.69
398.147	87.69
398.371	85.69
398.595	94.69
398.82	88.69
399.044	75.69
399.268	83.69
399.492	79.69
399.717	82.69
399.941	80.69
400.165	85.69
400.389	83.69
400.613	92.69
400.837	82.69
401.062	81.69
401.286	92.69
401.51	88.69
401.734	79.69
401.958	88.69
402.182	101.69
402.406	126.69
402.63	99.69
402.854	77.69
403.078	87.69
403.302	93.69
403.526	86.69
403.75	86.69
403.974	78.69
404.198	77.69
404.422	80.69
404.645	73.69
404.869	83.69
405.093	102.69
405.317	112.69
405.541	95.69
405.765	88.69
405.988	117.69
406.212	148.69
406.436	170.69
406.66	129.69
406.883	100.69
407.107	92.69
407.331	91.69
407.555	101.69
407.778	97.69
408.002	77.69
408.226	90.69
408.449	88.69
408.673	79.69
408.896	92.69
409.12	97.69
409.344	90.69
409.567	86.69
409.791	86.69
410.014	106.69
410.238	77.69
410.461	94.69
410.685	97.69
410.908	91.69
411.132	97.69
411.355	95.69
411.578	77.69
411.802	95.69
412.025	86.69
412.249	105.69
412.472	87.69
412.695	92.69
412.919	95.69
413.142	85.69
413.365	93.69
413.589	85.69
413.812	88.69
414.035	100.69
414.258	86.69
414.482	86.69
414.705	87.69
414.928	87.69
415.151	90.69
415.374	104.69
415.597	93.69
415.821	84.69
416.044	94.69
416.267	99.69
416.49	84.69
416.713	90.69
416.936	87.69
417.159	84.69
417.382	85.69
417.605	81.69
417.828	92.69
418.051	92.69
418.274	103.69
418.497	88.69
418.72	87.69
418.943	95.69
419.166	96.69
419.389	89.69
419.611	82.69
419.834	77.69
420.057	88.69
420.28	90.69
420.503	92.69
420.726	95.69
420.948	80.69
421.171	79.69
421.394	103.69
421.617	79.69
421.839	85.69
422.062	100.69
422.285	87.69
422.507	89.69
422.73	97.69
422.953	90.69
423.175	103.69
423.398	82.69
423.621	77.69
423.843	94.69
424.066	89.69
424.288	90.69
424.511	98.69
424.733	90.69
424.956	103.69
425.178	103.69
425.401	97.69
425.623	102.69
425.846	98.69
426.068	89.69
426.291	91.69
426.513	81.69
426.735	92.69
426.958	85.69
427.18	89.69
427.402	121.69
427.625	132.69
427.847	120.69
428.069	93.69
428.292	84.69
428.514	82.69
428.736	90.69
428.958	79.69
429.181	83.69
429.403	60.69
429.625	85.69
429.847	86.69
430.069	99.69
430.292	100.69
430.514	80.69
430.736	83.69
430.958	87.69
431.18	86.69
431.402	91.69
431.624	84.69
431.846	85.69
432.068	100.69
432.29	79.69
432.512	89.69
432.734	75.69
432.956	81.69
433.178	94.69
433.4	78.69
433.622	101.69
433.844	81.69
434.066	94.69
434.287	76.69
434.509	102.69
434.731	103.69
434.953	80.69
435.175	74.69
435.397	83.69
435.618	88.69
435.84	92.69
436.062	99.69
436.284	109.69
436.505	86.69
436.727	94.69
436.949	85.69
437.17	82.69
437.392	104.69
437.614	98.69
437.835	85.69
438.057	109.69
438.278	101.69
438.5	94.69
438.721	112.69
438.943	95.69
439.165	88.69
439.386	76.69
439.608	90.69
439.829	80.69
440.05	85.69
440.272	129.69
440.493	105.69
440.715	88.69
440.936	88.69
441.158	93.69
441.379	93.69
441.6	88.69
441.822	91.69
442.043	76.69
442.264	88.69
442.486	101.69
442.707	83.69
442.928	81.69
443.149	119.69
443.371	120.69
443.592	109.69
443.813	103.69
444.034	92.69
444.255	101.69
444.476	101.69
444.698	94.69
444.919	90.69
445.14	113.69
445.361	118.69
445.582	97.69
445.803	111.69
446.024	109.69
446.245	129.69
446.466	101.69
446.687	83.69
446.908	102.69
447.129	92.69
447.35	100.69
447.571	89.69
447.792	89.69
448.013	82.69
448.234	110.69
448.455	90.69
448.675	107.69
448.896	107.69
449.117	94.69
449.338	98.69
449.559	107.69
449.779	118.69
450	97.69
450.221	89.69
450.442	92.69
450.662	97.69
450.883	109.69
451.104	93.69
451.324	98.69
451.545	84.69
451.766	88.69
451.986	79.69
452.207	89.69
452.428	103.69
452.648	103.69
452.869	100.69
453.089	102.69
453.31	96.69
453.53	80.69
453.751	86.69
453.971	99.69
454.192	96.69
454.412	101.69
454.633	101.69
454.853	87.69
455.073	90.69
455.294	89.69
455.514	81.69
455.734	82.69
455.955	87.69
456.175	95.69
456.395	88.69
456.616	94.69
456.836	70.69
457.056	89.69
457.276	77.69
457.497	71.69
457.717	77.69
457.937	103.69
458.157	79.69
458.377	90.69
458.598	100.69
458.818	130.69
459.038	121.69
459.258	112.69
459.478	89.69
459.698	81.69
459.918	104.69
460.138	94.69
460.358	84.69
460.578	85.69
460.798	88.69
461.018	90.69
461.238	89.69
461.458	82.69
461.678	92.69
461.898	74.69
462.118	86.69
462.338	74.69
462.558	80.69
462.777	81.69
462.997	85.69
463.217	79.69
463.437	74.69
463.657	92.69
463.876	82.69
464.096	84.69
464.316	89.69
464.536	96.69
464.755	97.69
464.975	94.69
465.195	125.69
465.414	137.69
465.634	98.69
465.854	100.69
466.073	87.69
466.293	79.69
466.512	87.69
466.732	88.69
466.951	80.69
467.171	100.69
467.391	80.69
467.61	100.69
467.829	88.69
468.049	99.69
468.268	92.69
468.488	84.69
468.707	93.69
468.927	88.69
469.146	74.69
469.365	96.69
469.585	88.69
469.804	95.69
470.023	82.69
470.243	76.69
470.462	75.69
470.681	111.69
470.901	91.69
471.12	104.69
471.339	94.69
471.558	85.69
471.777	74.69
471.997	90.69
472.216	91.69
472.435	126.69
472.654	107.69
472.873	97.69
473.092	100.69
473.311	93.69
473.53	99.69
473.749	106.69
473.968	89.69
474.187	104.69
474.406	75.69
474.625	76.69
474.844	79.69
475.063	88.69
475.282	89.69
475.501	74.69
475.72	76.69
475.939	102.69
476.158	94.69
476.377	86.69
476.596	106.69
476.814	81.69
477.033	94.69
477.252	83.69
477.471	86.69
477.69	106.69
477.908	95.69
478.127	94.69
478.346	86.69
478.564	77.69
478.783	77.69
479.002	92.69
479.22	108.69
479.439	102.69
479.658	96.69
479.876	105.69
480.095	90.69
480.313	92.69
480.532	102.69
480.751	107.69
480.969	107.69
481.188	155.69
481.406	132.69
481.624	89.69
481.843	96.69
482.061	96.69
482.28	90.69
482.498	77.69
482.717	96.69
482.935	80.69
483.153	96.69
483.372	90.69
483.59	88.69
483.808	75.69
484.027	89.69
484.245	104.69
484.463	96.69
484.681	105.69
484.9	88.69
485.118	101.69
485.336	87.69
485.554	79.69
485.772	86.69
485.99	81.69
486.209	101.69
486.427	86.69
486.645	104.69
486.863	114.69
487.081	95.69
487.299	90.69
487.517	92.69
487.735	80.69
487.953	86.69
488.171	95.69
488.389	108.69
488.607	99.69
488.825	89.69
489.043	81.69
489.261	85.69
489.479	81.69
489.696	86.69
489.914	92.69
490.132	80.69
490.35	86.69
490.568	82.69
490.786	99.69
491.003	94.69
491.221	90.69
491.439	80.69
491.657	100.69
491.874	89.69
492.092	105.69
492.31	108.69
492.527	90.69
492.745	74.69
492.963	97.69
493.18	72.69
493.398	91.69
493.615	100.69
493.833	109.69
494.05	83.69
494.268	89.69
494.485	96.69
494.703	92.69
494.92	89.69
495.138	93.69
495.355	81.69
495.573	92.69
495.79	76.69
496.008	85.69
496.225	112.69
496.442	100.69
496.66	111.69
496.877	106.69
497.094	83.69
497.312	92.69
497.529	102.69
497.746	92.69
497.963	98.69
498.181	94.69
498.398	93.69
498.615	109.69
498.832	84.69
499.049	88.69
499.267	84.69
499.484	86.69
499.701	89.69
499.918	74.69
500.135	97.69
500.352	86.69
500.569	90.69
500.786	102.69
501.003	77.69
501.22	90.69
501.437	107.69
501.654	100.69
501.871	105.69
502.088	97.69
502.305	87.69
502.522	106.69
502.739	87.69
502.956	83.69
503.172	86.69
503.389	92.69
503.606	93.69
503.823	101.69
504.04	84.69
504.256	79.69
504.473	88.69
504.69	93.69
504.907	85.69
505.123	95.69
505.34	74.69
505.557	88.69
505.773	101.69
505.99	97.69
506.207	94.69
506.423	88.69
506.64	87.69
506.856	86.69
507.073	84.69
507.289	79.69
507.506	84.69
507.722	105.69
507.939	98.69
508.155	79.69
508.372	95.69
508.588	89.69
508.805	88.69
509.021	78.69
509.238	95.69
509.454	90.69
509.67	100.69
509.887	104.69
510.103	128.69
510.319	185.69
510.536	578.69
510.752	1653.69
510.968	497.69
511.184	141.69
511.401	110.69
511.617	106.69
511.833	96.69
512.049	97.69
512.265	87.69
512.481	88.69
512.698	82.69
512.914	94.69
513.13	92.69
513.346	90.69
513.562	85.69
513.778	87.69
513.994	100.69
514.21	107.69
514.426	111.69
514.642	114.69
514.858	105.69
515.074	139.69
515.29	342.69
515.506	992.69
515.721	391.69
515.937	138.69
