Data from Uncirc_2009_H10_HRD10591_00037.txt Node
Date: Wed Jan 03 10:12:09 EST 2024
User: Yrep
Spectrometer: HR+D1059
Trigger mode: 1
Integration Time (sec): 1.000000E-1
Scans to average: 1
Electric dark correction enabled: true
Nonlinearity correction enabled: false
Boxcar width: 0
XAxis mode: Wavelengths
Number of Pixels in Spectrum: 2048
>>>>>Begin Spectral Data<<<<<
223.165	1.31
223.4	1.31
223.635	1.31
223.869	-12.69
224.104	-33.69
224.338	-20.69
224.573	-12.69
224.808	-26.69
225.042	1.31
225.277	-2.69
225.511	1.31
225.746	4.31
225.98	0.31
226.215	2.31
226.449	11.31
226.683	34.31
226.918	32.31
227.152	20.31
227.387	34.31
227.621	60.31
227.856	39.31
228.09	45.31
228.324	51.31
228.559	55.31
228.793	51.31
229.027	73.31
229.262	63.31
229.496	55.31
229.73	92.31
229.964	79.31
230.199	57.31
230.433	71.31
230.667	90.31
230.901	69.31
231.136	84.31
231.37	79.31
231.604	83.31
231.838	72.31
232.072	87.31
232.306	97.31
232.541	98.31
232.775	74.31
233.009	81.31
233.243	75.31
233.477	76.31
233.711	99.31
233.945	76.31
234.179	73.31
234.413	89.31
234.647	81.31
234.881	81.31
235.115	81.31
235.349	83.31
235.583	90.31
235.817	81.31
236.051	85.31
236.285	83.31
236.519	66.31
236.753	94.31
236.987	87.31
237.221	80.31
237.455	79.31
237.689	70.31
237.922	86.31
238.156	80.31
238.39	74.31
238.624	64.31
238.858	84.31
239.091	93.31
239.325	85.31
239.559	82.31
239.793	78.31
240.027	79.31
240.26	67.31
240.494	77.31
240.728	76.31
240.961	85.31
241.195	91.31
241.429	73.31
241.662	84.31
241.896	76.31
242.13	78.31
242.363	64.31
242.597	94.31
242.83	82.31
243.064	98.31
243.298	83.31
243.531	85.31
243.765	69.31
243.998	82.31
244.232	73.31
244.465	85.31
244.699	85.31
244.932	92.31
245.166	84.31
245.399	76.31
245.633	77.31
245.866	64.31
246.099	79.31
246.333	73.31
246.566	69.31
246.8	94.31
247.033	91.31
247.266	78.31
247.5	92.31
247.733	91.31
247.966	75.31
248.2	88.31
248.433	78.31
248.666	67.31
248.899	73.31
249.133	87.31
249.366	104.31
249.599	89.31
249.832	93.31
250.066	85.31
250.299	75.31
250.532	100.31
250.765	78.31
250.998	80.31
251.231	81.31
251.465	83.31
251.698	96.31
251.931	85.31
252.164	75.31
252.397	86.31
252.63	92.31
252.863	88.31
253.096	79.31
253.329	83.31
253.562	88.31
253.795	84.31
254.028	84.31
254.261	88.31
254.494	87.31
254.727	80.31
254.96	89.31
255.193	76.31
255.426	92.31
255.659	83.31
255.892	86.31
256.124	83.31
256.357	87.31
256.59	89.31
256.823	89.31
257.056	87.31
257.289	83.31
257.521	82.31
257.754	82.31
257.987	82.31
258.22	90.31
258.452	61.31
258.685	83.31
258.918	75.31
259.151	88.31
259.383	93.31
259.616	95.31
259.849	85.31
260.081	76.31
260.314	83.31
260.547	89.31
260.779	92.31
261.012	80.31
261.244	89.31
261.477	93.31
261.71	92.31
261.942	98.31
262.175	107.31
262.407	94.31
262.64	84.31
262.872	79.31
263.105	77.31
263.337	90.31
263.57	88.31
263.802	83.31
264.035	81.31
264.267	80.31
264.499	72.31
264.732	81.31
264.964	83.31
265.197	86.31
265.429	84.31
265.661	83.31
265.894	88.31
266.126	89.31
266.358	96.31
266.591	84.31
266.823	84.31
267.055	98.31
267.287	83.31
267.52	83.31
267.752	91.31
267.984	81.31
268.216	84.31
268.448	96.31
268.681	82.31
268.913	77.31
269.145	84.31
269.377	87.31
269.609	79.31
269.841	84.31
270.073	81.31
270.306	93.31
270.538	67.31
270.77	77.31
271.002	97.31
271.234	85.31
271.466	79.31
271.698	81.31
271.93	98.31
272.162	101.31
272.394	80.31
272.626	87.31
272.858	100.31
273.09	93.31
273.322	81.31
273.553	108.31
273.785	94.31
274.017	94.31
274.249	85.31
274.481	78.31
274.713	81.31
274.945	85.31
275.176	85.31
275.408	87.31
275.64	94.31
275.872	79.31
276.104	92.31
276.335	92.31
276.567	94.31
276.799	103.31
277.031	89.31
277.262	78.31
277.494	80.31
277.726	99.31
277.957	89.31
278.189	77.31
278.421	74.31
278.652	95.31
278.884	88.31
279.115	95.31
279.347	90.31
279.579	98.31
279.81	85.31
280.042	103.31
280.273	66.31
280.505	98.31
280.736	62.31
280.968	84.31
281.199	81.31
281.431	87.31
281.662	83.31
281.894	92.31
282.125	89.31
282.356	107.31
282.588	102.31
282.819	98.31
283.051	80.31
283.282	84.31
283.513	88.31
283.745	92.31
283.976	95.31
284.207	101.31
284.439	85.31
284.67	104.31
284.901	101.31
285.132	104.31
285.364	77.31
285.595	105.31
285.826	84.31
286.057	91.31
286.288	92.31
286.52	93.31
286.751	96.31
286.982	85.31
287.213	82.31
287.444	99.31
287.675	94.31
287.906	96.31
288.138	81.31
288.369	75.31
288.6	85.31
288.831	92.31
289.062	100.31
289.293	78.31
289.524	87.31
289.755	100.31
289.986	92.31
290.217	97.31
290.448	93.31
290.679	80.31
290.91	92.31
291.141	77.31
291.371	95.31
291.602	80.31
291.833	80.31
292.064	105.31
292.295	88.31
292.526	99.31
292.757	80.31
292.987	88.31
293.218	77.31
293.449	88.31
293.68	95.31
293.91	92.31
294.141	91.31
294.372	88.31
294.603	86.31
294.833	100.31
295.064	85.31
295.295	97.31
295.525	93.31
295.756	96.31
295.987	101.31
296.217	125.31
296.448	107.31
296.679	93.31
296.909	84.31
297.14	88.31
297.37	92.31
297.601	77.31
297.831	93.31
298.062	83.31
298.292	82.31
298.523	98.31
298.753	75.31
298.984	98.31
299.214	92.31
299.445	101.31
299.675	80.31
299.905	94.31
300.136	75.31
300.366	85.31
300.597	93.31
300.827	104.31
301.057	104.31
301.288	107.31
301.518	90.31
301.748	101.31
301.979	95.31
302.209	103.31
302.439	92.31
302.669	90.31
302.9	89.31
303.13	98.31
303.36	89.31
303.59	104.31
303.82	100.31
304.051	89.31
304.281	88.31
304.511	79.31
304.741	82.31
304.971	78.31
305.201	96.31
305.431	98.31
305.661	88.31
305.891	98.31
306.121	85.31
306.352	100.31
306.582	101.31
306.812	103.31
307.042	88.31
307.272	85.31
307.502	104.31
307.731	100.31
307.961	110.31
308.191	98.31
308.421	85.31
308.651	93.31
308.881	106.31
309.111	111.31
309.341	91.31
309.571	100.31
309.8	81.31
310.03	72.31
310.26	91.31
310.49	105.31
310.72	95.31
310.949	104.31
311.179	110.31
311.409	80.31
311.639	85.31
311.868	89.31
312.098	94.31
312.328	96.31
312.557	97.31
312.787	91.31
313.017	97.31
313.246	98.31
313.476	80.31
313.706	85.31
313.935	99.31
314.165	82.31
314.394	99.31
314.624	96.31
314.853	99.31
315.083	94.31
315.312	99.31
315.542	110.31
315.771	90.31
316.001	108.31
316.23	95.31
316.46	82.31
316.689	80.31
316.919	97.31
317.148	103.31
317.377	100.31
317.607	112.31
317.836	105.31
318.065	85.31
318.295	97.31
318.524	89.31
318.753	107.31
318.983	104.31
319.212	111.31
319.441	98.31
319.67	99.31
319.9	73.31
320.129	81.31
320.358	99.31
320.587	91.31
320.816	104.31
321.046	106.31
321.275	94.31
321.504	107.31
321.733	100.31
321.962	92.31
322.191	98.31
322.42	99.31
322.649	108.31
322.878	91.31
323.108	121.31
323.337	110.31
323.566	115.31
323.795	134.31
324.024	168.31
324.253	306.31
324.482	633.31
324.71	1298.31
324.939	1655.31
325.168	613.31
325.397	184.31
325.626	116.31
325.855	106.31
326.084	112.31
326.313	131.31
326.542	163.31
326.77	204.31
326.999	373.31
327.228	728.31
327.457	1293.31
327.686	1041.31
327.914	298.31
328.143	159.31
328.372	119.31
328.6	111.31
328.829	113.31
329.058	107.31
329.287	122.31
329.515	98.31
329.744	93.31
329.972	110.31
330.201	92.31
330.43	116.31
330.658	111.31
330.887	127.31
331.115	127.31
331.344	88.31
331.572	96.31
331.801	97.31
332.03	103.31
332.258	98.31
332.486	84.31
332.715	85.31
332.943	95.31
333.172	92.31
333.4	98.31
333.629	90.31
333.857	110.31
334.085	110.31
334.314	106.31
334.542	123.31
334.771	123.31
334.999	98.31
335.227	94.31
335.455	90.31
335.684	80.31
335.912	93.31
336.14	89.31
336.369	99.31
336.597	100.31
336.825	90.31
337.053	104.31
337.281	102.31
337.51	85.31
337.738	85.31
337.966	94.31
338.194	91.31
338.422	106.31
338.65	82.31
338.878	85.31
339.106	85.31
339.334	88.31
339.562	87.31
339.79	86.31
340.018	80.31
340.246	95.31
340.474	92.31
340.702	93.31
340.93	81.31
341.158	79.31
341.386	107.31
341.614	88.31
341.842	81.31
342.07	99.31
342.298	83.31
342.526	84.31
342.754	72.31
342.981	84.31
343.209	91.31
343.437	114.31
343.665	99.31
343.893	92.31
344.12	100.31
344.348	101.31
344.576	91.31
344.804	96.31
345.031	99.31
345.259	92.31
345.487	80.31
345.714	97.31
345.942	102.31
346.17	94.31
346.397	89.31
346.625	89.31
346.853	99.31
347.08	90.31
347.308	106.31
347.535	93.31
347.763	108.31
347.99	107.31
348.218	117.31
348.445	106.31
348.673	97.31
348.9	97.31
349.128	87.31
349.355	88.31
349.583	88.31
349.81	88.31
350.037	104.31
350.265	98.31
350.492	117.31
350.72	104.31
350.947	112.31
351.174	100.31
351.402	103.31
351.629	100.31
351.856	96.31
352.083	101.31
352.311	115.31
352.538	95.31
352.765	104.31
352.992	105.31
353.22	107.31
353.447	96.31
353.674	103.31
353.901	99.31
354.128	99.31
354.355	105.31
354.583	98.31
354.81	85.31
355.037	94.31
355.264	90.31
355.491	108.31
355.718	95.31
355.945	90.31
356.172	92.31
356.399	97.31
356.626	99.31
356.853	91.31
357.08	84.31
357.307	99.31
357.534	92.31
357.761	92.31
357.988	114.31
358.215	96.31
358.441	101.31
358.668	99.31
358.895	99.31
359.122	94.31
359.349	84.31
359.576	102.31
359.802	95.31
360.029	101.31
360.256	104.31
360.483	98.31
360.709	99.31
360.936	100.31
361.163	88.31
361.39	86.31
361.616	83.31
361.843	98.31
362.07	102.31
362.296	86.31
362.523	90.31
362.749	83.31
362.976	88.31
363.203	91.31
363.429	87.31
363.656	100.31
363.882	89.31
364.109	97.31
364.335	90.31
364.562	105.31
364.788	99.31
365.015	104.31
365.241	89.31
365.468	102.31
365.694	96.31
365.92	77.31
366.147	85.31
366.373	87.31
366.599	92.31
366.826	90.31
367.052	97.31
367.278	96.31
367.505	90.31
367.731	100.31
367.957	88.31
368.184	105.31
368.41	90.31
368.636	105.31
368.862	105.31
369.089	100.31
369.315	101.31
369.541	106.31
369.767	100.31
369.993	92.31
370.219	94.31
370.445	98.31
370.672	97.31
370.898	87.31
371.124	89.31
371.35	84.31
371.576	86.31
371.802	92.31
372.028	71.31
372.254	85.31
372.48	78.31
372.706	84.31
372.932	94.31
373.158	80.31
373.384	84.31
373.61	92.31
373.835	100.31
374.061	92.31
374.287	88.31
374.513	95.31
374.739	85.31
374.965	86.31
375.191	83.31
375.416	85.31
375.642	99.31
375.868	88.31
376.094	104.31
376.319	95.31
376.545	102.31
376.771	91.31
376.997	92.31
377.222	81.31
377.448	107.31
377.674	90.31
377.899	93.31
378.125	93.31
378.35	101.31
378.576	79.31
378.802	80.31
379.027	92.31
379.253	90.31
379.478	106.31
379.704	100.31
379.929	97.31
380.155	98.31
380.38	96.31
380.606	98.31
380.831	92.31
381.057	97.31
381.282	96.31
381.507	100.31
381.733	104.31
381.958	92.31
382.184	106.31
382.409	91.31
382.634	96.31
382.86	101.31
383.085	101.31
383.31	99.31
383.535	91.31
383.761	122.31
383.986	80.31
384.211	96.31
384.436	91.31
384.662	91.31
384.887	96.31
385.112	112.31
385.337	99.31
385.562	109.31
385.787	121.31
386.013	115.31
386.238	111.31
386.463	114.31
386.688	114.31
386.913	101.31
387.138	123.31
387.363	108.31
387.588	110.31
387.813	97.31
388.038	111.31
388.263	108.31
388.488	104.31
388.713	103.31
388.938	105.31
389.163	119.31
389.387	108.31
389.612	93.31
389.837	106.31
390.062	98.31
390.287	99.31
390.512	93.31
390.736	91.31
390.961	99.31
391.186	89.31
391.411	114.31
391.636	96.31
391.86	80.31
392.085	97.31
392.31	76.31
392.534	75.31
392.759	88.31
392.984	92.31
393.208	79.31
393.433	79.31
393.658	82.31
393.882	75.31
394.107	81.31
394.331	96.31
394.556	98.31
394.78	85.31
395.005	86.31
395.229	92.31
395.454	96.31
395.678	85.31
395.903	88.31
396.127	95.31
396.352	87.31
396.576	104.31
396.801	92.31
397.025	100.31
397.249	89.31
397.474	97.31
397.698	91.31
397.922	71.31
398.147	81.31
398.371	86.31
398.595	96.31
398.82	90.31
399.044	88.31
399.268	90.31
399.492	86.31
399.717	88.31
399.941	88.31
400.165	106.31
400.389	91.31
400.613	96.31
400.837	92.31
401.062	100.31
401.286	96.31
401.51	99.31
401.734	91.31
401.958	90.31
402.182	114.31
402.406	120.31
402.63	103.31
402.854	99.31
403.078	85.31
403.302	81.31
403.526	92.31
403.75	83.31
403.974	88.31
404.198	78.31
404.422	83.31
404.645	83.31
404.869	92.31
405.093	100.31
405.317	105.31
405.541	90.31
405.765	80.31
405.988	117.31
406.212	134.31
406.436	180.31
406.66	116.31
406.883	100.31
407.107	105.31
407.331	108.31
407.555	88.31
407.778	96.31
408.002	72.31
408.226	78.31
408.449	89.31
408.673	94.31
408.896	101.31
409.12	89.31
409.344	85.31
409.567	105.31
409.791	85.31
410.014	109.31
410.238	95.31
410.461	101.31
410.685	84.31
410.908	102.31
411.132	107.31
411.355	107.31
411.578	91.31
411.802	100.31
412.025	85.31
412.249	89.31
412.472	94.31
412.695	98.31
412.919	94.31
413.142	107.31
413.365	101.31
413.589	95.31
413.812	89.31
414.035	103.31
414.258	82.31
414.482	93.31
414.705	85.31
414.928	91.31
415.151	91.31
415.374	80.31
415.597	85.31
415.821	87.31
416.044	102.31
416.267	101.31
416.49	91.31
416.713	85.31
416.936	81.31
417.159	92.31
417.382	88.31
417.605	92.31
417.828	88.31
418.051	91.31
418.274	89.31
418.497	92.31
418.72	88.31
418.943	95.31
419.166	96.31
419.389	91.31
419.611	87.31
419.834	82.31
420.057	83.31
420.28	95.31
420.503	89.31
420.726	89.31
420.948	96.31
421.171	102.31
421.394	84.31
421.617	96.31
421.839	85.31
422.062	87.31
422.285	113.31
422.507	98.31
422.73	98.31
422.953	95.31
423.175	80.31
423.398	88.31
423.621	93.31
423.843	89.31
424.066	81.31
424.288	93.31
424.511	96.31
424.733	91.31
424.956	96.31
425.178	92.31
425.401	99.31
425.623	100.31
425.846	101.31
426.068	106.31
426.291	97.31
426.513	101.31
426.735	104.31
426.958	85.31
427.18	97.31
427.402	131.31
427.625	130.31
427.847	126.31
428.069	106.31
428.292	69.31
428.514	90.31
428.736	92.31
428.958	79.31
429.181	85.31
429.403	80.31
429.625	81.31
429.847	100.31
430.069	104.31
430.292	95.31
430.514	87.31
430.736	99.31
430.958	72.31
431.18	93.31
431.402	98.31
431.624	98.31
431.846	97.31
432.068	92.31
432.29	88.31
432.512	85.31
432.734	81.31
432.956	95.31
433.178	88.31
433.4	89.31
433.622	98.31
433.844	96.31
434.066	107.31
434.287	101.31
434.509	96.31
434.731	84.31
434.953	87.31
435.175	95.31
435.397	93.31
435.618	91.31
435.84	95.31
436.062	108.31
436.284	96.31
436.505	87.31
436.727	88.31
436.949	83.31
437.17	87.31
437.392	92.31
437.614	90.31
437.835	85.31
438.057	109.31
438.278	93.31
438.5	97.31
438.721	116.31
438.943	97.31
439.165	95.31
439.386	87.31
439.608	92.31
439.829	91.31
440.05	124.31
440.272	120.31
440.493	99.31
440.715	92.31
440.936	98.31
441.158	95.31
441.379	91.31
441.6	90.31
441.822	96.31
442.043	84.31
442.264	89.31
442.486	100.31
442.707	79.31
442.928	108.31
443.149	99.31
443.371	106.31
443.592	95.31
443.813	109.31
444.034	108.31
444.255	113.31
444.476	90.31
444.698	90.31
444.919	101.31
445.14	145.31
445.361	116.31
445.582	91.31
445.803	123.31
446.024	116.31
446.245	125.31
446.466	105.31
446.687	98.31
446.908	100.31
447.129	89.31
447.35	89.31
447.571	85.31
447.792	91.31
448.013	94.31
448.234	96.31
448.455	87.31
448.675	109.31
448.896	110.31
449.117	106.31
449.338	101.31
449.559	111.31
449.779	116.31
450	93.31
450.221	82.31
450.442	97.31
450.662	91.31
450.883	98.31
451.104	113.31
451.324	93.31
451.545	85.31
451.766	67.31
451.986	79.31
452.207	95.31
452.428	79.31
452.648	90.31
452.869	114.31
453.089	101.31
453.31	110.31
453.53	85.31
453.751	95.31
453.971	114.31
454.192	106.31
454.412	100.31
454.633	95.31
454.853	82.31
455.073	81.31
455.294	73.31
455.514	89.31
455.734	88.31
455.955	80.31
456.175	102.31
456.395	85.31
456.616	88.31
456.836	95.31
457.056	107.31
457.276	91.31
457.497	81.31
457.717	91.31
457.937	73.31
458.157	97.31
458.377	83.31
458.598	91.31
458.818	119.31
459.038	116.31
459.258	99.31
459.478	84.31
459.698	89.31
459.918	91.31
460.138	96.31
460.358	93.31
460.578	84.31
460.798	93.31
461.018	84.31
461.238	92.31
461.458	76.31
461.678	96.31
461.898	83.31
462.118	84.31
462.338	97.31
462.558	97.31
462.777	77.31
462.997	93.31
463.217	77.31
463.437	90.31
463.657	92.31
463.876	108.31
464.096	91.31
464.316	106.31
464.536	85.31
464.755	87.31
464.975	99.31
465.195	132.31
465.414	129.31
465.634	99.31
465.854	95.31
466.073	98.31
466.293	90.31
466.512	100.31
466.732	79.31
466.951	85.31
467.171	89.31
467.391	94.31
467.61	100.31
467.829	98.31
468.049	97.31
468.268	93.31
468.488	95.31
468.707	72.31
468.927	88.31
469.146	82.31
469.365	91.31
469.585	92.31
469.804	83.31
470.023	93.31
470.243	95.31
470.462	79.31
470.681	93.31
470.901	86.31
471.12	97.31
471.339	86.31
471.558	98.31
471.777	98.31
471.997	103.31
472.216	106.31
472.435	119.31
472.654	94.31
472.873	92.31
473.092	92.31
473.311	98.31
473.53	100.31
473.749	100.31
473.968	108.31
474.187	97.31
474.406	85.31
474.625	104.31
474.844	84.31
475.063	76.31
475.282	85.31
475.501	76.31
475.72	93.31
475.939	93.31
476.158	109.31
476.377	89.31
476.596	89.31
476.814	73.31
477.033	97.31
477.252	93.31
477.471	91.31
477.69	103.31
477.908	101.31
478.127	102.31
478.346	91.31
478.564	87.31
478.783	97.31
479.002	111.31
479.22	110.31
479.439	83.31
479.658	111.31
479.876	94.31
480.095	106.31
480.313	86.31
480.532	100.31
480.751	98.31
480.969	105.31
481.188	150.31
481.406	129.31
481.624	107.31
481.843	106.31
482.061	91.31
482.28	81.31
482.498	88.31
482.717	95.31
482.935	82.31
483.153	84.31
483.372	95.31
483.59	95.31
483.808	94.31
484.027	89.31
484.245	88.31
484.463	99.31
484.681	86.31
484.9	94.31
485.118	99.31
485.336	89.31
485.554	92.31
485.772	100.31
485.99	100.31
486.209	106.31
486.427	88.31
486.645	108.31
486.863	100.31
487.081	101.31
487.299	102.31
487.517	90.31
487.735	84.31
487.953	96.31
488.171	80.31
488.389	79.31
488.607	98.31
488.825	90.31
489.043	88.31
489.261	85.31
489.479	84.31
489.696	88.31
489.914	87.31
490.132	81.31
490.35	92.31
490.568	96.31
490.786	86.31
491.003	94.31
491.221	87.31
491.439	95.31
491.657	92.31
491.874	109.31
492.092	111.31
492.31	84.31
492.527	102.31
492.745	101.31
492.963	82.31
493.18	96.31
493.398	80.31
493.615	98.31
493.833	97.31
494.05	91.31
494.268	100.31
494.485	100.31
494.703	101.31
494.92	92.31
495.138	94.31
495.355	101.31
495.573	91.31
495.79	95.31
496.008	95.31
496.225	93.31
496.442	91.31
496.66	92.31
496.877	93.31
497.094	96.31
497.312	86.31
497.529	90.31
497.746	98.31
497.963	84.31
498.181	80.31
498.398	100.31
498.615	106.31
498.832	98.31
499.049	99.31
499.267	93.31
499.484	88.31
499.701	106.31
499.918	102.31
500.135	93.31
500.352	88.31
500.569	108.31
500.786	91.31
501.003	99.31
501.22	86.31
501.437	107.31
501.654	102.31
501.871	97.31
502.088	76.31
502.305	97.31
502.522	91.31
502.739	105.31
502.956	95.31
503.172	99.31
503.389	89.31
503.606	102.31
503.823	94.31
504.04	95.31
504.256	88.31
504.473	104.31
504.69	103.31
504.907	89.31
505.123	83.31
505.34	82.31
505.557	98.31
505.773	105.31
505.99	80.31
506.207	84.31
506.423	102.31
506.64	85.31
506.856	93.31
507.073	84.31
507.289	100.31
507.506	99.31
507.722	100.31
507.939	105.31
508.155	80.31
508.372	95.31
508.588	95.31
508.805	84.31
509.021	83.31
509.238	98.31
509.454	108.31
509.67	95.31
509.887	98.31
510.103	133.31
510.319	172.31
510.536	516.31
510.752	1502.31
510.968	451.31
511.184	139.31
511.401	115.31
511.617	99.31
511.833	98.31
512.049	87.31
512.265	95.31
512.481	109.31
512.698	104.31
512.914	85.31
513.13	87.31
513.346	84.31
513.562	107.31
513.778	107.31
513.994	82.31
514.21	89.31
514.426	96.31
514.642	116.31
514.858	103.31
515.074	147.31
515.29	304.31
515.506	872.31
