Data from Uncirc_2009_H10_HRD10591_00073.txt Node
Date: Wed Jan 03 10:12:16 EST 2024
User: Yrep
Spectrometer: HR+D1059
Trigger mode: 1
Integration Time (sec): 1.000000E-1
Scans to average: 1
Electric dark correction enabled: true
Nonlinearity correction enabled: false
Boxcar width: 0
XAxis mode: Wavelengths
Number of Pixels in Spectrum: 2048
>>>>>Begin Spectral Data<<<<<
223.165	-22.62
223.4	-22.62
223.635	-22.62
223.869	-17.62
224.104	-29.62
224.338	-25.62
224.573	-18.62
224.808	-8.62
225.042	-5.62
225.277	-6.62
225.511	-0.62
225.746	6.38
225.98	1.38
226.215	25.38
226.449	26.38
226.683	13.38
226.918	28.38
227.152	34.38
227.387	30.38
227.621	36.38
227.856	47.38
228.09	43.38
228.324	60.38
228.559	62.38
228.793	60.38
229.027	61.38
229.262	64.38
229.496	75.38
229.73	77.38
229.964	75.38
230.199	70.38
230.433	81.38
230.667	81.38
230.901	71.38
231.136	65.38
231.37	72.38
231.604	87.38
231.838	83.38
232.072	75.38
232.306	76.38
232.541	77.38
232.775	81.38
233.009	77.38
233.243	82.38
233.477	79.38
233.711	85.38
233.945	85.38
234.179	65.38
234.413	77.38
234.647	81.38
234.881	87.38
235.115	74.38
235.349	71.38
235.583	71.38
235.817	75.38
236.051	80.38
236.285	87.38
236.519	81.38
236.753	92.38
236.987	86.38
237.221	72.38
237.455	86.38
237.689	70.38
237.922	73.38
238.156	82.38
238.39	75.38
238.624	78.38
238.858	87.38
239.091	85.38
239.325	73.38
239.559	71.38
239.793	71.38
240.027	66.38
240.26	78.38
240.494	78.38
240.728	79.38
240.961	68.38
241.195	81.38
241.429	74.38
241.662	72.38
241.896	72.38
242.13	71.38
242.363	71.38
242.597	72.38
242.83	76.38
243.064	81.38
243.298	70.38
243.531	78.38
243.765	69.38
243.998	70.38
244.232	65.38
244.465	67.38
244.699	91.38
244.932	74.38
245.166	74.38
245.399	82.38
245.633	67.38
245.866	72.38
246.099	75.38
246.333	75.38
246.566	86.38
246.8	84.38
247.033	78.38
247.266	84.38
247.5	77.38
247.733	65.38
247.966	68.38
248.2	73.38
248.433	77.38
248.666	72.38
248.899	62.38
249.133	87.38
249.366	96.38
249.599	87.38
249.832	77.38
250.066	68.38
250.299	87.38
250.532	78.38
250.765	76.38
250.998	67.38
251.231	62.38
251.465	77.38
251.698	79.38
251.931	77.38
252.164	72.38
252.397	83.38
252.63	70.38
252.863	81.38
253.096	73.38
253.329	92.38
253.562	92.38
253.795	91.38
254.028	85.38
254.261	67.38
254.494	78.38
254.727	61.38
254.96	81.38
255.193	77.38
255.426	77.38
255.659	90.38
255.892	92.38
256.124	80.38
256.357	74.38
256.59	77.38
256.823	84.38
257.056	75.38
257.289	66.38
257.521	72.38
257.754	80.38
257.987	77.38
258.22	68.38
258.452	81.38
258.685	87.38
258.918	79.38
259.151	86.38
259.383	78.38
259.616	77.38
259.849	94.38
260.081	81.38
260.314	75.38
260.547	80.38
260.779	91.38
261.012	74.38
261.244	98.38
261.477	83.38
261.71	76.38
261.942	89.38
262.175	94.38
262.407	88.38
262.64	78.38
262.872	80.38
263.105	77.38
263.337	84.38
263.57	91.38
263.802	84.38
264.035	88.38
264.267	78.38
264.499	87.38
264.732	96.38
264.964	89.38
265.197	80.38
265.429	84.38
265.661	83.38
265.894	72.38
266.126	89.38
266.358	67.38
266.591	80.38
266.823	75.38
267.055	73.38
267.287	85.38
267.52	79.38
267.752	83.38
267.984	78.38
268.216	74.38
268.448	62.38
268.681	91.38
268.913	79.38
269.145	94.38
269.377	91.38
269.609	93.38
269.841	86.38
270.073	75.38
270.306	88.38
270.538	85.38
270.77	84.38
271.002	91.38
271.234	96.38
271.466	80.38
271.698	71.38
271.93	91.38
272.162	81.38
272.394	79.38
272.626	86.38
272.858	78.38
273.09	88.38
273.322	94.38
273.553	83.38
273.785	95.38
274.017	84.38
274.249	81.38
274.481	77.38
274.713	87.38
274.945	79.38
275.176	95.38
275.408	85.38
275.64	76.38
275.872	87.38
276.104	91.38
276.335	91.38
276.567	91.38
276.799	97.38
277.031	85.38
277.262	75.38
277.494	96.38
277.726	84.38
277.957	72.38
278.189	77.38
278.421	73.38
278.652	65.38
278.884	82.38
279.115	82.38
279.347	92.38
279.579	87.38
279.81	78.38
280.042	66.38
280.273	77.38
280.505	77.38
280.736	95.38
280.968	91.38
281.199	94.38
281.431	98.38
281.662	91.38
281.894	77.38
282.125	99.38
282.356	99.38
282.588	124.38
282.819	102.38
283.051	94.38
283.282	76.38
283.513	90.38
283.745	89.38
283.976	91.38
284.207	92.38
284.439	86.38
284.67	88.38
284.901	104.38
285.132	81.38
285.364	84.38
285.595	73.38
285.826	84.38
286.057	94.38
286.288	96.38
286.52	96.38
286.751	78.38
286.982	85.38
287.213	81.38
287.444	86.38
287.675	84.38
287.906	84.38
288.138	93.38
288.369	94.38
288.6	90.38
288.831	84.38
289.062	94.38
289.293	65.38
289.524	77.38
289.755	88.38
289.986	77.38
290.217	85.38
290.448	79.38
290.679	83.38
290.91	89.38
291.141	91.38
291.371	88.38
291.602	86.38
291.833	86.38
292.064	89.38
292.295	84.38
292.526	73.38
292.757	85.38
292.987	87.38
293.218	78.38
293.449	74.38
293.68	84.38
293.91	97.38
294.141	93.38
294.372	93.38
294.603	76.38
294.833	87.38
295.064	83.38
295.295	87.38
295.525	89.38
295.756	95.38
295.987	101.38
296.217	107.38
296.448	95.38
296.679	86.38
296.909	85.38
297.14	81.38
297.37	93.38
297.601	79.38
297.831	85.38
298.062	101.38
298.292	88.38
298.523	85.38
298.753	99.38
298.984	85.38
299.214	86.38
299.445	77.38
299.675	95.38
299.905	96.38
300.136	91.38
300.366	90.38
300.597	84.38
300.827	87.38
301.057	87.38
301.288	100.38
301.518	88.38
301.748	88.38
301.979	96.38
302.209	91.38
302.439	91.38
302.669	94.38
302.9	96.38
303.13	98.38
303.36	92.38
303.59	107.38
303.82	101.38
304.051	92.38
304.281	94.38
304.511	82.38
304.741	77.38
304.971	89.38
305.201	94.38
305.431	84.38
305.661	83.38
305.891	88.38
306.121	95.38
306.352	103.38
306.582	93.38
306.812	81.38
307.042	96.38
307.272	84.38
307.502	92.38
307.731	89.38
307.961	93.38
308.191	83.38
308.421	88.38
308.651	115.38
308.881	93.38
309.111	104.38
309.341	95.38
309.571	92.38
309.8	87.38
310.03	78.38
310.26	84.38
310.49	102.38
310.72	112.38
310.949	84.38
311.179	86.38
311.409	96.38
311.639	87.38
311.868	85.38
312.098	88.38
312.328	98.38
312.557	89.38
312.787	82.38
313.017	102.38
313.246	89.38
313.476	88.38
313.706	102.38
313.935	84.38
314.165	88.38
314.394	81.38
314.624	96.38
314.853	97.38
315.083	93.38
315.312	96.38
315.542	88.38
315.771	80.38
316.001	85.38
316.23	96.38
316.46	74.38
316.689	94.38
316.919	87.38
317.148	93.38
317.377	111.38
317.607	106.38
317.836	108.38
318.065	90.38
318.295	91.38
318.524	78.38
318.753	89.38
318.983	93.38
319.212	106.38
319.441	100.38
319.67	89.38
319.9	80.38
320.129	92.38
320.358	93.38
320.587	97.38
320.816	95.38
321.046	95.38
321.275	77.38
321.504	95.38
321.733	86.38
321.962	104.38
322.191	95.38
322.42	109.38
322.649	102.38
322.878	109.38
323.108	108.38
323.337	112.38
323.566	118.38
323.795	137.38
324.024	181.38
324.253	348.38
324.482	721.38
324.71	1458.38
324.939	1887.38
325.168	695.38
325.397	238.38
325.626	135.38
325.855	118.38
326.084	136.38
326.313	146.38
326.542	151.38
326.77	212.38
326.999	429.38
327.228	855.38
327.457	1492.38
327.686	1205.38
327.914	323.38
328.143	150.38
328.372	142.38
328.6	110.38
328.829	103.38
329.058	121.38
329.287	113.38
329.515	99.38
329.744	103.38
329.972	92.38
330.201	106.38
330.43	113.38
330.658	105.38
330.887	116.38
331.115	104.38
331.344	87.38
331.572	88.38
331.801	96.38
332.03	94.38
332.258	98.38
332.486	104.38
332.715	92.38
332.943	107.38
333.172	98.38
333.4	98.38
333.629	98.38
333.857	109.38
334.085	101.38
334.314	115.38
334.542	109.38
334.771	108.38
334.999	91.38
335.227	87.38
335.455	89.38
335.684	92.38
335.912	92.38
336.14	84.38
336.369	87.38
336.597	98.38
336.825	94.38
337.053	87.38
337.281	86.38
337.51	92.38
337.738	87.38
337.966	83.38
338.194	97.38
338.422	96.38
338.65	88.38
338.878	92.38
339.106	104.38
339.334	98.38
339.562	85.38
339.79	76.38
340.018	101.38
340.246	88.38
340.474	99.38
340.702	91.38
340.93	90.38
341.158	93.38
341.386	91.38
341.614	95.38
341.842	103.38
342.07	85.38
342.298	99.38
342.526	101.38
342.754	93.38
342.981	86.38
343.209	90.38
343.437	105.38
343.665	79.38
343.893	82.38
344.12	93.38
344.348	100.38
344.576	86.38
344.804	89.38
345.031	92.38
345.259	91.38
345.487	94.38
345.714	81.38
345.942	84.38
346.17	81.38
346.397	102.38
346.625	110.38
346.853	93.38
347.08	99.38
347.308	87.38
347.535	88.38
347.763	100.38
347.99	108.38
348.218	100.38
348.445	86.38
348.673	90.38
348.9	88.38
349.128	96.38
349.355	89.38
349.583	85.38
349.81	104.38
350.037	94.38
350.265	78.38
350.492	100.38
350.72	94.38
350.947	101.38
351.174	110.38
351.402	116.38
351.629	99.38
351.856	108.38
352.083	92.38
352.311	101.38
352.538	97.38
352.765	108.38
352.992	107.38
353.22	101.38
353.447	99.38
353.674	93.38
353.901	101.38
354.128	99.38
354.355	99.38
354.583	99.38
354.81	103.38
355.037	86.38
355.264	105.38
355.491	92.38
355.718	97.38
355.945	84.38
356.172	79.38
356.399	97.38
356.626	80.38
356.853	95.38
357.08	90.38
357.307	95.38
357.534	94.38
357.761	95.38
357.988	95.38
358.215	83.38
358.441	96.38
358.668	93.38
358.895	72.38
359.122	92.38
359.349	87.38
359.576	93.38
359.802	88.38
360.029	96.38
360.256	83.38
360.483	97.38
360.709	86.38
360.936	94.38
361.163	84.38
361.39	88.38
361.616	96.38
361.843	87.38
362.07	98.38
362.296	99.38
362.523	92.38
362.749	92.38
362.976	74.38
363.203	95.38
363.429	89.38
363.656	81.38
363.882	100.38
364.109	95.38
364.335	85.38
364.562	85.38
364.788	104.38
365.015	81.38
365.241	111.38
365.468	100.38
365.694	93.38
365.92	104.38
366.147	95.38
366.373	88.38
366.599	87.38
366.826	80.38
367.052	85.38
367.278	85.38
367.505	104.38
367.731	96.38
367.957	98.38
368.184	89.38
368.41	83.38
368.636	110.38
368.862	101.38
369.089	91.38
369.315	92.38
369.541	86.38
369.767	93.38
369.993	87.38
370.219	104.38
370.445	91.38
370.672	80.38
370.898	87.38
371.124	82.38
371.35	80.38
371.576	101.38
371.802	81.38
372.028	84.38
372.254	86.38
372.48	83.38
372.706	91.38
372.932	97.38
373.158	71.38
373.384	92.38
373.61	79.38
373.835	94.38
374.061	95.38
374.287	87.38
374.513	91.38
374.739	74.38
374.965	83.38
375.191	88.38
375.416	88.38
375.642	81.38
375.868	86.38
376.094	85.38
376.319	88.38
376.545	85.38
376.771	90.38
376.997	85.38
377.222	84.38
377.448	96.38
377.674	89.38
377.899	88.38
378.125	88.38
378.35	92.38
378.576	94.38
378.802	101.38
379.027	100.38
379.253	114.38
379.478	87.38
379.704	107.38
379.929	99.38
380.155	97.38
380.38	104.38
380.606	96.38
380.831	100.38
381.057	107.38
381.282	93.38
381.507	95.38
381.733	76.38
381.958	96.38
382.184	106.38
382.409	104.38
382.634	96.38
382.86	78.38
383.085	106.38
383.31	103.38
383.535	88.38
383.761	82.38
383.986	91.38
384.211	95.38
384.436	85.38
384.662	95.38
384.887	98.38
385.112	102.38
385.337	96.38
385.562	92.38
385.787	96.38
386.013	100.38
386.238	103.38
386.463	108.38
386.688	89.38
386.913	108.38
387.138	106.38
387.363	107.38
387.588	105.38
387.813	90.38
388.038	101.38
388.263	110.38
388.488	110.38
388.713	107.38
388.938	97.38
389.163	92.38
389.387	92.38
389.612	89.38
389.837	88.38
390.062	84.38
390.287	98.38
390.512	102.38
390.736	83.38
390.961	88.38
391.186	89.38
391.411	91.38
391.636	91.38
391.86	80.38
392.085	91.38
392.31	85.38
392.534	85.38
392.759	96.38
392.984	74.38
393.208	81.38
393.433	92.38
393.658	107.38
393.882	88.38
394.107	88.38
394.331	78.38
394.556	100.38
394.78	95.38
395.005	85.38
395.229	89.38
395.454	78.38
395.678	85.38
395.903	82.38
396.127	80.38
396.352	85.38
396.576	74.38
396.801	73.38
397.025	84.38
397.249	100.38
397.474	93.38
397.698	87.38
397.922	81.38
398.147	93.38
398.371	86.38
398.595	85.38
398.82	83.38
399.044	75.38
399.268	88.38
399.492	89.38
399.717	84.38
399.941	88.38
400.165	80.38
400.389	75.38
400.613	76.38
400.837	87.38
401.062	90.38
401.286	92.38
401.51	95.38
401.734	97.38
401.958	91.38
402.182	101.38
402.406	111.38
402.63	102.38
402.854	96.38
403.078	97.38
403.302	99.38
403.526	79.38
403.75	78.38
403.974	76.38
404.198	87.38
404.422	85.38
404.645	70.38
404.869	83.38
405.093	105.38
405.317	92.38
405.541	87.38
405.765	93.38
405.988	109.38
406.212	146.38
406.436	156.38
406.66	131.38
406.883	97.38
407.107	87.38
407.331	89.38
407.555	77.38
407.778	90.38
408.002	83.38
408.226	90.38
408.449	94.38
408.673	95.38
408.896	84.38
409.12	82.38
409.344	77.38
409.567	88.38
409.791	87.38
410.014	91.38
410.238	87.38
410.461	100.38
410.685	97.38
410.908	97.38
411.132	102.38
411.355	104.38
411.578	72.38
411.802	100.38
412.025	89.38
412.249	95.38
412.472	93.38
412.695	95.38
412.919	93.38
413.142	80.38
413.365	89.38
413.589	98.38
413.812	82.38
414.035	84.38
414.258	85.38
414.482	103.38
414.705	86.38
414.928	83.38
415.151	84.38
415.374	98.38
415.597	102.38
415.821	84.38
416.044	90.38
416.267	89.38
416.49	94.38
416.713	79.38
416.936	67.38
417.159	92.38
417.382	78.38
417.605	94.38
417.828	90.38
418.051	76.38
418.274	93.38
418.497	93.38
418.72	71.38
418.943	81.38
419.166	84.38
419.389	94.38
419.611	95.38
419.834	84.38
420.057	89.38
420.28	95.38
420.503	83.38
420.726	89.38
420.948	85.38
421.171	93.38
421.394	89.38
421.617	94.38
421.839	88.38
422.062	81.38
422.285	80.38
422.507	99.38
422.73	90.38
422.953	94.38
423.175	91.38
423.398	87.38
423.621	75.38
423.843	82.38
424.066	90.38
424.288	77.38
424.511	92.38
424.733	87.38
424.956	93.38
425.178	86.38
425.401	97.38
425.623	90.38
425.846	96.38
426.068	88.38
426.291	93.38
426.513	96.38
426.735	89.38
426.958	75.38
427.18	103.38
427.402	111.38
427.625	151.38
427.847	133.38
428.069	104.38
428.292	91.38
428.514	79.38
428.736	74.38
428.958	91.38
429.181	86.38
429.403	95.38
429.625	89.38
429.847	82.38
430.069	101.38
430.292	95.38
430.514	97.38
430.736	90.38
430.958	94.38
431.18	86.38
431.402	84.38
431.624	84.38
431.846	81.38
432.068	83.38
432.29	91.38
432.512	79.38
432.734	80.38
432.956	81.38
433.178	86.38
433.4	93.38
433.622	85.38
433.844	85.38
434.066	96.38
434.287	97.38
434.509	75.38
434.731	82.38
434.953	77.38
435.175	90.38
435.397	88.38
435.618	90.38
435.84	99.38
436.062	94.38
436.284	102.38
436.505	108.38
436.727	95.38
436.949	98.38
437.17	89.38
437.392	78.38
437.614	95.38
437.835	92.38
438.057	104.38
438.278	107.38
438.5	87.38
438.721	124.38
438.943	99.38
439.165	83.38
439.386	91.38
439.608	87.38
439.829	102.38
440.05	101.38
440.272	123.38
440.493	97.38
440.715	67.38
440.936	72.38
441.158	82.38
441.379	91.38
441.6	73.38
441.822	84.38
442.043	94.38
442.264	89.38
442.486	83.38
442.707	80.38
442.928	97.38
443.149	111.38
443.371	117.38
443.592	96.38
443.813	103.38
444.034	112.38
444.255	69.38
444.476	80.38
444.698	93.38
444.919	72.38
445.14	129.38
445.361	123.38
445.582	99.38
445.803	113.38
446.024	119.38
446.245	120.38
446.466	91.38
446.687	92.38
446.908	81.38
447.129	89.38
447.35	74.38
447.571	76.38
447.792	83.38
448.013	93.38
448.234	79.38
448.455	85.38
448.675	100.38
448.896	108.38
449.117	98.38
449.338	119.38
449.559	115.38
449.779	119.38
450	94.38
450.221	95.38
450.442	98.38
450.662	82.38
450.883	90.38
451.104	98.38
451.324	91.38
451.545	84.38
451.766	71.38
451.986	88.38
452.207	95.38
452.428	89.38
452.648	98.38
452.869	88.38
453.089	95.38
453.31	120.38
453.53	88.38
453.751	87.38
453.971	102.38
454.192	96.38
454.412	94.38
454.633	78.38
454.853	88.38
455.073	68.38
455.294	80.38
455.514	94.38
455.734	99.38
455.955	77.38
456.175	83.38
456.395	82.38
456.616	94.38
456.836	81.38
457.056	81.38
457.276	85.38
457.497	90.38
457.717	86.38
457.937	82.38
458.157	85.38
458.377	101.38
458.598	114.38
458.818	124.38
459.038	126.38
459.258	98.38
459.478	82.38
459.698	95.38
459.918	98.38
460.138	83.38
460.358	79.38
460.578	82.38
460.798	94.38
461.018	90.38
461.238	74.38
461.458	73.38
461.678	86.38
461.898	87.38
462.118	96.38
462.338	82.38
462.558	80.38
462.777	87.38
462.997	93.38
463.217	77.38
463.437	85.38
463.657	86.38
463.876	78.38
464.096	99.38
464.316	99.38
464.536	74.38
464.755	90.38
464.975	90.38
465.195	115.38
465.414	130.38
465.634	96.38
465.854	84.38
466.073	86.38
466.293	83.38
466.512	73.38
466.732	79.38
466.951	79.38
467.171	83.38
467.391	101.38
467.61	98.38
467.829	94.38
468.049	86.38
468.268	88.38
468.488	67.38
468.707	95.38
468.927	90.38
469.146	87.38
469.365	95.38
469.585	84.38
469.804	84.38
470.023	87.38
470.243	80.38
470.462	87.38
470.681	109.38
470.901	81.38
471.12	86.38
471.339	87.38
471.558	92.38
471.777	88.38
471.997	85.38
472.216	103.38
472.435	120.38
472.654	87.38
472.873	85.38
473.092	92.38
473.311	94.38
473.53	75.38
473.749	81.38
473.968	80.38
474.187	91.38
474.406	78.38
474.625	84.38
474.844	89.38
475.063	85.38
475.282	82.38
475.501	66.38
475.72	81.38
475.939	85.38
476.158	84.38
476.377	70.38
476.596	88.38
476.814	86.38
477.033	92.38
477.252	87.38
477.471	80.38
477.69	76.38
477.908	71.38
478.127	94.38
478.346	91.38
478.564	91.38
478.783	84.38
479.002	88.38
479.22	81.38
479.439	86.38
479.658	98.38
479.876	80.38
480.095	90.38
480.313	87.38
480.532	88.38
480.751	103.38
480.969	103.38
481.188	146.38
481.406	129.38
481.624	90.38
481.843	80.38
482.061	81.38
482.28	119.38
482.498	78.38
482.717	80.38
482.935	79.38
483.153	79.38
483.372	83.38
483.59	85.38
483.808	71.38
484.027	85.38
484.245	101.38
484.463	101.38
484.681	89.38
484.9	89.38
485.118	99.38
485.336	85.38
485.554	81.38
485.772	99.38
485.99	96.38
486.209	112.38
486.427	99.38
486.645	101.38
486.863	100.38
487.081	102.38
487.299	98.38
487.517	92.38
487.735	93.38
487.953	96.38
488.171	90.38
488.389	100.38
488.607	95.38
488.825	95.38
489.043	81.38
489.261	89.38
489.479	89.38
489.696	79.38
489.914	88.38
490.132	87.38
490.35	83.38
490.568	102.38
490.786	89.38
491.003	79.38
491.221	95.38
491.439	97.38
491.657	98.38
491.874	88.38
492.092	87.38
492.31	85.38
492.527	93.38
492.745	79.38
492.963	78.38
493.18	85.38
493.398	81.38
493.615	86.38
493.833	89.38
494.05	79.38
494.268	89.38
494.485	83.38
494.703	91.38
494.92	96.38
495.138	92.38
495.355	99.38
495.573	96.38
495.79	88.38
496.008	94.38
496.225	85.38
496.442	99.38
496.66	89.38
496.877	87.38
497.094	94.38
497.312	87.38
497.529	92.38
497.746	87.38
497.963	93.38
498.181	105.38
498.398	92.38
498.615	98.38
498.832	99.38
499.049	87.38
499.267	96.38
499.484	87.38
499.701	83.38
499.918	84.38
500.135	86.38
500.352	88.38
500.569	91.38
500.786	96.38
501.003	108.38
501.22	89.38
501.437	93.38
501.654	78.38
501.871	93.38
502.088	90.38
502.305	105.38
502.522	94.38
502.739	94.38
502.956	86.38
503.172	88.38
503.389	89.38
503.606	94.38
503.823	84.38
504.04	88.38
504.256	101.38
504.473	99.38
504.69	86.38
504.907	86.38
505.123	104.38
505.34	103.38
505.557	81.38
505.773	103.38
505.99	92.38
506.207	94.38
506.423	86.38
506.64	80.38
506.856	79.38
507.073	78.38
507.289	91.38
507.506	106.38
507.722	100.38
507.939	99.38
508.155	90.38
508.372	97.38
508.588	87.38
508.805	87.38
509.021	93.38
509.238	102.38
509.454	101.38
509.67	93.38
509.887	93.38
510.103	117.38
510.319	172.38
510.536	531.38
510.752	1557.38
510.968	465.38
511.184	127.38
511.401	106.38
511.617	101.38
511.833	89.38
512.049	87.38
512.265	87.38
512.481	87.38
512.698	93.38
512.914	105.38
513.13	95.38
513.346	85.38
513.562	75.38
513.778	85.38
513.994	94.38
514.21	97.38
514.426	108.38
514.642	123.38
514.858	124.38
515.074	147.38
515.29	307.38
515.506	909.38
515.721	373.38
515.937	116.38
516.153	105.38
516.369	100.38
516.585	89.38
516.801	87.38
