Data from Uncirc_2009_H10_HRD10591_00061.txt Node
Date: Wed Jan 03 10:12:14 EST 2024
User: Yrep
Spectrometer: HR+D1059
Trigger mode: 1
Integration Time (sec): 1.000000E-1
Scans to average: 1
Electric dark correction enabled: true
Nonlinearity correction enabled: false
Boxcar width: 0
XAxis mode: Wavelengths
Number of Pixels in Spectrum: 2048
>>>>>Begin Spectral Data<<<<<
223.165	-16.75
223.4	-16.75
223.635	-16.75
223.869	-27.75
224.104	-14.75
224.338	-10.75
224.573	-2.75
224.808	-8.75
225.042	-1.75
225.277	-0.75
225.511	-10.75
225.746	-12.75
225.98	5.25
226.215	19.25
226.449	16.25
226.683	16.25
226.918	19.25
227.152	31.25
227.387	23.25
227.621	43.25
227.856	53.25
228.09	45.25
228.324	56.25
228.559	50.25
228.793	47.25
229.027	64.25
229.262	74.25
229.496	71.25
229.73	74.25
229.964	75.25
230.199	59.25
230.433	72.25
230.667	78.25
230.901	76.25
231.136	82.25
231.37	77.25
231.604	66.25
231.838	86.25
232.072	77.25
232.306	89.25
232.541	78.25
232.775	69.25
233.009	64.25
233.243	92.25
233.477	94.25
233.711	92.25
233.945	86.25
234.179	93.25
234.413	70.25
234.647	97.25
234.881	84.25
235.115	80.25
235.349	80.25
235.583	88.25
235.817	61.25
236.051	81.25
236.285	86.25
236.519	80.25
236.753	77.25
236.987	89.25
237.221	79.25
237.455	90.25
237.689	83.25
237.922	83.25
238.156	71.25
238.39	66.25
238.624	68.25
238.858	78.25
239.091	81.25
239.325	72.25
239.559	90.25
239.793	75.25
240.027	80.25
240.26	82.25
240.494	75.25
240.728	75.25
240.961	88.25
241.195	70.25
241.429	73.25
241.662	78.25
241.896	71.25
242.13	77.25
242.363	63.25
242.597	82.25
242.83	71.25
243.064	71.25
243.298	92.25
243.531	72.25
243.765	85.25
243.998	63.25
244.232	79.25
244.465	84.25
244.699	69.25
244.932	73.25
245.166	93.25
245.399	78.25
245.633	73.25
245.866	90.25
246.099	84.25
246.333	62.25
246.566	73.25
246.8	74.25
247.033	91.25
247.266	82.25
247.5	73.25
247.733	75.25
247.966	74.25
248.2	73.25
248.433	79.25
248.666	81.25
248.899	74.25
249.133	89.25
249.366	87.25
249.599	98.25
249.832	80.25
250.066	76.25
250.299	81.25
250.532	83.25
250.765	81.25
250.998	83.25
251.231	99.25
251.465	80.25
251.698	80.25
251.931	85.25
252.164	87.25
252.397	82.25
252.63	79.25
252.863	78.25
253.096	73.25
253.329	88.25
253.562	81.25
253.795	88.25
254.028	68.25
254.261	79.25
254.494	84.25
254.727	75.25
254.96	68.25
255.193	95.25
255.426	86.25
255.659	74.25
255.892	89.25
256.124	86.25
256.357	73.25
256.59	95.25
256.823	80.25
257.056	81.25
257.289	87.25
257.521	82.25
257.754	80.25
257.987	83.25
258.22	86.25
258.452	77.25
258.685	77.25
258.918	71.25
259.151	78.25
259.383	83.25
259.616	83.25
259.849	80.25
260.081	98.25
260.314	83.25
260.547	83.25
260.779	81.25
261.012	82.25
261.244	77.25
261.477	88.25
261.71	94.25
261.942	99.25
262.175	96.25
262.407	88.25
262.64	79.25
262.872	79.25
263.105	94.25
263.337	94.25
263.57	81.25
263.802	85.25
264.035	85.25
264.267	73.25
264.499	71.25
264.732	82.25
264.964	90.25
265.197	71.25
265.429	77.25
265.661	78.25
265.894	87.25
266.126	88.25
266.358	85.25
266.591	72.25
266.823	96.25
267.055	70.25
267.287	69.25
267.52	74.25
267.752	94.25
267.984	95.25
268.216	86.25
268.448	82.25
268.681	78.25
268.913	81.25
269.145	73.25
269.377	68.25
269.609	86.25
269.841	91.25
270.073	81.25
270.306	89.25
270.538	78.25
270.77	82.25
271.002	94.25
271.234	90.25
271.466	77.25
271.698	79.25
271.93	84.25
272.162	82.25
272.394	81.25
272.626	70.25
272.858	81.25
273.09	75.25
273.322	80.25
273.553	86.25
273.785	85.25
274.017	88.25
274.249	89.25
274.481	78.25
274.713	87.25
274.945	89.25
275.176	84.25
275.408	82.25
275.64	96.25
275.872	78.25
276.104	96.25
276.335	77.25
276.567	95.25
276.799	87.25
277.031	86.25
277.262	84.25
277.494	87.25
277.726	90.25
277.957	94.25
278.189	82.25
278.421	90.25
278.652	79.25
278.884	90.25
279.115	87.25
279.347	76.25
279.579	87.25
279.81	88.25
280.042	84.25
280.273	88.25
280.505	87.25
280.736	85.25
280.968	87.25
281.199	87.25
281.431	86.25
281.662	84.25
281.894	83.25
282.125	93.25
282.356	97.25
282.588	102.25
282.819	105.25
283.051	94.25
283.282	97.25
283.513	91.25
283.745	77.25
283.976	97.25
284.207	102.25
284.439	89.25
284.67	88.25
284.901	92.25
285.132	96.25
285.364	82.25
285.595	79.25
285.826	77.25
286.057	90.25
286.288	89.25
286.52	94.25
286.751	91.25
286.982	86.25
287.213	78.25
287.444	91.25
287.675	86.25
287.906	73.25
288.138	73.25
288.369	87.25
288.6	71.25
288.831	74.25
289.062	78.25
289.293	79.25
289.524	82.25
289.755	93.25
289.986	91.25
290.217	78.25
290.448	92.25
290.679	95.25
290.91	91.25
291.141	79.25
291.371	69.25
291.602	72.25
291.833	84.25
292.064	85.25
292.295	82.25
292.526	82.25
292.757	86.25
292.987	79.25
293.218	79.25
293.449	78.25
293.68	92.25
293.91	81.25
294.141	91.25
294.372	75.25
294.603	92.25
294.833	88.25
295.064	91.25
295.295	91.25
295.525	97.25
295.756	94.25
295.987	95.25
296.217	102.25
296.448	127.25
296.679	90.25
296.909	83.25
297.14	99.25
297.37	83.25
297.601	80.25
297.831	95.25
298.062	94.25
298.292	84.25
298.523	75.25
298.753	88.25
298.984	88.25
299.214	89.25
299.445	93.25
299.675	83.25
299.905	82.25
300.136	88.25
300.366	83.25
300.597	77.25
300.827	101.25
301.057	93.25
301.288	90.25
301.518	95.25
301.748	90.25
301.979	98.25
302.209	87.25
302.439	84.25
302.669	86.25
302.9	85.25
303.13	93.25
303.36	109.25
303.59	105.25
303.82	96.25
304.051	82.25
304.281	87.25
304.511	89.25
304.741	89.25
304.971	94.25
305.201	102.25
305.431	95.25
305.661	86.25
305.891	84.25
306.121	87.25
306.352	76.25
306.582	89.25
306.812	90.25
307.042	85.25
307.272	90.25
307.502	89.25
307.731	93.25
307.961	83.25
308.191	82.25
308.421	81.25
308.651	88.25
308.881	84.25
309.111	87.25
309.341	105.25
309.571	93.25
309.8	86.25
310.03	83.25
310.26	101.25
310.49	93.25
310.72	93.25
310.949	100.25
311.179	102.25
311.409	94.25
311.639	80.25
311.868	83.25
312.098	98.25
312.328	92.25
312.557	94.25
312.787	82.25
313.017	80.25
313.246	104.25
313.476	95.25
313.706	88.25
313.935	88.25
314.165	86.25
314.394	89.25
314.624	90.25
314.853	96.25
315.083	91.25
315.312	100.25
315.542	85.25
315.771	104.25
316.001	95.25
316.23	93.25
316.46	91.25
316.689	93.25
316.919	100.25
317.148	101.25
317.377	104.25
317.607	113.25
317.836	108.25
318.065	74.25
318.295	91.25
318.524	82.25
318.753	95.25
318.983	86.25
319.212	88.25
319.441	99.25
319.67	104.25
319.9	87.25
320.129	82.25
320.358	95.25
320.587	98.25
320.816	99.25
321.046	86.25
321.275	81.25
321.504	89.25
321.733	83.25
321.962	102.25
322.191	107.25
322.42	98.25
322.649	106.25
322.878	95.25
323.108	110.25
323.337	118.25
323.566	125.25
323.795	130.25
324.024	151.25
324.253	331.25
324.482	676.25
324.71	1343.25
324.939	1733.25
325.168	663.25
325.397	208.25
325.626	129.25
325.855	133.25
326.084	131.25
326.313	154.25
326.542	161.25
326.77	204.25
326.999	411.25
327.228	783.25
327.457	1391.25
327.686	1129.25
327.914	313.25
328.143	170.25
328.372	128.25
328.6	116.25
328.829	109.25
329.058	108.25
329.287	98.25
329.515	97.25
329.744	101.25
329.972	102.25
330.201	109.25
330.43	124.25
330.658	108.25
330.887	122.25
331.115	99.25
331.344	78.25
331.572	87.25
331.801	105.25
332.03	107.25
332.258	89.25
332.486	94.25
332.715	104.25
332.943	91.25
333.172	97.25
333.4	93.25
333.629	101.25
333.857	97.25
334.085	99.25
334.314	99.25
334.542	121.25
334.771	118.25
334.999	107.25
335.227	92.25
335.455	99.25
335.684	82.25
335.912	109.25
336.14	99.25
336.369	103.25
336.597	83.25
336.825	99.25
337.053	95.25
337.281	94.25
337.51	90.25
337.738	87.25
337.966	82.25
338.194	89.25
338.422	90.25
338.65	81.25
338.878	92.25
339.106	85.25
339.334	93.25
339.562	75.25
339.79	97.25
340.018	89.25
340.246	97.25
340.474	105.25
340.702	93.25
340.93	79.25
341.158	87.25
341.386	86.25
341.614	113.25
341.842	85.25
342.07	90.25
342.298	94.25
342.526	91.25
342.754	84.25
342.981	86.25
343.209	95.25
343.437	100.25
343.665	100.25
343.893	90.25
344.12	102.25
344.348	93.25
344.576	97.25
344.804	94.25
345.031	91.25
345.259	95.25
345.487	87.25
345.714	83.25
345.942	82.25
346.17	79.25
346.397	96.25
346.625	88.25
346.853	82.25
347.08	82.25
347.308	103.25
347.535	99.25
347.763	87.25
347.99	94.25
348.218	89.25
348.445	98.25
348.673	91.25
348.9	104.25
349.128	89.25
349.355	90.25
349.583	93.25
349.81	83.25
350.037	106.25
350.265	107.25
350.492	91.25
350.72	90.25
350.947	103.25
351.174	105.25
351.402	99.25
351.629	101.25
351.856	104.25
352.083	101.25
352.311	96.25
352.538	115.25
352.765	106.25
352.992	112.25
353.22	98.25
353.447	84.25
353.674	96.25
353.901	97.25
354.128	102.25
354.355	100.25
354.583	104.25
354.81	97.25
355.037	104.25
355.264	99.25
355.491	89.25
355.718	103.25
355.945	93.25
356.172	90.25
356.399	94.25
356.626	94.25
356.853	96.25
357.08	89.25
357.307	94.25
357.534	92.25
357.761	98.25
357.988	88.25
358.215	88.25
358.441	93.25
358.668	96.25
358.895	97.25
359.122	92.25
359.349	84.25
359.576	87.25
359.802	97.25
360.029	89.25
360.256	95.25
360.483	89.25
360.709	91.25
360.936	87.25
361.163	82.25
361.39	90.25
361.616	83.25
361.843	98.25
362.07	96.25
362.296	108.25
362.523	96.25
362.749	88.25
362.976	92.25
363.203	77.25
363.429	87.25
363.656	88.25
363.882	94.25
364.109	90.25
364.335	106.25
364.562	87.25
364.788	89.25
365.015	95.25
365.241	91.25
365.468	105.25
365.694	82.25
365.92	95.25
366.147	91.25
366.373	97.25
366.599	91.25
366.826	103.25
367.052	90.25
367.278	91.25
367.505	102.25
367.731	99.25
367.957	83.25
368.184	100.25
368.41	99.25
368.636	90.25
368.862	106.25
369.089	104.25
369.315	83.25
369.541	90.25
369.767	82.25
369.993	80.25
370.219	96.25
370.445	87.25
370.672	88.25
370.898	86.25
371.124	71.25
371.35	79.25
371.576	94.25
371.802	72.25
372.028	84.25
372.254	99.25
372.48	91.25
372.706	84.25
372.932	79.25
373.158	85.25
373.384	89.25
373.61	91.25
373.835	91.25
374.061	81.25
374.287	92.25
374.513	82.25
374.739	88.25
374.965	88.25
375.191	97.25
375.416	88.25
375.642	94.25
375.868	84.25
376.094	88.25
376.319	96.25
376.545	75.25
376.771	81.25
376.997	75.25
377.222	94.25
377.448	88.25
377.674	81.25
377.899	89.25
378.125	99.25
378.35	90.25
378.576	98.25
378.802	86.25
379.027	92.25
379.253	86.25
379.478	101.25
379.704	102.25
379.929	104.25
380.155	111.25
380.38	101.25
380.606	94.25
380.831	100.25
381.057	85.25
381.282	90.25
381.507	97.25
381.733	100.25
381.958	89.25
382.184	98.25
382.409	103.25
382.634	91.25
382.86	91.25
383.085	96.25
383.31	100.25
383.535	102.25
383.761	102.25
383.986	93.25
384.211	96.25
384.436	98.25
384.662	95.25
384.887	96.25
385.112	98.25
385.337	107.25
385.562	98.25
385.787	96.25
386.013	96.25
386.238	109.25
386.463	85.25
386.688	90.25
386.913	85.25
387.138	97.25
387.363	109.25
387.588	94.25
387.813	113.25
388.038	104.25
388.263	121.25
388.488	98.25
388.713	80.25
388.938	98.25
389.163	84.25
389.387	91.25
389.612	89.25
389.837	82.25
390.062	106.25
390.287	98.25
390.512	87.25
390.736	97.25
390.961	95.25
391.186	100.25
391.411	89.25
391.636	99.25
391.86	85.25
392.085	86.25
392.31	80.25
392.534	88.25
392.759	80.25
392.984	81.25
393.208	88.25
393.433	78.25
393.658	85.25
393.882	83.25
394.107	94.25
394.331	89.25
394.556	84.25
394.78	86.25
395.005	80.25
395.229	94.25
395.454	93.25
395.678	89.25
395.903	67.25
396.127	86.25
396.352	75.25
396.576	83.25
396.801	90.25
397.025	85.25
397.249	82.25
397.474	96.25
397.698	93.25
397.922	83.25
398.147	103.25
398.371	93.25
398.595	88.25
398.82	91.25
399.044	82.25
399.268	88.25
399.492	92.25
399.717	88.25
399.941	91.25
400.165	101.25
400.389	91.25
400.613	81.25
400.837	86.25
401.062	98.25
401.286	82.25
401.51	89.25
401.734	85.25
401.958	93.25
402.182	98.25
402.406	124.25
402.63	112.25
402.854	91.25
403.078	98.25
403.302	84.25
403.526	95.25
403.75	78.25
403.974	95.25
404.198	100.25
404.422	89.25
404.645	101.25
404.869	101.25
405.093	88.25
405.317	103.25
405.541	91.25
405.765	88.25
405.988	93.25
406.212	137.25
406.436	167.25
406.66	115.25
406.883	95.25
407.107	88.25
407.331	76.25
407.555	75.25
407.778	82.25
408.002	86.25
408.226	81.25
408.449	86.25
408.673	88.25
408.896	83.25
409.12	89.25
409.344	90.25
409.567	86.25
409.791	92.25
410.014	85.25
410.238	81.25
410.461	84.25
410.685	94.25
410.908	95.25
411.132	104.25
411.355	81.25
411.578	91.25
411.802	87.25
412.025	65.25
412.249	98.25
412.472	90.25
412.695	98.25
412.919	89.25
413.142	82.25
413.365	78.25
413.589	87.25
413.812	97.25
414.035	76.25
414.258	102.25
414.482	90.25
414.705	92.25
414.928	93.25
415.151	102.25
415.374	80.25
415.597	87.25
415.821	91.25
416.044	89.25
416.267	79.25
416.49	80.25
416.713	89.25
416.936	91.25
417.159	94.25
417.382	86.25
417.605	97.25
417.828	82.25
418.051	98.25
418.274	92.25
418.497	87.25
418.72	81.25
418.943	91.25
419.166	85.25
419.389	75.25
419.611	82.25
419.834	104.25
420.057	81.25
420.28	76.25
420.503	74.25
420.726	104.25
420.948	88.25
421.171	97.25
421.394	99.25
421.617	91.25
421.839	91.25
422.062	91.25
422.285	98.25
422.507	99.25
422.73	97.25
422.953	98.25
423.175	89.25
423.398	96.25
423.621	99.25
423.843	82.25
424.066	92.25
424.288	88.25
424.511	96.25
424.733	113.25
424.956	88.25
425.178	93.25
425.401	94.25
425.623	94.25
425.846	90.25
426.068	106.25
426.291	98.25
426.513	89.25
426.735	82.25
426.958	79.25
427.18	109.25
427.402	120.25
427.625	131.25
427.847	95.25
428.069	102.25
428.292	89.25
428.514	88.25
428.736	92.25
428.958	82.25
429.181	81.25
429.403	92.25
429.625	73.25
429.847	78.25
430.069	100.25
430.292	102.25
430.514	89.25
430.736	97.25
430.958	89.25
431.18	95.25
431.402	84.25
431.624	92.25
431.846	88.25
432.068	82.25
432.29	92.25
432.512	93.25
432.734	98.25
432.956	86.25
433.178	88.25
433.4	96.25
433.622	111.25
433.844	103.25
434.066	93.25
434.287	84.25
434.509	84.25
434.731	87.25
434.953	81.25
435.175	82.25
435.397	87.25
435.618	98.25
435.84	101.25
436.062	99.25
436.284	106.25
436.505	94.25
436.727	96.25
436.949	94.25
437.17	80.25
437.392	94.25
437.614	98.25
437.835	90.25
438.057	109.25
438.278	103.25
438.5	92.25
438.721	93.25
438.943	86.25
439.165	96.25
439.386	105.25
439.608	99.25
439.829	101.25
440.05	94.25
440.272	120.25
440.493	83.25
440.715	83.25
440.936	78.25
441.158	98.25
441.379	97.25
441.6	88.25
441.822	94.25
442.043	80.25
442.264	98.25
442.486	94.25
442.707	86.25
442.928	93.25
443.149	106.25
443.371	106.25
443.592	103.25
443.813	102.25
444.034	85.25
444.255	89.25
444.476	104.25
444.698	93.25
444.919	81.25
445.14	133.25
445.361	121.25
445.582	112.25
445.803	137.25
446.024	132.25
446.245	111.25
446.466	94.25
446.687	85.25
446.908	79.25
447.129	81.25
447.35	84.25
447.571	88.25
447.792	85.25
448.013	97.25
448.234	93.25
448.455	81.25
448.675	120.25
448.896	98.25
449.117	92.25
449.338	99.25
449.559	99.25
449.779	125.25
450	96.25
450.221	93.25
450.442	89.25
450.662	97.25
450.883	93.25
451.104	100.25
451.324	89.25
451.545	90.25
451.766	83.25
451.986	92.25
452.207	87.25
452.428	83.25
452.648	81.25
452.869	96.25
453.089	101.25
453.31	110.25
453.53	86.25
453.751	92.25
453.971	96.25
454.192	93.25
454.412	76.25
454.633	74.25
454.853	92.25
455.073	90.25
455.294	93.25
455.514	92.25
455.734	87.25
455.955	88.25
456.175	90.25
456.395	69.25
456.616	79.25
456.836	82.25
457.056	92.25
457.276	89.25
457.497	66.25
457.717	74.25
457.937	71.25
458.157	84.25
458.377	94.25
458.598	85.25
458.818	119.25
459.038	131.25
459.258	98.25
459.478	87.25
459.698	92.25
459.918	91.25
460.138	85.25
460.358	95.25
460.578	91.25
460.798	88.25
461.018	78.25
461.238	74.25
461.458	90.25
461.678	80.25
461.898	81.25
462.118	79.25
462.338	83.25
462.558	91.25
462.777	99.25
462.997	82.25
463.217	90.25
463.437	89.25
463.657	82.25
463.876	82.25
464.096	97.25
464.316	80.25
464.536	94.25
464.755	89.25
464.975	104.25
465.195	123.25
465.414	119.25
465.634	92.25
465.854	82.25
466.073	76.25
466.293	83.25
466.512	93.25
466.732	85.25
466.951	84.25
467.171	90.25
467.391	95.25
467.61	98.25
467.829	103.25
468.049	101.25
468.268	89.25
468.488	85.25
468.707	79.25
468.927	82.25
469.146	91.25
469.365	72.25
469.585	80.25
469.804	80.25
470.023	99.25
470.243	97.25
470.462	104.25
470.681	114.25
470.901	93.25
471.12	104.25
471.339	84.25
471.558	90.25
471.777	87.25
471.997	81.25
472.216	99.25
472.435	126.25
472.654	81.25
472.873	75.25
473.092	77.25
473.311	90.25
473.53	90.25
473.749	75.25
473.968	91.25
474.187	97.25
474.406	104.25
474.625	86.25
474.844	88.25
475.063	86.25
475.282	87.25
475.501	90.25
475.72	103.25
475.939	100.25
476.158	93.25
476.377	80.25
476.596	76.25
476.814	91.25
477.033	91.25
477.252	105.25
477.471	86.25
477.69	94.25
477.908	99.25
478.127	89.25
478.346	84.25
478.564	88.25
478.783	76.25
479.002	83.25
479.22	87.25
479.439	83.25
479.658	96.25
479.876	92.25
480.095	83.25
480.313	99.25
480.532	88.25
480.751	100.25
480.969	93.25
481.188	145.25
481.406	138.25
481.624	90.25
481.843	88.25
482.061	90.25
482.28	91.25
482.498	92.25
482.717	93.25
482.935	86.25
483.153	87.25
483.372	99.25
483.59	83.25
483.808	86.25
484.027	89.25
484.245	89.25
484.463	94.25
484.681	95.25
484.9	112.25
485.118	77.25
485.336	92.25
485.554	102.25
485.772	101.25
485.99	90.25
486.209	104.25
486.427	98.25
486.645	107.25
486.863	116.25
487.081	97.25
487.299	102.25
487.517	98.25
487.735	95.25
487.953	95.25
488.171	98.25
488.389	90.25
488.607	96.25
488.825	92.25
489.043	94.25
489.261	72.25
489.479	91.25
489.696	97.25
489.914	84.25
490.132	87.25
490.35	95.25
490.568	90.25
490.786	91.25
491.003	95.25
491.221	89.25
491.439	81.25
491.657	98.25
491.874	98.25
492.092	93.25
492.31	89.25
492.527	107.25
492.745	105.25
492.963	110.25
493.18	93.25
493.398	96.25
493.615	89.25
493.833	92.25
494.05	84.25
494.268	99.25
494.485	91.25
494.703	95.25
494.92	89.25
495.138	94.25
495.355	91.25
495.573	90.25
495.79	88.25
496.008	89.25
496.225	99.25
496.442	98.25
496.66	79.25
496.877	93.25
497.094	92.25
497.312	92.25
497.529	95.25
497.746	84.25
497.963	82.25
498.181	93.25
498.398	114.25
498.615	104.25
498.832	99.25
499.049	87.25
499.267	87.25
499.484	98.25
499.701	92.25
499.918	81.25
500.135	85.25
500.352	90.25
500.569	81.25
500.786	89.25
501.003	87.25
501.22	78.25
501.437	103.25
501.654	79.25
501.871	99.25
502.088	86.25
502.305	93.25
502.522	79.25
502.739	82.25
502.956	88.25
503.172	87.25
503.389	96.25
503.606	93.25
503.823	95.25
504.04	91.25
504.256	88.25
504.473	86.25
504.69	80.25
504.907	98.25
505.123	98.25
505.34	98.25
505.557	106.25
505.773	95.25
505.99	88.25
506.207	85.25
506.423	85.25
506.64	92.25
506.856	88.25
507.073	93.25
507.289	109.25
507.506	87.25
507.722	106.25
507.939	103.25
508.155	99.25
508.372	85.25
508.588	101.25
508.805	102.25
509.021	90.25
509.238	103.25
509.454	91.25
509.67	98.25
509.887	98.25
510.103	122.25
510.319	166.25
510.536	530.25
510.752	1564.25
510.968	488.25
511.184	153.25
511.401	97.25
511.617	102.25
511.833	107.25
512.049	96.25
512.265	90.25
512.481	94.25
512.698	93.25
512.914	87.25
513.13	91.25
513.346	81.25
513.562	97.25
513.778	101.25
513.994	72.25
514.21	98.25
514.426	121.25
514.642	108.25
514.858	117.25
515.074	122.25
515.29	282.25
515.506	850.25
515.721	341.25
515.937	137.25
516.153	100.25
516.369	86.25
516.585	90.25
516.801	100.25
