Data from Uncirc_2009_H10_HRD10591_00051.txt Node
Date: Wed Jan 03 10:12:12 EST 2024
User: Yrep
Spectrometer: HR+D1059
Trigger mode: 1
Integration Time (sec): 1.000000E-1
Scans to average: 1
Electric dark correction enabled: true
Nonlinearity correction enabled: false
Boxcar width: 0
XAxis mode: Wavelengths
Number of Pixels in Spectrum: 2048
>>>>>Begin Spectral Data<<<<<
223.165	-16.38
223.4	-16.38
223.635	-16.38
223.869	-23.38
224.104	-22.38
224.338	-21.38
224.573	-7.38
224.808	-22.38
225.042	-1.38
225.277	-18.38
225.511	7.62
225.746	-0.38
225.98	15.62
226.215	24.62
226.449	12.62
226.683	17.62
226.918	20.62
227.152	34.62
227.387	44.62
227.621	29.62
227.856	34.62
228.09	63.62
228.324	60.62
228.559	50.62
228.793	72.62
229.027	52.62
229.262	71.62
229.496	53.62
229.73	79.62
229.964	64.62
230.199	74.62
230.433	71.62
230.667	80.62
230.901	78.62
231.136	76.62
231.37	84.62
231.604	75.62
231.838	78.62
232.072	86.62
232.306	94.62
232.541	85.62
232.775	87.62
233.009	80.62
233.243	89.62
233.477	77.62
233.711	63.62
233.945	94.62
234.179	70.62
234.413	84.62
234.647	66.62
234.881	77.62
235.115	87.62
235.349	75.62
235.583	74.62
235.817	74.62
236.051	62.62
236.285	84.62
236.519	75.62
236.753	79.62
236.987	77.62
237.221	72.62
237.455	82.62
237.689	75.62
237.922	63.62
238.156	74.62
238.39	61.62
238.624	72.62
238.858	73.62
239.091	78.62
239.325	61.62
239.559	54.62
239.793	77.62
240.027	72.62
240.26	71.62
240.494	71.62
240.728	73.62
240.961	74.62
241.195	75.62
241.429	77.62
241.662	89.62
241.896	82.62
242.13	73.62
242.363	78.62
242.597	81.62
242.83	76.62
243.064	68.62
243.298	77.62
243.531	92.62
243.765	77.62
243.998	66.62
244.232	68.62
244.465	75.62
244.699	90.62
244.932	79.62
245.166	90.62
245.399	74.62
245.633	68.62
245.866	72.62
246.099	76.62
246.333	79.62
246.566	64.62
246.8	82.62
247.033	73.62
247.266	79.62
247.5	87.62
247.733	86.62
247.966	75.62
248.2	77.62
248.433	75.62
248.666	73.62
248.899	86.62
249.133	96.62
249.366	88.62
249.599	89.62
249.832	79.62
250.066	76.62
250.299	89.62
250.532	76.62
250.765	77.62
250.998	95.62
251.231	65.62
251.465	82.62
251.698	69.62
251.931	67.62
252.164	80.62
252.397	73.62
252.63	86.62
252.863	81.62
253.096	74.62
253.329	85.62
253.562	84.62
253.795	87.62
254.028	92.62
254.261	80.62
254.494	72.62
254.727	89.62
254.96	79.62
255.193	79.62
255.426	75.62
255.659	74.62
255.892	79.62
256.124	88.62
256.357	79.62
256.59	88.62
256.823	67.62
257.056	71.62
257.289	86.62
257.521	68.62
257.754	78.62
257.987	86.62
258.22	82.62
258.452	91.62
258.685	93.62
258.918	78.62
259.151	95.62
259.383	71.62
259.616	81.62
259.849	86.62
260.081	75.62
260.314	80.62
260.547	83.62
260.779	82.62
261.012	80.62
261.244	85.62
261.477	70.62
261.71	83.62
261.942	90.62
262.175	99.62
262.407	85.62
262.64	78.62
262.872	88.62
263.105	76.62
263.337	82.62
263.57	78.62
263.802	74.62
264.035	79.62
264.267	71.62
264.499	84.62
264.732	83.62
264.964	74.62
265.197	76.62
265.429	81.62
265.661	92.62
265.894	80.62
266.126	81.62
266.358	84.62
266.591	83.62
266.823	80.62
267.055	72.62
267.287	78.62
267.52	79.62
267.752	98.62
267.984	73.62
268.216	79.62
268.448	105.62
268.681	84.62
268.913	79.62
269.145	83.62
269.377	95.62
269.609	59.62
269.841	72.62
270.073	84.62
270.306	87.62
270.538	89.62
270.77	88.62
271.002	91.62
271.234	78.62
271.466	95.62
271.698	88.62
271.93	85.62
272.162	84.62
272.394	82.62
272.626	90.62
272.858	78.62
273.09	88.62
273.322	77.62
273.553	66.62
273.785	89.62
274.017	79.62
274.249	89.62
274.481	98.62
274.713	76.62
274.945	96.62
275.176	80.62
275.408	91.62
275.64	79.62
275.872	86.62
276.104	91.62
276.335	94.62
276.567	83.62
276.799	98.62
277.031	83.62
277.262	79.62
277.494	92.62
277.726	79.62
277.957	89.62
278.189	86.62
278.421	92.62
278.652	88.62
278.884	78.62
279.115	98.62
279.347	76.62
279.579	81.62
279.81	80.62
280.042	79.62
280.273	93.62
280.505	86.62
280.736	89.62
280.968	88.62
281.199	66.62
281.431	74.62
281.662	85.62
281.894	88.62
282.125	83.62
282.356	106.62
282.588	108.62
282.819	106.62
283.051	91.62
283.282	92.62
283.513	77.62
283.745	93.62
283.976	98.62
284.207	92.62
284.439	94.62
284.67	96.62
284.901	78.62
285.132	86.62
285.364	85.62
285.595	94.62
285.826	100.62
286.057	84.62
286.288	89.62
286.52	90.62
286.751	85.62
286.982	78.62
287.213	82.62
287.444	92.62
287.675	83.62
287.906	90.62
288.138	77.62
288.369	87.62
288.6	101.62
288.831	93.62
289.062	91.62
289.293	80.62
289.524	74.62
289.755	89.62
289.986	81.62
290.217	78.62
290.448	89.62
290.679	86.62
290.91	86.62
291.141	89.62
291.371	99.62
291.602	90.62
291.833	86.62
292.064	75.62
292.295	84.62
292.526	83.62
292.757	95.62
292.987	77.62
293.218	96.62
293.449	91.62
293.68	105.62
293.91	85.62
294.141	88.62
294.372	88.62
294.603	86.62
294.833	79.62
295.064	90.62
295.295	86.62
295.525	87.62
295.756	93.62
295.987	102.62
296.217	102.62
296.448	92.62
296.679	81.62
296.909	85.62
297.14	79.62
297.37	83.62
297.601	83.62
297.831	83.62
298.062	99.62
298.292	85.62
298.523	87.62
298.753	83.62
298.984	92.62
299.214	84.62
299.445	88.62
299.675	84.62
299.905	76.62
300.136	83.62
300.366	79.62
300.597	95.62
300.827	87.62
301.057	104.62
301.288	89.62
301.518	100.62
301.748	81.62
301.979	91.62
302.209	85.62
302.439	85.62
302.669	90.62
302.9	84.62
303.13	104.62
303.36	92.62
303.59	111.62
303.82	100.62
304.051	79.62
304.281	91.62
304.511	90.62
304.741	92.62
304.971	84.62
305.201	96.62
305.431	77.62
305.661	77.62
305.891	83.62
306.121	84.62
306.352	82.62
306.582	104.62
306.812	91.62
307.042	91.62
307.272	83.62
307.502	85.62
307.731	84.62
307.961	78.62
308.191	86.62
308.421	105.62
308.651	93.62
308.881	90.62
309.111	88.62
309.341	84.62
309.571	73.62
309.8	96.62
310.03	95.62
310.26	100.62
310.49	88.62
310.72	88.62
310.949	98.62
311.179	80.62
311.409	94.62
311.639	85.62
311.868	87.62
312.098	105.62
312.328	91.62
312.557	91.62
312.787	88.62
313.017	90.62
313.246	91.62
313.476	91.62
313.706	86.62
313.935	80.62
314.165	91.62
314.394	94.62
314.624	84.62
314.853	91.62
315.083	98.62
315.312	87.62
315.542	92.62
315.771	87.62
316.001	85.62
316.23	87.62
316.46	99.62
316.689	99.62
316.919	87.62
317.148	100.62
317.377	115.62
317.607	110.62
317.836	111.62
318.065	99.62
318.295	95.62
318.524	100.62
318.753	88.62
318.983	85.62
319.212	99.62
319.441	107.62
319.67	98.62
319.9	102.62
320.129	86.62
320.358	75.62
320.587	79.62
320.816	93.62
321.046	80.62
321.275	87.62
321.504	107.62
321.733	87.62
321.962	93.62
322.191	113.62
322.42	102.62
322.649	93.62
322.878	95.62
323.108	83.62
323.337	91.62
323.566	112.62
323.795	141.62
324.024	187.62
324.253	322.62
324.482	680.62
324.71	1423.62
324.939	1840.62
325.168	671.62
325.397	212.62
325.626	145.62
325.855	118.62
326.084	118.62
326.313	157.62
326.542	159.62
326.77	211.62
326.999	410.62
327.228	793.62
327.457	1480.62
327.686	1154.62
327.914	314.62
328.143	170.62
328.372	132.62
328.6	109.62
328.829	110.62
329.058	108.62
329.287	98.62
329.515	102.62
329.744	105.62
329.972	111.62
330.201	100.62
330.43	110.62
330.658	105.62
330.887	112.62
331.115	90.62
331.344	81.62
331.572	107.62
331.801	102.62
332.03	98.62
332.258	105.62
332.486	76.62
332.715	83.62
332.943	83.62
333.172	84.62
333.4	91.62
333.629	96.62
333.857	109.62
334.085	91.62
334.314	99.62
334.542	120.62
334.771	126.62
334.999	90.62
335.227	101.62
335.455	93.62
335.684	103.62
335.912	93.62
336.14	107.62
336.369	94.62
336.597	84.62
336.825	91.62
337.053	85.62
337.281	93.62
337.51	103.62
337.738	88.62
337.966	81.62
338.194	86.62
338.422	83.62
338.65	83.62
338.878	80.62
339.106	82.62
339.334	92.62
339.562	93.62
339.79	78.62
340.018	90.62
340.246	78.62
340.474	100.62
340.702	74.62
340.93	76.62
341.158	79.62
341.386	87.62
341.614	86.62
341.842	85.62
342.07	79.62
342.298	83.62
342.526	88.62
342.754	74.62
342.981	76.62
343.209	85.62
343.437	96.62
343.665	80.62
343.893	98.62
344.12	95.62
344.348	94.62
344.576	82.62
344.804	74.62
345.031	88.62
345.259	82.62
345.487	87.62
345.714	93.62
345.942	100.62
346.17	98.62
346.397	91.62
346.625	93.62
346.853	90.62
347.08	91.62
347.308	85.62
347.535	93.62
347.763	102.62
347.99	95.62
348.218	102.62
348.445	100.62
348.673	104.62
348.9	91.62
349.128	89.62
349.355	92.62
349.583	93.62
349.81	96.62
350.037	93.62
350.265	86.62
350.492	97.62
350.72	80.62
350.947	81.62
351.174	93.62
351.402	108.62
351.629	102.62
351.856	94.62
352.083	98.62
352.311	97.62
352.538	90.62
352.765	103.62
352.992	106.62
353.22	98.62
353.447	94.62
353.674	101.62
353.901	89.62
354.128	92.62
354.355	86.62
354.583	86.62
354.81	103.62
355.037	96.62
355.264	102.62
355.491	94.62
355.718	80.62
355.945	90.62
356.172	86.62
356.399	87.62
356.626	99.62
356.853	93.62
357.08	85.62
357.307	79.62
357.534	105.62
357.761	88.62
357.988	87.62
358.215	100.62
358.441	97.62
358.668	89.62
358.895	91.62
359.122	102.62
359.349	95.62
359.576	83.62
359.802	99.62
360.029	92.62
360.256	95.62
360.483	79.62
360.709	81.62
360.936	83.62
361.163	92.62
361.39	86.62
361.616	80.62
361.843	87.62
362.07	87.62
362.296	100.62
362.523	103.62
362.749	93.62
362.976	93.62
363.203	95.62
363.429	89.62
363.656	101.62
363.882	97.62
364.109	77.62
364.335	84.62
364.562	75.62
364.788	72.62
365.015	95.62
365.241	71.62
365.468	92.62
365.694	116.62
365.92	82.62
366.147	76.62
366.373	79.62
366.599	85.62
366.826	75.62
367.052	97.62
367.278	76.62
367.505	82.62
367.731	77.62
367.957	77.62
368.184	74.62
368.41	83.62
368.636	107.62
368.862	99.62
369.089	95.62
369.315	82.62
369.541	90.62
369.767	85.62
369.993	80.62
370.219	84.62
370.445	88.62
370.672	98.62
370.898	93.62
371.124	89.62
371.35	74.62
371.576	82.62
371.802	88.62
372.028	90.62
372.254	104.62
372.48	87.62
372.706	90.62
372.932	81.62
373.158	85.62
373.384	65.62
373.61	94.62
373.835	80.62
374.061	77.62
374.287	94.62
374.513	81.62
374.739	69.62
374.965	91.62
375.191	97.62
375.416	88.62
375.642	90.62
375.868	98.62
376.094	92.62
376.319	84.62
376.545	85.62
376.771	96.62
376.997	93.62
377.222	92.62
377.448	81.62
377.674	82.62
377.899	87.62
378.125	88.62
378.35	87.62
378.576	94.62
378.802	91.62
379.027	91.62
379.253	106.62
379.478	94.62
379.704	77.62
379.929	96.62
380.155	95.62
380.38	91.62
380.606	91.62
380.831	93.62
381.057	106.62
381.282	90.62
381.507	93.62
381.733	90.62
381.958	90.62
382.184	93.62
382.409	83.62
382.634	100.62
382.86	94.62
383.085	85.62
383.31	102.62
383.535	99.62
383.761	103.62
383.986	92.62
384.211	89.62
384.436	107.62
384.662	94.62
384.887	93.62
385.112	104.62
385.337	105.62
385.562	105.62
385.787	106.62
386.013	98.62
386.238	104.62
386.463	112.62
386.688	99.62
386.913	109.62
387.138	109.62
387.363	82.62
387.588	92.62
387.813	86.62
388.038	103.62
388.263	99.62
388.488	90.62
388.713	79.62
388.938	104.62
389.163	111.62
389.387	96.62
389.612	90.62
389.837	92.62
390.062	70.62
390.287	86.62
390.512	85.62
390.736	87.62
390.961	91.62
391.186	91.62
391.411	91.62
391.636	88.62
391.86	74.62
392.085	90.62
392.31	90.62
392.534	96.62
392.759	94.62
392.984	86.62
393.208	88.62
393.433	80.62
393.658	81.62
393.882	86.62
394.107	76.62
394.331	90.62
394.556	85.62
394.78	89.62
395.005	84.62
395.229	84.62
395.454	75.62
395.678	79.62
395.903	76.62
396.127	92.62
396.352	82.62
396.576	89.62
396.801	93.62
397.025	92.62
397.249	93.62
397.474	90.62
397.698	72.62
397.922	81.62
398.147	78.62
398.371	77.62
398.595	83.62
398.82	91.62
399.044	83.62
399.268	75.62
399.492	71.62
399.717	83.62
399.941	91.62
400.165	87.62
400.389	87.62
400.613	77.62
400.837	77.62
401.062	80.62
401.286	92.62
401.51	78.62
401.734	80.62
401.958	95.62
402.182	102.62
402.406	130.62
402.63	107.62
402.854	85.62
403.078	77.62
403.302	85.62
403.526	78.62
403.75	101.62
403.974	90.62
404.198	85.62
404.422	77.62
404.645	77.62
404.869	98.62
405.093	78.62
405.317	84.62
405.541	106.62
405.765	111.62
405.988	105.62
406.212	126.62
406.436	163.62
406.66	114.62
406.883	86.62
407.107	85.62
407.331	94.62
407.555	90.62
407.778	85.62
408.002	99.62
408.226	81.62
408.449	95.62
408.673	94.62
408.896	91.62
409.12	101.62
409.344	80.62
409.567	82.62
409.791	78.62
410.014	89.62
410.238	92.62
410.461	71.62
410.685	95.62
410.908	94.62
411.132	94.62
411.355	84.62
411.578	102.62
411.802	95.62
412.025	92.62
412.249	86.62
412.472	83.62
412.695	102.62
412.919	104.62
413.142	83.62
413.365	76.62
413.589	87.62
413.812	83.62
414.035	83.62
414.258	93.62
414.482	91.62
414.705	78.62
414.928	90.62
415.151	90.62
415.374	101.62
415.597	90.62
415.821	90.62
416.044	83.62
416.267	86.62
416.49	74.62
416.713	78.62
416.936	81.62
417.159	86.62
417.382	86.62
417.605	70.62
417.828	77.62
418.051	70.62
418.274	90.62
418.497	88.62
418.72	99.62
418.943	85.62
419.166	90.62
419.389	83.62
419.611	99.62
419.834	90.62
420.057	83.62
420.28	85.62
420.503	72.62
420.726	85.62
420.948	87.62
421.171	85.62
421.394	93.62
421.617	93.62
421.839	112.62
422.062	90.62
422.285	91.62
422.507	91.62
422.73	85.62
422.953	102.62
423.175	85.62
423.398	84.62
423.621	85.62
423.843	92.62
424.066	94.62
424.288	72.62
424.511	89.62
424.733	109.62
424.956	103.62
425.178	83.62
425.401	88.62
425.623	89.62
425.846	92.62
426.068	81.62
426.291	85.62
426.513	87.62
426.735	89.62
426.958	80.62
427.18	95.62
427.402	130.62
427.625	148.62
427.847	115.62
428.069	107.62
428.292	76.62
428.514	77.62
428.736	82.62
428.958	94.62
429.181	95.62
429.403	87.62
429.625	84.62
429.847	104.62
430.069	101.62
430.292	78.62
430.514	78.62
430.736	79.62
430.958	79.62
431.18	92.62
431.402	90.62
431.624	87.62
431.846	74.62
432.068	83.62
432.29	84.62
432.512	80.62
432.734	82.62
432.956	92.62
433.178	88.62
433.4	76.62
433.622	83.62
433.844	76.62
434.066	91.62
434.287	89.62
434.509	89.62
434.731	90.62
434.953	99.62
435.175	103.62
435.397	81.62
435.618	109.62
435.84	98.62
436.062	115.62
436.284	108.62
436.505	105.62
436.727	98.62
436.949	88.62
437.17	83.62
437.392	80.62
437.614	87.62
437.835	96.62
438.057	121.62
438.278	98.62
438.5	101.62
438.721	110.62
438.943	87.62
439.165	86.62
439.386	80.62
439.608	100.62
439.829	91.62
440.05	122.62
440.272	109.62
440.493	95.62
440.715	82.62
440.936	80.62
441.158	80.62
441.379	86.62
441.6	82.62
441.822	87.62
442.043	86.62
442.264	105.62
442.486	90.62
442.707	78.62
442.928	95.62
443.149	120.62
443.371	110.62
443.592	98.62
443.813	115.62
444.034	94.62
444.255	86.62
444.476	87.62
444.698	73.62
444.919	84.62
445.14	126.62
445.361	130.62
445.582	115.62
445.803	103.62
446.024	109.62
446.245	117.62
446.466	104.62
446.687	82.62
446.908	86.62
447.129	91.62
447.35	84.62
447.571	81.62
447.792	89.62
448.013	104.62
448.234	92.62
448.455	84.62
448.675	103.62
448.896	106.62
449.117	91.62
449.338	96.62
449.559	126.62
449.779	126.62
450	92.62
450.221	79.62
450.442	78.62
450.662	94.62
450.883	90.62
451.104	102.62
451.324	90.62
451.545	79.62
451.766	73.62
451.986	82.62
452.207	109.62
452.428	90.62
452.648	100.62
452.869	88.62
453.089	97.62
453.31	98.62
453.53	99.62
453.751	86.62
453.971	90.62
454.192	103.62
454.412	95.62
454.633	81.62
454.853	86.62
455.073	92.62
455.294	91.62
455.514	98.62
455.734	91.62
455.955	86.62
456.175	85.62
456.395	84.62
456.616	89.62
456.836	78.62
457.056	74.62
457.276	76.62
457.497	85.62
457.717	87.62
457.937	85.62
458.157	90.62
458.377	85.62
458.598	90.62
458.818	103.62
459.038	122.62
459.258	102.62
459.478	81.62
459.698	67.62
459.918	78.62
460.138	96.62
460.358	80.62
460.578	83.62
460.798	80.62
461.018	80.62
461.238	95.62
461.458	86.62
461.678	89.62
461.898	80.62
462.118	94.62
462.338	81.62
462.558	95.62
462.777	82.62
462.997	74.62
463.217	87.62
463.437	90.62
463.657	93.62
463.876	76.62
464.096	79.62
464.316	83.62
464.536	86.62
464.755	89.62
464.975	109.62
465.195	118.62
465.414	128.62
465.634	94.62
465.854	67.62
466.073	79.62
466.293	86.62
466.512	74.62
466.732	85.62
466.951	104.62
467.171	73.62
467.391	79.62
467.61	91.62
467.829	101.62
468.049	79.62
468.268	91.62
468.488	85.62
468.707	80.62
468.927	95.62
469.146	70.62
469.365	74.62
469.585	87.62
469.804	79.62
470.023	87.62
470.243	93.62
470.462	74.62
470.681	95.62
470.901	99.62
471.12	92.62
471.339	91.62
471.558	93.62
471.777	71.62
471.997	89.62
472.216	102.62
472.435	138.62
472.654	99.62
472.873	95.62
473.092	85.62
473.311	85.62
473.53	91.62
473.749	96.62
473.968	91.62
474.187	101.62
474.406	85.62
474.625	81.62
474.844	83.62
475.063	101.62
475.282	92.62
475.501	83.62
475.72	97.62
475.939	90.62
476.158	81.62
476.377	76.62
476.596	83.62
476.814	81.62
477.033	91.62
477.252	93.62
477.471	85.62
477.69	82.62
477.908	77.62
478.127	99.62
478.346	89.62
478.564	86.62
478.783	87.62
479.002	99.62
479.22	88.62
479.439	95.62
479.658	94.62
479.876	95.62
480.095	103.62
480.313	89.62
480.532	93.62
480.751	75.62
480.969	99.62
481.188	148.62
481.406	129.62
481.624	88.62
481.843	79.62
482.061	76.62
482.28	98.62
482.498	81.62
482.717	93.62
482.935	88.62
483.153	76.62
483.372	98.62
483.59	85.62
483.808	81.62
484.027	78.62
484.245	100.62
484.463	97.62
484.681	97.62
484.9	80.62
485.118	91.62
485.336	84.62
485.554	102.62
485.772	92.62
485.99	106.62
486.209	107.62
486.427	104.62
486.645	94.62
486.863	90.62
487.081	105.62
487.299	92.62
487.517	91.62
487.735	95.62
487.953	87.62
488.171	70.62
488.389	70.62
488.607	78.62
488.825	84.62
489.043	91.62
489.261	94.62
489.479	77.62
489.696	87.62
489.914	77.62
490.132	94.62
490.35	93.62
490.568	98.62
490.786	84.62
491.003	86.62
491.221	95.62
491.439	88.62
491.657	80.62
491.874	74.62
492.092	96.62
492.31	95.62
492.527	99.62
492.745	78.62
492.963	85.62
493.18	89.62
493.398	104.62
493.615	105.62
493.833	85.62
494.05	80.62
494.268	96.62
494.485	90.62
494.703	80.62
494.92	89.62
495.138	95.62
495.355	94.62
495.573	93.62
495.79	74.62
496.008	87.62
496.225	94.62
496.442	92.62
496.66	82.62
496.877	81.62
497.094	96.62
497.312	95.62
497.529	94.62
497.746	99.62
497.963	83.62
498.181	77.62
498.398	87.62
498.615	106.62
498.832	94.62
499.049	79.62
499.267	104.62
499.484	89.62
499.701	90.62
499.918	83.62
500.135	90.62
500.352	92.62
500.569	100.62
500.786	89.62
501.003	90.62
501.22	94.62
501.437	77.62
501.654	96.62
501.871	103.62
502.088	95.62
502.305	87.62
502.522	79.62
502.739	83.62
502.956	101.62
503.172	70.62
503.389	103.62
503.606	100.62
503.823	95.62
504.04	89.62
504.256	91.62
504.473	89.62
504.69	98.62
504.907	102.62
505.123	99.62
505.34	98.62
505.557	102.62
505.773	89.62
505.99	75.62
506.207	83.62
506.423	89.62
506.64	68.62
506.856	92.62
507.073	82.62
507.289	88.62
507.506	95.62
507.722	107.62
507.939	97.62
508.155	92.62
508.372	89.62
508.588	92.62
508.805	90.62
509.021	77.62
509.238	77.62
509.454	86.62
509.67	86.62
509.887	103.62
510.103	102.62
510.319	163.62
510.536	543.62
510.752	1586.62
510.968	475.62
511.184	126.62
511.401	101.62
511.617	92.62
511.833	93.62
512.049	89.62
512.265	105.62
512.481	95.62
512.698	90.62
512.914	88.62
513.13	98.62
513.346	99.62
513.562	89.62
513.778	73.62
513.994	102.62
514.21	99.62
514.426	101.62
514.642	121.62
514.858	92.62
515.074	143.62
515.29	303.62
515.506	937.62
515.721	402.62
515.937	126.62
516.153	95.62
516.369	97.62
516.585	103.62
516.801	91.62
517.016	93.62
