Data from Uncirc_2009_H10_HRD10591_00032.txt Node
Date: Wed Jan 03 10:12:08 EST 2024
User: Yrep
Spectrometer: HR+D1059
Trigger mode: 1
Integration Time (sec): 1.000000E-1
Scans to average: 1
Electric dark correction enabled: true
Nonlinearity correction enabled: false
Boxcar width: 0
XAxis mode: Wavelengths
Number of Pixels in Spectrum: 2048
>>>>>Begin Spectral Data<<<<<
223.165	-26.75
223.4	-26.75
223.635	-26.75
223.869	-21.75
224.104	-5.75
224.338	-29.75
224.573	-14.75
224.808	-21.75
225.042	-8.75
225.277	-1.75
225.511	-2.75
225.746	5.25
225.98	8.25
226.215	18.25
226.449	16.25
226.683	39.25
226.918	29.25
227.152	17.25
227.387	33.25
227.621	27.25
227.856	42.25
228.09	39.25
228.324	65.25
228.559	33.25
228.793	59.25
229.027	59.25
229.262	50.25
229.496	63.25
229.73	90.25
229.964	75.25
230.199	78.25
230.433	76.25
230.667	82.25
230.901	84.25
231.136	90.25
231.37	73.25
231.604	86.25
231.838	80.25
232.072	91.25
232.306	62.25
232.541	74.25
232.775	78.25
233.009	83.25
233.243	78.25
233.477	80.25
233.711	73.25
233.945	77.25
234.179	78.25
234.413	87.25
234.647	85.25
234.881	87.25
235.115	72.25
235.349	69.25
235.583	75.25
235.817	62.25
236.051	76.25
236.285	73.25
236.519	66.25
236.753	71.25
236.987	71.25
237.221	73.25
237.455	76.25
237.689	74.25
237.922	90.25
238.156	91.25
238.39	83.25
238.624	63.25
238.858	74.25
239.091	78.25
239.325	84.25
239.559	86.25
239.793	72.25
240.027	70.25
240.26	78.25
240.494	80.25
240.728	82.25
240.961	82.25
241.195	77.25
241.429	71.25
241.662	73.25
241.896	82.25
242.13	81.25
242.363	74.25
242.597	66.25
242.83	77.25
243.064	79.25
243.298	81.25
243.531	82.25
243.765	83.25
243.998	81.25
244.232	58.25
244.465	94.25
244.699	80.25
244.932	67.25
245.166	76.25
245.399	79.25
245.633	89.25
245.866	81.25
246.099	76.25
246.333	104.25
246.566	86.25
246.8	77.25
247.033	87.25
247.266	84.25
247.5	87.25
247.733	80.25
247.966	92.25
248.2	93.25
248.433	80.25
248.666	67.25
248.899	80.25
249.133	75.25
249.366	82.25
249.599	93.25
249.832	95.25
250.066	83.25
250.299	75.25
250.532	82.25
250.765	88.25
250.998	80.25
251.231	77.25
251.465	79.25
251.698	74.25
251.931	77.25
252.164	80.25
252.397	79.25
252.63	80.25
252.863	79.25
253.096	79.25
253.329	84.25
253.562	85.25
253.795	97.25
254.028	85.25
254.261	94.25
254.494	70.25
254.727	87.25
254.96	91.25
255.193	94.25
255.426	87.25
255.659	81.25
255.892	80.25
256.124	83.25
256.357	86.25
256.59	82.25
256.823	78.25
257.056	70.25
257.289	79.25
257.521	82.25
257.754	95.25
257.987	82.25
258.22	83.25
258.452	84.25
258.685	76.25
258.918	81.25
259.151	69.25
259.383	88.25
259.616	84.25
259.849	74.25
260.081	87.25
260.314	85.25
260.547	101.25
260.779	74.25
261.012	86.25
261.244	64.25
261.477	77.25
261.71	90.25
261.942	103.25
262.175	104.25
262.407	72.25
262.64	100.25
262.872	84.25
263.105	78.25
263.337	73.25
263.57	71.25
263.802	72.25
264.035	76.25
264.267	82.25
264.499	81.25
264.732	78.25
264.964	84.25
265.197	88.25
265.429	81.25
265.661	92.25
265.894	92.25
266.126	77.25
266.358	95.25
266.591	90.25
266.823	95.25
267.055	90.25
267.287	95.25
267.52	97.25
267.752	82.25
267.984	85.25
268.216	82.25
268.448	91.25
268.681	86.25
268.913	91.25
269.145	79.25
269.377	78.25
269.609	90.25
269.841	90.25
270.073	75.25
270.306	76.25
270.538	85.25
270.77	91.25
271.002	100.25
271.234	93.25
271.466	81.25
271.698	101.25
271.93	90.25
272.162	88.25
272.394	94.25
272.626	73.25
272.858	83.25
273.09	79.25
273.322	94.25
273.553	96.25
273.785	78.25
274.017	75.25
274.249	73.25
274.481	82.25
274.713	76.25
274.945	98.25
275.176	86.25
275.408	82.25
275.64	83.25
275.872	93.25
276.104	97.25
276.335	92.25
276.567	101.25
276.799	94.25
277.031	91.25
277.262	94.25
277.494	69.25
277.726	93.25
277.957	91.25
278.189	88.25
278.421	89.25
278.652	74.25
278.884	80.25
279.115	93.25
279.347	87.25
279.579	83.25
279.81	100.25
280.042	69.25
280.273	90.25
280.505	101.25
280.736	91.25
280.968	86.25
281.199	87.25
281.431	82.25
281.662	86.25
281.894	80.25
282.125	91.25
282.356	104.25
282.588	127.25
282.819	106.25
283.051	94.25
283.282	86.25
283.513	82.25
283.745	86.25
283.976	89.25
284.207	97.25
284.439	91.25
284.67	83.25
284.901	84.25
285.132	72.25
285.364	97.25
285.595	92.25
285.826	90.25
286.057	95.25
286.288	92.25
286.52	87.25
286.751	66.25
286.982	106.25
287.213	96.25
287.444	82.25
287.675	85.25
287.906	71.25
288.138	90.25
288.369	88.25
288.6	89.25
288.831	91.25
289.062	82.25
289.293	93.25
289.524	89.25
289.755	90.25
289.986	83.25
290.217	75.25
290.448	74.25
290.679	76.25
290.91	87.25
291.141	93.25
291.371	77.25
291.602	86.25
291.833	87.25
292.064	88.25
292.295	89.25
292.526	93.25
292.757	103.25
292.987	92.25
293.218	90.25
293.449	86.25
293.68	82.25
293.91	83.25
294.141	90.25
294.372	92.25
294.603	95.25
294.833	75.25
295.064	83.25
295.295	95.25
295.525	91.25
295.756	101.25
295.987	94.25
296.217	121.25
296.448	112.25
296.679	94.25
296.909	86.25
297.14	87.25
297.37	98.25
297.601	92.25
297.831	83.25
298.062	91.25
298.292	79.25
298.523	80.25
298.753	91.25
298.984	92.25
299.214	89.25
299.445	103.25
299.675	98.25
299.905	90.25
300.136	89.25
300.366	100.25
300.597	87.25
300.827	99.25
301.057	111.25
301.288	92.25
301.518	80.25
301.748	102.25
301.979	104.25
302.209	83.25
302.439	74.25
302.669	78.25
302.9	100.25
303.13	90.25
303.36	102.25
303.59	111.25
303.82	101.25
304.051	90.25
304.281	79.25
304.511	91.25
304.741	87.25
304.971	85.25
305.201	103.25
305.431	86.25
305.661	93.25
305.891	87.25
306.121	87.25
306.352	90.25
306.582	82.25
306.812	82.25
307.042	97.25
307.272	109.25
307.502	103.25
307.731	95.25
307.961	81.25
308.191	88.25
308.421	85.25
308.651	70.25
308.881	91.25
309.111	89.25
309.341	93.25
309.571	93.25
309.8	98.25
310.03	93.25
310.26	101.25
310.49	98.25
310.72	91.25
310.949	88.25
311.179	100.25
311.409	89.25
311.639	89.25
311.868	89.25
312.098	95.25
312.328	85.25
312.557	80.25
312.787	110.25
313.017	88.25
313.246	93.25
313.476	103.25
313.706	93.25
313.935	92.25
314.165	89.25
314.394	94.25
314.624	85.25
314.853	98.25
315.083	99.25
315.312	82.25
315.542	88.25
315.771	95.25
316.001	88.25
316.23	89.25
316.46	91.25
316.689	93.25
316.919	84.25
317.148	105.25
317.377	106.25
317.607	113.25
317.836	106.25
318.065	89.25
318.295	82.25
318.524	100.25
318.753	96.25
318.983	81.25
319.212	96.25
319.441	96.25
319.67	92.25
319.9	88.25
320.129	88.25
320.358	81.25
320.587	82.25
320.816	85.25
321.046	92.25
321.275	102.25
321.504	94.25
321.733	83.25
321.962	97.25
322.191	97.25
322.42	95.25
322.649	93.25
322.878	95.25
323.108	117.25
323.337	124.25
323.566	134.25
323.795	141.25
324.024	165.25
324.253	325.25
324.482	661.25
324.71	1326.25
324.939	1743.25
325.168	624.25
325.397	215.25
325.626	158.25
325.855	147.25
326.084	130.25
326.313	119.25
326.542	160.25
326.77	204.25
326.999	401.25
327.228	752.25
327.457	1399.25
327.686	1079.25
327.914	294.25
328.143	151.25
328.372	122.25
328.6	110.25
328.829	100.25
329.058	122.25
329.287	106.25
329.515	101.25
329.744	102.25
329.972	90.25
330.201	100.25
330.43	119.25
330.658	119.25
330.887	139.25
331.115	113.25
331.344	102.25
331.572	97.25
331.801	96.25
332.03	101.25
332.258	93.25
332.486	89.25
332.715	81.25
332.943	108.25
333.172	106.25
333.4	102.25
333.629	95.25
333.857	103.25
334.085	107.25
334.314	98.25
334.542	117.25
334.771	121.25
334.999	105.25
335.227	101.25
335.455	94.25
335.684	90.25
335.912	96.25
336.14	91.25
336.369	87.25
336.597	97.25
336.825	86.25
337.053	94.25
337.281	97.25
337.51	74.25
337.738	84.25
337.966	89.25
338.194	93.25
338.422	82.25
338.65	90.25
338.878	94.25
339.106	91.25
339.334	89.25
339.562	90.25
339.79	97.25
340.018	78.25
340.246	87.25
340.474	89.25
340.702	91.25
340.93	95.25
341.158	91.25
341.386	97.25
341.614	97.25
341.842	87.25
342.07	75.25
342.298	99.25
342.526	98.25
342.754	86.25
342.981	86.25
343.209	89.25
343.437	94.25
343.665	82.25
343.893	78.25
344.12	88.25
344.348	106.25
344.576	103.25
344.804	77.25
345.031	104.25
345.259	89.25
345.487	88.25
345.714	93.25
345.942	98.25
346.17	97.25
346.397	85.25
346.625	83.25
346.853	96.25
347.08	87.25
347.308	96.25
347.535	91.25
347.763	74.25
347.99	95.25
348.218	101.25
348.445	94.25
348.673	78.25
348.9	103.25
349.128	89.25
349.355	80.25
349.583	101.25
349.81	76.25
350.037	87.25
350.265	94.25
350.492	89.25
350.72	99.25
350.947	89.25
351.174	107.25
351.402	89.25
351.629	110.25
351.856	98.25
352.083	107.25
352.311	109.25
352.538	90.25
352.765	99.25
352.992	109.25
353.22	99.25
353.447	89.25
353.674	107.25
353.901	94.25
354.128	102.25
354.355	108.25
354.583	103.25
354.81	95.25
355.037	96.25
355.264	88.25
355.491	83.25
355.718	83.25
355.945	97.25
356.172	95.25
356.399	82.25
356.626	95.25
356.853	100.25
357.08	92.25
357.307	98.25
357.534	91.25
357.761	91.25
357.988	101.25
358.215	89.25
358.441	96.25
358.668	100.25
358.895	95.25
359.122	98.25
359.349	93.25
359.576	77.25
359.802	92.25
360.029	109.25
360.256	93.25
360.483	103.25
360.709	87.25
360.936	101.25
361.163	98.25
361.39	110.25
361.616	79.25
361.843	86.25
362.07	104.25
362.296	90.25
362.523	83.25
362.749	87.25
362.976	77.25
363.203	91.25
363.429	88.25
363.656	93.25
363.882	91.25
364.109	85.25
364.335	96.25
364.562	85.25
364.788	88.25
365.015	93.25
365.241	94.25
365.468	94.25
365.694	105.25
365.92	83.25
366.147	99.25
366.373	83.25
366.599	81.25
366.826	87.25
367.052	98.25
367.278	84.25
367.505	97.25
367.731	95.25
367.957	99.25
368.184	95.25
368.41	88.25
368.636	92.25
368.862	102.25
369.089	113.25
369.315	94.25
369.541	91.25
369.767	102.25
369.993	79.25
370.219	88.25
370.445	71.25
370.672	99.25
370.898	96.25
371.124	96.25
371.35	74.25
371.576	89.25
371.802	98.25
372.028	102.25
372.254	98.25
372.48	89.25
372.706	83.25
372.932	78.25
373.158	89.25
373.384	90.25
373.61	95.25
373.835	89.25
374.061	83.25
374.287	86.25
374.513	86.25
374.739	80.25
374.965	82.25
375.191	82.25
375.416	101.25
375.642	89.25
375.868	105.25
376.094	85.25
376.319	78.25
376.545	78.25
376.771	79.25
376.997	86.25
377.222	83.25
377.448	87.25
377.674	92.25
377.899	92.25
378.125	93.25
378.35	98.25
378.576	87.25
378.802	83.25
379.027	92.25
379.253	91.25
379.478	90.25
379.704	93.25
379.929	81.25
380.155	104.25
380.38	95.25
380.606	99.25
380.831	90.25
381.057	70.25
381.282	87.25
381.507	102.25
381.733	93.25
381.958	97.25
382.184	106.25
382.409	98.25
382.634	101.25
382.86	98.25
383.085	111.25
383.31	110.25
383.535	97.25
383.761	93.25
383.986	106.25
384.211	99.25
384.436	92.25
384.662	89.25
384.887	98.25
385.112	96.25
385.337	96.25
385.562	102.25
385.787	104.25
386.013	106.25
386.238	115.25
386.463	110.25
386.688	94.25
386.913	107.25
387.138	101.25
387.363	99.25
387.588	108.25
387.813	109.25
388.038	105.25
388.263	108.25
388.488	104.25
388.713	115.25
388.938	89.25
389.163	103.25
389.387	98.25
389.612	76.25
389.837	90.25
390.062	95.25
390.287	81.25
390.512	85.25
390.736	93.25
390.961	91.25
391.186	98.25
391.411	92.25
391.636	102.25
391.86	86.25
392.085	97.25
392.31	78.25
392.534	78.25
392.759	83.25
392.984	78.25
393.208	94.25
393.433	82.25
393.658	86.25
393.882	85.25
394.107	86.25
394.331	91.25
394.556	91.25
394.78	94.25
395.005	94.25
395.229	102.25
395.454	95.25
395.678	106.25
395.903	80.25
396.127	86.25
396.352	78.25
396.576	81.25
396.801	80.25
397.025	75.25
397.249	96.25
397.474	89.25
397.698	88.25
397.922	95.25
398.147	90.25
398.371	89.25
398.595	96.25
398.82	95.25
399.044	99.25
399.268	95.25
399.492	92.25
399.717	98.25
399.941	83.25
400.165	79.25
400.389	86.25
400.613	96.25
400.837	91.25
401.062	84.25
401.286	90.25
401.51	81.25
401.734	76.25
401.958	97.25
402.182	97.25
402.406	132.25
402.63	110.25
402.854	89.25
403.078	101.25
403.302	81.25
403.526	98.25
403.75	96.25
403.974	80.25
404.198	93.25
404.422	87.25
404.645	77.25
404.869	97.25
405.093	96.25
405.317	89.25
405.541	80.25
405.765	102.25
405.988	116.25
406.212	138.25
406.436	157.25
406.66	119.25
406.883	86.25
407.107	91.25
407.331	89.25
407.555	96.25
407.778	94.25
408.002	96.25
408.226	91.25
408.449	84.25
408.673	95.25
408.896	81.25
409.12	89.25
409.344	89.25
409.567	81.25
409.791	95.25
410.014	84.25
410.238	102.25
410.461	99.25
410.685	99.25
410.908	89.25
411.132	98.25
411.355	87.25
411.578	98.25
411.802	84.25
412.025	92.25
412.249	78.25
412.472	91.25
412.695	88.25
412.919	86.25
413.142	83.25
413.365	87.25
413.589	70.25
413.812	87.25
414.035	92.25
414.258	89.25
414.482	102.25
414.705	96.25
414.928	88.25
415.151	88.25
415.374	81.25
415.597	87.25
415.821	86.25
416.044	89.25
416.267	78.25
416.49	87.25
416.713	100.25
416.936	85.25
417.159	79.25
417.382	94.25
417.605	77.25
417.828	78.25
418.051	92.25
418.274	87.25
418.497	83.25
418.72	76.25
418.943	83.25
419.166	98.25
419.389	92.25
419.611	88.25
419.834	79.25
420.057	89.25
420.28	88.25
420.503	78.25
420.726	101.25
420.948	96.25
421.171	74.25
421.394	93.25
421.617	83.25
421.839	91.25
422.062	86.25
422.285	89.25
422.507	95.25
422.73	113.25
422.953	89.25
423.175	91.25
423.398	88.25
423.621	70.25
423.843	82.25
424.066	82.25
424.288	78.25
424.511	96.25
424.733	80.25
424.956	97.25
425.178	94.25
425.401	98.25
425.623	88.25
425.846	89.25
426.068	87.25
426.291	77.25
426.513	87.25
426.735	79.25
426.958	98.25
427.18	94.25
427.402	120.25
427.625	118.25
427.847	120.25
428.069	97.25
428.292	105.25
428.514	93.25
428.736	88.25
428.958	86.25
429.181	75.25
429.403	82.25
429.625	80.25
429.847	89.25
430.069	94.25
430.292	89.25
430.514	86.25
430.736	75.25
430.958	92.25
431.18	80.25
431.402	98.25
431.624	90.25
431.846	86.25
432.068	79.25
432.29	93.25
432.512	78.25
432.734	83.25
432.956	92.25
433.178	96.25
433.4	93.25
433.622	82.25
433.844	95.25
434.066	98.25
434.287	79.25
434.509	88.25
434.731	90.25
434.953	85.25
435.175	91.25
435.397	83.25
435.618	100.25
435.84	105.25
436.062	113.25
436.284	114.25
436.505	93.25
436.727	93.25
436.949	80.25
437.17	84.25
437.392	86.25
437.614	91.25
437.835	98.25
438.057	96.25
438.278	96.25
438.5	94.25
438.721	104.25
438.943	96.25
439.165	81.25
439.386	89.25
439.608	106.25
439.829	98.25
440.05	104.25
440.272	121.25
440.493	87.25
440.715	78.25
440.936	80.25
441.158	96.25
441.379	73.25
441.6	90.25
441.822	76.25
442.043	86.25
442.264	91.25
442.486	87.25
442.707	80.25
442.928	89.25
443.149	120.25
443.371	120.25
443.592	108.25
443.813	106.25
444.034	104.25
444.255	91.25
444.476	78.25
444.698	77.25
444.919	99.25
445.14	123.25
445.361	121.25
445.582	113.25
445.803	115.25
446.024	110.25
446.245	121.25
446.466	109.25
446.687	83.25
446.908	82.25
447.129	78.25
447.35	81.25
447.571	88.25
447.792	87.25
448.013	96.25
448.234	104.25
448.455	92.25
448.675	104.25
448.896	101.25
449.117	96.25
449.338	88.25
449.559	113.25
449.779	125.25
450	83.25
450.221	82.25
450.442	72.25
450.662	87.25
450.883	93.25
451.104	93.25
451.324	95.25
451.545	101.25
451.766	81.25
451.986	96.25
452.207	94.25
452.428	82.25
452.648	99.25
452.869	101.25
453.089	107.25
453.31	95.25
453.53	87.25
453.751	95.25
453.971	100.25
454.192	104.25
454.412	91.25
454.633	69.25
454.853	85.25
455.073	81.25
455.294	82.25
455.514	90.25
455.734	82.25
455.955	81.25
456.175	89.25
456.395	83.25
456.616	93.25
456.836	86.25
457.056	90.25
457.276	81.25
457.497	69.25
457.717	83.25
457.937	85.25
458.157	80.25
458.377	87.25
458.598	93.25
458.818	119.25
459.038	121.25
459.258	96.25
459.478	89.25
459.698	83.25
459.918	78.25
460.138	78.25
460.358	81.25
460.578	84.25
460.798	97.25
461.018	96.25
461.238	94.25
461.458	88.25
461.678	83.25
461.898	83.25
462.118	89.25
462.338	89.25
462.558	85.25
462.777	84.25
462.997	95.25
463.217	72.25
463.437	91.25
463.657	67.25
463.876	88.25
464.096	88.25
464.316	102.25
464.536	88.25
464.755	88.25
464.975	110.25
465.195	143.25
465.414	123.25
465.634	99.25
465.854	95.25
466.073	85.25
466.293	93.25
466.512	87.25
466.732	97.25
466.951	82.25
467.171	89.25
467.391	109.25
467.61	90.25
467.829	101.25
468.049	99.25
468.268	105.25
468.488	98.25
468.707	77.25
468.927	89.25
469.146	79.25
469.365	78.25
469.585	101.25
469.804	88.25
470.023	89.25
470.243	94.25
470.462	97.25
470.681	94.25
470.901	89.25
471.12	86.25
471.339	96.25
471.558	78.25
471.777	90.25
471.997	91.25
472.216	109.25
472.435	122.25
472.654	108.25
472.873	91.25
473.092	81.25
473.311	91.25
473.53	91.25
473.749	98.25
473.968	89.25
474.187	87.25
474.406	91.25
474.625	88.25
474.844	88.25
475.063	80.25
475.282	104.25
475.501	98.25
475.72	94.25
475.939	81.25
476.158	76.25
476.377	96.25
476.596	81.25
476.814	81.25
477.033	87.25
477.252	84.25
477.471	95.25
477.69	92.25
477.908	78.25
478.127	86.25
478.346	94.25
478.564	91.25
478.783	82.25
479.002	87.25
479.22	88.25
479.439	94.25
479.658	95.25
479.876	80.25
480.095	93.25
480.313	88.25
480.532	86.25
480.751	97.25
480.969	104.25
481.188	148.25
481.406	112.25
481.624	95.25
481.843	89.25
482.061	82.25
482.28	90.25
482.498	82.25
482.717	74.25
482.935	104.25
483.153	90.25
483.372	77.25
483.59	87.25
483.808	92.25
484.027	106.25
484.245	82.25
484.463	95.25
484.681	94.25
484.9	101.25
485.118	107.25
485.336	87.25
485.554	96.25
485.772	87.25
485.99	70.25
486.209	101.25
486.427	91.25
486.645	101.25
486.863	99.25
487.081	94.25
487.299	88.25
487.517	82.25
487.735	82.25
487.953	81.25
488.171	85.25
488.389	107.25
488.607	108.25
488.825	74.25
489.043	82.25
489.261	81.25
489.479	103.25
489.696	89.25
489.914	89.25
490.132	89.25
490.35	105.25
490.568	88.25
490.786	83.25
491.003	90.25
491.221	86.25
491.439	75.25
491.657	100.25
491.874	96.25
492.092	81.25
492.31	101.25
492.527	94.25
492.745	81.25
492.963	91.25
493.18	80.25
493.398	101.25
493.615	79.25
493.833	93.25
494.05	94.25
494.268	92.25
494.485	88.25
494.703	89.25
494.92	95.25
495.138	95.25
495.355	83.25
495.573	87.25
495.79	96.25
496.008	91.25
496.225	84.25
496.442	94.25
496.66	88.25
496.877	103.25
497.094	100.25
497.312	90.25
497.529	79.25
497.746	91.25
497.963	75.25
498.181	84.25
498.398	94.25
498.615	88.25
498.832	85.25
499.049	106.25
499.267	87.25
499.484	90.25
499.701	94.25
499.918	88.25
500.135	84.25
500.352	101.25
500.569	86.25
500.786	82.25
501.003	94.25
501.22	94.25
501.437	105.25
501.654	102.25
501.871	94.25
502.088	95.25
502.305	97.25
502.522	98.25
502.739	95.25
502.956	88.25
503.172	99.25
503.389	88.25
503.606	100.25
503.823	101.25
504.04	95.25
504.256	88.25
504.473	79.25
504.69	75.25
504.907	100.25
505.123	88.25
505.34	94.25
505.557	92.25
505.773	78.25
505.99	86.25
506.207	92.25
506.423	96.25
506.64	82.25
506.856	80.25
507.073	88.25
507.289	91.25
507.506	96.25
507.722	101.25
507.939	93.25
508.155	99.25
508.372	83.25
508.588	93.25
508.805	104.25
509.021	97.25
509.238	102.25
509.454	99.25
509.67	96.25
509.887	112.25
510.103	111.25
510.319	171.25
510.536	526.25
510.752	1554.25
510.968	475.25
511.184	135.25
511.401	97.25
511.617	93.25
511.833	104.25
512.049	98.25
512.265	89.25
512.481	87.25
512.698	89.25
512.914	90.25
513.13	83.25
513.346	101.25
513.562	90.25
513.778	101.25
513.994	79.25
514.21	96.25
514.426	101.25
514.642	112.25
514.858	120.25
515.074	132.25
515.29	299.25
515.506	899.25
515.721	387.25
515.937	119.25
516.153	101.25
516.369	92.25
516.585	92.25
