Data from Uncirc_2009_H10_HRD10591_00014.txt Node
Date: Wed Jan 03 10:12:04 EST 2024
User: Yrep
Spectrometer: HR+D1059
Trigger mode: 1
Integration Time (sec): 1.000000E-1
Scans to average: 1
Electric dark correction enabled: true
Nonlinearity correction enabled: false
Boxcar width: 0
XAxis mode: Wavelengths
Number of Pixels in Spectrum: 2048
>>>>>Begin Spectral Data<<<<<
223.165	-15.12
223.4	-15.12
223.635	-15.12
223.869	-12.12
224.104	-7.12
224.338	-17.12
224.573	-21.12
224.808	-19.12
225.042	-10.12
225.277	-13.12
225.511	5.88
225.746	7.88
225.98	-0.12
226.215	7.88
226.449	25.88
226.683	6.88
226.918	28.88
227.152	31.88
227.387	28.88
227.621	42.88
227.856	52.88
228.09	49.88
228.324	45.88
228.559	57.88
228.793	59.88
229.027	61.88
229.262	75.88
229.496	79.88
229.73	81.88
229.964	74.88
230.199	69.88
230.433	71.88
230.667	74.88
230.901	83.88
231.136	89.88
231.37	85.88
231.604	76.88
231.838	108.88
232.072	82.88
232.306	85.88
232.541	93.88
232.775	85.88
233.009	74.88
233.243	85.88
233.477	97.88
233.711	91.88
233.945	80.88
234.179	87.88
234.413	65.88
234.647	80.88
234.881	69.88
235.115	85.88
235.349	80.88
235.583	82.88
235.817	86.88
236.051	97.88
236.285	78.88
236.519	80.88
236.753	78.88
236.987	90.88
237.221	78.88
237.455	89.88
237.689	92.88
237.922	84.88
238.156	77.88
238.39	70.88
238.624	67.88
238.858	78.88
239.091	70.88
239.325	82.88
239.559	91.88
239.793	92.88
240.027	79.88
240.26	80.88
240.494	72.88
240.728	87.88
240.961	73.88
241.195	88.88
241.429	77.88
241.662	84.88
241.896	73.88
242.13	69.88
242.363	59.88
242.597	85.88
242.83	79.88
243.064	78.88
243.298	80.88
243.531	72.88
243.765	82.88
243.998	97.88
244.232	91.88
244.465	95.88
244.699	80.88
244.932	70.88
245.166	74.88
245.399	83.88
245.633	100.88
245.866	76.88
246.099	74.88
246.333	73.88
246.566	76.88
246.8	79.88
247.033	93.88
247.266	85.88
247.5	81.88
247.733	92.88
247.966	92.88
248.2	80.88
248.433	66.88
248.666	75.88
248.899	87.88
249.133	81.88
249.366	103.88
249.599	96.88
249.832	81.88
250.066	73.88
250.299	67.88
250.532	83.88
250.765	60.88
250.998	82.88
251.231	88.88
251.465	82.88
251.698	79.88
251.931	88.88
252.164	75.88
252.397	75.88
252.63	74.88
252.863	69.88
253.096	84.88
253.329	82.88
253.562	90.88
253.795	90.88
254.028	89.88
254.261	90.88
254.494	87.88
254.727	81.88
254.96	79.88
255.193	78.88
255.426	83.88
255.659	82.88
255.892	84.88
256.124	77.88
256.357	81.88
256.59	80.88
256.823	80.88
257.056	84.88
257.289	88.88
257.521	74.88
257.754	84.88
257.987	83.88
258.22	78.88
258.452	66.88
258.685	84.88
258.918	86.88
259.151	87.88
259.383	84.88
259.616	87.88
259.849	98.88
260.081	100.88
260.314	81.88
260.547	81.88
260.779	79.88
261.012	74.88
261.244	89.88
261.477	87.88
261.71	91.88
261.942	104.88
262.175	105.88
262.407	79.88
262.64	89.88
262.872	92.88
263.105	77.88
263.337	94.88
263.57	92.88
263.802	96.88
264.035	92.88
264.267	78.88
264.499	68.88
264.732	97.88
264.964	77.88
265.197	88.88
265.429	84.88
265.661	100.88
265.894	72.88
266.126	82.88
266.358	93.88
266.591	88.88
266.823	80.88
267.055	87.88
267.287	98.88
267.52	87.88
267.752	92.88
267.984	92.88
268.216	83.88
268.448	91.88
268.681	78.88
268.913	74.88
269.145	90.88
269.377	94.88
269.609	84.88
269.841	87.88
270.073	84.88
270.306	88.88
270.538	80.88
270.77	84.88
271.002	87.88
271.234	103.88
271.466	81.88
271.698	90.88
271.93	84.88
272.162	98.88
272.394	85.88
272.626	83.88
272.858	88.88
273.09	83.88
273.322	87.88
273.553	101.88
273.785	101.88
274.017	85.88
274.249	86.88
274.481	86.88
274.713	88.88
274.945	85.88
275.176	79.88
275.408	90.88
275.64	80.88
275.872	87.88
276.104	97.88
276.335	68.88
276.567	98.88
276.799	88.88
277.031	92.88
277.262	90.88
277.494	83.88
277.726	84.88
277.957	98.88
278.189	90.88
278.421	85.88
278.652	84.88
278.884	71.88
279.115	86.88
279.347	84.88
279.579	83.88
279.81	101.88
280.042	88.88
280.273	78.88
280.505	89.88
280.736	97.88
280.968	91.88
281.199	88.88
281.431	92.88
281.662	93.88
281.894	89.88
282.125	91.88
282.356	92.88
282.588	122.88
282.819	102.88
283.051	97.88
283.282	98.88
283.513	103.88
283.745	101.88
283.976	105.88
284.207	103.88
284.439	92.88
284.67	80.88
284.901	91.88
285.132	82.88
285.364	100.88
285.595	91.88
285.826	79.88
286.057	100.88
286.288	100.88
286.52	99.88
286.751	100.88
286.982	90.88
287.213	85.88
287.444	80.88
287.675	105.88
287.906	88.88
288.138	98.88
288.369	99.88
288.6	84.88
288.831	82.88
289.062	107.88
289.293	106.88
289.524	88.88
289.755	89.88
289.986	79.88
290.217	86.88
290.448	87.88
290.679	84.88
290.91	79.88
291.141	84.88
291.371	89.88
291.602	93.88
291.833	83.88
292.064	93.88
292.295	85.88
292.526	89.88
292.757	105.88
292.987	85.88
293.218	91.88
293.449	89.88
293.68	92.88
293.91	104.88
294.141	90.88
294.372	98.88
294.603	93.88
294.833	93.88
295.064	105.88
295.295	108.88
295.525	97.88
295.756	100.88
295.987	108.88
296.217	112.88
296.448	113.88
296.679	92.88
296.909	92.88
297.14	92.88
297.37	97.88
297.601	100.88
297.831	88.88
298.062	90.88
298.292	94.88
298.523	94.88
298.753	83.88
298.984	85.88
299.214	96.88
299.445	99.88
299.675	86.88
299.905	101.88
300.136	106.88
300.366	94.88
300.597	76.88
300.827	111.88
301.057	111.88
301.288	91.88
301.518	88.88
301.748	105.88
301.979	98.88
302.209	77.88
302.439	105.88
302.669	92.88
302.9	85.88
303.13	97.88
303.36	108.88
303.59	100.88
303.82	111.88
304.051	87.88
304.281	89.88
304.511	80.88
304.741	76.88
304.971	104.88
305.201	100.88
305.431	89.88
305.661	79.88
305.891	84.88
306.121	99.88
306.352	92.88
306.582	94.88
306.812	106.88
307.042	74.88
307.272	103.88
307.502	107.88
307.731	101.88
307.961	88.88
308.191	95.88
308.421	94.88
308.651	105.88
308.881	98.88
309.111	91.88
309.341	102.88
309.571	90.88
309.8	98.88
310.03	106.88
310.26	87.88
310.49	91.88
310.72	83.88
310.949	98.88
311.179	89.88
311.409	94.88
311.639	110.88
311.868	95.88
312.098	83.88
312.328	98.88
312.557	92.88
312.787	101.88
313.017	102.88
313.246	90.88
313.476	102.88
313.706	83.88
313.935	98.88
314.165	81.88
314.394	107.88
314.624	97.88
314.853	95.88
315.083	95.88
315.312	100.88
315.542	92.88
315.771	94.88
316.001	97.88
316.23	90.88
316.46	90.88
316.689	95.88
316.919	101.88
317.148	98.88
317.377	122.88
317.607	119.88
317.836	104.88
318.065	92.88
318.295	77.88
318.524	93.88
318.753	87.88
318.983	98.88
319.212	94.88
319.441	105.88
319.67	99.88
319.9	106.88
320.129	93.88
320.358	87.88
320.587	106.88
320.816	100.88
321.046	91.88
321.275	92.88
321.504	89.88
321.733	105.88
321.962	85.88
322.191	97.88
322.42	108.88
322.649	94.88
322.878	105.88
323.108	121.88
323.337	128.88
323.566	130.88
323.795	137.88
324.024	177.88
324.253	336.88
324.482	705.88
324.71	1391.88
324.939	1849.88
325.168	702.88
325.397	221.88
325.626	135.88
325.855	138.88
326.084	138.88
326.313	140.88
326.542	174.88
326.77	207.88
326.999	414.88
327.228	810.88
327.457	1449.88
327.686	1187.88
327.914	329.88
328.143	165.88
328.372	138.88
328.6	129.88
328.829	102.88
329.058	121.88
329.287	117.88
329.515	94.88
329.744	95.88
329.972	103.88
330.201	111.88
330.43	121.88
330.658	127.88
330.887	124.88
331.115	107.88
331.344	96.88
331.572	103.88
331.801	110.88
332.03	98.88
332.258	81.88
332.486	97.88
332.715	91.88
332.943	88.88
333.172	92.88
333.4	95.88
333.629	107.88
333.857	95.88
334.085	105.88
334.314	105.88
334.542	122.88
334.771	115.88
334.999	97.88
335.227	103.88
335.455	87.88
335.684	85.88
335.912	101.88
336.14	105.88
336.369	101.88
336.597	100.88
336.825	109.88
337.053	91.88
337.281	95.88
337.51	84.88
337.738	100.88
337.966	93.88
338.194	98.88
338.422	97.88
338.65	104.88
338.878	95.88
339.106	116.88
339.334	95.88
339.562	102.88
339.79	96.88
340.018	93.88
340.246	100.88
340.474	90.88
340.702	89.88
340.93	90.88
341.158	88.88
341.386	88.88
341.614	89.88
341.842	98.88
342.07	95.88
342.298	104.88
342.526	92.88
342.754	92.88
342.981	85.88
343.209	98.88
343.437	87.88
343.665	86.88
343.893	98.88
344.12	90.88
344.348	88.88
344.576	81.88
344.804	89.88
345.031	103.88
345.259	98.88
345.487	85.88
345.714	100.88
345.942	87.88
346.17	101.88
346.397	92.88
346.625	94.88
346.853	108.88
347.08	89.88
347.308	103.88
347.535	97.88
347.763	90.88
347.99	100.88
348.218	96.88
348.445	116.88
348.673	96.88
348.9	88.88
349.128	85.88
349.355	94.88
349.583	92.88
349.81	79.88
350.037	95.88
350.265	94.88
350.492	92.88
350.72	89.88
350.947	98.88
351.174	87.88
351.402	100.88
351.629	110.88
351.856	106.88
352.083	84.88
352.311	104.88
352.538	91.88
352.765	105.88
352.992	108.88
353.22	96.88
353.447	92.88
353.674	107.88
353.901	86.88
354.128	102.88
354.355	103.88
354.583	106.88
354.81	90.88
355.037	95.88
355.264	89.88
355.491	87.88
355.718	95.88
355.945	101.88
356.172	89.88
356.399	96.88
356.626	99.88
356.853	84.88
357.08	95.88
357.307	96.88
357.534	104.88
357.761	97.88
357.988	115.88
358.215	94.88
358.441	90.88
358.668	89.88
358.895	80.88
359.122	88.88
359.349	85.88
359.576	105.88
359.802	94.88
360.029	115.88
360.256	102.88
360.483	88.88
360.709	104.88
360.936	87.88
361.163	96.88
361.39	96.88
361.616	112.88
361.843	95.88
362.07	97.88
362.296	97.88
362.523	88.88
362.749	91.88
362.976	90.88
363.203	85.88
363.429	86.88
363.656	96.88
363.882	101.88
364.109	84.88
364.335	97.88
364.562	88.88
364.788	96.88
365.015	91.88
365.241	103.88
365.468	100.88
365.694	96.88
365.92	92.88
366.147	100.88
366.373	109.88
366.599	95.88
366.826	93.88
367.052	88.88
367.278	88.88
367.505	87.88
367.731	99.88
367.957	95.88
368.184	102.88
368.41	92.88
368.636	112.88
368.862	101.88
369.089	106.88
369.315	101.88
369.541	97.88
369.767	93.88
369.993	73.88
370.219	81.88
370.445	94.88
370.672	83.88
370.898	104.88
371.124	100.88
371.35	103.88
371.576	90.88
371.802	81.88
372.028	95.88
372.254	96.88
372.48	103.88
372.706	84.88
372.932	92.88
373.158	87.88
373.384	83.88
373.61	92.88
373.835	95.88
374.061	102.88
374.287	84.88
374.513	95.88
374.739	92.88
374.965	75.88
375.191	91.88
375.416	83.88
375.642	93.88
375.868	87.88
376.094	101.88
376.319	96.88
376.545	77.88
376.771	97.88
376.997	96.88
377.222	94.88
377.448	83.88
377.674	100.88
377.899	107.88
378.125	100.88
378.35	89.88
378.576	79.88
378.802	107.88
379.027	81.88
379.253	90.88
379.478	114.88
379.704	81.88
379.929	103.88
380.155	103.88
380.38	110.88
380.606	103.88
380.831	93.88
381.057	104.88
381.282	108.88
381.507	88.88
381.733	103.88
381.958	97.88
382.184	109.88
382.409	98.88
382.634	93.88
382.86	85.88
383.085	98.88
383.31	99.88
383.535	95.88
383.761	93.88
383.986	90.88
384.211	106.88
384.436	96.88
384.662	92.88
384.887	105.88
385.112	103.88
385.337	115.88
385.562	102.88
385.787	109.88
386.013	115.88
386.238	95.88
386.463	116.88
386.688	100.88
386.913	101.88
387.138	101.88
387.363	106.88
387.588	113.88
387.813	110.88
388.038	105.88
388.263	109.88
388.488	108.88
388.713	79.88
388.938	115.88
389.163	99.88
389.387	100.88
389.612	89.88
389.837	106.88
390.062	106.88
390.287	93.88
390.512	88.88
390.736	105.88
390.961	93.88
391.186	99.88
391.411	106.88
391.636	87.88
391.86	100.88
392.085	82.88
392.31	89.88
392.534	95.88
392.759	93.88
392.984	88.88
393.208	95.88
393.433	99.88
393.658	96.88
393.882	97.88
394.107	96.88
394.331	88.88
394.556	97.88
394.78	96.88
395.005	85.88
395.229	76.88
395.454	73.88
395.678	89.88
395.903	94.88
396.127	95.88
396.352	87.88
396.576	84.88
396.801	96.88
397.025	84.88
397.249	95.88
397.474	89.88
397.698	85.88
397.922	83.88
398.147	88.88
398.371	72.88
398.595	85.88
398.82	100.88
399.044	84.88
399.268	79.88
399.492	91.88
399.717	102.88
399.941	76.88
400.165	92.88
400.389	76.88
400.613	93.88
400.837	84.88
401.062	96.88
401.286	90.88
401.51	91.88
401.734	91.88
401.958	92.88
402.182	108.88
402.406	123.88
402.63	115.88
402.854	104.88
403.078	93.88
403.302	91.88
403.526	94.88
403.75	88.88
403.974	89.88
404.198	96.88
404.422	84.88
404.645	96.88
404.869	89.88
405.093	98.88
405.317	108.88
405.541	96.88
405.765	86.88
405.988	107.88
406.212	147.88
406.436	154.88
406.66	118.88
406.883	101.88
407.107	87.88
407.331	81.88
407.555	91.88
407.778	80.88
408.002	104.88
408.226	83.88
408.449	95.88
408.673	98.88
408.896	79.88
409.12	96.88
409.344	82.88
409.567	107.88
409.791	97.88
410.014	84.88
410.238	96.88
410.461	86.88
410.685	95.88
410.908	95.88
411.132	110.88
411.355	82.88
411.578	87.88
411.802	97.88
412.025	83.88
412.249	94.88
412.472	86.88
412.695	87.88
412.919	84.88
413.142	91.88
413.365	93.88
413.589	90.88
413.812	105.88
414.035	91.88
414.258	85.88
414.482	89.88
414.705	93.88
414.928	87.88
415.151	106.88
415.374	86.88
415.597	93.88
415.821	87.88
416.044	91.88
416.267	84.88
416.49	90.88
416.713	86.88
416.936	101.88
417.159	93.88
417.382	101.88
417.605	100.88
417.828	89.88
418.051	90.88
418.274	86.88
418.497	69.88
418.72	82.88
418.943	95.88
419.166	93.88
419.389	86.88
419.611	87.88
419.834	94.88
420.057	98.88
420.28	86.88
420.503	92.88
420.726	84.88
420.948	77.88
421.171	84.88
421.394	90.88
421.617	106.88
421.839	100.88
422.062	86.88
422.285	97.88
422.507	93.88
422.73	102.88
422.953	86.88
423.175	91.88
423.398	103.88
423.621	90.88
423.843	98.88
424.066	104.88
424.288	96.88
424.511	88.88
424.733	86.88
424.956	109.88
425.178	99.88
425.401	109.88
425.623	90.88
425.846	88.88
426.068	104.88
426.291	94.88
426.513	97.88
426.735	101.88
426.958	101.88
427.18	80.88
427.402	119.88
427.625	151.88
427.847	127.88
428.069	116.88
428.292	96.88
428.514	80.88
428.736	80.88
428.958	72.88
429.181	82.88
429.403	78.88
429.625	83.88
429.847	83.88
430.069	90.88
430.292	90.88
430.514	84.88
430.736	81.88
430.958	78.88
431.18	92.88
431.402	89.88
431.624	88.88
431.846	79.88
432.068	101.88
432.29	91.88
432.512	92.88
432.734	80.88
432.956	98.88
433.178	99.88
433.4	101.88
433.622	93.88
433.844	91.88
434.066	90.88
434.287	99.88
434.509	96.88
434.731	91.88
434.953	88.88
435.175	92.88
435.397	96.88
435.618	92.88
435.84	91.88
436.062	110.88
436.284	107.88
436.505	95.88
436.727	120.88
436.949	94.88
437.17	96.88
437.392	92.88
437.614	97.88
437.835	99.88
438.057	104.88
438.278	96.88
438.5	96.88
438.721	93.88
438.943	88.88
439.165	93.88
439.386	98.88
439.608	96.88
439.829	105.88
440.05	98.88
440.272	118.88
440.493	93.88
440.715	88.88
440.936	106.88
441.158	92.88
441.379	73.88
441.6	95.88
441.822	89.88
442.043	84.88
442.264	97.88
442.486	84.88
442.707	94.88
442.928	79.88
443.149	105.88
443.371	124.88
443.592	110.88
443.813	110.88
444.034	100.88
444.255	82.88
444.476	98.88
444.698	85.88
444.919	87.88
445.14	120.88
445.361	118.88
445.582	109.88
445.803	127.88
446.024	111.88
446.245	129.88
446.466	93.88
446.687	80.88
446.908	100.88
447.129	95.88
447.35	77.88
447.571	102.88
447.792	103.88
448.013	90.88
448.234	109.88
448.455	84.88
448.675	119.88
448.896	106.88
449.117	100.88
449.338	90.88
449.559	103.88
449.779	129.88
450	84.88
450.221	100.88
450.442	99.88
450.662	88.88
450.883	96.88
451.104	102.88
451.324	97.88
451.545	99.88
451.766	87.88
451.986	85.88
452.207	91.88
452.428	93.88
452.648	96.88
452.869	123.88
453.089	94.88
453.31	114.88
453.53	99.88
453.751	93.88
453.971	89.88
454.192	93.88
454.412	96.88
454.633	91.88
454.853	97.88
455.073	76.88
455.294	96.88
455.514	106.88
455.734	82.88
455.955	99.88
456.175	90.88
456.395	98.88
456.616	92.88
456.836	96.88
457.056	88.88
457.276	91.88
457.497	82.88
457.717	88.88
457.937	80.88
458.157	93.88
458.377	100.88
458.598	98.88
458.818	135.88
459.038	134.88
459.258	103.88
459.478	84.88
459.698	78.88
459.918	86.88
460.138	90.88
460.358	80.88
460.578	95.88
460.798	93.88
461.018	104.88
461.238	83.88
461.458	96.88
461.678	78.88
461.898	89.88
462.118	81.88
462.338	82.88
462.558	84.88
462.777	88.88
462.997	92.88
463.217	80.88
463.437	84.88
463.657	93.88
463.876	83.88
464.096	98.88
464.316	93.88
464.536	92.88
464.755	88.88
464.975	104.88
465.195	125.88
465.414	126.88
465.634	93.88
465.854	82.88
466.073	92.88
466.293	91.88
466.512	87.88
466.732	93.88
466.951	89.88
467.171	110.88
467.391	93.88
467.61	95.88
467.829	85.88
468.049	96.88
468.268	106.88
468.488	95.88
468.707	75.88
468.927	105.88
469.146	87.88
469.365	103.88
469.585	101.88
469.804	102.88
470.023	88.88
470.243	100.88
470.462	103.88
470.681	107.88
470.901	85.88
471.12	93.88
471.339	83.88
471.558	91.88
471.777	80.88
471.997	88.88
472.216	120.88
472.435	131.88
472.654	89.88
472.873	87.88
473.092	83.88
473.311	93.88
473.53	95.88
473.749	88.88
473.968	89.88
474.187	99.88
474.406	96.88
474.625	90.88
474.844	94.88
475.063	82.88
475.282	83.88
475.501	84.88
475.72	83.88
475.939	95.88
476.158	84.88
476.377	94.88
476.596	81.88
476.814	93.88
477.033	85.88
477.252	81.88
477.471	82.88
477.69	87.88
477.908	73.88
478.127	81.88
478.346	100.88
478.564	87.88
478.783	92.88
479.002	77.88
479.22	79.88
479.439	106.88
479.658	88.88
479.876	91.88
480.095	78.88
480.313	84.88
480.532	91.88
480.751	87.88
480.969	108.88
481.188	166.88
481.406	137.88
481.624	97.88
481.843	92.88
482.061	95.88
482.28	79.88
482.498	85.88
482.717	92.88
482.935	92.88
483.153	87.88
483.372	98.88
483.59	98.88
483.808	94.88
484.027	85.88
484.245	88.88
484.463	88.88
484.681	104.88
484.9	105.88
485.118	96.88
485.336	88.88
485.554	94.88
485.772	99.88
485.99	85.88
486.209	91.88
486.427	108.88
486.645	98.88
486.863	100.88
487.081	102.88
487.299	103.88
487.517	94.88
487.735	95.88
487.953	96.88
488.171	96.88
488.389	107.88
488.607	93.88
488.825	100.88
489.043	99.88
489.261	94.88
489.479	89.88
489.696	92.88
489.914	83.88
490.132	96.88
490.35	104.88
490.568	93.88
490.786	95.88
491.003	83.88
491.221	92.88
491.439	97.88
491.657	98.88
491.874	79.88
492.092	86.88
492.31	89.88
492.527	94.88
492.745	100.88
492.963	88.88
493.18	109.88
493.398	89.88
493.615	106.88
493.833	93.88
494.05	91.88
494.268	96.88
494.485	102.88
494.703	97.88
494.92	109.88
495.138	88.88
495.355	84.88
495.573	77.88
495.79	80.88
496.008	92.88
496.225	107.88
496.442	91.88
496.66	103.88
496.877	81.88
497.094	90.88
497.312	105.88
497.529	99.88
497.746	94.88
497.963	85.88
498.181	101.88
498.398	100.88
498.615	120.88
498.832	99.88
499.049	87.88
499.267	91.88
499.484	92.88
499.701	93.88
499.918	105.88
500.135	97.88
500.352	83.88
500.569	99.88
500.786	94.88
501.003	104.88
501.22	95.88
501.437	91.88
501.654	89.88
501.871	92.88
502.088	96.88
502.305	97.88
502.522	81.88
502.739	91.88
502.956	95.88
503.172	79.88
503.389	89.88
503.606	104.88
503.823	105.88
504.04	91.88
504.256	95.88
504.473	92.88
504.69	83.88
504.907	89.88
505.123	94.88
505.34	93.88
505.557	95.88
505.773	99.88
505.99	91.88
506.207	73.88
506.423	85.88
506.64	81.88
506.856	90.88
507.073	91.88
507.289	79.88
507.506	80.88
507.722	96.88
507.939	106.88
508.155	90.88
508.372	84.88
508.588	92.88
508.805	91.88
509.021	99.88
509.238	89.88
509.454	99.88
509.67	109.88
509.887	96.88
510.103	120.88
510.319	178.88
510.536	540.88
510.752	1607.88
510.968	493.88
511.184	141.88
511.401	104.88
511.617	103.88
511.833	85.88
512.049	92.88
512.265	96.88
512.481	92.88
512.698	91.88
512.914	83.88
513.13	99.88
513.346	89.88
513.562	92.88
513.778	94.88
513.994	95.88
514.21	102.88
514.426	129.88
514.642	116.88
514.858	104.88
515.074	152.88
515.29	323.88
