Data from Uncirc_2009_H10_HRD10591_00065.txt Node
Date: Wed Jan 03 10:12:14 EST 2024
User: Yrep
Spectrometer: HR+D1059
Trigger mode: 1
Integration Time (sec): 1.000000E-1
Scans to average: 1
Electric dark correction enabled: true
Nonlinearity correction enabled: false
Boxcar width: 0
XAxis mode: Wavelengths
Number of Pixels in Spectrum: 2048
>>>>>Begin Spectral Data<<<<<
223.165	-10.06
223.4	-10.06
223.635	-10.06
223.869	-11.06
224.104	-24.06
224.338	-20.06
224.573	-7.06
224.808	-14.06
225.042	-12.06
225.277	-7.06
225.511	-1.06
225.746	1.94
225.98	11.94
226.215	3.94
226.449	4.94
226.683	13.94
226.918	26.94
227.152	42.94
227.387	42.94
227.621	35.94
227.856	49.94
228.09	50.94
228.324	48.94
228.559	56.94
228.793	57.94
229.027	67.94
229.262	72.94
229.496	82.94
229.73	68.94
229.964	82.94
230.199	74.94
230.433	84.94
230.667	73.94
230.901	80.94
231.136	80.94
231.37	90.94
231.604	85.94
231.838	83.94
232.072	89.94
232.306	79.94
232.541	72.94
232.775	87.94
233.009	76.94
233.243	73.94
233.477	78.94
233.711	78.94
233.945	84.94
234.179	83.94
234.413	89.94
234.647	76.94
234.881	93.94
235.115	84.94
235.349	82.94
235.583	71.94
235.817	81.94
236.051	63.94
236.285	79.94
236.519	77.94
236.753	88.94
236.987	78.94
237.221	76.94
237.455	77.94
237.689	78.94
237.922	80.94
238.156	76.94
238.39	87.94
238.624	91.94
238.858	70.94
239.091	72.94
239.325	86.94
239.559	78.94
239.793	86.94
240.027	81.94
240.26	74.94
240.494	93.94
240.728	69.94
240.961	78.94
241.195	83.94
241.429	80.94
241.662	78.94
241.896	86.94
242.13	91.94
242.363	84.94
242.597	88.94
242.83	77.94
243.064	79.94
243.298	74.94
243.531	75.94
243.765	83.94
243.998	84.94
244.232	91.94
244.465	89.94
244.699	90.94
244.932	84.94
245.166	74.94
245.399	85.94
245.633	91.94
245.866	90.94
246.099	85.94
246.333	76.94
246.566	94.94
246.8	94.94
247.033	93.94
247.266	72.94
247.5	74.94
247.733	66.94
247.966	85.94
248.2	91.94
248.433	72.94
248.666	76.94
248.899	77.94
249.133	82.94
249.366	112.94
249.599	88.94
249.832	78.94
250.066	84.94
250.299	80.94
250.532	71.94
250.765	94.94
250.998	84.94
251.231	84.94
251.465	77.94
251.698	75.94
251.931	72.94
252.164	79.94
252.397	73.94
252.63	88.94
252.863	88.94
253.096	83.94
253.329	72.94
253.562	83.94
253.795	83.94
254.028	100.94
254.261	81.94
254.494	84.94
254.727	89.94
254.96	91.94
255.193	91.94
255.426	89.94
255.659	81.94
255.892	96.94
256.124	84.94
256.357	85.94
256.59	95.94
256.823	90.94
257.056	68.94
257.289	79.94
257.521	81.94
257.754	74.94
257.987	79.94
258.22	88.94
258.452	79.94
258.685	77.94
258.918	76.94
259.151	79.94
259.383	88.94
259.616	84.94
259.849	100.94
260.081	85.94
260.314	79.94
260.547	77.94
260.779	82.94
261.012	76.94
261.244	71.94
261.477	88.94
261.71	82.94
261.942	115.94
262.175	101.94
262.407	85.94
262.64	94.94
262.872	90.94
263.105	88.94
263.337	79.94
263.57	85.94
263.802	103.94
264.035	94.94
264.267	85.94
264.499	87.94
264.732	87.94
264.964	89.94
265.197	83.94
265.429	92.94
265.661	74.94
265.894	81.94
266.126	100.94
266.358	76.94
266.591	88.94
266.823	85.94
267.055	86.94
267.287	87.94
267.52	88.94
267.752	91.94
267.984	86.94
268.216	82.94
268.448	103.94
268.681	100.94
268.913	70.94
269.145	91.94
269.377	90.94
269.609	73.94
269.841	88.94
270.073	80.94
270.306	90.94
270.538	93.94
270.77	99.94
271.002	91.94
271.234	93.94
271.466	97.94
271.698	77.94
271.93	78.94
272.162	85.94
272.394	99.94
272.626	86.94
272.858	104.94
273.09	88.94
273.322	70.94
273.553	81.94
273.785	92.94
274.017	77.94
274.249	92.94
274.481	98.94
274.713	92.94
274.945	93.94
275.176	91.94
275.408	83.94
275.64	89.94
275.872	79.94
276.104	104.94
276.335	95.94
276.567	112.94
276.799	101.94
277.031	97.94
277.262	106.94
277.494	93.94
277.726	84.94
277.957	77.94
278.189	83.94
278.421	89.94
278.652	89.94
278.884	92.94
279.115	82.94
279.347	75.94
279.579	82.94
279.81	103.94
280.042	105.94
280.273	97.94
280.505	88.94
280.736	92.94
280.968	91.94
281.199	90.94
281.431	97.94
281.662	92.94
281.894	92.94
282.125	88.94
282.356	114.94
282.588	119.94
282.819	122.94
283.051	104.94
283.282	86.94
283.513	96.94
283.745	104.94
283.976	95.94
284.207	90.94
284.439	95.94
284.67	94.94
284.901	86.94
285.132	86.94
285.364	83.94
285.595	94.94
285.826	94.94
286.057	95.94
286.288	104.94
286.52	119.94
286.751	92.94
286.982	85.94
287.213	87.94
287.444	88.94
287.675	75.94
287.906	96.94
288.138	85.94
288.369	88.94
288.6	86.94
288.831	83.94
289.062	98.94
289.293	99.94
289.524	83.94
289.755	85.94
289.986	104.94
290.217	88.94
290.448	101.94
290.679	88.94
290.91	90.94
291.141	97.94
291.371	99.94
291.602	85.94
291.833	94.94
292.064	99.94
292.295	96.94
292.526	99.94
292.757	85.94
292.987	96.94
293.218	82.94
293.449	83.94
293.68	89.94
293.91	89.94
294.141	74.94
294.372	75.94
294.603	89.94
294.833	80.94
295.064	90.94
295.295	81.94
295.525	87.94
295.756	92.94
295.987	116.94
296.217	111.94
296.448	103.94
296.679	97.94
296.909	91.94
297.14	89.94
297.37	97.94
297.601	72.94
297.831	100.94
298.062	98.94
298.292	82.94
298.523	100.94
298.753	99.94
298.984	101.94
299.214	89.94
299.445	97.94
299.675	84.94
299.905	92.94
300.136	91.94
300.366	87.94
300.597	107.94
300.827	94.94
301.057	132.94
301.288	112.94
301.518	89.94
301.748	87.94
301.979	92.94
302.209	107.94
302.439	97.94
302.669	86.94
302.9	100.94
303.13	96.94
303.36	91.94
303.59	111.94
303.82	108.94
304.051	95.94
304.281	87.94
304.511	93.94
304.741	96.94
304.971	92.94
305.201	96.94
305.431	90.94
305.661	85.94
305.891	91.94
306.121	89.94
306.352	104.94
306.582	102.94
306.812	113.94
307.042	89.94
307.272	89.94
307.502	88.94
307.731	97.94
307.961	86.94
308.191	103.94
308.421	99.94
308.651	92.94
308.881	96.94
309.111	96.94
309.341	87.94
309.571	92.94
309.8	101.94
310.03	85.94
310.26	93.94
310.49	95.94
310.72	98.94
310.949	105.94
311.179	97.94
311.409	93.94
311.639	82.94
311.868	98.94
312.098	93.94
312.328	85.94
312.557	93.94
312.787	105.94
313.017	95.94
313.246	95.94
313.476	91.94
313.706	81.94
313.935	96.94
314.165	105.94
314.394	92.94
314.624	103.94
314.853	102.94
315.083	85.94
315.312	89.94
315.542	100.94
315.771	86.94
316.001	105.94
316.23	110.94
316.46	89.94
316.689	99.94
316.919	109.94
317.148	101.94
317.377	105.94
317.607	122.94
317.836	105.94
318.065	92.94
318.295	108.94
318.524	85.94
318.753	81.94
318.983	90.94
319.212	109.94
319.441	106.94
319.67	124.94
319.9	87.94
320.129	105.94
320.358	85.94
320.587	91.94
320.816	104.94
321.046	93.94
321.275	98.94
321.504	94.94
321.733	107.94
321.962	82.94
322.191	103.94
322.42	111.94
322.649	112.94
322.878	116.94
323.108	117.94
323.337	110.94
323.566	114.94
323.795	148.94
324.024	192.94
324.253	334.94
324.482	716.94
324.71	1437.94
324.939	1853.94
325.168	691.94
325.397	228.94
325.626	154.94
325.855	127.94
326.084	146.94
326.313	151.94
326.542	165.94
326.77	216.94
326.999	429.94
327.228	816.94
327.457	1474.94
327.686	1145.94
327.914	332.94
328.143	174.94
328.372	135.94
328.6	112.94
328.829	109.94
329.058	115.94
329.287	112.94
329.515	99.94
329.744	114.94
329.972	114.94
330.201	106.94
330.43	127.94
330.658	112.94
330.887	115.94
331.115	107.94
331.344	96.94
331.572	98.94
331.801	105.94
332.03	101.94
332.258	94.94
332.486	90.94
332.715	91.94
332.943	99.94
333.172	110.94
333.4	110.94
333.629	107.94
333.857	112.94
334.085	110.94
334.314	98.94
334.542	123.94
334.771	115.94
334.999	106.94
335.227	100.94
335.455	100.94
335.684	104.94
335.912	110.94
336.14	109.94
336.369	90.94
336.597	88.94
336.825	99.94
337.053	86.94
337.281	100.94
337.51	105.94
337.738	102.94
337.966	93.94
338.194	87.94
338.422	96.94
338.65	111.94
338.878	100.94
339.106	83.94
339.334	80.94
339.562	88.94
339.79	97.94
340.018	96.94
340.246	88.94
340.474	104.94
340.702	90.94
340.93	89.94
341.158	89.94
341.386	94.94
341.614	81.94
341.842	96.94
342.07	91.94
342.298	101.94
342.526	95.94
342.754	77.94
342.981	95.94
343.209	76.94
343.437	98.94
343.665	85.94
343.893	88.94
344.12	96.94
344.348	99.94
344.576	97.94
344.804	102.94
345.031	95.94
345.259	83.94
345.487	93.94
345.714	92.94
345.942	101.94
346.17	89.94
346.397	98.94
346.625	98.94
346.853	91.94
347.08	80.94
347.308	98.94
347.535	99.94
347.763	102.94
347.99	102.94
348.218	95.94
348.445	93.94
348.673	91.94
348.9	88.94
349.128	110.94
349.355	104.94
349.583	96.94
349.81	90.94
350.037	96.94
350.265	103.94
350.492	104.94
350.72	93.94
350.947	88.94
351.174	104.94
351.402	111.94
351.629	95.94
351.856	91.94
352.083	90.94
352.311	108.94
352.538	101.94
352.765	102.94
352.992	112.94
353.22	106.94
353.447	95.94
353.674	115.94
353.901	102.94
354.128	92.94
354.355	100.94
354.583	94.94
354.81	104.94
355.037	105.94
355.264	97.94
355.491	91.94
355.718	96.94
355.945	102.94
356.172	111.94
356.399	88.94
356.626	81.94
356.853	85.94
357.08	100.94
357.307	103.94
357.534	108.94
357.761	82.94
357.988	94.94
358.215	103.94
358.441	94.94
358.668	92.94
358.895	95.94
359.122	92.94
359.349	96.94
359.576	99.94
359.802	107.94
360.029	112.94
360.256	108.94
360.483	99.94
360.709	106.94
360.936	101.94
361.163	95.94
361.39	97.94
361.616	95.94
361.843	95.94
362.07	102.94
362.296	90.94
362.523	91.94
362.749	92.94
362.976	89.94
363.203	104.94
363.429	96.94
363.656	98.94
363.882	90.94
364.109	92.94
364.335	96.94
364.562	100.94
364.788	86.94
365.015	105.94
365.241	85.94
365.468	112.94
365.694	105.94
365.92	91.94
366.147	87.94
366.373	93.94
366.599	97.94
366.826	86.94
367.052	86.94
367.278	90.94
367.505	77.94
367.731	87.94
367.957	95.94
368.184	82.94
368.41	97.94
368.636	114.94
368.862	130.94
369.089	99.94
369.315	92.94
369.541	99.94
369.767	87.94
369.993	87.94
370.219	99.94
370.445	97.94
370.672	103.94
370.898	91.94
371.124	91.94
371.35	88.94
371.576	91.94
371.802	112.94
372.028	93.94
372.254	86.94
372.48	88.94
372.706	92.94
372.932	86.94
373.158	88.94
373.384	82.94
373.61	103.94
373.835	88.94
374.061	88.94
374.287	96.94
374.513	91.94
374.739	93.94
374.965	85.94
375.191	78.94
375.416	81.94
375.642	77.94
375.868	94.94
376.094	93.94
376.319	97.94
376.545	101.94
376.771	88.94
376.997	96.94
377.222	93.94
377.448	89.94
377.674	93.94
377.899	100.94
378.125	94.94
378.35	89.94
378.576	98.94
378.802	87.94
379.027	85.94
379.253	96.94
379.478	105.94
379.704	76.94
379.929	99.94
380.155	95.94
380.38	104.94
380.606	99.94
380.831	86.94
381.057	97.94
381.282	88.94
381.507	100.94
381.733	104.94
381.958	91.94
382.184	102.94
382.409	90.94
382.634	99.94
382.86	111.94
383.085	99.94
383.31	107.94
383.535	115.94
383.761	103.94
383.986	100.94
384.211	103.94
384.436	84.94
384.662	109.94
384.887	99.94
385.112	114.94
385.337	124.94
385.562	104.94
385.787	111.94
386.013	104.94
386.238	99.94
386.463	99.94
386.688	111.94
386.913	110.94
387.138	101.94
387.363	108.94
387.588	101.94
387.813	107.94
388.038	110.94
388.263	124.94
388.488	100.94
388.713	101.94
388.938	95.94
389.163	113.94
389.387	101.94
389.612	93.94
389.837	81.94
390.062	84.94
390.287	94.94
390.512	103.94
390.736	89.94
390.961	91.94
391.186	115.94
391.411	94.94
391.636	99.94
391.86	95.94
392.085	91.94
392.31	86.94
392.534	90.94
392.759	75.94
392.984	85.94
393.208	95.94
393.433	72.94
393.658	77.94
393.882	84.94
394.107	90.94
394.331	79.94
394.556	89.94
394.78	102.94
395.005	81.94
395.229	95.94
395.454	80.94
395.678	77.94
395.903	76.94
396.127	100.94
396.352	70.94
396.576	89.94
396.801	86.94
397.025	89.94
397.249	99.94
397.474	89.94
397.698	93.94
397.922	76.94
398.147	95.94
398.371	87.94
398.595	97.94
398.82	84.94
399.044	91.94
399.268	89.94
399.492	83.94
399.717	95.94
399.941	86.94
400.165	99.94
400.389	110.94
400.613	97.94
400.837	99.94
401.062	80.94
401.286	86.94
401.51	91.94
401.734	77.94
401.958	94.94
402.182	117.94
402.406	125.94
402.63	112.94
402.854	95.94
403.078	85.94
403.302	91.94
403.526	73.94
403.75	88.94
403.974	95.94
404.198	94.94
404.422	93.94
404.645	93.94
404.869	99.94
405.093	79.94
405.317	98.94
405.541	107.94
405.765	90.94
405.988	125.94
406.212	152.94
406.436	186.94
406.66	125.94
406.883	92.94
407.107	82.94
407.331	87.94
407.555	99.94
407.778	96.94
408.002	93.94
408.226	93.94
408.449	84.94
408.673	92.94
408.896	92.94
409.12	94.94
409.344	100.94
409.567	90.94
409.791	100.94
410.014	101.94
410.238	112.94
410.461	91.94
410.685	93.94
410.908	92.94
411.132	97.94
411.355	104.94
411.578	84.94
411.802	85.94
412.025	78.94
412.249	112.94
412.472	97.94
412.695	85.94
412.919	96.94
413.142	81.94
413.365	96.94
413.589	87.94
413.812	99.94
414.035	86.94
414.258	85.94
414.482	92.94
414.705	77.94
414.928	89.94
415.151	102.94
415.374	103.94
415.597	90.94
415.821	91.94
416.044	106.94
416.267	99.94
416.49	82.94
416.713	97.94
416.936	87.94
417.159	88.94
417.382	89.94
417.605	75.94
417.828	103.94
418.051	97.94
418.274	82.94
418.497	104.94
418.72	77.94
418.943	77.94
419.166	99.94
419.389	108.94
419.611	93.94
419.834	95.94
420.057	81.94
420.28	86.94
420.503	72.94
420.726	83.94
420.948	91.94
421.171	84.94
421.394	94.94
421.617	84.94
421.839	93.94
422.062	85.94
422.285	100.94
422.507	99.94
422.73	94.94
422.953	96.94
423.175	89.94
423.398	89.94
423.621	91.94
423.843	81.94
424.066	98.94
424.288	82.94
424.511	75.94
424.733	87.94
424.956	90.94
425.178	105.94
425.401	103.94
425.623	98.94
425.846	102.94
426.068	95.94
426.291	92.94
426.513	91.94
426.735	100.94
426.958	86.94
427.18	103.94
427.402	136.94
427.625	144.94
427.847	133.94
428.069	111.94
428.292	78.94
428.514	92.94
428.736	95.94
428.958	95.94
429.181	90.94
429.403	112.94
429.625	91.94
429.847	97.94
430.069	110.94
430.292	88.94
430.514	95.94
430.736	79.94
430.958	97.94
431.18	91.94
431.402	78.94
431.624	97.94
431.846	88.94
432.068	77.94
432.29	82.94
432.512	85.94
432.734	91.94
432.956	88.94
433.178	93.94
433.4	100.94
433.622	87.94
433.844	94.94
434.066	81.94
434.287	88.94
434.509	85.94
434.731	98.94
434.953	88.94
435.175	97.94
435.397	97.94
435.618	103.94
435.84	105.94
436.062	111.94
436.284	104.94
436.505	105.94
436.727	101.94
436.949	78.94
437.17	84.94
437.392	84.94
437.614	87.94
437.835	87.94
438.057	120.94
438.278	101.94
438.5	91.94
438.721	107.94
438.943	101.94
439.165	90.94
439.386	92.94
439.608	99.94
439.829	94.94
440.05	98.94
440.272	127.94
440.493	95.94
440.715	88.94
440.936	92.94
441.158	98.94
441.379	81.94
441.6	93.94
441.822	99.94
442.043	109.94
442.264	89.94
442.486	96.94
442.707	85.94
442.928	108.94
443.149	119.94
443.371	100.94
443.592	95.94
443.813	103.94
444.034	89.94
444.255	71.94
444.476	94.94
444.698	80.94
444.919	105.94
445.14	141.94
445.361	119.94
445.582	105.94
445.803	117.94
446.024	120.94
446.245	124.94
446.466	123.94
446.687	98.94
446.908	89.94
447.129	85.94
447.35	64.94
447.571	84.94
447.792	96.94
448.013	97.94
448.234	98.94
448.455	98.94
448.675	131.94
448.896	113.94
449.117	100.94
449.338	94.94
449.559	139.94
449.779	123.94
450	93.94
450.221	99.94
450.442	95.94
450.662	86.94
450.883	104.94
451.104	102.94
451.324	87.94
451.545	100.94
451.766	93.94
451.986	92.94
452.207	104.94
452.428	86.94
452.648	100.94
452.869	91.94
453.089	103.94
453.31	100.94
453.53	95.94
453.751	103.94
453.971	110.94
454.192	104.94
454.412	84.94
454.633	90.94
454.853	100.94
455.073	92.94
455.294	98.94
455.514	104.94
455.734	95.94
455.955	97.94
456.175	91.94
456.395	83.94
456.616	81.94
456.836	91.94
457.056	81.94
457.276	83.94
457.497	87.94
457.717	89.94
457.937	79.94
458.157	82.94
458.377	93.94
458.598	98.94
458.818	115.94
459.038	146.94
459.258	107.94
459.478	79.94
459.698	90.94
459.918	87.94
460.138	91.94
460.358	80.94
460.578	84.94
460.798	76.94
461.018	80.94
461.238	81.94
461.458	75.94
461.678	84.94
461.898	111.94
462.118	82.94
462.338	86.94
462.558	92.94
462.777	65.94
462.997	98.94
463.217	94.94
463.437	91.94
463.657	84.94
463.876	95.94
464.096	83.94
464.316	84.94
464.536	83.94
464.755	87.94
464.975	105.94
465.195	141.94
465.414	134.94
465.634	96.94
465.854	91.94
466.073	86.94
466.293	77.94
466.512	87.94
466.732	87.94
466.951	101.94
467.171	86.94
467.391	81.94
467.61	97.94
467.829	101.94
468.049	92.94
468.268	100.94
468.488	93.94
468.707	83.94
468.927	83.94
469.146	81.94
469.365	75.94
469.585	105.94
469.804	88.94
470.023	93.94
470.243	100.94
470.462	111.94
470.681	104.94
470.901	83.94
471.12	105.94
471.339	100.94
471.558	87.94
471.777	100.94
471.997	84.94
472.216	111.94
472.435	118.94
472.654	109.94
472.873	88.94
473.092	85.94
473.311	89.94
473.53	89.94
473.749	98.94
473.968	96.94
474.187	108.94
474.406	100.94
474.625	91.94
474.844	91.94
475.063	87.94
475.282	91.94
475.501	101.94
475.72	85.94
475.939	87.94
476.158	79.94
476.377	87.94
476.596	93.94
476.814	95.94
477.033	91.94
477.252	84.94
477.471	81.94
477.69	95.94
477.908	84.94
478.127	80.94
478.346	89.94
478.564	93.94
478.783	91.94
479.002	96.94
479.22	91.94
479.439	89.94
479.658	88.94
479.876	94.94
480.095	82.94
480.313	89.94
480.532	93.94
480.751	97.94
480.969	116.94
481.188	163.94
481.406	122.94
481.624	86.94
481.843	86.94
482.061	70.94
482.28	94.94
482.498	89.94
482.717	91.94
482.935	109.94
483.153	91.94
483.372	92.94
483.59	98.94
483.808	96.94
484.027	102.94
484.245	95.94
484.463	104.94
484.681	110.94
484.9	104.94
485.118	116.94
485.336	99.94
485.554	109.94
485.772	104.94
485.99	104.94
486.209	103.94
486.427	104.94
486.645	103.94
486.863	96.94
487.081	103.94
487.299	95.94
487.517	98.94
487.735	89.94
487.953	98.94
488.171	96.94
488.389	87.94
488.607	85.94
488.825	81.94
489.043	89.94
489.261	98.94
489.479	92.94
489.696	97.94
489.914	94.94
490.132	85.94
490.35	84.94
490.568	73.94
490.786	82.94
491.003	92.94
491.221	91.94
491.439	84.94
491.657	101.94
491.874	104.94
492.092	97.94
492.31	102.94
492.527	105.94
492.745	93.94
492.963	91.94
493.18	76.94
493.398	93.94
493.615	109.94
493.833	106.94
494.05	102.94
494.268	92.94
494.485	78.94
494.703	83.94
494.92	91.94
495.138	104.94
495.355	96.94
495.573	90.94
495.79	87.94
496.008	85.94
496.225	98.94
496.442	91.94
496.66	88.94
496.877	89.94
497.094	96.94
497.312	90.94
497.529	108.94
497.746	84.94
497.963	94.94
498.181	77.94
498.398	92.94
498.615	106.94
498.832	107.94
499.049	95.94
499.267	81.94
499.484	95.94
499.701	84.94
499.918	88.94
500.135	90.94
500.352	95.94
500.569	104.94
500.786	103.94
501.003	99.94
501.22	103.94
501.437	83.94
501.654	103.94
501.871	102.94
502.088	91.94
502.305	94.94
502.522	81.94
502.739	102.94
502.956	89.94
503.172	97.94
503.389	104.94
503.606	115.94
503.823	97.94
504.04	89.94
504.256	85.94
504.473	102.94
504.69	83.94
504.907	85.94
505.123	101.94
505.34	101.94
505.557	99.94
505.773	94.94
505.99	82.94
506.207	99.94
506.423	97.94
506.64	93.94
506.856	88.94
507.073	90.94
507.289	101.94
507.506	98.94
507.722	96.94
507.939	97.94
508.155	108.94
508.372	97.94
508.588	81.94
508.805	99.94
509.021	95.94
509.238	88.94
509.454	95.94
509.67	99.94
509.887	100.94
510.103	124.94
510.319	191.94
510.536	613.94
510.752	1768.94
510.968	525.94
511.184	137.94
511.401	104.94
511.617	95.94
511.833	108.94
512.049	103.94
512.265	91.94
512.481	84.94
512.698	101.94
512.914	82.94
513.13	102.94
513.346	102.94
513.562	92.94
513.778	96.94
513.994	88.94
514.21	102.94
514.426	104.94
514.642	127.94
514.858	126.94
515.074	140.94
