Data from Uncirc_2009_H10_HRD10591_00058.txt Node
Date: Wed Jan 03 10:12:13 EST 2024
User: Yrep
Spectrometer: HR+D1059
Trigger mode: 1
Integration Time (sec): 1.000000E-1
Scans to average: 1
Electric dark correction enabled: true
Nonlinearity correction enabled: false
Boxcar width: 0
XAxis mode: Wavelengths
Number of Pixels in Spectrum: 2048
>>>>>Begin Spectral Data<<<<<
223.165	-10.94
223.4	-10.94
223.635	-10.94
223.869	-10.94
224.104	-14.94
224.338	-12.94
224.573	-2.94
224.808	-2.94
225.042	-11.94
225.277	-10.94
225.511	-5.94
225.746	-4.94
225.98	13.06
226.215	10.06
226.449	3.06
226.683	30.06
226.918	26.06
227.152	7.06
227.387	36.06
227.621	52.06
227.856	51.06
228.09	42.06
228.324	60.06
228.559	67.06
228.793	57.06
229.027	59.06
229.262	63.06
229.496	74.06
229.73	56.06
229.964	63.06
230.199	81.06
230.433	80.06
230.667	77.06
230.901	87.06
231.136	95.06
231.37	77.06
231.604	72.06
231.838	79.06
232.072	94.06
232.306	86.06
232.541	85.06
232.775	97.06
233.009	80.06
233.243	89.06
233.477	75.06
233.711	64.06
233.945	91.06
234.179	81.06
234.413	83.06
234.647	81.06
234.881	61.06
235.115	69.06
235.349	77.06
235.583	86.06
235.817	86.06
236.051	72.06
236.285	105.06
236.519	71.06
236.753	74.06
236.987	69.06
237.221	89.06
237.455	87.06
237.689	93.06
237.922	75.06
238.156	79.06
238.39	96.06
238.624	74.06
238.858	79.06
239.091	90.06
239.325	81.06
239.559	83.06
239.793	86.06
240.027	84.06
240.26	75.06
240.494	81.06
240.728	80.06
240.961	80.06
241.195	72.06
241.429	79.06
241.662	64.06
241.896	75.06
242.13	79.06
242.363	82.06
242.597	77.06
242.83	81.06
243.064	82.06
243.298	81.06
243.531	70.06
243.765	69.06
243.998	78.06
244.232	83.06
244.465	95.06
244.699	85.06
244.932	97.06
245.166	78.06
245.399	96.06
245.633	95.06
245.866	82.06
246.099	85.06
246.333	79.06
246.566	72.06
246.8	89.06
247.033	85.06
247.266	94.06
247.5	76.06
247.733	84.06
247.966	75.06
248.2	89.06
248.433	78.06
248.666	85.06
248.899	78.06
249.133	87.06
249.366	88.06
249.599	80.06
249.832	85.06
250.066	83.06
250.299	93.06
250.532	80.06
250.765	85.06
250.998	81.06
251.231	86.06
251.465	77.06
251.698	82.06
251.931	89.06
252.164	78.06
252.397	65.06
252.63	75.06
252.863	87.06
253.096	72.06
253.329	94.06
253.562	82.06
253.795	78.06
254.028	88.06
254.261	89.06
254.494	94.06
254.727	83.06
254.96	87.06
255.193	75.06
255.426	92.06
255.659	90.06
255.892	98.06
256.124	79.06
256.357	90.06
256.59	96.06
256.823	79.06
257.056	94.06
257.289	88.06
257.521	92.06
257.754	77.06
257.987	84.06
258.22	84.06
258.452	85.06
258.685	90.06
258.918	73.06
259.151	83.06
259.383	70.06
259.616	88.06
259.849	85.06
260.081	76.06
260.314	75.06
260.547	79.06
260.779	81.06
261.012	78.06
261.244	87.06
261.477	102.06
261.71	96.06
261.942	93.06
262.175	91.06
262.407	85.06
262.64	91.06
262.872	78.06
263.105	79.06
263.337	96.06
263.57	87.06
263.802	92.06
264.035	82.06
264.267	80.06
264.499	87.06
264.732	82.06
264.964	91.06
265.197	78.06
265.429	82.06
265.661	94.06
265.894	81.06
266.126	88.06
266.358	73.06
266.591	80.06
266.823	92.06
267.055	87.06
267.287	88.06
267.52	84.06
267.752	94.06
267.984	67.06
268.216	86.06
268.448	92.06
268.681	83.06
268.913	88.06
269.145	83.06
269.377	87.06
269.609	80.06
269.841	94.06
270.073	104.06
270.306	90.06
270.538	72.06
270.77	93.06
271.002	90.06
271.234	97.06
271.466	81.06
271.698	90.06
271.93	102.06
272.162	92.06
272.394	86.06
272.626	85.06
272.858	83.06
273.09	77.06
273.322	93.06
273.553	85.06
273.785	87.06
274.017	83.06
274.249	74.06
274.481	83.06
274.713	91.06
274.945	84.06
275.176	79.06
275.408	75.06
275.64	84.06
275.872	95.06
276.104	95.06
276.335	94.06
276.567	91.06
276.799	97.06
277.031	92.06
277.262	98.06
277.494	95.06
277.726	90.06
277.957	87.06
278.189	100.06
278.421	95.06
278.652	96.06
278.884	88.06
279.115	90.06
279.347	81.06
279.579	81.06
279.81	76.06
280.042	94.06
280.273	92.06
280.505	86.06
280.736	89.06
280.968	85.06
281.199	98.06
281.431	90.06
281.662	91.06
281.894	105.06
282.125	115.06
282.356	104.06
282.588	106.06
282.819	105.06
283.051	99.06
283.282	95.06
283.513	100.06
283.745	69.06
283.976	85.06
284.207	85.06
284.439	85.06
284.67	96.06
284.901	92.06
285.132	83.06
285.364	85.06
285.595	94.06
285.826	93.06
286.057	91.06
286.288	111.06
286.52	91.06
286.751	91.06
286.982	97.06
287.213	97.06
287.444	82.06
287.675	103.06
287.906	89.06
288.138	96.06
288.369	90.06
288.6	102.06
288.831	95.06
289.062	95.06
289.293	94.06
289.524	89.06
289.755	81.06
289.986	94.06
290.217	85.06
290.448	92.06
290.679	85.06
290.91	92.06
291.141	95.06
291.371	83.06
291.602	88.06
291.833	87.06
292.064	100.06
292.295	85.06
292.526	93.06
292.757	92.06
292.987	91.06
293.218	85.06
293.449	88.06
293.68	79.06
293.91	89.06
294.141	88.06
294.372	90.06
294.603	91.06
294.833	77.06
295.064	89.06
295.295	86.06
295.525	94.06
295.756	85.06
295.987	124.06
296.217	120.06
296.448	103.06
296.679	93.06
296.909	98.06
297.14	83.06
297.37	91.06
297.601	73.06
297.831	95.06
298.062	98.06
298.292	96.06
298.523	92.06
298.753	91.06
298.984	106.06
299.214	100.06
299.445	83.06
299.675	103.06
299.905	98.06
300.136	92.06
300.366	82.06
300.597	85.06
300.827	106.06
301.057	125.06
301.288	95.06
301.518	91.06
301.748	89.06
301.979	111.06
302.209	96.06
302.439	88.06
302.669	102.06
302.9	103.06
303.13	85.06
303.36	103.06
303.59	105.06
303.82	105.06
304.051	110.06
304.281	90.06
304.511	93.06
304.741	95.06
304.971	88.06
305.201	90.06
305.431	98.06
305.661	88.06
305.891	84.06
306.121	99.06
306.352	87.06
306.582	74.06
306.812	84.06
307.042	95.06
307.272	99.06
307.502	95.06
307.731	87.06
307.961	78.06
308.191	94.06
308.421	94.06
308.651	103.06
308.881	96.06
309.111	88.06
309.341	85.06
309.571	95.06
309.8	96.06
310.03	97.06
310.26	91.06
310.49	77.06
310.72	99.06
310.949	108.06
311.179	83.06
311.409	80.06
311.639	82.06
311.868	93.06
312.098	92.06
312.328	85.06
312.557	81.06
312.787	105.06
313.017	101.06
313.246	81.06
313.476	81.06
313.706	94.06
313.935	84.06
314.165	101.06
314.394	87.06
314.624	104.06
314.853	82.06
315.083	104.06
315.312	93.06
315.542	95.06
315.771	80.06
316.001	97.06
316.23	96.06
316.46	84.06
316.689	99.06
316.919	95.06
317.148	97.06
317.377	107.06
317.607	110.06
317.836	110.06
318.065	97.06
318.295	102.06
318.524	98.06
318.753	104.06
318.983	101.06
319.212	99.06
319.441	102.06
319.67	103.06
319.9	93.06
320.129	96.06
320.358	84.06
320.587	90.06
320.816	103.06
321.046	107.06
321.275	100.06
321.504	96.06
321.733	81.06
321.962	79.06
322.191	107.06
322.42	103.06
322.649	107.06
322.878	112.06
323.108	112.06
323.337	114.06
323.566	116.06
323.795	120.06
324.024	192.06
324.253	324.06
324.482	677.06
324.71	1371.06
324.939	1754.06
325.168	641.06
325.397	215.06
325.626	142.06
325.855	127.06
326.084	130.06
326.313	163.06
326.542	148.06
326.77	203.06
326.999	396.06
327.228	781.06
327.457	1359.06
327.686	1125.06
327.914	291.06
328.143	165.06
328.372	144.06
328.6	107.06
328.829	110.06
329.058	119.06
329.287	109.06
329.515	115.06
329.744	99.06
329.972	101.06
330.201	124.06
330.43	101.06
330.658	92.06
330.887	123.06
331.115	111.06
331.344	110.06
331.572	99.06
331.801	105.06
332.03	106.06
332.258	93.06
332.486	89.06
332.715	88.06
332.943	102.06
333.172	97.06
333.4	109.06
333.629	100.06
333.857	110.06
334.085	97.06
334.314	101.06
334.542	109.06
334.771	113.06
334.999	112.06
335.227	93.06
335.455	96.06
335.684	96.06
335.912	97.06
336.14	102.06
336.369	105.06
336.597	97.06
336.825	104.06
337.053	94.06
337.281	84.06
337.51	93.06
337.738	97.06
337.966	92.06
338.194	97.06
338.422	106.06
338.65	100.06
338.878	89.06
339.106	94.06
339.334	82.06
339.562	92.06
339.79	94.06
340.018	81.06
340.246	94.06
340.474	88.06
340.702	91.06
340.93	95.06
341.158	80.06
341.386	109.06
341.614	89.06
341.842	90.06
342.07	107.06
342.298	88.06
342.526	76.06
342.754	73.06
342.981	76.06
343.209	71.06
343.437	90.06
343.665	88.06
343.893	85.06
344.12	99.06
344.348	65.06
344.576	76.06
344.804	92.06
345.031	81.06
345.259	101.06
345.487	77.06
345.714	86.06
345.942	90.06
346.17	98.06
346.397	89.06
346.625	84.06
346.853	95.06
347.08	93.06
347.308	105.06
347.535	91.06
347.763	104.06
347.99	101.06
348.218	98.06
348.445	97.06
348.673	99.06
348.9	101.06
349.128	101.06
349.355	92.06
349.583	81.06
349.81	101.06
350.037	106.06
350.265	96.06
350.492	91.06
350.72	98.06
350.947	87.06
351.174	108.06
351.402	95.06
351.629	102.06
351.856	93.06
352.083	82.06
352.311	116.06
352.538	109.06
352.765	95.06
352.992	100.06
353.22	107.06
353.447	111.06
353.674	109.06
353.901	106.06
354.128	82.06
354.355	99.06
354.583	98.06
354.81	96.06
355.037	85.06
355.264	103.06
355.491	100.06
355.718	81.06
355.945	96.06
356.172	100.06
356.399	117.06
356.626	92.06
356.853	91.06
357.08	100.06
357.307	99.06
357.534	93.06
357.761	103.06
357.988	95.06
358.215	92.06
358.441	95.06
358.668	80.06
358.895	99.06
359.122	90.06
359.349	102.06
359.576	91.06
359.802	95.06
360.029	96.06
360.256	107.06
360.483	102.06
360.709	91.06
360.936	91.06
361.163	97.06
361.39	85.06
361.616	107.06
361.843	77.06
362.07	85.06
362.296	96.06
362.523	71.06
362.749	91.06
362.976	96.06
363.203	101.06
363.429	91.06
363.656	91.06
363.882	96.06
364.109	94.06
364.335	103.06
364.562	89.06
364.788	92.06
365.015	108.06
365.241	89.06
365.468	95.06
365.694	99.06
365.92	96.06
366.147	80.06
366.373	99.06
366.599	95.06
366.826	81.06
367.052	86.06
367.278	94.06
367.505	82.06
367.731	106.06
367.957	88.06
368.184	95.06
368.41	103.06
368.636	108.06
368.862	107.06
369.089	100.06
369.315	91.06
369.541	102.06
369.767	96.06
369.993	92.06
370.219	95.06
370.445	91.06
370.672	101.06
370.898	82.06
371.124	99.06
371.35	79.06
371.576	81.06
371.802	83.06
372.028	94.06
372.254	88.06
372.48	85.06
372.706	90.06
372.932	83.06
373.158	90.06
373.384	105.06
373.61	86.06
373.835	90.06
374.061	90.06
374.287	96.06
374.513	87.06
374.739	93.06
374.965	100.06
375.191	81.06
375.416	84.06
375.642	104.06
375.868	96.06
376.094	95.06
376.319	91.06
376.545	90.06
376.771	99.06
376.997	91.06
377.222	103.06
377.448	83.06
377.674	91.06
377.899	83.06
378.125	84.06
378.35	91.06
378.576	97.06
378.802	85.06
379.027	79.06
379.253	107.06
379.478	90.06
379.704	89.06
379.929	99.06
380.155	97.06
380.38	108.06
380.606	103.06
380.831	85.06
381.057	81.06
381.282	93.06
381.507	93.06
381.733	100.06
381.958	89.06
382.184	96.06
382.409	93.06
382.634	95.06
382.86	87.06
383.085	112.06
383.31	107.06
383.535	92.06
383.761	96.06
383.986	95.06
384.211	98.06
384.436	92.06
384.662	102.06
384.887	105.06
385.112	114.06
385.337	114.06
385.562	91.06
385.787	100.06
386.013	108.06
386.238	102.06
386.463	109.06
386.688	108.06
386.913	107.06
387.138	120.06
387.363	98.06
387.588	93.06
387.813	108.06
388.038	99.06
388.263	94.06
388.488	108.06
388.713	102.06
388.938	94.06
389.163	113.06
389.387	92.06
389.612	100.06
389.837	94.06
390.062	98.06
390.287	83.06
390.512	84.06
390.736	98.06
390.961	94.06
391.186	97.06
391.411	104.06
391.636	80.06
391.86	76.06
392.085	102.06
392.31	63.06
392.534	101.06
392.759	100.06
392.984	81.06
393.208	89.06
393.433	96.06
393.658	87.06
393.882	80.06
394.107	81.06
394.331	88.06
394.556	82.06
394.78	91.06
395.005	90.06
395.229	89.06
395.454	99.06
395.678	81.06
395.903	95.06
396.127	88.06
396.352	98.06
396.576	92.06
396.801	69.06
397.025	100.06
397.249	89.06
397.474	95.06
397.698	75.06
397.922	90.06
398.147	88.06
398.371	86.06
398.595	84.06
398.82	85.06
399.044	95.06
399.268	92.06
399.492	103.06
399.717	97.06
399.941	90.06
400.165	89.06
400.389	80.06
400.613	86.06
400.837	82.06
401.062	86.06
401.286	85.06
401.51	94.06
401.734	80.06
401.958	93.06
402.182	115.06
402.406	118.06
402.63	113.06
402.854	97.06
403.078	94.06
403.302	76.06
403.526	101.06
403.75	97.06
403.974	79.06
404.198	91.06
404.422	90.06
404.645	88.06
404.869	86.06
405.093	113.06
405.317	99.06
405.541	93.06
405.765	105.06
405.988	104.06
406.212	146.06
406.436	172.06
406.66	112.06
406.883	92.06
407.107	92.06
407.331	93.06
407.555	94.06
407.778	97.06
408.002	95.06
408.226	78.06
408.449	91.06
408.673	97.06
408.896	106.06
409.12	98.06
409.344	82.06
409.567	90.06
409.791	95.06
410.014	105.06
410.238	112.06
410.461	101.06
410.685	103.06
410.908	93.06
411.132	104.06
411.355	99.06
411.578	90.06
411.802	106.06
412.025	95.06
412.249	92.06
412.472	107.06
412.695	90.06
412.919	91.06
413.142	91.06
413.365	90.06
413.589	93.06
413.812	82.06
414.035	96.06
414.258	97.06
414.482	105.06
414.705	89.06
414.928	103.06
415.151	91.06
415.374	100.06
415.597	88.06
415.821	88.06
416.044	85.06
416.267	91.06
416.49	98.06
416.713	76.06
416.936	85.06
417.159	91.06
417.382	83.06
417.605	76.06
417.828	91.06
418.051	77.06
418.274	105.06
418.497	95.06
418.72	106.06
418.943	83.06
419.166	83.06
419.389	90.06
419.611	104.06
419.834	81.06
420.057	86.06
420.28	88.06
420.503	89.06
420.726	106.06
420.948	94.06
421.171	84.06
421.394	97.06
421.617	98.06
421.839	79.06
422.062	94.06
422.285	92.06
422.507	96.06
422.73	99.06
422.953	95.06
423.175	90.06
423.398	95.06
423.621	97.06
423.843	90.06
424.066	79.06
424.288	88.06
424.511	87.06
424.733	98.06
424.956	99.06
425.178	101.06
425.401	105.06
425.623	96.06
425.846	93.06
426.068	92.06
426.291	92.06
426.513	99.06
426.735	77.06
426.958	99.06
427.18	95.06
427.402	107.06
427.625	151.06
427.847	110.06
428.069	105.06
428.292	88.06
428.514	90.06
428.736	110.06
428.958	80.06
429.181	90.06
429.403	99.06
429.625	83.06
429.847	85.06
430.069	100.06
430.292	96.06
430.514	83.06
430.736	95.06
430.958	101.06
431.18	93.06
431.402	85.06
431.624	82.06
431.846	91.06
432.068	91.06
432.29	91.06
432.512	88.06
432.734	88.06
432.956	76.06
433.178	97.06
433.4	112.06
433.622	95.06
433.844	76.06
434.066	81.06
434.287	84.06
434.509	69.06
434.731	83.06
434.953	75.06
435.175	97.06
435.397	88.06
435.618	89.06
435.84	96.06
436.062	111.06
436.284	115.06
436.505	96.06
436.727	103.06
436.949	85.06
437.17	97.06
437.392	84.06
437.614	82.06
437.835	84.06
438.057	94.06
438.278	87.06
438.5	80.06
438.721	125.06
438.943	98.06
439.165	89.06
439.386	77.06
439.608	79.06
439.829	96.06
440.05	98.06
440.272	105.06
440.493	93.06
440.715	80.06
440.936	80.06
441.158	84.06
441.379	100.06
441.6	84.06
441.822	96.06
442.043	91.06
442.264	97.06
442.486	95.06
442.707	96.06
442.928	109.06
443.149	112.06
443.371	111.06
443.592	97.06
443.813	86.06
444.034	94.06
444.255	89.06
444.476	95.06
444.698	91.06
444.919	75.06
445.14	139.06
445.361	112.06
445.582	93.06
445.803	109.06
446.024	123.06
446.245	132.06
446.466	105.06
446.687	95.06
446.908	85.06
447.129	92.06
447.35	90.06
447.571	85.06
447.792	81.06
448.013	84.06
448.234	105.06
448.455	96.06
448.675	114.06
448.896	109.06
449.117	75.06
449.338	97.06
449.559	107.06
449.779	129.06
450	100.06
450.221	84.06
450.442	95.06
450.662	97.06
450.883	105.06
451.104	94.06
451.324	106.06
451.545	93.06
451.766	89.06
451.986	85.06
452.207	91.06
452.428	100.06
452.648	90.06
452.869	101.06
453.089	107.06
453.31	103.06
453.53	92.06
453.751	83.06
453.971	101.06
454.192	96.06
454.412	83.06
454.633	86.06
454.853	95.06
455.073	92.06
455.294	95.06
455.514	111.06
455.734	99.06
455.955	86.06
456.175	85.06
456.395	84.06
456.616	98.06
456.836	87.06
457.056	90.06
457.276	91.06
457.497	98.06
457.717	85.06
457.937	83.06
458.157	88.06
458.377	88.06
458.598	80.06
458.818	109.06
459.038	113.06
459.258	125.06
459.478	77.06
459.698	91.06
459.918	90.06
460.138	81.06
460.358	89.06
460.578	90.06
460.798	92.06
461.018	96.06
461.238	83.06
461.458	90.06
461.678	95.06
461.898	89.06
462.118	83.06
462.338	89.06
462.558	82.06
462.777	79.06
462.997	83.06
463.217	83.06
463.437	93.06
463.657	89.06
463.876	74.06
464.096	91.06
464.316	78.06
464.536	92.06
464.755	96.06
464.975	97.06
465.195	148.06
465.414	125.06
465.634	87.06
465.854	93.06
466.073	89.06
466.293	98.06
466.512	93.06
466.732	89.06
466.951	101.06
467.171	84.06
467.391	87.06
467.61	92.06
467.829	97.06
468.049	73.06
468.268	94.06
468.488	87.06
468.707	98.06
468.927	90.06
469.146	91.06
469.365	96.06
469.585	81.06
469.804	93.06
470.023	85.06
470.243	83.06
470.462	90.06
470.681	90.06
470.901	99.06
471.12	98.06
471.339	107.06
471.558	92.06
471.777	85.06
471.997	90.06
472.216	89.06
472.435	105.06
472.654	103.06
472.873	88.06
473.092	88.06
473.311	81.06
473.53	89.06
473.749	89.06
473.968	91.06
474.187	102.06
474.406	96.06
474.625	92.06
474.844	92.06
475.063	84.06
475.282	85.06
475.501	88.06
475.72	77.06
475.939	96.06
476.158	84.06
476.377	91.06
476.596	95.06
476.814	97.06
477.033	81.06
477.252	82.06
477.471	85.06
477.69	103.06
477.908	96.06
478.127	100.06
478.346	91.06
478.564	93.06
478.783	87.06
479.002	97.06
479.22	88.06
479.439	99.06
479.658	93.06
479.876	96.06
480.095	90.06
480.313	84.06
480.532	103.06
480.751	87.06
480.969	98.06
481.188	163.06
481.406	134.06
481.624	105.06
481.843	83.06
482.061	75.06
482.28	78.06
482.498	107.06
482.717	78.06
482.935	76.06
483.153	91.06
483.372	76.06
483.59	80.06
483.808	91.06
484.027	91.06
484.245	85.06
484.463	97.06
484.681	110.06
484.9	83.06
485.118	98.06
485.336	97.06
485.554	84.06
485.772	96.06
485.99	109.06
486.209	105.06
486.427	109.06
486.645	97.06
486.863	93.06
487.081	103.06
487.299	88.06
487.517	97.06
487.735	94.06
487.953	89.06
488.171	113.06
488.389	101.06
488.607	97.06
488.825	93.06
489.043	90.06
489.261	105.06
489.479	104.06
489.696	79.06
489.914	108.06
490.132	88.06
490.35	88.06
490.568	98.06
490.786	93.06
491.003	97.06
491.221	78.06
491.439	100.06
491.657	93.06
491.874	96.06
492.092	93.06
492.31	85.06
492.527	91.06
492.745	93.06
492.963	97.06
493.18	85.06
493.398	100.06
493.615	94.06
493.833	111.06
494.05	98.06
494.268	78.06
494.485	83.06
494.703	85.06
494.92	90.06
495.138	92.06
495.355	90.06
495.573	100.06
495.79	95.06
496.008	105.06
496.225	98.06
496.442	87.06
496.66	92.06
496.877	89.06
497.094	85.06
497.312	102.06
497.529	80.06
497.746	94.06
497.963	97.06
498.181	100.06
498.398	92.06
498.615	99.06
498.832	95.06
499.049	85.06
499.267	104.06
499.484	99.06
499.701	96.06
499.918	87.06
500.135	100.06
500.352	85.06
500.569	95.06
500.786	101.06
501.003	103.06
501.22	99.06
501.437	98.06
501.654	96.06
501.871	99.06
502.088	93.06
502.305	85.06
502.522	84.06
502.739	95.06
502.956	86.06
503.172	81.06
503.389	99.06
503.606	90.06
503.823	88.06
504.04	96.06
504.256	98.06
504.473	104.06
504.69	85.06
504.907	106.06
505.123	92.06
505.34	98.06
505.557	93.06
505.773	87.06
505.99	93.06
506.207	92.06
506.423	98.06
506.64	91.06
506.856	83.06
507.073	98.06
507.289	89.06
507.506	88.06
507.722	80.06
507.939	100.06
508.155	100.06
508.372	96.06
508.588	95.06
508.805	97.06
509.021	88.06
509.238	97.06
509.454	99.06
509.67	94.06
509.887	98.06
510.103	117.06
510.319	180.06
510.536	588.06
510.752	1693.06
510.968	505.06
511.184	137.06
511.401	105.06
511.617	99.06
511.833	100.06
512.049	97.06
512.265	97.06
512.481	84.06
512.698	96.06
512.914	101.06
513.13	86.06
513.346	100.06
513.562	95.06
513.778	98.06
513.994	95.06
514.21	100.06
514.426	111.06
514.642	104.06
514.858	115.06
515.074	137.06
515.29	332.06
515.506	979.06
515.721	388.06
