Data from Uncirc_2009_H10_HRD10591_00026.txt Node
Date: Wed Jan 03 10:12:07 EST 2024
User: Yrep
Spectrometer: HR+D1059
Trigger mode: 1
Integration Time (sec): 1.000000E-1
Scans to average: 1
Electric dark correction enabled: true
Nonlinearity correction enabled: false
Boxcar width: 0
XAxis mode: Wavelengths
Number of Pixels in Spectrum: 2048
>>>>>Begin Spectral Data<<<<<
223.165	-10.06
223.4	-10.06
223.635	-10.06
223.869	-11.06
224.104	-29.06
224.338	-20.06
224.573	-20.06
224.808	-15.06
225.042	-14.06
225.277	0.94
225.511	-2.06
225.746	2.94
225.98	17.94
226.215	13.94
226.449	15.94
226.683	18.94
226.918	22.94
227.152	27.94
227.387	43.94
227.621	39.94
227.856	54.94
228.09	48.94
228.324	55.94
228.559	48.94
228.793	52.94
229.027	68.94
229.262	68.94
229.496	63.94
229.73	81.94
229.964	68.94
230.199	80.94
230.433	68.94
230.667	76.94
230.901	82.94
231.136	65.94
231.37	77.94
231.604	61.94
231.838	81.94
232.072	84.94
232.306	80.94
232.541	82.94
232.775	82.94
233.009	91.94
233.243	81.94
233.477	85.94
233.711	89.94
233.945	90.94
234.179	74.94
234.413	81.94
234.647	83.94
234.881	87.94
235.115	80.94
235.349	79.94
235.583	85.94
235.817	65.94
236.051	93.94
236.285	82.94
236.519	76.94
236.753	72.94
236.987	63.94
237.221	86.94
237.455	92.94
237.689	92.94
237.922	77.94
238.156	88.94
238.39	74.94
238.624	63.94
238.858	80.94
239.091	70.94
239.325	84.94
239.559	82.94
239.793	67.94
240.027	71.94
240.26	75.94
240.494	71.94
240.728	59.94
240.961	79.94
241.195	80.94
241.429	57.94
241.662	85.94
241.896	72.94
242.13	84.94
242.363	72.94
242.597	90.94
242.83	73.94
243.064	82.94
243.298	80.94
243.531	66.94
243.765	74.94
243.998	88.94
244.232	93.94
244.465	86.94
244.699	82.94
244.932	82.94
245.166	77.94
245.399	87.94
245.633	79.94
245.866	84.94
246.099	81.94
246.333	78.94
246.566	77.94
246.8	80.94
247.033	68.94
247.266	71.94
247.5	70.94
247.733	84.94
247.966	100.94
248.2	88.94
248.433	67.94
248.666	83.94
248.899	79.94
249.133	74.94
249.366	96.94
249.599	88.94
249.832	74.94
250.066	86.94
250.299	82.94
250.532	77.94
250.765	86.94
250.998	76.94
251.231	74.94
251.465	76.94
251.698	74.94
251.931	72.94
252.164	81.94
252.397	85.94
252.63	89.94
252.863	69.94
253.096	68.94
253.329	73.94
253.562	85.94
253.795	81.94
254.028	80.94
254.261	75.94
254.494	70.94
254.727	81.94
254.96	82.94
255.193	82.94
255.426	85.94
255.659	76.94
255.892	74.94
256.124	79.94
256.357	84.94
256.59	83.94
256.823	77.94
257.056	77.94
257.289	74.94
257.521	78.94
257.754	90.94
257.987	84.94
258.22	84.94
258.452	86.94
258.685	69.94
258.918	88.94
259.151	83.94
259.383	84.94
259.616	74.94
259.849	74.94
260.081	94.94
260.314	78.94
260.547	79.94
260.779	82.94
261.012	79.94
261.244	87.94
261.477	84.94
261.71	87.94
261.942	112.94
262.175	96.94
262.407	81.94
262.64	77.94
262.872	62.94
263.105	84.94
263.337	82.94
263.57	83.94
263.802	85.94
264.035	68.94
264.267	74.94
264.499	83.94
264.732	82.94
264.964	76.94
265.197	94.94
265.429	82.94
265.661	70.94
265.894	80.94
266.126	76.94
266.358	78.94
266.591	95.94
266.823	70.94
267.055	91.94
267.287	87.94
267.52	77.94
267.752	82.94
267.984	85.94
268.216	88.94
268.448	87.94
268.681	71.94
268.913	86.94
269.145	77.94
269.377	79.94
269.609	81.94
269.841	95.94
270.073	96.94
270.306	91.94
270.538	88.94
270.77	89.94
271.002	81.94
271.234	90.94
271.466	90.94
271.698	99.94
271.93	84.94
272.162	89.94
272.394	74.94
272.626	70.94
272.858	78.94
273.09	79.94
273.322	85.94
273.553	86.94
273.785	89.94
274.017	71.94
274.249	80.94
274.481	78.94
274.713	87.94
274.945	79.94
275.176	93.94
275.408	92.94
275.64	86.94
275.872	85.94
276.104	97.94
276.335	77.94
276.567	90.94
276.799	90.94
277.031	84.94
277.262	85.94
277.494	82.94
277.726	103.94
277.957	97.94
278.189	87.94
278.421	84.94
278.652	85.94
278.884	81.94
279.115	85.94
279.347	84.94
279.579	86.94
279.81	89.94
280.042	77.94
280.273	93.94
280.505	75.94
280.736	86.94
280.968	78.94
281.199	83.94
281.431	74.94
281.662	84.94
281.894	85.94
282.125	86.94
282.356	104.94
282.588	114.94
282.819	99.94
283.051	85.94
283.282	88.94
283.513	89.94
283.745	88.94
283.976	102.94
284.207	97.94
284.439	94.94
284.67	88.94
284.901	89.94
285.132	81.94
285.364	86.94
285.595	93.94
285.826	86.94
286.057	92.94
286.288	89.94
286.52	82.94
286.751	77.94
286.982	87.94
287.213	88.94
287.444	87.94
287.675	73.94
287.906	89.94
288.138	86.94
288.369	92.94
288.6	89.94
288.831	85.94
289.062	80.94
289.293	93.94
289.524	94.94
289.755	77.94
289.986	93.94
290.217	99.94
290.448	70.94
290.679	120.94
290.91	100.94
291.141	85.94
291.371	89.94
291.602	94.94
291.833	86.94
292.064	97.94
292.295	79.94
292.526	80.94
292.757	87.94
292.987	91.94
293.218	86.94
293.449	88.94
293.68	96.94
293.91	80.94
294.141	94.94
294.372	88.94
294.603	80.94
294.833	92.94
295.064	93.94
295.295	81.94
295.525	85.94
295.756	88.94
295.987	107.94
296.217	112.94
296.448	122.94
296.679	97.94
296.909	94.94
297.14	85.94
297.37	98.94
297.601	90.94
297.831	93.94
298.062	85.94
298.292	100.94
298.523	82.94
298.753	101.94
298.984	86.94
299.214	76.94
299.445	90.94
299.675	83.94
299.905	109.94
300.136	85.94
300.366	104.94
300.597	105.94
300.827	79.94
301.057	94.94
301.288	81.94
301.518	83.94
301.748	82.94
301.979	103.94
302.209	89.94
302.439	81.94
302.669	93.94
302.9	98.94
303.13	89.94
303.36	97.94
303.59	111.94
303.82	108.94
304.051	90.94
304.281	96.94
304.511	82.94
304.741	86.94
304.971	85.94
305.201	96.94
305.431	87.94
305.661	89.94
305.891	92.94
306.121	87.94
306.352	93.94
306.582	108.94
306.812	93.94
307.042	84.94
307.272	102.94
307.502	83.94
307.731	87.94
307.961	93.94
308.191	98.94
308.421	84.94
308.651	97.94
308.881	106.94
309.111	98.94
309.341	93.94
309.571	102.94
309.8	101.94
310.03	102.94
310.26	97.94
310.49	107.94
310.72	100.94
310.949	95.94
311.179	90.94
311.409	89.94
311.639	85.94
311.868	101.94
312.098	93.94
312.328	85.94
312.557	89.94
312.787	96.94
313.017	97.94
313.246	82.94
313.476	110.94
313.706	100.94
313.935	86.94
314.165	95.94
314.394	89.94
314.624	104.94
314.853	82.94
315.083	88.94
315.312	89.94
315.542	98.94
315.771	108.94
316.001	92.94
316.23	84.94
316.46	80.94
316.689	82.94
316.919	108.94
317.148	96.94
317.377	113.94
317.607	125.94
317.836	116.94
318.065	97.94
318.295	91.94
318.524	84.94
318.753	92.94
318.983	93.94
319.212	94.94
319.441	111.94
319.67	98.94
319.9	105.94
320.129	89.94
320.358	88.94
320.587	97.94
320.816	95.94
321.046	96.94
321.275	99.94
321.504	78.94
321.733	103.94
321.962	95.94
322.191	104.94
322.42	95.94
322.649	111.94
322.878	113.94
323.108	119.94
323.337	120.94
323.566	141.94
323.795	150.94
324.024	197.94
324.253	366.94
324.482	740.94
324.71	1520.94
324.939	2021.94
325.168	738.94
325.397	215.94
325.626	153.94
325.855	149.94
326.084	138.94
326.313	150.94
326.542	163.94
326.77	209.94
326.999	430.94
327.228	849.94
327.457	1560.94
327.686	1242.94
327.914	340.94
328.143	175.94
328.372	128.94
328.6	117.94
328.829	117.94
329.058	124.94
329.287	118.94
329.515	98.94
329.744	102.94
329.972	104.94
330.201	101.94
330.43	116.94
330.658	121.94
330.887	120.94
331.115	101.94
331.344	84.94
331.572	103.94
331.801	99.94
332.03	92.94
332.258	80.94
332.486	81.94
332.715	94.94
332.943	107.94
333.172	103.94
333.4	111.94
333.629	102.94
333.857	112.94
334.085	90.94
334.314	101.94
334.542	128.94
334.771	119.94
334.999	105.94
335.227	91.94
335.455	101.94
335.684	95.94
335.912	100.94
336.14	94.94
336.369	100.94
336.597	90.94
336.825	100.94
337.053	78.94
337.281	83.94
337.51	93.94
337.738	83.94
337.966	77.94
338.194	94.94
338.422	94.94
338.65	87.94
338.878	82.94
339.106	92.94
339.334	82.94
339.562	89.94
339.79	101.94
340.018	100.94
340.246	82.94
340.474	81.94
340.702	85.94
340.93	102.94
341.158	98.94
341.386	99.94
341.614	87.94
341.842	93.94
342.07	96.94
342.298	91.94
342.526	102.94
342.754	95.94
342.981	90.94
343.209	107.94
343.437	106.94
343.665	87.94
343.893	84.94
344.12	91.94
344.348	101.94
344.576	94.94
344.804	97.94
345.031	94.94
345.259	91.94
345.487	89.94
345.714	82.94
345.942	95.94
346.17	88.94
346.397	80.94
346.625	90.94
346.853	104.94
347.08	92.94
347.308	82.94
347.535	95.94
347.763	92.94
347.99	93.94
348.218	96.94
348.445	102.94
348.673	97.94
348.9	119.94
349.128	97.94
349.355	80.94
349.583	80.94
349.81	86.94
350.037	100.94
350.265	82.94
350.492	101.94
350.72	95.94
350.947	108.94
351.174	98.94
351.402	98.94
351.629	102.94
351.856	105.94
352.083	117.94
352.311	108.94
352.538	102.94
352.765	99.94
352.992	123.94
353.22	100.94
353.447	100.94
353.674	94.94
353.901	87.94
354.128	96.94
354.355	92.94
354.583	96.94
354.81	103.94
355.037	88.94
355.264	93.94
355.491	90.94
355.718	88.94
355.945	78.94
356.172	94.94
356.399	90.94
356.626	102.94
356.853	97.94
357.08	97.94
357.307	94.94
357.534	96.94
357.761	99.94
357.988	94.94
358.215	107.94
358.441	118.94
358.668	79.94
358.895	90.94
359.122	93.94
359.349	88.94
359.576	75.94
359.802	98.94
360.029	110.94
360.256	87.94
360.483	82.94
360.709	86.94
360.936	104.94
361.163	97.94
361.39	89.94
361.616	87.94
361.843	96.94
362.07	86.94
362.296	92.94
362.523	86.94
362.749	94.94
362.976	93.94
363.203	97.94
363.429	77.94
363.656	87.94
363.882	85.94
364.109	101.94
364.335	88.94
364.562	85.94
364.788	88.94
365.015	97.94
365.241	110.94
365.468	108.94
365.694	90.94
365.92	90.94
366.147	100.94
366.373	88.94
366.599	79.94
366.826	84.94
367.052	96.94
367.278	87.94
367.505	97.94
367.731	100.94
367.957	87.94
368.184	81.94
368.41	81.94
368.636	104.94
368.862	101.94
369.089	105.94
369.315	88.94
369.541	88.94
369.767	83.94
369.993	81.94
370.219	85.94
370.445	89.94
370.672	85.94
370.898	76.94
371.124	98.94
371.35	92.94
371.576	96.94
371.802	92.94
372.028	85.94
372.254	95.94
372.48	90.94
372.706	89.94
372.932	77.94
373.158	93.94
373.384	90.94
373.61	98.94
373.835	71.94
374.061	85.94
374.287	96.94
374.513	100.94
374.739	99.94
374.965	76.94
375.191	90.94
375.416	85.94
375.642	103.94
375.868	97.94
376.094	102.94
376.319	94.94
376.545	84.94
376.771	97.94
376.997	93.94
377.222	84.94
377.448	90.94
377.674	94.94
377.899	88.94
378.125	90.94
378.35	79.94
378.576	97.94
378.802	88.94
379.027	88.94
379.253	88.94
379.478	96.94
379.704	97.94
379.929	81.94
380.155	108.94
380.38	107.94
380.606	98.94
380.831	92.94
381.057	100.94
381.282	102.94
381.507	90.94
381.733	85.94
381.958	101.94
382.184	95.94
382.409	101.94
382.634	96.94
382.86	103.94
383.085	102.94
383.31	101.94
383.535	105.94
383.761	74.94
383.986	106.94
384.211	111.94
384.436	102.94
384.662	116.94
384.887	105.94
385.112	112.94
385.337	115.94
385.562	94.94
385.787	96.94
386.013	108.94
386.238	107.94
386.463	105.94
386.688	99.94
386.913	109.94
387.138	119.94
387.363	116.94
387.588	99.94
387.813	100.94
388.038	94.94
388.263	113.94
388.488	103.94
388.713	96.94
388.938	90.94
389.163	104.94
389.387	86.94
389.612	92.94
389.837	82.94
390.062	100.94
390.287	96.94
390.512	102.94
390.736	92.94
390.961	105.94
391.186	111.94
391.411	102.94
391.636	96.94
391.86	95.94
392.085	93.94
392.31	94.94
392.534	95.94
392.759	80.94
392.984	98.94
393.208	93.94
393.433	105.94
393.658	89.94
393.882	78.94
394.107	94.94
394.331	89.94
394.556	86.94
394.78	88.94
395.005	104.94
395.229	90.94
395.454	90.94
395.678	81.94
395.903	84.94
396.127	86.94
396.352	89.94
396.576	100.94
396.801	94.94
397.025	87.94
397.249	85.94
397.474	98.94
397.698	102.94
397.922	104.94
398.147	100.94
398.371	87.94
398.595	76.94
398.82	83.94
399.044	98.94
399.268	93.94
399.492	90.94
399.717	75.94
399.941	93.94
400.165	84.94
400.389	92.94
400.613	94.94
400.837	91.94
401.062	81.94
401.286	93.94
401.51	100.94
401.734	72.94
401.958	95.94
402.182	126.94
402.406	143.94
402.63	117.94
402.854	99.94
403.078	86.94
403.302	98.94
403.526	96.94
403.75	108.94
403.974	74.94
404.198	94.94
404.422	85.94
404.645	80.94
404.869	95.94
405.093	90.94
405.317	101.94
405.541	89.94
405.765	89.94
405.988	121.94
406.212	136.94
406.436	189.94
406.66	132.94
406.883	119.94
407.107	83.94
407.331	98.94
407.555	96.94
407.778	104.94
408.002	91.94
408.226	95.94
408.449	93.94
408.673	77.94
408.896	97.94
409.12	92.94
409.344	91.94
409.567	78.94
409.791	94.94
410.014	97.94
410.238	84.94
410.461	101.94
410.685	99.94
410.908	119.94
411.132	97.94
411.355	91.94
411.578	90.94
411.802	86.94
412.025	98.94
412.249	90.94
412.472	84.94
412.695	97.94
412.919	95.94
413.142	91.94
413.365	89.94
413.589	93.94
413.812	82.94
414.035	88.94
414.258	83.94
414.482	92.94
414.705	96.94
414.928	93.94
415.151	95.94
415.374	97.94
415.597	91.94
415.821	83.94
416.044	75.94
416.267	95.94
416.49	85.94
416.713	89.94
416.936	77.94
417.159	85.94
417.382	73.94
417.605	88.94
417.828	94.94
418.051	87.94
418.274	77.94
418.497	101.94
418.72	78.94
418.943	94.94
419.166	86.94
419.389	93.94
419.611	94.94
419.834	90.94
420.057	82.94
420.28	72.94
420.503	96.94
420.726	82.94
420.948	77.94
421.171	80.94
421.394	99.94
421.617	89.94
421.839	89.94
422.062	87.94
422.285	104.94
422.507	106.94
422.73	104.94
422.953	91.94
423.175	88.94
423.398	101.94
423.621	74.94
423.843	73.94
424.066	81.94
424.288	69.94
424.511	87.94
424.733	105.94
424.956	89.94
425.178	95.94
425.401	102.94
425.623	105.94
425.846	96.94
426.068	95.94
426.291	100.94
426.513	93.94
426.735	104.94
426.958	112.94
427.18	112.94
427.402	117.94
427.625	156.94
427.847	113.94
428.069	104.94
428.292	82.94
428.514	85.94
428.736	82.94
428.958	93.94
429.181	74.94
429.403	96.94
429.625	84.94
429.847	87.94
430.069	102.94
430.292	85.94
430.514	89.94
430.736	74.94
430.958	95.94
431.18	94.94
431.402	82.94
431.624	91.94
431.846	90.94
432.068	89.94
432.29	87.94
432.512	94.94
432.734	88.94
432.956	86.94
433.178	111.94
433.4	95.94
433.622	89.94
433.844	90.94
434.066	96.94
434.287	101.94
434.509	93.94
434.731	91.94
434.953	83.94
435.175	94.94
435.397	94.94
435.618	96.94
435.84	91.94
436.062	125.94
436.284	106.94
436.505	89.94
436.727	100.94
436.949	86.94
437.17	74.94
437.392	74.94
437.614	85.94
437.835	94.94
438.057	97.94
438.278	112.94
438.5	101.94
438.721	116.94
438.943	79.94
439.165	98.94
439.386	86.94
439.608	105.94
439.829	87.94
440.05	95.94
440.272	132.94
440.493	92.94
440.715	72.94
440.936	72.94
441.158	93.94
441.379	93.94
441.6	95.94
441.822	93.94
442.043	97.94
442.264	96.94
442.486	97.94
442.707	90.94
442.928	101.94
443.149	110.94
443.371	115.94
443.592	105.94
443.813	100.94
444.034	89.94
444.255	81.94
444.476	80.94
444.698	89.94
444.919	87.94
445.14	130.94
445.361	122.94
445.582	109.94
445.803	116.94
446.024	112.94
446.245	120.94
446.466	106.94
446.687	72.94
446.908	95.94
447.129	81.94
447.35	97.94
447.571	80.94
447.792	91.94
448.013	79.94
448.234	100.94
448.455	97.94
448.675	111.94
448.896	105.94
449.117	83.94
449.338	86.94
449.559	116.94
449.779	131.94
450	96.94
450.221	91.94
450.442	87.94
450.662	71.94
450.883	103.94
451.104	108.94
451.324	77.94
451.545	92.94
451.766	91.94
451.986	89.94
452.207	94.94
452.428	88.94
452.648	97.94
452.869	95.94
453.089	93.94
453.31	89.94
453.53	77.94
453.751	83.94
453.971	89.94
454.192	106.94
454.412	95.94
454.633	88.94
454.853	85.94
455.073	71.94
455.294	93.94
455.514	93.94
455.734	84.94
455.955	93.94
456.175	84.94
456.395	93.94
456.616	75.94
456.836	79.94
457.056	99.94
457.276	86.94
457.497	92.94
457.717	82.94
457.937	88.94
458.157	68.94
458.377	85.94
458.598	106.94
458.818	122.94
459.038	130.94
459.258	110.94
459.478	89.94
459.698	94.94
459.918	81.94
460.138	91.94
460.358	76.94
460.578	81.94
460.798	83.94
461.018	91.94
461.238	101.94
461.458	82.94
461.678	86.94
461.898	76.94
462.118	77.94
462.338	89.94
462.558	92.94
462.777	84.94
462.997	80.94
463.217	90.94
463.437	85.94
463.657	90.94
463.876	96.94
464.096	88.94
464.316	79.94
464.536	85.94
464.755	82.94
464.975	120.94
465.195	137.94
465.414	133.94
465.634	74.94
465.854	88.94
466.073	99.94
466.293	78.94
466.512	75.94
466.732	82.94
466.951	75.94
467.171	89.94
467.391	94.94
467.61	94.94
467.829	76.94
468.049	88.94
468.268	92.94
468.488	75.94
468.707	79.94
468.927	80.94
469.146	101.94
469.365	76.94
469.585	80.94
469.804	77.94
470.023	95.94
470.243	81.94
470.462	102.94
470.681	93.94
470.901	80.94
471.12	82.94
471.339	81.94
471.558	80.94
471.777	88.94
471.997	88.94
472.216	94.94
472.435	121.94
472.654	86.94
472.873	96.94
473.092	76.94
473.311	84.94
473.53	76.94
473.749	93.94
473.968	81.94
474.187	110.94
474.406	82.94
474.625	101.94
474.844	84.94
475.063	75.94
475.282	96.94
475.501	76.94
475.72	80.94
475.939	91.94
476.158	80.94
476.377	72.94
476.596	87.94
476.814	104.94
477.033	77.94
477.252	75.94
477.471	92.94
477.69	83.94
477.908	85.94
478.127	100.94
478.346	82.94
478.564	70.94
478.783	102.94
479.002	75.94
479.22	82.94
479.439	82.94
479.658	103.94
479.876	95.94
480.095	87.94
480.313	101.94
480.532	91.94
480.751	88.94
480.969	101.94
481.188	157.94
481.406	137.94
481.624	98.94
481.843	88.94
482.061	88.94
482.28	92.94
482.498	86.94
482.717	101.94
482.935	99.94
483.153	89.94
483.372	81.94
483.59	88.94
483.808	86.94
484.027	82.94
484.245	93.94
484.463	86.94
484.681	99.94
484.9	90.94
485.118	89.94
485.336	93.94
485.554	87.94
485.772	92.94
485.99	85.94
486.209	104.94
486.427	95.94
486.645	93.94
486.863	95.94
487.081	88.94
487.299	90.94
487.517	98.94
487.735	95.94
487.953	85.94
488.171	99.94
488.389	87.94
488.607	100.94
488.825	95.94
489.043	90.94
489.261	96.94
489.479	90.94
489.696	78.94
489.914	87.94
490.132	79.94
490.35	93.94
490.568	87.94
490.786	84.94
491.003	92.94
491.221	78.94
491.439	103.94
491.657	81.94
491.874	83.94
492.092	80.94
492.31	89.94
492.527	92.94
492.745	83.94
492.963	90.94
493.18	80.94
493.398	95.94
493.615	101.94
493.833	86.94
494.05	89.94
494.268	102.94
494.485	89.94
494.703	109.94
494.92	99.94
495.138	76.94
495.355	72.94
495.573	87.94
495.79	88.94
496.008	92.94
496.225	89.94
496.442	100.94
496.66	98.94
496.877	91.94
497.094	93.94
497.312	78.94
497.529	105.94
497.746	78.94
497.963	82.94
498.181	81.94
498.398	88.94
498.615	95.94
498.832	98.94
499.049	85.94
499.267	81.94
499.484	85.94
499.701	92.94
499.918	91.94
500.135	87.94
500.352	88.94
500.569	81.94
500.786	87.94
501.003	102.94
501.22	87.94
501.437	93.94
501.654	90.94
501.871	96.94
502.088	92.94
502.305	87.94
502.522	92.94
502.739	89.94
502.956	94.94
503.172	88.94
503.389	81.94
503.606	86.94
503.823	96.94
504.04	85.94
504.256	76.94
504.473	70.94
504.69	97.94
504.907	92.94
505.123	88.94
505.34	96.94
505.557	84.94
505.773	96.94
505.99	81.94
506.207	90.94
506.423	87.94
506.64	78.94
506.856	88.94
507.073	95.94
507.289	90.94
507.506	87.94
507.722	112.94
507.939	94.94
508.155	91.94
508.372	89.94
508.588	97.94
508.805	99.94
509.021	86.94
509.238	96.94
509.454	99.94
509.67	99.94
509.887	108.94
510.103	134.94
510.319	174.94
510.536	582.94
510.752	1775.94
510.968	525.94
511.184	138.94
511.401	97.94
511.617	95.94
511.833	103.94
512.049	80.94
512.265	81.94
512.481	73.94
512.698	74.94
512.914	99.94
513.13	94.94
513.346	80.94
513.562	94.94
513.778	82.94
513.994	94.94
514.21	104.94
514.426	105.94
514.642	111.94
514.858	111.94
515.074	121.94
515.29	326.94
515.506	1023.94
515.721	413.94
515.937	137.94
516.153	104.94
