Data from Uncirc_2009_H10_HRD10591_00028.txt Node
Date: Wed Jan 03 10:12:07 EST 2024
User: Yrep
Spectrometer: HR+D1059
Trigger mode: 1
Integration Time (sec): 1.000000E-1
Scans to average: 1
Electric dark correction enabled: true
Nonlinearity correction enabled: false
Boxcar width: 0
XAxis mode: Wavelengths
Number of Pixels in Spectrum: 2048
>>>>>Begin Spectral Data<<<<<
223.165	-24.69
223.4	-24.69
223.635	-24.69
223.869	-27.69
224.104	-19.69
224.338	-13.69
224.573	-19.69
224.808	-11.69
225.042	-8.69
225.277	3.31
225.511	6.31
225.746	0.31
225.98	10.31
226.215	3.31
226.449	12.31
226.683	21.31
226.918	24.31
227.152	44.31
227.387	30.31
227.621	39.31
227.856	36.31
228.09	36.31
228.324	44.31
228.559	48.31
228.793	57.31
229.027	59.31
229.262	71.31
229.496	59.31
229.73	97.31
229.964	81.31
230.199	73.31
230.433	77.31
230.667	87.31
230.901	64.31
231.136	66.31
231.37	63.31
231.604	66.31
231.838	83.31
232.072	79.31
232.306	71.31
232.541	71.31
232.775	74.31
233.009	86.31
233.243	79.31
233.477	78.31
233.711	78.31
233.945	77.31
234.179	87.31
234.413	80.31
234.647	85.31
234.881	82.31
235.115	91.31
235.349	78.31
235.583	87.31
235.817	80.31
236.051	81.31
236.285	72.31
236.519	73.31
236.753	81.31
236.987	68.31
237.221	82.31
237.455	77.31
237.689	75.31
237.922	83.31
238.156	72.31
238.39	75.31
238.624	69.31
238.858	67.31
239.091	67.31
239.325	74.31
239.559	61.31
239.793	84.31
240.027	72.31
240.26	71.31
240.494	86.31
240.728	71.31
240.961	71.31
241.195	75.31
241.429	88.31
241.662	60.31
241.896	73.31
242.13	74.31
242.363	74.31
242.597	94.31
242.83	87.31
243.064	78.31
243.298	70.31
243.531	72.31
243.765	74.31
243.998	77.31
244.232	77.31
244.465	90.31
244.699	87.31
244.932	64.31
245.166	73.31
245.399	82.31
245.633	68.31
245.866	80.31
246.099	75.31
246.333	79.31
246.566	79.31
246.8	72.31
247.033	82.31
247.266	76.31
247.5	78.31
247.733	68.31
247.966	80.31
248.2	78.31
248.433	83.31
248.666	69.31
248.899	63.31
249.133	91.31
249.366	93.31
249.599	77.31
249.832	74.31
250.066	88.31
250.299	80.31
250.532	82.31
250.765	75.31
250.998	79.31
251.231	96.31
251.465	72.31
251.698	74.31
251.931	90.31
252.164	75.31
252.397	87.31
252.63	82.31
252.863	64.31
253.096	82.31
253.329	80.31
253.562	79.31
253.795	74.31
254.028	86.31
254.261	99.31
254.494	78.31
254.727	76.31
254.96	79.31
255.193	84.31
255.426	68.31
255.659	71.31
255.892	86.31
256.124	83.31
256.357	79.31
256.59	77.31
256.823	87.31
257.056	90.31
257.289	92.31
257.521	72.31
257.754	76.31
257.987	72.31
258.22	79.31
258.452	80.31
258.685	88.31
258.918	66.31
259.151	79.31
259.383	79.31
259.616	64.31
259.849	69.31
260.081	82.31
260.314	82.31
260.547	82.31
260.779	82.31
261.012	87.31
261.244	78.31
261.477	85.31
261.71	76.31
261.942	92.31
262.175	114.31
262.407	82.31
262.64	92.31
262.872	81.31
263.105	76.31
263.337	70.31
263.57	66.31
263.802	71.31
264.035	83.31
264.267	80.31
264.499	84.31
264.732	67.31
264.964	90.31
265.197	92.31
265.429	87.31
265.661	87.31
265.894	80.31
266.126	83.31
266.358	80.31
266.591	95.31
266.823	91.31
267.055	87.31
267.287	73.31
267.52	80.31
267.752	78.31
267.984	80.31
268.216	102.31
268.448	95.31
268.681	80.31
268.913	75.31
269.145	90.31
269.377	87.31
269.609	79.31
269.841	90.31
270.073	86.31
270.306	82.31
270.538	86.31
270.77	86.31
271.002	79.31
271.234	80.31
271.466	76.31
271.698	93.31
271.93	105.31
272.162	96.31
272.394	85.31
272.626	86.31
272.858	87.31
273.09	73.31
273.322	71.31
273.553	77.31
273.785	93.31
274.017	91.31
274.249	98.31
274.481	78.31
274.713	89.31
274.945	90.31
275.176	86.31
275.408	74.31
275.64	57.31
275.872	93.31
276.104	98.31
276.335	79.31
276.567	83.31
276.799	91.31
277.031	77.31
277.262	80.31
277.494	89.31
277.726	84.31
277.957	76.31
278.189	95.31
278.421	74.31
278.652	84.31
278.884	92.31
279.115	100.31
279.347	77.31
279.579	85.31
279.81	76.31
280.042	83.31
280.273	92.31
280.505	89.31
280.736	69.31
280.968	91.31
281.199	87.31
281.431	74.31
281.662	88.31
281.894	87.31
282.125	111.31
282.356	88.31
282.588	119.31
282.819	89.31
283.051	87.31
283.282	76.31
283.513	93.31
283.745	97.31
283.976	108.31
284.207	96.31
284.439	101.31
284.67	93.31
284.901	83.31
285.132	66.31
285.364	80.31
285.595	87.31
285.826	86.31
286.057	87.31
286.288	96.31
286.52	94.31
286.751	77.31
286.982	87.31
287.213	79.31
287.444	85.31
287.675	84.31
287.906	95.31
288.138	87.31
288.369	84.31
288.6	95.31
288.831	73.31
289.062	88.31
289.293	92.31
289.524	90.31
289.755	86.31
289.986	86.31
290.217	92.31
290.448	77.31
290.679	91.31
290.91	91.31
291.141	87.31
291.371	89.31
291.602	90.31
291.833	92.31
292.064	89.31
292.295	77.31
292.526	88.31
292.757	104.31
292.987	82.31
293.218	88.31
293.449	79.31
293.68	92.31
293.91	96.31
294.141	85.31
294.372	87.31
294.603	81.31
294.833	82.31
295.064	75.31
295.295	92.31
295.525	78.31
295.756	85.31
295.987	101.31
296.217	118.31
296.448	102.31
296.679	101.31
296.909	87.31
297.14	83.31
297.37	108.31
297.601	90.31
297.831	69.31
298.062	88.31
298.292	93.31
298.523	91.31
298.753	88.31
298.984	84.31
299.214	99.31
299.445	72.31
299.675	74.31
299.905	99.31
300.136	84.31
300.366	84.31
300.597	86.31
300.827	88.31
301.057	103.31
301.288	96.31
301.518	84.31
301.748	85.31
301.979	88.31
302.209	99.31
302.439	89.31
302.669	66.31
302.9	86.31
303.13	95.31
303.36	92.31
303.59	111.31
303.82	107.31
304.051	103.31
304.281	84.31
304.511	87.31
304.741	88.31
304.971	92.31
305.201	84.31
305.431	94.31
305.661	91.31
305.891	62.31
306.121	80.31
306.352	99.31
306.582	88.31
306.812	105.31
307.042	86.31
307.272	98.31
307.502	88.31
307.731	86.31
307.961	94.31
308.191	100.31
308.421	93.31
308.651	81.31
308.881	93.31
309.111	92.31
309.341	74.31
309.571	102.31
309.8	109.31
310.03	103.31
310.26	88.31
310.49	90.31
310.72	87.31
310.949	93.31
311.179	87.31
311.409	92.31
311.639	98.31
311.868	93.31
312.098	99.31
312.328	79.31
312.557	84.31
312.787	97.31
313.017	90.31
313.246	86.31
313.476	77.31
313.706	104.31
313.935	86.31
314.165	90.31
314.394	94.31
314.624	96.31
314.853	81.31
315.083	92.31
315.312	80.31
315.542	95.31
315.771	96.31
316.001	84.31
316.23	92.31
316.46	83.31
316.689	91.31
316.919	102.31
317.148	104.31
317.377	108.31
317.607	116.31
317.836	102.31
318.065	82.31
318.295	87.31
318.524	84.31
318.753	80.31
318.983	99.31
319.212	95.31
319.441	98.31
319.67	100.31
319.9	98.31
320.129	95.31
320.358	90.31
320.587	94.31
320.816	100.31
321.046	101.31
321.275	101.31
321.504	86.31
321.733	97.31
321.962	95.31
322.191	102.31
322.42	99.31
322.649	104.31
322.878	97.31
323.108	111.31
323.337	106.31
323.566	120.31
323.795	136.31
324.024	175.31
324.253	315.31
324.482	708.31
324.71	1323.31
324.939	1718.31
325.168	658.31
325.397	206.31
325.626	132.31
325.855	118.31
326.084	132.31
326.313	157.31
326.542	149.31
326.77	219.31
326.999	357.31
327.228	786.31
327.457	1350.31
327.686	1078.31
327.914	308.31
328.143	162.31
328.372	121.31
328.6	97.31
328.829	106.31
329.058	103.31
329.287	98.31
329.515	105.31
329.744	116.31
329.972	95.31
330.201	102.31
330.43	111.31
330.658	107.31
330.887	114.31
331.115	95.31
331.344	99.31
331.572	98.31
331.801	106.31
332.03	91.31
332.258	103.31
332.486	98.31
332.715	86.31
332.943	91.31
333.172	99.31
333.4	86.31
333.629	103.31
333.857	112.31
334.085	104.31
334.314	107.31
334.542	120.31
334.771	134.31
334.999	90.31
335.227	81.31
335.455	93.31
335.684	96.31
335.912	101.31
336.14	103.31
336.369	92.31
336.597	102.31
336.825	93.31
337.053	86.31
337.281	97.31
337.51	79.31
337.738	91.31
337.966	102.31
338.194	94.31
338.422	82.31
338.65	96.31
338.878	99.31
339.106	89.31
339.334	103.31
339.562	88.31
339.79	105.31
340.018	90.31
340.246	85.31
340.474	83.31
340.702	89.31
340.93	80.31
341.158	84.31
341.386	92.31
341.614	92.31
341.842	86.31
342.07	80.31
342.298	86.31
342.526	84.31
342.754	79.31
342.981	82.31
343.209	82.31
343.437	100.31
343.665	85.31
343.893	87.31
344.12	103.31
344.348	75.31
344.576	82.31
344.804	84.31
345.031	88.31
345.259	90.31
345.487	105.31
345.714	89.31
345.942	94.31
346.17	93.31
346.397	84.31
346.625	77.31
346.853	83.31
347.08	99.31
347.308	100.31
347.535	82.31
347.763	99.31
347.99	95.31
348.218	82.31
348.445	98.31
348.673	105.31
348.9	82.31
349.128	80.31
349.355	88.31
349.583	87.31
349.81	80.31
350.037	98.31
350.265	99.31
350.492	94.31
350.72	98.31
350.947	107.31
351.174	84.31
351.402	106.31
351.629	91.31
351.856	92.31
352.083	91.31
352.311	79.31
352.538	98.31
352.765	108.31
352.992	108.31
353.22	108.31
353.447	103.31
353.674	83.31
353.901	106.31
354.128	87.31
354.355	76.31
354.583	112.31
354.81	107.31
355.037	101.31
355.264	109.31
355.491	92.31
355.718	98.31
355.945	86.31
356.172	85.31
356.399	83.31
356.626	96.31
356.853	94.31
357.08	93.31
357.307	116.31
357.534	99.31
357.761	95.31
357.988	105.31
358.215	96.31
358.441	90.31
358.668	80.31
358.895	73.31
359.122	95.31
359.349	86.31
359.576	85.31
359.802	89.31
360.029	95.31
360.256	91.31
360.483	81.31
360.709	99.31
360.936	93.31
361.163	86.31
361.39	87.31
361.616	94.31
361.843	84.31
362.07	90.31
362.296	84.31
362.523	75.31
362.749	89.31
362.976	84.31
363.203	98.31
363.429	84.31
363.656	85.31
363.882	90.31
364.109	93.31
364.335	85.31
364.562	93.31
364.788	96.31
365.015	98.31
365.241	110.31
365.468	83.31
365.694	101.31
365.92	92.31
366.147	79.31
366.373	83.31
366.599	86.31
366.826	87.31
367.052	105.31
367.278	98.31
367.505	84.31
367.731	91.31
367.957	98.31
368.184	86.31
368.41	88.31
368.636	99.31
368.862	95.31
369.089	95.31
369.315	85.31
369.541	84.31
369.767	80.31
369.993	88.31
370.219	95.31
370.445	97.31
370.672	77.31
370.898	83.31
371.124	85.31
371.35	87.31
371.576	95.31
371.802	80.31
372.028	84.31
372.254	104.31
372.48	75.31
372.706	74.31
372.932	78.31
373.158	89.31
373.384	104.31
373.61	82.31
373.835	79.31
374.061	81.31
374.287	87.31
374.513	80.31
374.739	90.31
374.965	101.31
375.191	98.31
375.416	78.31
375.642	80.31
375.868	81.31
376.094	94.31
376.319	101.31
376.545	71.31
376.771	87.31
376.997	90.31
377.222	87.31
377.448	86.31
377.674	99.31
377.899	84.31
378.125	87.31
378.35	89.31
378.576	88.31
378.802	88.31
379.027	102.31
379.253	98.31
379.478	85.31
379.704	95.31
379.929	97.31
380.155	102.31
380.38	89.31
380.606	89.31
380.831	99.31
381.057	104.31
381.282	96.31
381.507	83.31
381.733	98.31
381.958	98.31
382.184	95.31
382.409	99.31
382.634	107.31
382.86	102.31
383.085	105.31
383.31	100.31
383.535	94.31
383.761	93.31
383.986	106.31
384.211	92.31
384.436	87.31
384.662	91.31
384.887	96.31
385.112	119.31
385.337	93.31
385.562	101.31
385.787	109.31
386.013	93.31
386.238	114.31
386.463	97.31
386.688	99.31
386.913	113.31
387.138	95.31
387.363	100.31
387.588	107.31
387.813	99.31
388.038	114.31
388.263	103.31
388.488	116.31
388.713	88.31
388.938	77.31
389.163	84.31
389.387	93.31
389.612	89.31
389.837	94.31
390.062	86.31
390.287	92.31
390.512	101.31
390.736	94.31
390.961	79.31
391.186	89.31
391.411	99.31
391.636	94.31
391.86	85.31
392.085	87.31
392.31	85.31
392.534	87.31
392.759	105.31
392.984	92.31
393.208	93.31
393.433	91.31
393.658	86.31
393.882	68.31
394.107	84.31
394.331	84.31
394.556	75.31
394.78	90.31
395.005	80.31
395.229	79.31
395.454	88.31
395.678	90.31
395.903	87.31
396.127	89.31
396.352	94.31
396.576	68.31
396.801	73.31
397.025	102.31
397.249	75.31
397.474	85.31
397.698	73.31
397.922	77.31
398.147	74.31
398.371	87.31
398.595	76.31
398.82	86.31
399.044	87.31
399.268	73.31
399.492	90.31
399.717	76.31
399.941	89.31
400.165	88.31
400.389	88.31
400.613	91.31
400.837	84.31
401.062	70.31
401.286	84.31
401.51	73.31
401.734	83.31
401.958	94.31
402.182	115.31
402.406	139.31
402.63	98.31
402.854	91.31
403.078	86.31
403.302	93.31
403.526	91.31
403.75	86.31
403.974	94.31
404.198	93.31
404.422	86.31
404.645	82.31
404.869	66.31
405.093	100.31
405.317	95.31
405.541	94.31
405.765	98.31
405.988	104.31
406.212	143.31
406.436	183.31
406.66	108.31
406.883	92.31
407.107	87.31
407.331	94.31
407.555	86.31
407.778	87.31
408.002	87.31
408.226	89.31
408.449	73.31
408.673	95.31
408.896	96.31
409.12	80.31
409.344	84.31
409.567	88.31
409.791	88.31
410.014	98.31
410.238	101.31
410.461	98.31
410.685	85.31
410.908	96.31
411.132	114.31
411.355	96.31
411.578	84.31
411.802	83.31
412.025	73.31
412.249	81.31
412.472	92.31
412.695	90.31
412.919	86.31
413.142	84.31
413.365	96.31
413.589	91.31
413.812	101.31
414.035	107.31
414.258	93.31
414.482	72.31
414.705	99.31
414.928	75.31
415.151	98.31
415.374	103.31
415.597	78.31
415.821	85.31
416.044	77.31
416.267	90.31
416.49	73.31
416.713	73.31
416.936	85.31
417.159	84.31
417.382	85.31
417.605	89.31
417.828	89.31
418.051	83.31
418.274	93.31
418.497	102.31
418.72	85.31
418.943	89.31
419.166	101.31
419.389	89.31
419.611	93.31
419.834	81.31
420.057	76.31
420.28	70.31
420.503	81.31
420.726	88.31
420.948	87.31
421.171	87.31
421.394	78.31
421.617	88.31
421.839	98.31
422.062	85.31
422.285	104.31
422.507	96.31
422.73	96.31
422.953	77.31
423.175	86.31
423.398	91.31
423.621	84.31
423.843	103.31
424.066	73.31
424.288	79.31
424.511	80.31
424.733	104.31
424.956	94.31
425.178	95.31
425.401	82.31
425.623	86.31
425.846	80.31
426.068	84.31
426.291	92.31
426.513	77.31
426.735	96.31
426.958	102.31
427.18	97.31
427.402	120.31
427.625	139.31
427.847	107.31
428.069	91.31
428.292	79.31
428.514	84.31
428.736	80.31
428.958	79.31
429.181	91.31
429.403	80.31
429.625	87.31
429.847	88.31
430.069	80.31
430.292	87.31
430.514	71.31
430.736	81.31
430.958	89.31
431.18	76.31
431.402	63.31
431.624	84.31
431.846	75.31
432.068	92.31
432.29	85.31
432.512	107.31
432.734	83.31
432.956	88.31
433.178	93.31
433.4	98.31
433.622	72.31
433.844	82.31
434.066	87.31
434.287	100.31
434.509	94.31
434.731	76.31
434.953	81.31
435.175	90.31
435.397	93.31
435.618	100.31
435.84	98.31
436.062	108.31
436.284	103.31
436.505	89.31
436.727	92.31
436.949	96.31
437.17	76.31
437.392	92.31
437.614	80.31
437.835	94.31
438.057	105.31
438.278	90.31
438.5	95.31
438.721	105.31
438.943	103.31
439.165	73.31
439.386	81.31
439.608	76.31
439.829	95.31
440.05	107.31
440.272	109.31
440.493	89.31
440.715	94.31
440.936	83.31
441.158	84.31
441.379	89.31
441.6	85.31
441.822	92.31
442.043	86.31
442.264	97.31
442.486	93.31
442.707	90.31
442.928	91.31
443.149	103.31
443.371	115.31
443.592	92.31
443.813	107.31
444.034	99.31
444.255	96.31
444.476	92.31
444.698	90.31
444.919	89.31
445.14	135.31
445.361	110.31
445.582	104.31
445.803	103.31
446.024	103.31
446.245	114.31
446.466	87.31
446.687	82.31
446.908	93.31
447.129	94.31
447.35	76.31
447.571	91.31
447.792	79.31
448.013	92.31
448.234	95.31
448.455	95.31
448.675	104.31
448.896	108.31
449.117	99.31
449.338	87.31
449.559	115.31
449.779	114.31
450	97.31
450.221	81.31
450.442	76.31
450.662	79.31
450.883	77.31
451.104	84.31
451.324	90.31
451.545	86.31
451.766	79.31
451.986	86.31
452.207	80.31
452.428	84.31
452.648	86.31
452.869	98.31
453.089	96.31
453.31	101.31
453.53	94.31
453.751	96.31
453.971	93.31
454.192	98.31
454.412	90.31
454.633	77.31
454.853	86.31
455.073	96.31
455.294	90.31
455.514	100.31
455.734	99.31
455.955	107.31
456.175	78.31
456.395	79.31
456.616	87.31
456.836	82.31
457.056	80.31
457.276	89.31
457.497	74.31
457.717	80.31
457.937	74.31
458.157	86.31
458.377	93.31
458.598	89.31
458.818	119.31
459.038	113.31
459.258	109.31
459.478	78.31
459.698	97.31
459.918	87.31
460.138	74.31
460.358	88.31
460.578	72.31
460.798	73.31
461.018	82.31
461.238	83.31
461.458	90.31
461.678	77.31
461.898	76.31
462.118	62.31
462.338	77.31
462.558	80.31
462.777	83.31
462.997	79.31
463.217	76.31
463.437	88.31
463.657	77.31
463.876	95.31
464.096	86.31
464.316	79.31
464.536	85.31
464.755	95.31
464.975	82.31
465.195	140.31
465.414	116.31
465.634	94.31
465.854	82.31
466.073	87.31
466.293	80.31
466.512	83.31
466.732	91.31
466.951	84.31
467.171	88.31
467.391	83.31
467.61	104.31
467.829	95.31
468.049	94.31
468.268	91.31
468.488	87.31
468.707	69.31
468.927	86.31
469.146	79.31
469.365	103.31
469.585	86.31
469.804	98.31
470.023	92.31
470.243	87.31
470.462	106.31
470.681	94.31
470.901	86.31
471.12	88.31
471.339	76.31
471.558	88.31
471.777	96.31
471.997	90.31
472.216	111.31
472.435	111.31
472.654	85.31
472.873	75.31
473.092	84.31
473.311	78.31
473.53	88.31
473.749	77.31
473.968	91.31
474.187	90.31
474.406	90.31
474.625	87.31
474.844	99.31
475.063	95.31
475.282	93.31
475.501	87.31
475.72	84.31
475.939	90.31
476.158	80.31
476.377	93.31
476.596	98.31
476.814	102.31
477.033	78.31
477.252	94.31
477.471	79.31
477.69	89.31
477.908	92.31
478.127	82.31
478.346	85.31
478.564	93.31
478.783	88.31
479.002	94.31
479.22	92.31
479.439	102.31
479.658	95.31
479.876	96.31
480.095	86.31
480.313	96.31
480.532	79.31
480.751	86.31
480.969	98.31
481.188	153.31
481.406	141.31
481.624	95.31
481.843	100.31
482.061	92.31
482.28	87.31
482.498	94.31
482.717	87.31
482.935	105.31
483.153	87.31
483.372	86.31
483.59	79.31
483.808	84.31
484.027	89.31
484.245	92.31
484.463	106.31
484.681	107.31
484.9	98.31
485.118	105.31
485.336	99.31
485.554	77.31
485.772	87.31
485.99	97.31
486.209	91.31
486.427	100.31
486.645	104.31
486.863	95.31
487.081	111.31
487.299	95.31
487.517	82.31
487.735	83.31
487.953	100.31
488.171	99.31
488.389	97.31
488.607	107.31
488.825	92.31
489.043	86.31
489.261	90.31
489.479	80.31
489.696	77.31
489.914	100.31
490.132	87.31
490.35	107.31
490.568	92.31
490.786	87.31
491.003	78.31
491.221	86.31
491.439	96.31
491.657	79.31
491.874	91.31
492.092	89.31
492.31	89.31
492.527	91.31
492.745	95.31
492.963	72.31
493.18	88.31
493.398	95.31
493.615	108.31
493.833	91.31
494.05	88.31
494.268	90.31
494.485	84.31
494.703	70.31
494.92	74.31
495.138	86.31
495.355	92.31
495.573	81.31
495.79	90.31
496.008	73.31
496.225	94.31
496.442	87.31
496.66	90.31
496.877	94.31
497.094	87.31
497.312	92.31
497.529	96.31
497.746	96.31
497.963	90.31
498.181	80.31
498.398	85.31
498.615	94.31
498.832	105.31
499.049	83.31
499.267	90.31
499.484	93.31
499.701	74.31
499.918	93.31
500.135	89.31
500.352	85.31
500.569	98.31
500.786	95.31
501.003	86.31
501.22	89.31
501.437	87.31
501.654	74.31
501.871	96.31
502.088	87.31
502.305	89.31
502.522	91.31
502.739	82.31
502.956	97.31
503.172	102.31
503.389	80.31
503.606	93.31
503.823	95.31
504.04	88.31
504.256	93.31
504.473	83.31
504.69	90.31
504.907	98.31
505.123	95.31
505.34	82.31
505.557	77.31
505.773	91.31
505.99	77.31
506.207	92.31
506.423	101.31
506.64	90.31
506.856	90.31
507.073	98.31
507.289	77.31
507.506	103.31
507.722	98.31
507.939	93.31
508.155	94.31
508.372	90.31
508.588	94.31
508.805	90.31
509.021	84.31
509.238	73.31
509.454	92.31
509.67	89.31
509.887	107.31
510.103	119.31
510.319	190.31
510.536	558.31
510.752	1659.31
510.968	501.31
511.184	136.31
511.401	104.31
511.617	95.31
511.833	86.31
512.049	84.31
512.265	81.31
512.481	81.31
512.698	98.31
512.914	88.31
513.13	73.31
513.346	81.31
513.562	78.31
513.778	106.31
513.994	121.31
514.21	95.31
514.426	109.31
514.642	109.31
514.858	111.31
515.074	139.31
515.29	324.31
515.506	999.31
515.721	385.31
515.937	132.31
516.153	103.31
516.369	96.31
516.585	84.31
516.801	81.31
517.016	86.31
