Data from Uncirc_2009_H10_HRD10591_00056.txt Node
Date: Wed Jan 03 10:12:13 EST 2024
User: Yrep
Spectrometer: HR+D1059
Trigger mode: 1
Integration Time (sec): 1.000000E-1
Scans to average: 1
Electric dark correction enabled: true
Nonlinearity correction enabled: false
Boxcar width: 0
XAxis mode: Wavelengths
Number of Pixels in Spectrum: 2048
>>>>>Begin Spectral Data<<<<<
223.165	-8.75
223.4	-8.75
223.635	-8.75
223.869	-20.75
224.104	-18.75
224.338	-18.75
224.573	-18.75
224.808	-9.75
225.042	-5.75
225.277	-2.75
225.511	2.25
225.746	0.25
225.98	4.25
226.215	5.25
226.449	20.25
226.683	10.25
226.918	28.25
227.152	33.25
227.387	24.25
227.621	34.25
227.856	42.25
228.09	28.25
228.324	51.25
228.559	58.25
228.793	44.25
229.027	63.25
229.262	71.25
229.496	75.25
229.73	76.25
229.964	76.25
230.199	79.25
230.433	86.25
230.667	75.25
230.901	87.25
231.136	76.25
231.37	80.25
231.604	80.25
231.838	82.25
232.072	79.25
232.306	72.25
232.541	71.25
232.775	84.25
233.009	79.25
233.243	89.25
233.477	84.25
233.711	75.25
233.945	63.25
234.179	80.25
234.413	82.25
234.647	91.25
234.881	75.25
235.115	87.25
235.349	74.25
235.583	68.25
235.817	78.25
236.051	68.25
236.285	82.25
236.519	85.25
236.753	83.25
236.987	77.25
237.221	71.25
237.455	69.25
237.689	64.25
237.922	79.25
238.156	75.25
238.39	66.25
238.624	71.25
238.858	88.25
239.091	67.25
239.325	83.25
239.559	67.25
239.793	74.25
240.027	76.25
240.26	80.25
240.494	88.25
240.728	62.25
240.961	73.25
241.195	61.25
241.429	79.25
241.662	68.25
241.896	70.25
242.13	73.25
242.363	102.25
242.597	66.25
242.83	84.25
243.064	90.25
243.298	76.25
243.531	71.25
243.765	75.25
243.998	66.25
244.232	74.25
244.465	79.25
244.699	69.25
244.932	78.25
245.166	75.25
245.399	69.25
245.633	79.25
245.866	72.25
246.099	71.25
246.333	77.25
246.566	95.25
246.8	78.25
247.033	65.25
247.266	68.25
247.5	77.25
247.733	67.25
247.966	79.25
248.2	82.25
248.433	87.25
248.666	78.25
248.899	83.25
249.133	82.25
249.366	100.25
249.599	91.25
249.832	59.25
250.066	91.25
250.299	75.25
250.532	87.25
250.765	79.25
250.998	80.25
251.231	85.25
251.465	91.25
251.698	77.25
251.931	70.25
252.164	80.25
252.397	87.25
252.63	79.25
252.863	88.25
253.096	84.25
253.329	84.25
253.562	66.25
253.795	70.25
254.028	68.25
254.261	80.25
254.494	78.25
254.727	84.25
254.96	92.25
255.193	77.25
255.426	72.25
255.659	91.25
255.892	81.25
256.124	97.25
256.357	79.25
256.59	70.25
256.823	87.25
257.056	91.25
257.289	85.25
257.521	72.25
257.754	95.25
257.987	92.25
258.22	70.25
258.452	72.25
258.685	85.25
258.918	81.25
259.151	89.25
259.383	81.25
259.616	80.25
259.849	80.25
260.081	81.25
260.314	83.25
260.547	90.25
260.779	90.25
261.012	76.25
261.244	95.25
261.477	87.25
261.71	89.25
261.942	99.25
262.175	89.25
262.407	83.25
262.64	79.25
262.872	88.25
263.105	95.25
263.337	82.25
263.57	87.25
263.802	93.25
264.035	77.25
264.267	84.25
264.499	84.25
264.732	82.25
264.964	77.25
265.197	88.25
265.429	60.25
265.661	64.25
265.894	84.25
266.126	78.25
266.358	76.25
266.591	80.25
266.823	95.25
267.055	80.25
267.287	83.25
267.52	72.25
267.752	91.25
267.984	77.25
268.216	85.25
268.448	80.25
268.681	80.25
268.913	76.25
269.145	76.25
269.377	83.25
269.609	85.25
269.841	95.25
270.073	76.25
270.306	72.25
270.538	89.25
270.77	77.25
271.002	85.25
271.234	89.25
271.466	79.25
271.698	88.25
271.93	86.25
272.162	86.25
272.394	79.25
272.626	80.25
272.858	80.25
273.09	78.25
273.322	86.25
273.553	82.25
273.785	92.25
274.017	78.25
274.249	90.25
274.481	78.25
274.713	76.25
274.945	98.25
275.176	82.25
275.408	89.25
275.64	90.25
275.872	84.25
276.104	76.25
276.335	87.25
276.567	107.25
276.799	100.25
277.031	95.25
277.262	91.25
277.494	86.25
277.726	71.25
277.957	88.25
278.189	84.25
278.421	87.25
278.652	75.25
278.884	80.25
279.115	83.25
279.347	86.25
279.579	91.25
279.81	70.25
280.042	80.25
280.273	81.25
280.505	85.25
280.736	86.25
280.968	71.25
281.199	75.25
281.431	91.25
281.662	94.25
281.894	68.25
282.125	87.25
282.356	91.25
282.588	104.25
282.819	95.25
283.051	72.25
283.282	84.25
283.513	93.25
283.745	96.25
283.976	106.25
284.207	103.25
284.439	90.25
284.67	81.25
284.901	89.25
285.132	87.25
285.364	90.25
285.595	98.25
285.826	94.25
286.057	76.25
286.288	103.25
286.52	104.25
286.751	89.25
286.982	86.25
287.213	96.25
287.444	90.25
287.675	95.25
287.906	78.25
288.138	71.25
288.369	70.25
288.6	91.25
288.831	87.25
289.062	83.25
289.293	75.25
289.524	83.25
289.755	96.25
289.986	78.25
290.217	67.25
290.448	68.25
290.679	79.25
290.91	92.25
291.141	86.25
291.371	99.25
291.602	78.25
291.833	80.25
292.064	72.25
292.295	85.25
292.526	79.25
292.757	85.25
292.987	88.25
293.218	80.25
293.449	89.25
293.68	79.25
293.91	89.25
294.141	89.25
294.372	65.25
294.603	87.25
294.833	80.25
295.064	87.25
295.295	87.25
295.525	88.25
295.756	94.25
295.987	94.25
296.217	114.25
296.448	114.25
296.679	98.25
296.909	99.25
297.14	83.25
297.37	95.25
297.601	78.25
297.831	84.25
298.062	85.25
298.292	86.25
298.523	96.25
298.753	102.25
298.984	86.25
299.214	90.25
299.445	89.25
299.675	80.25
299.905	91.25
300.136	99.25
300.366	96.25
300.597	99.25
300.827	95.25
301.057	92.25
301.288	99.25
301.518	84.25
301.748	79.25
301.979	96.25
302.209	98.25
302.439	93.25
302.669	89.25
302.9	103.25
303.13	88.25
303.36	95.25
303.59	109.25
303.82	112.25
304.051	96.25
304.281	99.25
304.511	91.25
304.741	85.25
304.971	88.25
305.201	87.25
305.431	86.25
305.661	83.25
305.891	86.25
306.121	98.25
306.352	90.25
306.582	105.25
306.812	79.25
307.042	89.25
307.272	82.25
307.502	77.25
307.731	79.25
307.961	95.25
308.191	85.25
308.421	88.25
308.651	70.25
308.881	99.25
309.111	118.25
309.341	80.25
309.571	81.25
309.8	88.25
310.03	99.25
310.26	87.25
310.49	96.25
310.72	106.25
310.949	102.25
311.179	103.25
311.409	86.25
311.639	100.25
311.868	76.25
312.098	92.25
312.328	85.25
312.557	93.25
312.787	87.25
313.017	91.25
313.246	92.25
313.476	80.25
313.706	88.25
313.935	96.25
314.165	96.25
314.394	77.25
314.624	83.25
314.853	91.25
315.083	89.25
315.312	81.25
315.542	88.25
315.771	85.25
316.001	89.25
316.23	92.25
316.46	84.25
316.689	86.25
316.919	86.25
317.148	114.25
317.377	118.25
317.607	123.25
317.836	116.25
318.065	85.25
318.295	87.25
318.524	91.25
318.753	101.25
318.983	95.25
319.212	90.25
319.441	94.25
319.67	104.25
319.9	93.25
320.129	94.25
320.358	86.25
320.587	78.25
320.816	93.25
321.046	111.25
321.275	91.25
321.504	91.25
321.733	91.25
321.962	87.25
322.191	79.25
322.42	103.25
322.649	101.25
322.878	104.25
323.108	100.25
323.337	107.25
323.566	113.25
323.795	128.25
324.024	182.25
324.253	322.25
324.482	685.25
324.71	1371.25
324.939	1799.25
325.168	678.25
325.397	215.25
325.626	140.25
325.855	111.25
326.084	132.25
326.313	154.25
326.542	156.25
326.77	203.25
326.999	385.25
327.228	773.25
327.457	1410.25
327.686	1173.25
327.914	302.25
328.143	161.25
328.372	128.25
328.6	119.25
328.829	99.25
329.058	107.25
329.287	102.25
329.515	99.25
329.744	102.25
329.972	86.25
330.201	108.25
330.43	113.25
330.658	115.25
330.887	126.25
331.115	95.25
331.344	98.25
331.572	95.25
331.801	108.25
332.03	88.25
332.258	96.25
332.486	87.25
332.715	87.25
332.943	91.25
333.172	82.25
333.4	86.25
333.629	87.25
333.857	100.25
334.085	106.25
334.314	102.25
334.542	110.25
334.771	94.25
334.999	103.25
335.227	96.25
335.455	82.25
335.684	90.25
335.912	93.25
336.14	87.25
336.369	103.25
336.597	95.25
336.825	95.25
337.053	74.25
337.281	102.25
337.51	76.25
337.738	97.25
337.966	69.25
338.194	76.25
338.422	85.25
338.65	81.25
338.878	83.25
339.106	82.25
339.334	87.25
339.562	86.25
339.79	79.25
340.018	92.25
340.246	89.25
340.474	99.25
340.702	81.25
340.93	97.25
341.158	85.25
341.386	96.25
341.614	92.25
341.842	103.25
342.07	83.25
342.298	98.25
342.526	100.25
342.754	90.25
342.981	84.25
343.209	78.25
343.437	91.25
343.665	86.25
343.893	93.25
344.12	93.25
344.348	100.25
344.576	80.25
344.804	98.25
345.031	100.25
345.259	89.25
345.487	86.25
345.714	79.25
345.942	99.25
346.17	85.25
346.397	89.25
346.625	94.25
346.853	105.25
347.08	96.25
347.308	75.25
347.535	98.25
347.763	107.25
347.99	96.25
348.218	98.25
348.445	105.25
348.673	91.25
348.9	97.25
349.128	83.25
349.355	79.25
349.583	94.25
349.81	88.25
350.037	99.25
350.265	97.25
350.492	76.25
350.72	104.25
350.947	95.25
351.174	107.25
351.402	117.25
351.629	117.25
351.856	88.25
352.083	103.25
352.311	110.25
352.538	87.25
352.765	91.25
352.992	109.25
353.22	113.25
353.447	93.25
353.674	84.25
353.901	93.25
354.128	98.25
354.355	111.25
354.583	95.25
354.81	82.25
355.037	90.25
355.264	93.25
355.491	96.25
355.718	94.25
355.945	88.25
356.172	112.25
356.399	94.25
356.626	90.25
356.853	90.25
357.08	93.25
357.307	83.25
357.534	86.25
357.761	84.25
357.988	98.25
358.215	88.25
358.441	75.25
358.668	93.25
358.895	94.25
359.122	87.25
359.349	76.25
359.576	83.25
359.802	95.25
360.029	119.25
360.256	94.25
360.483	108.25
360.709	88.25
360.936	95.25
361.163	75.25
361.39	81.25
361.616	84.25
361.843	100.25
362.07	77.25
362.296	94.25
362.523	94.25
362.749	86.25
362.976	89.25
363.203	98.25
363.429	101.25
363.656	96.25
363.882	95.25
364.109	95.25
364.335	71.25
364.562	94.25
364.788	95.25
365.015	86.25
365.241	93.25
365.468	99.25
365.694	106.25
365.92	102.25
366.147	88.25
366.373	88.25
366.599	84.25
366.826	66.25
367.052	96.25
367.278	90.25
367.505	97.25
367.731	96.25
367.957	92.25
368.184	77.25
368.41	98.25
368.636	94.25
368.862	92.25
369.089	110.25
369.315	96.25
369.541	103.25
369.767	81.25
369.993	79.25
370.219	93.25
370.445	85.25
370.672	83.25
370.898	86.25
371.124	93.25
371.35	99.25
371.576	84.25
371.802	90.25
372.028	93.25
372.254	103.25
372.48	80.25
372.706	97.25
372.932	80.25
373.158	85.25
373.384	86.25
373.61	90.25
373.835	96.25
374.061	78.25
374.287	91.25
374.513	96.25
374.739	90.25
374.965	90.25
375.191	99.25
375.416	86.25
375.642	86.25
375.868	76.25
376.094	81.25
376.319	80.25
376.545	81.25
376.771	83.25
376.997	83.25
377.222	94.25
377.448	87.25
377.674	85.25
377.899	93.25
378.125	88.25
378.35	101.25
378.576	74.25
378.802	87.25
379.027	93.25
379.253	98.25
379.478	99.25
379.704	89.25
379.929	91.25
380.155	96.25
380.38	87.25
380.606	92.25
380.831	95.25
381.057	87.25
381.282	84.25
381.507	89.25
381.733	100.25
381.958	87.25
382.184	95.25
382.409	105.25
382.634	95.25
382.86	95.25
383.085	112.25
383.31	108.25
383.535	90.25
383.761	88.25
383.986	87.25
384.211	103.25
384.436	102.25
384.662	106.25
384.887	100.25
385.112	93.25
385.337	98.25
385.562	91.25
385.787	104.25
386.013	110.25
386.238	97.25
386.463	111.25
386.688	108.25
386.913	101.25
387.138	103.25
387.363	107.25
387.588	93.25
387.813	100.25
388.038	94.25
388.263	96.25
388.488	91.25
388.713	90.25
388.938	99.25
389.163	85.25
389.387	87.25
389.612	96.25
389.837	94.25
390.062	91.25
390.287	80.25
390.512	85.25
390.736	80.25
390.961	97.25
391.186	89.25
391.411	95.25
391.636	92.25
391.86	81.25
392.085	93.25
392.31	76.25
392.534	88.25
392.759	84.25
392.984	85.25
393.208	79.25
393.433	85.25
393.658	86.25
393.882	53.25
394.107	83.25
394.331	87.25
394.556	101.25
394.78	100.25
395.005	104.25
395.229	99.25
395.454	89.25
395.678	85.25
395.903	77.25
396.127	104.25
396.352	86.25
396.576	81.25
396.801	100.25
397.025	92.25
397.249	77.25
397.474	80.25
397.698	90.25
397.922	78.25
398.147	74.25
398.371	80.25
398.595	78.25
398.82	90.25
399.044	89.25
399.268	97.25
399.492	93.25
399.717	91.25
399.941	95.25
400.165	92.25
400.389	95.25
400.613	85.25
400.837	93.25
401.062	78.25
401.286	87.25
401.51	80.25
401.734	92.25
401.958	83.25
402.182	105.25
402.406	122.25
402.63	105.25
402.854	85.25
403.078	82.25
403.302	71.25
403.526	87.25
403.75	83.25
403.974	85.25
404.198	96.25
404.422	93.25
404.645	87.25
404.869	93.25
405.093	96.25
405.317	89.25
405.541	73.25
405.765	96.25
405.988	103.25
406.212	130.25
406.436	165.25
406.66	111.25
406.883	106.25
407.107	102.25
407.331	84.25
407.555	84.25
407.778	79.25
408.002	71.25
408.226	73.25
408.449	68.25
408.673	99.25
408.896	96.25
409.12	93.25
409.344	93.25
409.567	83.25
409.791	96.25
410.014	92.25
410.238	96.25
410.461	96.25
410.685	77.25
410.908	100.25
411.132	104.25
411.355	106.25
411.578	94.25
411.802	77.25
412.025	72.25
412.249	89.25
412.472	94.25
412.695	93.25
412.919	79.25
413.142	83.25
413.365	68.25
413.589	93.25
413.812	107.25
414.035	95.25
414.258	87.25
414.482	72.25
414.705	95.25
414.928	85.25
415.151	95.25
415.374	70.25
415.597	88.25
415.821	93.25
416.044	91.25
416.267	101.25
416.49	81.25
416.713	88.25
416.936	93.25
417.159	84.25
417.382	84.25
417.605	80.25
417.828	96.25
418.051	83.25
418.274	93.25
418.497	90.25
418.72	72.25
418.943	94.25
419.166	91.25
419.389	107.25
419.611	75.25
419.834	77.25
420.057	97.25
420.28	99.25
420.503	85.25
420.726	75.25
420.948	79.25
421.171	97.25
421.394	85.25
421.617	76.25
421.839	84.25
422.062	82.25
422.285	90.25
422.507	100.25
422.73	95.25
422.953	99.25
423.175	99.25
423.398	92.25
423.621	94.25
423.843	87.25
424.066	104.25
424.288	92.25
424.511	79.25
424.733	85.25
424.956	78.25
425.178	92.25
425.401	96.25
425.623	99.25
425.846	80.25
426.068	83.25
426.291	82.25
426.513	87.25
426.735	85.25
426.958	85.25
427.18	98.25
427.402	110.25
427.625	134.25
427.847	127.25
428.069	85.25
428.292	84.25
428.514	80.25
428.736	85.25
428.958	81.25
429.181	82.25
429.403	93.25
429.625	85.25
429.847	83.25
430.069	91.25
430.292	82.25
430.514	89.25
430.736	84.25
430.958	93.25
431.18	75.25
431.402	76.25
431.624	87.25
431.846	98.25
432.068	85.25
432.29	86.25
432.512	89.25
432.734	90.25
432.956	78.25
433.178	103.25
433.4	87.25
433.622	74.25
433.844	87.25
434.066	79.25
434.287	95.25
434.509	95.25
434.731	84.25
434.953	78.25
435.175	87.25
435.397	84.25
435.618	87.25
435.84	92.25
436.062	114.25
436.284	105.25
436.505	97.25
436.727	92.25
436.949	85.25
437.17	74.25
437.392	100.25
437.614	95.25
437.835	93.25
438.057	102.25
438.278	88.25
438.5	87.25
438.721	124.25
438.943	84.25
439.165	90.25
439.386	96.25
439.608	80.25
439.829	84.25
440.05	104.25
440.272	120.25
440.493	87.25
440.715	83.25
440.936	70.25
441.158	103.25
441.379	83.25
441.6	93.25
441.822	100.25
442.043	88.25
442.264	98.25
442.486	107.25
442.707	100.25
442.928	97.25
443.149	123.25
443.371	111.25
443.592	96.25
443.813	100.25
444.034	106.25
444.255	82.25
444.476	71.25
444.698	84.25
444.919	90.25
445.14	117.25
445.361	108.25
445.582	111.25
445.803	110.25
446.024	91.25
446.245	117.25
446.466	94.25
446.687	78.25
446.908	87.25
447.129	108.25
447.35	85.25
447.571	82.25
447.792	82.25
448.013	100.25
448.234	106.25
448.455	93.25
448.675	99.25
448.896	111.25
449.117	92.25
449.338	88.25
449.559	110.25
449.779	118.25
450	102.25
450.221	74.25
450.442	83.25
450.662	97.25
450.883	99.25
451.104	91.25
451.324	87.25
451.545	83.25
451.766	87.25
451.986	92.25
452.207	85.25
452.428	84.25
452.648	108.25
452.869	115.25
453.089	95.25
453.31	99.25
453.53	101.25
453.751	84.25
453.971	95.25
454.192	99.25
454.412	88.25
454.633	91.25
454.853	83.25
455.073	90.25
455.294	75.25
455.514	95.25
455.734	78.25
455.955	65.25
456.175	84.25
456.395	85.25
456.616	84.25
456.836	82.25
457.056	88.25
457.276	71.25
457.497	83.25
457.717	79.25
457.937	81.25
458.157	94.25
458.377	78.25
458.598	82.25
458.818	107.25
459.038	118.25
459.258	109.25
459.478	85.25
459.698	80.25
459.918	81.25
460.138	71.25
460.358	75.25
460.578	92.25
460.798	70.25
461.018	90.25
461.238	89.25
461.458	104.25
461.678	81.25
461.898	79.25
462.118	77.25
462.338	66.25
462.558	92.25
462.777	87.25
462.997	91.25
463.217	71.25
463.437	72.25
463.657	92.25
463.876	86.25
464.096	64.25
464.316	98.25
464.536	100.25
464.755	98.25
464.975	83.25
465.195	111.25
465.414	131.25
465.634	91.25
465.854	91.25
466.073	92.25
466.293	73.25
466.512	77.25
466.732	83.25
466.951	80.25
467.171	83.25
467.391	76.25
467.61	101.25
467.829	82.25
468.049	75.25
468.268	89.25
468.488	62.25
468.707	76.25
468.927	82.25
469.146	74.25
469.365	82.25
469.585	87.25
469.804	89.25
470.023	98.25
470.243	99.25
470.462	92.25
470.681	95.25
470.901	83.25
471.12	80.25
471.339	90.25
471.558	92.25
471.777	80.25
471.997	86.25
472.216	103.25
472.435	134.25
472.654	77.25
472.873	85.25
473.092	83.25
473.311	82.25
473.53	76.25
473.749	78.25
473.968	84.25
474.187	93.25
474.406	95.25
474.625	75.25
474.844	67.25
475.063	70.25
475.282	95.25
475.501	87.25
475.72	88.25
475.939	94.25
476.158	86.25
476.377	71.25
476.596	73.25
476.814	87.25
477.033	91.25
477.252	100.25
477.471	89.25
477.69	83.25
477.908	75.25
478.127	86.25
478.346	84.25
478.564	102.25
478.783	96.25
479.002	79.25
479.22	87.25
479.439	92.25
479.658	101.25
479.876	89.25
480.095	97.25
480.313	89.25
480.532	103.25
480.751	91.25
480.969	116.25
481.188	145.25
481.406	111.25
481.624	89.25
481.843	91.25
482.061	97.25
482.28	79.25
482.498	81.25
482.717	86.25
482.935	77.25
483.153	89.25
483.372	89.25
483.59	93.25
483.808	71.25
484.027	88.25
484.245	81.25
484.463	86.25
484.681	94.25
484.9	76.25
485.118	100.25
485.336	87.25
485.554	81.25
485.772	101.25
485.99	99.25
486.209	106.25
486.427	111.25
486.645	103.25
486.863	106.25
487.081	97.25
487.299	96.25
487.517	92.25
487.735	95.25
487.953	88.25
488.171	106.25
488.389	98.25
488.607	108.25
488.825	94.25
489.043	91.25
489.261	94.25
489.479	86.25
489.696	87.25
489.914	80.25
490.132	87.25
490.35	88.25
490.568	76.25
490.786	79.25
491.003	83.25
491.221	96.25
491.439	90.25
491.657	79.25
491.874	77.25
492.092	87.25
492.31	86.25
492.527	83.25
492.745	92.25
492.963	85.25
493.18	92.25
493.398	93.25
493.615	98.25
493.833	84.25
494.05	100.25
494.268	84.25
494.485	73.25
494.703	82.25
494.92	72.25
495.138	80.25
495.355	75.25
495.573	102.25
495.79	92.25
496.008	86.25
496.225	80.25
496.442	79.25
496.66	83.25
496.877	91.25
497.094	93.25
497.312	76.25
497.529	85.25
497.746	90.25
497.963	75.25
498.181	88.25
498.398	87.25
498.615	101.25
498.832	111.25
499.049	86.25
499.267	92.25
499.484	77.25
499.701	83.25
499.918	85.25
500.135	96.25
500.352	77.25
500.569	86.25
500.786	88.25
501.003	74.25
501.22	85.25
501.437	97.25
501.654	95.25
501.871	95.25
502.088	92.25
502.305	87.25
502.522	86.25
502.739	87.25
502.956	87.25
503.172	84.25
503.389	79.25
503.606	99.25
503.823	85.25
504.04	86.25
504.256	86.25
504.473	90.25
504.69	78.25
504.907	92.25
505.123	88.25
505.34	86.25
505.557	79.25
505.773	93.25
505.99	104.25
506.207	80.25
506.423	94.25
506.64	98.25
506.856	89.25
507.073	84.25
507.289	98.25
507.506	101.25
507.722	93.25
507.939	105.25
508.155	87.25
508.372	96.25
508.588	94.25
508.805	94.25
509.021	101.25
509.238	94.25
509.454	86.25
509.67	108.25
509.887	90.25
510.103	124.25
510.319	167.25
510.536	526.25
510.752	1554.25
510.968	480.25
511.184	134.25
511.401	79.25
511.617	87.25
511.833	85.25
512.049	82.25
512.265	93.25
512.481	95.25
512.698	98.25
512.914	104.25
513.13	88.25
513.346	88.25
513.562	82.25
513.778	93.25
513.994	95.25
514.21	95.25
514.426	108.25
514.642	134.25
514.858	100.25
515.074	124.25
515.29	296.25
515.506	890.25
515.721	379.25
515.937	123.25
516.153	104.25
516.369	100.25
516.585	87.25
516.801	86.25
517.016	102.25
