Data from Uncirc_2009_H10_HRD10591_00034.txt Node
Date: Wed Jan 03 10:12:08 EST 2024
User: Yrep
Spectrometer: HR+D1059
Trigger mode: 1
Integration Time (sec): 1.000000E-1
Scans to average: 1
Electric dark correction enabled: true
Nonlinearity correction enabled: false
Boxcar width: 0
XAxis mode: Wavelengths
Number of Pixels in Spectrum: 2048
>>>>>Begin Spectral Data<<<<<
223.165	-21.62
223.4	-21.62
223.635	-21.62
223.869	-27.62
224.104	-15.62
224.338	-24.62
224.573	-23.62
224.808	-22.62
225.042	-12.62
225.277	3.38
225.511	-14.62
225.746	15.38
225.98	1.38
226.215	33.38
226.449	24.38
226.683	27.38
226.918	19.38
227.152	38.38
227.387	52.38
227.621	32.38
227.856	56.38
228.09	42.38
228.324	76.38
228.559	54.38
228.793	72.38
229.027	58.38
229.262	70.38
229.496	79.38
229.73	77.38
229.964	84.38
230.199	91.38
230.433	85.38
230.667	80.38
230.901	88.38
231.136	80.38
231.37	72.38
231.604	69.38
231.838	75.38
232.072	70.38
232.306	67.38
232.541	91.38
232.775	92.38
233.009	79.38
233.243	79.38
233.477	85.38
233.711	87.38
233.945	84.38
234.179	72.38
234.413	89.38
234.647	85.38
234.881	86.38
235.115	82.38
235.349	79.38
235.583	83.38
235.817	84.38
236.051	91.38
236.285	80.38
236.519	81.38
236.753	86.38
236.987	88.38
237.221	82.38
237.455	73.38
237.689	73.38
237.922	93.38
238.156	86.38
238.39	78.38
238.624	79.38
238.858	85.38
239.091	73.38
239.325	82.38
239.559	76.38
239.793	73.38
240.027	90.38
240.26	75.38
240.494	64.38
240.728	69.38
240.961	82.38
241.195	78.38
241.429	97.38
241.662	72.38
241.896	83.38
242.13	75.38
242.363	81.38
242.597	84.38
242.83	74.38
243.064	80.38
243.298	93.38
243.531	94.38
243.765	101.38
243.998	92.38
244.232	84.38
244.465	82.38
244.699	83.38
244.932	77.38
245.166	78.38
245.399	84.38
245.633	74.38
245.866	92.38
246.099	71.38
246.333	69.38
246.566	81.38
246.8	75.38
247.033	72.38
247.266	80.38
247.5	75.38
247.733	72.38
247.966	76.38
248.2	79.38
248.433	91.38
248.666	95.38
248.899	87.38
249.133	80.38
249.366	90.38
249.599	93.38
249.832	72.38
250.066	87.38
250.299	96.38
250.532	87.38
250.765	83.38
250.998	83.38
251.231	79.38
251.465	97.38
251.698	77.38
251.931	72.38
252.164	84.38
252.397	81.38
252.63	72.38
252.863	82.38
253.096	86.38
253.329	87.38
253.562	75.38
253.795	74.38
254.028	58.38
254.261	99.38
254.494	79.38
254.727	84.38
254.96	76.38
255.193	81.38
255.426	79.38
255.659	89.38
255.892	90.38
256.124	86.38
256.357	84.38
256.59	89.38
256.823	76.38
257.056	90.38
257.289	82.38
257.521	94.38
257.754	75.38
257.987	73.38
258.22	91.38
258.452	85.38
258.685	83.38
258.918	74.38
259.151	96.38
259.383	81.38
259.616	89.38
259.849	76.38
260.081	81.38
260.314	87.38
260.547	78.38
260.779	87.38
261.012	95.38
261.244	78.38
261.477	82.38
261.71	97.38
261.942	77.38
262.175	104.38
262.407	86.38
262.64	86.38
262.872	86.38
263.105	84.38
263.337	106.38
263.57	89.38
263.802	101.38
264.035	94.38
264.267	78.38
264.499	84.38
264.732	80.38
264.964	98.38
265.197	93.38
265.429	89.38
265.661	84.38
265.894	87.38
266.126	92.38
266.358	78.38
266.591	92.38
266.823	83.38
267.055	67.38
267.287	90.38
267.52	79.38
267.752	78.38
267.984	89.38
268.216	87.38
268.448	89.38
268.681	80.38
268.913	101.38
269.145	90.38
269.377	85.38
269.609	79.38
269.841	83.38
270.073	86.38
270.306	95.38
270.538	82.38
270.77	87.38
271.002	91.38
271.234	89.38
271.466	106.38
271.698	82.38
271.93	84.38
272.162	84.38
272.394	89.38
272.626	84.38
272.858	102.38
273.09	105.38
273.322	77.38
273.553	82.38
273.785	92.38
274.017	85.38
274.249	80.38
274.481	78.38
274.713	75.38
274.945	92.38
275.176	98.38
275.408	83.38
275.64	73.38
275.872	97.38
276.104	80.38
276.335	94.38
276.567	87.38
276.799	98.38
277.031	103.38
277.262	102.38
277.494	83.38
277.726	78.38
277.957	93.38
278.189	93.38
278.421	85.38
278.652	96.38
278.884	90.38
279.115	85.38
279.347	85.38
279.579	92.38
279.81	84.38
280.042	95.38
280.273	96.38
280.505	95.38
280.736	99.38
280.968	91.38
281.199	82.38
281.431	82.38
281.662	81.38
281.894	81.38
282.125	84.38
282.356	100.38
282.588	113.38
282.819	101.38
283.051	94.38
283.282	76.38
283.513	108.38
283.745	95.38
283.976	99.38
284.207	85.38
284.439	101.38
284.67	89.38
284.901	84.38
285.132	93.38
285.364	96.38
285.595	81.38
285.826	100.38
286.057	91.38
286.288	89.38
286.52	96.38
286.751	87.38
286.982	81.38
287.213	97.38
287.444	98.38
287.675	77.38
287.906	97.38
288.138	81.38
288.369	91.38
288.6	108.38
288.831	100.38
289.062	89.38
289.293	93.38
289.524	99.38
289.755	93.38
289.986	76.38
290.217	85.38
290.448	103.38
290.679	92.38
290.91	82.38
291.141	80.38
291.371	91.38
291.602	105.38
291.833	87.38
292.064	88.38
292.295	92.38
292.526	99.38
292.757	88.38
292.987	82.38
293.218	88.38
293.449	102.38
293.68	74.38
293.91	93.38
294.141	105.38
294.372	89.38
294.603	92.38
294.833	88.38
295.064	92.38
295.295	92.38
295.525	89.38
295.756	109.38
295.987	114.38
296.217	110.38
296.448	107.38
296.679	89.38
296.909	94.38
297.14	102.38
297.37	88.38
297.601	100.38
297.831	91.38
298.062	80.38
298.292	87.38
298.523	95.38
298.753	88.38
298.984	76.38
299.214	94.38
299.445	104.38
299.675	93.38
299.905	101.38
300.136	103.38
300.366	93.38
300.597	103.38
300.827	107.38
301.057	105.38
301.288	92.38
301.518	90.38
301.748	100.38
301.979	114.38
302.209	90.38
302.439	79.38
302.669	85.38
302.9	90.38
303.13	101.38
303.36	99.38
303.59	110.38
303.82	103.38
304.051	90.38
304.281	95.38
304.511	91.38
304.741	80.38
304.971	86.38
305.201	99.38
305.431	91.38
305.661	75.38
305.891	95.38
306.121	98.38
306.352	94.38
306.582	100.38
306.812	80.38
307.042	93.38
307.272	92.38
307.502	96.38
307.731	98.38
307.961	103.38
308.191	89.38
308.421	94.38
308.651	102.38
308.881	97.38
309.111	98.38
309.341	92.38
309.571	94.38
309.8	88.38
310.03	86.38
310.26	101.38
310.49	105.38
310.72	87.38
310.949	98.38
311.179	86.38
311.409	97.38
311.639	96.38
311.868	95.38
312.098	90.38
312.328	89.38
312.557	99.38
312.787	101.38
313.017	90.38
313.246	100.38
313.476	84.38
313.706	91.38
313.935	86.38
314.165	89.38
314.394	89.38
314.624	88.38
314.853	105.38
315.083	88.38
315.312	94.38
315.542	91.38
315.771	94.38
316.001	89.38
316.23	87.38
316.46	85.38
316.689	83.38
316.919	98.38
317.148	95.38
317.377	112.38
317.607	127.38
317.836	104.38
318.065	95.38
318.295	100.38
318.524	99.38
318.753	97.38
318.983	89.38
319.212	103.38
319.441	99.38
319.67	99.38
319.9	88.38
320.129	96.38
320.358	105.38
320.587	107.38
320.816	96.38
321.046	98.38
321.275	98.38
321.504	84.38
321.733	105.38
321.962	100.38
322.191	116.38
322.42	114.38
322.649	92.38
322.878	109.38
323.108	128.38
323.337	122.38
323.566	122.38
323.795	129.38
324.024	185.38
324.253	313.38
324.482	649.38
324.71	1267.38
324.939	1689.38
325.168	632.38
325.397	200.38
325.626	129.38
325.855	116.38
326.084	125.38
326.313	138.38
326.542	154.38
326.77	221.38
326.999	381.38
327.228	751.38
327.457	1343.38
327.686	1093.38
327.914	302.38
328.143	177.38
328.372	138.38
328.6	107.38
328.829	104.38
329.058	123.38
329.287	118.38
329.515	108.38
329.744	95.38
329.972	85.38
330.201	106.38
330.43	115.38
330.658	112.38
330.887	124.38
331.115	107.38
331.344	95.38
331.572	105.38
331.801	103.38
332.03	114.38
332.258	94.38
332.486	84.38
332.715	95.38
332.943	105.38
333.172	105.38
333.4	96.38
333.629	113.38
333.857	97.38
334.085	116.38
334.314	115.38
334.542	109.38
334.771	124.38
334.999	96.38
335.227	99.38
335.455	98.38
335.684	96.38
335.912	73.38
336.14	107.38
336.369	102.38
336.597	106.38
336.825	100.38
337.053	84.38
337.281	91.38
337.51	99.38
337.738	105.38
337.966	91.38
338.194	92.38
338.422	93.38
338.65	86.38
338.878	86.38
339.106	100.38
339.334	90.38
339.562	99.38
339.79	100.38
340.018	104.38
340.246	108.38
340.474	99.38
340.702	91.38
340.93	88.38
341.158	107.38
341.386	100.38
341.614	96.38
341.842	107.38
342.07	99.38
342.298	95.38
342.526	90.38
342.754	91.38
342.981	105.38
343.209	88.38
343.437	103.38
343.665	101.38
343.893	88.38
344.12	91.38
344.348	87.38
344.576	87.38
344.804	92.38
345.031	95.38
345.259	91.38
345.487	97.38
345.714	111.38
345.942	107.38
346.17	84.38
346.397	99.38
346.625	85.38
346.853	96.38
347.08	94.38
347.308	95.38
347.535	102.38
347.763	90.38
347.99	94.38
348.218	94.38
348.445	108.38
348.673	100.38
348.9	92.38
349.128	103.38
349.355	95.38
349.583	90.38
349.81	103.38
350.037	105.38
350.265	112.38
350.492	95.38
350.72	95.38
350.947	105.38
351.174	114.38
351.402	101.38
351.629	103.38
351.856	110.38
352.083	98.38
352.311	99.38
352.538	110.38
352.765	100.38
352.992	101.38
353.22	111.38
353.447	99.38
353.674	108.38
353.901	92.38
354.128	108.38
354.355	91.38
354.583	98.38
354.81	88.38
355.037	93.38
355.264	95.38
355.491	90.38
355.718	101.38
355.945	101.38
356.172	92.38
356.399	95.38
356.626	93.38
356.853	108.38
357.08	108.38
357.307	85.38
357.534	91.38
357.761	84.38
357.988	92.38
358.215	103.38
358.441	93.38
358.668	114.38
358.895	102.38
359.122	84.38
359.349	83.38
359.576	88.38
359.802	92.38
360.029	113.38
360.256	108.38
360.483	87.38
360.709	87.38
360.936	109.38
361.163	97.38
361.39	84.38
361.616	92.38
361.843	89.38
362.07	92.38
362.296	95.38
362.523	100.38
362.749	78.38
362.976	84.38
363.203	104.38
363.429	102.38
363.656	91.38
363.882	87.38
364.109	96.38
364.335	91.38
364.562	87.38
364.788	84.38
365.015	99.38
365.241	98.38
365.468	106.38
365.694	100.38
365.92	97.38
366.147	84.38
366.373	91.38
366.599	97.38
366.826	83.38
367.052	88.38
367.278	80.38
367.505	88.38
367.731	89.38
367.957	104.38
368.184	83.38
368.41	91.38
368.636	114.38
368.862	123.38
369.089	90.38
369.315	97.38
369.541	89.38
369.767	99.38
369.993	107.38
370.219	99.38
370.445	89.38
370.672	93.38
370.898	90.38
371.124	97.38
371.35	89.38
371.576	79.38
371.802	84.38
372.028	93.38
372.254	93.38
372.48	91.38
372.706	88.38
372.932	84.38
373.158	83.38
373.384	97.38
373.61	93.38
373.835	85.38
374.061	88.38
374.287	88.38
374.513	93.38
374.739	100.38
374.965	96.38
375.191	100.38
375.416	96.38
375.642	107.38
375.868	96.38
376.094	101.38
376.319	90.38
376.545	100.38
376.771	98.38
376.997	86.38
377.222	91.38
377.448	92.38
377.674	88.38
377.899	85.38
378.125	104.38
378.35	113.38
378.576	73.38
378.802	99.38
379.027	93.38
379.253	92.38
379.478	95.38
379.704	90.38
379.929	110.38
380.155	100.38
380.38	94.38
380.606	97.38
380.831	99.38
381.057	105.38
381.282	97.38
381.507	90.38
381.733	117.38
381.958	98.38
382.184	98.38
382.409	95.38
382.634	114.38
382.86	92.38
383.085	110.38
383.31	101.38
383.535	110.38
383.761	102.38
383.986	105.38
384.211	88.38
384.436	105.38
384.662	103.38
384.887	108.38
385.112	113.38
385.337	107.38
385.562	109.38
385.787	119.38
386.013	91.38
386.238	116.38
386.463	108.38
386.688	119.38
386.913	108.38
387.138	100.38
387.363	107.38
387.588	106.38
387.813	118.38
388.038	108.38
388.263	123.38
388.488	97.38
388.713	116.38
388.938	103.38
389.163	103.38
389.387	93.38
389.612	91.38
389.837	91.38
390.062	102.38
390.287	84.38
390.512	92.38
390.736	96.38
390.961	83.38
391.186	97.38
391.411	99.38
391.636	96.38
391.86	89.38
392.085	80.38
392.31	90.38
392.534	90.38
392.759	96.38
392.984	80.38
393.208	97.38
393.433	88.38
393.658	103.38
393.882	89.38
394.107	99.38
394.331	93.38
394.556	82.38
394.78	92.38
395.005	91.38
395.229	79.38
395.454	75.38
395.678	94.38
395.903	93.38
396.127	104.38
396.352	85.38
396.576	98.38
396.801	87.38
397.025	84.38
397.249	82.38
397.474	95.38
397.698	92.38
397.922	88.38
398.147	84.38
398.371	88.38
398.595	91.38
398.82	96.38
399.044	96.38
399.268	88.38
399.492	78.38
399.717	83.38
399.941	94.38
400.165	89.38
400.389	91.38
400.613	89.38
400.837	89.38
401.062	101.38
401.286	82.38
401.51	87.38
401.734	87.38
401.958	84.38
402.182	95.38
402.406	129.38
402.63	102.38
402.854	85.38
403.078	84.38
403.302	99.38
403.526	98.38
403.75	71.38
403.974	93.38
404.198	93.38
404.422	95.38
404.645	81.38
404.869	111.38
405.093	88.38
405.317	92.38
405.541	99.38
405.765	112.38
405.988	102.38
406.212	135.38
406.436	157.38
406.66	126.38
406.883	84.38
407.107	97.38
407.331	87.38
407.555	90.38
407.778	113.38
408.002	88.38
408.226	87.38
408.449	74.38
408.673	102.38
408.896	99.38
409.12	92.38
409.344	100.38
409.567	83.38
409.791	101.38
410.014	106.38
410.238	96.38
410.461	88.38
410.685	102.38
410.908	110.38
411.132	90.38
411.355	84.38
411.578	97.38
411.802	96.38
412.025	95.38
412.249	91.38
412.472	107.38
412.695	87.38
412.919	100.38
413.142	88.38
413.365	91.38
413.589	87.38
413.812	88.38
414.035	93.38
414.258	91.38
414.482	94.38
414.705	85.38
414.928	97.38
415.151	106.38
415.374	95.38
415.597	92.38
415.821	90.38
416.044	87.38
416.267	89.38
416.49	99.38
416.713	95.38
416.936	101.38
417.159	85.38
417.382	88.38
417.605	85.38
417.828	105.38
418.051	110.38
418.274	97.38
418.497	101.38
418.72	86.38
418.943	98.38
419.166	78.38
419.389	96.38
419.611	87.38
419.834	96.38
420.057	82.38
420.28	89.38
420.503	96.38
420.726	89.38
420.948	88.38
421.171	84.38
421.394	96.38
421.617	96.38
421.839	82.38
422.062	86.38
422.285	96.38
422.507	101.38
422.73	92.38
422.953	99.38
423.175	91.38
423.398	95.38
423.621	82.38
423.843	82.38
424.066	66.38
424.288	87.38
424.511	84.38
424.733	102.38
424.956	91.38
425.178	89.38
425.401	92.38
425.623	109.38
425.846	108.38
426.068	93.38
426.291	106.38
426.513	93.38
426.735	99.38
426.958	92.38
427.18	91.38
427.402	128.38
427.625	143.38
427.847	110.38
428.069	112.38
428.292	96.38
428.514	93.38
428.736	87.38
428.958	89.38
429.181	82.38
429.403	96.38
429.625	99.38
429.847	90.38
430.069	99.38
430.292	100.38
430.514	79.38
430.736	86.38
430.958	95.38
431.18	81.38
431.402	91.38
431.624	94.38
431.846	83.38
432.068	88.38
432.29	70.38
432.512	90.38
432.734	87.38
432.956	100.38
433.178	98.38
433.4	105.38
433.622	88.38
433.844	86.38
434.066	88.38
434.287	88.38
434.509	92.38
434.731	100.38
434.953	99.38
435.175	82.38
435.397	97.38
435.618	88.38
435.84	97.38
436.062	109.38
436.284	103.38
436.505	103.38
436.727	99.38
436.949	92.38
437.17	97.38
437.392	88.38
437.614	84.38
437.835	92.38
438.057	111.38
438.278	99.38
438.5	104.38
438.721	98.38
438.943	84.38
439.165	104.38
439.386	85.38
439.608	93.38
439.829	95.38
440.05	109.38
440.272	127.38
440.493	88.38
440.715	68.38
440.936	89.38
441.158	82.38
441.379	79.38
441.6	97.38
441.822	92.38
442.043	81.38
442.264	104.38
442.486	94.38
442.707	107.38
442.928	96.38
443.149	117.38
443.371	107.38
443.592	104.38
443.813	92.38
444.034	102.38
444.255	101.38
444.476	80.38
444.698	82.38
444.919	96.38
445.14	129.38
445.361	96.38
445.582	107.38
445.803	108.38
446.024	121.38
446.245	123.38
446.466	102.38
446.687	92.38
446.908	99.38
447.129	80.38
447.35	87.38
447.571	88.38
447.792	88.38
448.013	103.38
448.234	101.38
448.455	98.38
448.675	109.38
448.896	114.38
449.117	92.38
449.338	82.38
449.559	109.38
449.779	120.38
450	95.38
450.221	80.38
450.442	95.38
450.662	97.38
450.883	105.38
451.104	96.38
451.324	90.38
451.545	82.38
451.766	88.38
451.986	94.38
452.207	93.38
452.428	103.38
452.648	105.38
452.869	108.38
453.089	101.38
453.31	88.38
453.53	95.38
453.751	87.38
453.971	101.38
454.192	98.38
454.412	101.38
454.633	83.38
454.853	99.38
455.073	91.38
455.294	87.38
455.514	88.38
455.734	85.38
455.955	88.38
456.175	87.38
456.395	71.38
456.616	96.38
456.836	85.38
457.056	88.38
457.276	87.38
457.497	87.38
457.717	75.38
457.937	100.38
458.157	81.38
458.377	89.38
458.598	96.38
458.818	114.38
459.038	119.38
459.258	93.38
459.478	79.38
459.698	94.38
459.918	99.38
460.138	90.38
460.358	90.38
460.578	83.38
460.798	82.38
461.018	95.38
461.238	90.38
461.458	80.38
461.678	81.38
461.898	77.38
462.118	92.38
462.338	93.38
462.558	100.38
462.777	91.38
462.997	93.38
463.217	93.38
463.437	84.38
463.657	92.38
463.876	97.38
464.096	102.38
464.316	79.38
464.536	91.38
464.755	93.38
464.975	101.38
465.195	121.38
465.414	139.38
465.634	83.38
465.854	90.38
466.073	87.38
466.293	98.38
466.512	76.38
466.732	84.38
466.951	90.38
467.171	89.38
467.391	74.38
467.61	82.38
467.829	97.38
468.049	98.38
468.268	95.38
468.488	90.38
468.707	77.38
468.927	91.38
469.146	104.38
469.365	110.38
469.585	72.38
469.804	99.38
470.023	102.38
470.243	83.38
470.462	95.38
470.681	111.38
470.901	93.38
471.12	94.38
471.339	95.38
471.558	86.38
471.777	87.38
471.997	92.38
472.216	100.38
472.435	100.38
472.654	92.38
472.873	86.38
473.092	101.38
473.311	95.38
473.53	85.38
473.749	80.38
473.968	99.38
474.187	96.38
474.406	92.38
474.625	94.38
474.844	100.38
475.063	74.38
475.282	87.38
475.501	103.38
475.72	83.38
475.939	85.38
476.158	85.38
476.377	80.38
476.596	77.38
476.814	98.38
477.033	83.38
477.252	90.38
477.471	94.38
477.69	84.38
477.908	108.38
478.127	92.38
478.346	94.38
478.564	96.38
478.783	98.38
479.002	90.38
479.22	97.38
479.439	106.38
479.658	90.38
479.876	99.38
480.095	97.38
480.313	101.38
480.532	94.38
480.751	83.38
480.969	91.38
481.188	144.38
481.406	132.38
481.624	95.38
481.843	93.38
482.061	97.38
482.28	86.38
482.498	88.38
482.717	88.38
482.935	92.38
483.153	96.38
483.372	67.38
483.59	83.38
483.808	95.38
484.027	99.38
484.245	95.38
484.463	100.38
484.681	98.38
484.9	86.38
485.118	96.38
485.336	80.38
485.554	99.38
485.772	90.38
485.99	109.38
486.209	110.38
486.427	99.38
486.645	108.38
486.863	105.38
487.081	95.38
487.299	97.38
487.517	90.38
487.735	84.38
487.953	98.38
488.171	104.38
488.389	95.38
488.607	98.38
488.825	87.38
489.043	79.38
489.261	86.38
489.479	89.38
489.696	93.38
489.914	94.38
490.132	95.38
490.35	94.38
490.568	89.38
490.786	81.38
491.003	89.38
491.221	88.38
491.439	92.38
491.657	85.38
491.874	87.38
492.092	83.38
492.31	93.38
492.527	101.38
492.745	79.38
492.963	98.38
493.18	101.38
493.398	91.38
493.615	105.38
493.833	96.38
494.05	95.38
494.268	97.38
494.485	97.38
494.703	100.38
494.92	87.38
495.138	92.38
495.355	99.38
495.573	100.38
495.79	104.38
496.008	99.38
496.225	104.38
496.442	97.38
496.66	93.38
496.877	101.38
497.094	107.38
497.312	85.38
497.529	101.38
497.746	93.38
497.963	99.38
498.181	93.38
498.398	93.38
498.615	97.38
498.832	100.38
499.049	106.38
499.267	98.38
499.484	93.38
499.701	98.38
499.918	89.38
500.135	80.38
500.352	96.38
500.569	95.38
500.786	98.38
501.003	95.38
501.22	80.38
501.437	77.38
501.654	85.38
501.871	92.38
502.088	96.38
502.305	101.38
502.522	79.38
502.739	101.38
502.956	101.38
503.172	85.38
503.389	99.38
503.606	99.38
503.823	88.38
504.04	100.38
504.256	104.38
504.473	92.38
504.69	84.38
504.907	98.38
505.123	83.38
505.34	86.38
505.557	101.38
505.773	99.38
505.99	81.38
506.207	82.38
506.423	102.38
506.64	101.38
506.856	95.38
507.073	90.38
507.289	88.38
507.506	105.38
507.722	92.38
507.939	109.38
508.155	93.38
508.372	94.38
508.588	99.38
508.805	99.38
509.021	103.38
509.238	85.38
509.454	97.38
509.67	98.38
509.887	91.38
510.103	123.38
510.319	172.38
510.536	489.38
510.752	1480.38
510.968	430.38
511.184	114.38
511.401	108.38
511.617	91.38
511.833	101.38
512.049	92.38
512.265	107.38
512.481	97.38
512.698	100.38
512.914	98.38
513.13	99.38
513.346	108.38
513.562	104.38
513.778	107.38
513.994	109.38
514.21	94.38
514.426	111.38
514.642	117.38
514.858	121.38
515.074	138.38
515.29	285.38
