Data from Uncirc_2009_H10_HRD10591_00067.txt Node
Date: Wed Jan 03 10:12:15 EST 2024
User: Yrep
Spectrometer: HR+D1059
Trigger mode: 1
Integration Time (sec): 1.000000E-1
Scans to average: 1
Electric dark correction enabled: true
Nonlinearity correction enabled: false
Boxcar width: 0
XAxis mode: Wavelengths
Number of Pixels in Spectrum: 2048
>>>>>Begin Spectral Data<<<<<
223.165	-29.31
223.4	-29.31
223.635	-29.31
223.869	-31.31
224.104	-22.31
224.338	-17.31
224.573	-13.31
224.808	-9.31
225.042	-4.31
225.277	5.69
225.511	5.69
225.746	-4.31
225.98	11.69
226.215	3.69
226.449	26.69
226.683	29.69
226.918	19.69
227.152	28.69
227.387	31.69
227.621	20.69
227.856	38.69
228.09	55.69
228.324	59.69
228.559	69.69
228.793	78.69
229.027	55.69
229.262	73.69
229.496	64.69
229.73	74.69
229.964	74.69
230.199	64.69
230.433	83.69
230.667	69.69
230.901	96.69
231.136	75.69
231.37	84.69
231.604	74.69
231.838	72.69
232.072	87.69
232.306	83.69
232.541	79.69
232.775	87.69
233.009	73.69
233.243	95.69
233.477	94.69
233.711	65.69
233.945	84.69
234.179	72.69
234.413	77.69
234.647	86.69
234.881	78.69
235.115	77.69
235.349	73.69
235.583	87.69
235.817	91.69
236.051	84.69
236.285	79.69
236.519	90.69
236.753	86.69
236.987	73.69
237.221	88.69
237.455	89.69
237.689	96.69
237.922	82.69
238.156	71.69
238.39	75.69
238.624	68.69
238.858	87.69
239.091	56.69
239.325	77.69
239.559	83.69
239.793	69.69
240.027	70.69
240.26	67.69
240.494	75.69
240.728	79.69
240.961	86.69
241.195	83.69
241.429	89.69
241.662	89.69
241.896	81.69
242.13	77.69
242.363	78.69
242.597	80.69
242.83	96.69
243.064	80.69
243.298	81.69
243.531	88.69
243.765	85.69
243.998	82.69
244.232	90.69
244.465	89.69
244.699	75.69
244.932	72.69
245.166	73.69
245.399	82.69
245.633	88.69
245.866	94.69
246.099	75.69
246.333	86.69
246.566	88.69
246.8	77.69
247.033	75.69
247.266	82.69
247.5	69.69
247.733	71.69
247.966	87.69
248.2	85.69
248.433	79.69
248.666	86.69
248.899	80.69
249.133	89.69
249.366	93.69
249.599	88.69
249.832	82.69
250.066	83.69
250.299	83.69
250.532	96.69
250.765	64.69
250.998	69.69
251.231	76.69
251.465	65.69
251.698	99.69
251.931	79.69
252.164	88.69
252.397	80.69
252.63	94.69
252.863	86.69
253.096	91.69
253.329	84.69
253.562	70.69
253.795	80.69
254.028	74.69
254.261	87.69
254.494	81.69
254.727	78.69
254.96	78.69
255.193	92.69
255.426	97.69
255.659	69.69
255.892	89.69
256.124	94.69
256.357	69.69
256.59	80.69
256.823	87.69
257.056	75.69
257.289	82.69
257.521	81.69
257.754	83.69
257.987	81.69
258.22	81.69
258.452	77.69
258.685	93.69
258.918	93.69
259.151	76.69
259.383	92.69
259.616	83.69
259.849	79.69
260.081	88.69
260.314	82.69
260.547	81.69
260.779	86.69
261.012	73.69
261.244	82.69
261.477	96.69
261.71	89.69
261.942	98.69
262.175	113.69
262.407	88.69
262.64	80.69
262.872	93.69
263.105	88.69
263.337	89.69
263.57	78.69
263.802	87.69
264.035	80.69
264.267	94.69
264.499	93.69
264.732	83.69
264.964	81.69
265.197	89.69
265.429	82.69
265.661	91.69
265.894	88.69
266.126	92.69
266.358	73.69
266.591	85.69
266.823	81.69
267.055	105.69
267.287	71.69
267.52	74.69
267.752	86.69
267.984	76.69
268.216	88.69
268.448	89.69
268.681	89.69
268.913	88.69
269.145	80.69
269.377	89.69
269.609	81.69
269.841	81.69
270.073	88.69
270.306	80.69
270.538	84.69
270.77	86.69
271.002	85.69
271.234	89.69
271.466	81.69
271.698	79.69
271.93	76.69
272.162	90.69
272.394	96.69
272.626	88.69
272.858	78.69
273.09	80.69
273.322	84.69
273.553	77.69
273.785	76.69
274.017	83.69
274.249	70.69
274.481	84.69
274.713	84.69
274.945	80.69
275.176	82.69
275.408	92.69
275.64	95.69
275.872	93.69
276.104	94.69
276.335	94.69
276.567	92.69
276.799	95.69
277.031	89.69
277.262	88.69
277.494	91.69
277.726	93.69
277.957	89.69
278.189	85.69
278.421	78.69
278.652	97.69
278.884	98.69
279.115	91.69
279.347	86.69
279.579	69.69
279.81	77.69
280.042	75.69
280.273	92.69
280.505	88.69
280.736	90.69
280.968	85.69
281.199	80.69
281.431	87.69
281.662	96.69
281.894	75.69
282.125	88.69
282.356	97.69
282.588	111.69
282.819	114.69
283.051	82.69
283.282	77.69
283.513	91.69
283.745	102.69
283.976	92.69
284.207	103.69
284.439	88.69
284.67	88.69
284.901	75.69
285.132	93.69
285.364	89.69
285.595	81.69
285.826	88.69
286.057	93.69
286.288	94.69
286.52	82.69
286.751	88.69
286.982	90.69
287.213	93.69
287.444	83.69
287.675	91.69
287.906	98.69
288.138	94.69
288.369	91.69
288.6	85.69
288.831	82.69
289.062	70.69
289.293	95.69
289.524	73.69
289.755	77.69
289.986	93.69
290.217	80.69
290.448	98.69
290.679	89.69
290.91	86.69
291.141	88.69
291.371	80.69
291.602	84.69
291.833	77.69
292.064	86.69
292.295	87.69
292.526	84.69
292.757	82.69
292.987	92.69
293.218	93.69
293.449	98.69
293.68	91.69
293.91	93.69
294.141	97.69
294.372	91.69
294.603	86.69
294.833	71.69
295.064	82.69
295.295	88.69
295.525	102.69
295.756	113.69
295.987	104.69
296.217	116.69
296.448	125.69
296.679	105.69
296.909	94.69
297.14	89.69
297.37	93.69
297.601	79.69
297.831	86.69
298.062	77.69
298.292	87.69
298.523	104.69
298.753	95.69
298.984	86.69
299.214	80.69
299.445	87.69
299.675	74.69
299.905	95.69
300.136	85.69
300.366	83.69
300.597	89.69
300.827	94.69
301.057	111.69
301.288	113.69
301.518	85.69
301.748	91.69
301.979	102.69
302.209	89.69
302.439	96.69
302.669	84.69
302.9	90.69
303.13	95.69
303.36	103.69
303.59	100.69
303.82	93.69
304.051	78.69
304.281	78.69
304.511	97.69
304.741	94.69
304.971	88.69
305.201	81.69
305.431	97.69
305.661	82.69
305.891	77.69
306.121	97.69
306.352	103.69
306.582	99.69
306.812	81.69
307.042	91.69
307.272	104.69
307.502	80.69
307.731	92.69
307.961	83.69
308.191	85.69
308.421	100.69
308.651	94.69
308.881	81.69
309.111	95.69
309.341	90.69
309.571	82.69
309.8	100.69
310.03	93.69
310.26	108.69
310.49	89.69
310.72	90.69
310.949	99.69
311.179	97.69
311.409	101.69
311.639	87.69
311.868	92.69
312.098	91.69
312.328	89.69
312.557	83.69
312.787	101.69
313.017	98.69
313.246	105.69
313.476	95.69
313.706	81.69
313.935	84.69
314.165	94.69
314.394	97.69
314.624	88.69
314.853	90.69
315.083	85.69
315.312	96.69
315.542	73.69
315.771	88.69
316.001	79.69
316.23	89.69
316.46	98.69
316.689	101.69
316.919	92.69
317.148	105.69
317.377	123.69
317.607	118.69
317.836	108.69
318.065	89.69
318.295	97.69
318.524	81.69
318.753	89.69
318.983	96.69
319.212	104.69
319.441	103.69
319.67	98.69
319.9	103.69
320.129	89.69
320.358	102.69
320.587	98.69
320.816	94.69
321.046	105.69
321.275	109.69
321.504	90.69
321.733	95.69
321.962	91.69
322.191	105.69
322.42	101.69
322.649	103.69
322.878	102.69
323.108	123.69
323.337	111.69
323.566	128.69
323.795	155.69
324.024	187.69
324.253	365.69
324.482	755.69
324.71	1555.69
324.939	2017.69
325.168	761.69
325.397	232.69
325.626	144.69
325.855	135.69
326.084	135.69
326.313	160.69
326.542	168.69
326.77	218.69
326.999	440.69
327.228	897.69
327.457	1603.69
327.686	1254.69
327.914	345.69
328.143	176.69
328.372	135.69
328.6	119.69
328.829	119.69
329.058	115.69
329.287	121.69
329.515	104.69
329.744	108.69
329.972	119.69
330.201	110.69
330.43	124.69
330.658	119.69
330.887	126.69
331.115	121.69
331.344	103.69
331.572	102.69
331.801	101.69
332.03	97.69
332.258	107.69
332.486	87.69
332.715	94.69
332.943	84.69
333.172	101.69
333.4	97.69
333.629	98.69
333.857	105.69
334.085	114.69
334.314	113.69
334.542	117.69
334.771	118.69
334.999	101.69
335.227	97.69
335.455	75.69
335.684	81.69
335.912	83.69
336.14	106.69
336.369	101.69
336.597	94.69
336.825	105.69
337.053	88.69
337.281	90.69
337.51	88.69
337.738	106.69
337.966	82.69
338.194	98.69
338.422	75.69
338.65	94.69
338.878	89.69
339.106	97.69
339.334	101.69
339.562	93.69
339.79	93.69
340.018	94.69
340.246	95.69
340.474	85.69
340.702	104.69
340.93	100.69
341.158	77.69
341.386	96.69
341.614	101.69
341.842	95.69
342.07	91.69
342.298	97.69
342.526	96.69
342.754	78.69
342.981	89.69
343.209	87.69
343.437	83.69
343.665	79.69
343.893	89.69
344.12	89.69
344.348	90.69
344.576	91.69
344.804	88.69
345.031	90.69
345.259	94.69
345.487	95.69
345.714	92.69
345.942	101.69
346.17	93.69
346.397	82.69
346.625	77.69
346.853	93.69
347.08	96.69
347.308	88.69
347.535	100.69
347.763	90.69
347.99	105.69
348.218	104.69
348.445	86.69
348.673	90.69
348.9	88.69
349.128	106.69
349.355	103.69
349.583	95.69
349.81	101.69
350.037	100.69
350.265	87.69
350.492	104.69
350.72	97.69
350.947	106.69
351.174	111.69
351.402	91.69
351.629	101.69
351.856	103.69
352.083	111.69
352.311	81.69
352.538	115.69
352.765	100.69
352.992	108.69
353.22	90.69
353.447	91.69
353.674	100.69
353.901	92.69
354.128	94.69
354.355	101.69
354.583	82.69
354.81	110.69
355.037	87.69
355.264	107.69
355.491	96.69
355.718	107.69
355.945	96.69
356.172	110.69
356.399	91.69
356.626	97.69
356.853	93.69
357.08	98.69
357.307	94.69
357.534	93.69
357.761	108.69
357.988	87.69
358.215	87.69
358.441	90.69
358.668	104.69
358.895	99.69
359.122	94.69
359.349	89.69
359.576	104.69
359.802	94.69
360.029	106.69
360.256	98.69
360.483	95.69
360.709	82.69
360.936	93.69
361.163	94.69
361.39	106.69
361.616	96.69
361.843	77.69
362.07	88.69
362.296	95.69
362.523	93.69
362.749	84.69
362.976	81.69
363.203	87.69
363.429	78.69
363.656	100.69
363.882	95.69
364.109	95.69
364.335	87.69
364.562	95.69
364.788	91.69
365.015	102.69
365.241	91.69
365.468	111.69
365.694	112.69
365.92	97.69
366.147	87.69
366.373	90.69
366.599	88.69
366.826	99.69
367.052	98.69
367.278	96.69
367.505	92.69
367.731	99.69
367.957	99.69
368.184	81.69
368.41	96.69
368.636	97.69
368.862	114.69
369.089	111.69
369.315	97.69
369.541	91.69
369.767	96.69
369.993	87.69
370.219	93.69
370.445	81.69
370.672	95.69
370.898	93.69
371.124	94.69
371.35	85.69
371.576	92.69
371.802	98.69
372.028	87.69
372.254	84.69
372.48	86.69
372.706	91.69
372.932	86.69
373.158	85.69
373.384	86.69
373.61	95.69
373.835	77.69
374.061	89.69
374.287	93.69
374.513	97.69
374.739	89.69
374.965	91.69
375.191	91.69
375.416	104.69
375.642	81.69
375.868	82.69
376.094	91.69
376.319	85.69
376.545	84.69
376.771	66.69
376.997	77.69
377.222	106.69
377.448	86.69
377.674	82.69
377.899	99.69
378.125	97.69
378.35	102.69
378.576	89.69
378.802	86.69
379.027	94.69
379.253	106.69
379.478	93.69
379.704	81.69
379.929	89.69
380.155	100.69
380.38	104.69
380.606	104.69
380.831	108.69
381.057	98.69
381.282	102.69
381.507	83.69
381.733	87.69
381.958	97.69
382.184	102.69
382.409	95.69
382.634	104.69
382.86	100.69
383.085	103.69
383.31	106.69
383.535	105.69
383.761	93.69
383.986	103.69
384.211	89.69
384.436	113.69
384.662	103.69
384.887	94.69
385.112	109.69
385.337	105.69
385.562	106.69
385.787	100.69
386.013	88.69
386.238	114.69
386.463	109.69
386.688	107.69
386.913	97.69
387.138	83.69
387.363	93.69
387.588	95.69
387.813	109.69
388.038	99.69
388.263	108.69
388.488	102.69
388.713	104.69
388.938	89.69
389.163	110.69
389.387	100.69
389.612	88.69
389.837	83.69
390.062	96.69
390.287	100.69
390.512	104.69
390.736	98.69
390.961	105.69
391.186	110.69
391.411	98.69
391.636	95.69
391.86	77.69
392.085	91.69
392.31	94.69
392.534	96.69
392.759	89.69
392.984	84.69
393.208	80.69
393.433	81.69
393.658	86.69
393.882	87.69
394.107	79.69
394.331	94.69
394.556	91.69
394.78	93.69
395.005	99.69
395.229	86.69
395.454	81.69
395.678	93.69
395.903	89.69
396.127	91.69
396.352	87.69
396.576	90.69
396.801	73.69
397.025	87.69
397.249	100.69
397.474	82.69
397.698	99.69
397.922	70.69
398.147	77.69
398.371	85.69
398.595	78.69
398.82	84.69
399.044	86.69
399.268	90.69
399.492	66.69
399.717	81.69
399.941	106.69
400.165	94.69
400.389	97.69
400.613	86.69
400.837	85.69
401.062	93.69
401.286	90.69
401.51	82.69
401.734	88.69
401.958	86.69
402.182	106.69
402.406	151.69
402.63	98.69
402.854	94.69
403.078	80.69
403.302	93.69
403.526	102.69
403.75	94.69
403.974	89.69
404.198	94.69
404.422	82.69
404.645	94.69
404.869	92.69
405.093	82.69
405.317	103.69
405.541	90.69
405.765	93.69
405.988	93.69
406.212	147.69
406.436	176.69
406.66	129.69
406.883	87.69
407.107	89.69
407.331	91.69
407.555	104.69
407.778	94.69
408.002	89.69
408.226	82.69
408.449	83.69
408.673	90.69
408.896	98.69
409.12	90.69
409.344	95.69
409.567	97.69
409.791	85.69
410.014	106.69
410.238	98.69
410.461	104.69
410.685	94.69
410.908	90.69
411.132	104.69
411.355	105.69
411.578	77.69
411.802	89.69
412.025	98.69
412.249	90.69
412.472	84.69
412.695	102.69
412.919	93.69
413.142	89.69
413.365	85.69
413.589	98.69
413.812	90.69
414.035	89.69
414.258	108.69
414.482	99.69
414.705	100.69
414.928	84.69
415.151	92.69
415.374	87.69
415.597	90.69
415.821	92.69
416.044	95.69
416.267	100.69
416.49	85.69
416.713	77.69
416.936	95.69
417.159	81.69
417.382	87.69
417.605	101.69
417.828	96.69
418.051	91.69
418.274	92.69
418.497	83.69
418.72	78.69
418.943	92.69
419.166	88.69
419.389	89.69
419.611	95.69
419.834	94.69
420.057	103.69
420.28	91.69
420.503	78.69
420.726	101.69
420.948	101.69
421.171	97.69
421.394	88.69
421.617	87.69
421.839	106.69
422.062	86.69
422.285	89.69
422.507	102.69
422.73	93.69
422.953	92.69
423.175	102.69
423.398	102.69
423.621	87.69
423.843	83.69
424.066	90.69
424.288	81.69
424.511	93.69
424.733	91.69
424.956	104.69
425.178	92.69
425.401	90.69
425.623	86.69
425.846	98.69
426.068	99.69
426.291	94.69
426.513	95.69
426.735	92.69
426.958	88.69
427.18	120.69
427.402	131.69
427.625	135.69
427.847	138.69
428.069	104.69
428.292	93.69
428.514	94.69
428.736	81.69
428.958	88.69
429.181	96.69
429.403	93.69
429.625	83.69
429.847	82.69
430.069	99.69
430.292	72.69
430.514	70.69
430.736	84.69
430.958	85.69
431.18	91.69
431.402	100.69
431.624	84.69
431.846	82.69
432.068	82.69
432.29	85.69
432.512	89.69
432.734	79.69
432.956	91.69
433.178	83.69
433.4	93.69
433.622	89.69
433.844	88.69
434.066	86.69
434.287	91.69
434.509	77.69
434.731	83.69
434.953	101.69
435.175	94.69
435.397	93.69
435.618	89.69
435.84	93.69
436.062	111.69
436.284	111.69
436.505	98.69
436.727	112.69
436.949	105.69
437.17	101.69
437.392	82.69
437.614	93.69
437.835	92.69
438.057	99.69
438.278	102.69
438.5	104.69
438.721	114.69
438.943	98.69
439.165	82.69
439.386	92.69
439.608	83.69
439.829	97.69
440.05	110.69
440.272	123.69
440.493	110.69
440.715	89.69
440.936	83.69
441.158	84.69
441.379	100.69
441.6	105.69
441.822	77.69
442.043	94.69
442.264	97.69
442.486	105.69
442.707	89.69
442.928	101.69
443.149	135.69
443.371	111.69
443.592	95.69
443.813	102.69
444.034	87.69
444.255	90.69
444.476	93.69
444.698	86.69
444.919	80.69
445.14	130.69
445.361	122.69
445.582	112.69
445.803	123.69
446.024	128.69
446.245	120.69
446.466	111.69
446.687	89.69
446.908	97.69
447.129	81.69
447.35	93.69
447.571	96.69
447.792	100.69
448.013	105.69
448.234	101.69
448.455	98.69
448.675	105.69
448.896	117.69
449.117	105.69
449.338	105.69
449.559	131.69
449.779	131.69
450	112.69
450.221	92.69
450.442	99.69
450.662	87.69
450.883	104.69
451.104	111.69
451.324	93.69
451.545	94.69
451.766	95.69
451.986	102.69
452.207	99.69
452.428	87.69
452.648	106.69
452.869	94.69
453.089	112.69
453.31	99.69
453.53	89.69
453.751	98.69
453.971	92.69
454.192	97.69
454.412	77.69
454.633	81.69
454.853	68.69
455.073	67.69
455.294	88.69
455.514	101.69
455.734	82.69
455.955	93.69
456.175	81.69
456.395	81.69
456.616	82.69
456.836	74.69
457.056	98.69
457.276	83.69
457.497	92.69
457.717	86.69
457.937	85.69
458.157	78.69
458.377	90.69
458.598	91.69
458.818	130.69
459.038	123.69
459.258	98.69
459.478	81.69
459.698	91.69
459.918	73.69
460.138	77.69
460.358	80.69
460.578	74.69
460.798	76.69
461.018	89.69
461.238	89.69
461.458	86.69
461.678	83.69
461.898	102.69
462.118	96.69
462.338	96.69
462.558	98.69
462.777	92.69
462.997	97.69
463.217	97.69
463.437	87.69
463.657	105.69
463.876	84.69
464.096	90.69
464.316	87.69
464.536	92.69
464.755	89.69
464.975	82.69
465.195	141.69
465.414	131.69
465.634	97.69
465.854	91.69
466.073	98.69
466.293	87.69
466.512	86.69
466.732	95.69
466.951	85.69
467.171	87.69
467.391	103.69
467.61	92.69
467.829	79.69
468.049	93.69
468.268	95.69
468.488	97.69
468.707	91.69
468.927	87.69
469.146	93.69
469.365	87.69
469.585	119.69
469.804	95.69
470.023	96.69
470.243	83.69
470.462	92.69
470.681	105.69
470.901	75.69
471.12	98.69
471.339	87.69
471.558	81.69
471.777	89.69
471.997	86.69
472.216	92.69
472.435	144.69
472.654	87.69
472.873	99.69
473.092	77.69
473.311	94.69
473.53	98.69
473.749	90.69
473.968	97.69
474.187	93.69
474.406	86.69
474.625	84.69
474.844	81.69
475.063	94.69
475.282	84.69
475.501	78.69
475.72	82.69
475.939	100.69
476.158	80.69
476.377	98.69
476.596	94.69
476.814	98.69
477.033	89.69
477.252	91.69
477.471	98.69
477.69	94.69
477.908	84.69
478.127	112.69
478.346	95.69
478.564	91.69
478.783	107.69
479.002	93.69
479.22	94.69
479.439	102.69
479.658	86.69
479.876	94.69
480.095	82.69
480.313	95.69
480.532	91.69
480.751	94.69
480.969	103.69
481.188	146.69
481.406	144.69
481.624	81.69
481.843	90.69
482.061	89.69
482.28	88.69
482.498	88.69
482.717	78.69
482.935	88.69
483.153	81.69
483.372	90.69
483.59	81.69
483.808	96.69
484.027	97.69
484.245	87.69
484.463	77.69
484.681	95.69
484.9	79.69
485.118	95.69
485.336	92.69
485.554	89.69
485.772	95.69
485.99	95.69
486.209	104.69
486.427	99.69
486.645	99.69
486.863	108.69
487.081	92.69
487.299	110.69
487.517	95.69
487.735	85.69
487.953	92.69
488.171	91.69
488.389	90.69
488.607	85.69
488.825	84.69
489.043	86.69
489.261	83.69
489.479	83.69
489.696	96.69
489.914	103.69
490.132	91.69
490.35	90.69
490.568	86.69
490.786	88.69
491.003	80.69
491.221	98.69
491.439	103.69
491.657	102.69
491.874	88.69
492.092	97.69
492.31	109.69
492.527	82.69
492.745	96.69
492.963	99.69
493.18	87.69
493.398	105.69
493.615	93.69
493.833	89.69
494.05	99.69
494.268	97.69
494.485	86.69
494.703	100.69
494.92	98.69
495.138	91.69
495.355	96.69
495.573	87.69
495.79	78.69
496.008	102.69
496.225	91.69
496.442	96.69
496.66	86.69
496.877	95.69
497.094	99.69
497.312	92.69
497.529	105.69
497.746	104.69
497.963	110.69
498.181	94.69
498.398	81.69
498.615	110.69
498.832	104.69
499.049	85.69
499.267	88.69
499.484	87.69
499.701	92.69
499.918	104.69
500.135	96.69
500.352	92.69
500.569	79.69
500.786	90.69
501.003	97.69
501.22	82.69
501.437	104.69
501.654	109.69
501.871	101.69
502.088	102.69
502.305	90.69
502.522	82.69
502.739	85.69
502.956	87.69
503.172	81.69
503.389	103.69
503.606	86.69
503.823	91.69
504.04	93.69
504.256	90.69
504.473	93.69
504.69	86.69
504.907	91.69
505.123	79.69
505.34	112.69
505.557	95.69
505.773	92.69
505.99	96.69
506.207	106.69
506.423	90.69
506.64	103.69
506.856	96.69
507.073	106.69
507.289	110.69
507.506	105.69
507.722	94.69
507.939	114.69
508.155	105.69
508.372	95.69
508.588	88.69
508.805	102.69
509.021	86.69
509.238	101.69
509.454	90.69
509.67	88.69
509.887	108.69
510.103	128.69
510.319	192.69
510.536	601.69
510.752	1835.69
510.968	529.69
511.184	142.69
511.401	99.69
511.617	93.69
511.833	94.69
512.049	82.69
512.265	97.69
512.481	102.69
512.698	94.69
512.914	90.69
513.13	94.69
513.346	98.69
513.562	96.69
513.778	87.69
513.994	96.69
514.21	99.69
514.426	107.69
514.642	115.69
514.858	123.69
515.074	142.69
515.29	346.69
515.506	1066.69
515.721	422.69
