Data from Uncirc_2009_H10_HRD10591_00080.txt Node
Date: Wed Jan 03 10:12:17 EST 2024
User: Yrep
Spectrometer: HR+D1059
Trigger mode: 1
Integration Time (sec): 1.000000E-1
Scans to average: 1
Electric dark correction enabled: true
Nonlinearity correction enabled: false
Boxcar width: 0
XAxis mode: Wavelengths
Number of Pixels in Spectrum: 2048
>>>>>Begin Spectral Data<<<<<
223.165	-22.75
223.4	-22.75
223.635	-22.75
223.869	-16.75
224.104	-16.75
224.338	-19.75
224.573	-21.75
224.808	-7.75
225.042	-10.75
225.277	0.25
225.511	-10.75
225.746	1.25
225.98	15.25
226.215	33.25
226.449	13.25
226.683	18.25
226.918	16.25
227.152	29.25
227.387	41.25
227.621	35.25
227.856	49.25
228.09	40.25
228.324	48.25
228.559	54.25
228.793	55.25
229.027	53.25
229.262	72.25
229.496	72.25
229.73	86.25
229.964	79.25
230.199	73.25
230.433	77.25
230.667	60.25
230.901	82.25
231.136	81.25
231.37	78.25
231.604	83.25
231.838	58.25
232.072	52.25
232.306	88.25
232.541	81.25
232.775	71.25
233.009	72.25
233.243	90.25
233.477	83.25
233.711	75.25
233.945	84.25
234.179	83.25
234.413	74.25
234.647	89.25
234.881	77.25
235.115	77.25
235.349	78.25
235.583	80.25
235.817	65.25
236.051	66.25
236.285	85.25
236.519	73.25
236.753	73.25
236.987	71.25
237.221	79.25
237.455	71.25
237.689	99.25
237.922	91.25
238.156	88.25
238.39	84.25
238.624	84.25
238.858	74.25
239.091	75.25
239.325	81.25
239.559	67.25
239.793	70.25
240.027	89.25
240.26	80.25
240.494	79.25
240.728	74.25
240.961	91.25
241.195	79.25
241.429	86.25
241.662	81.25
241.896	85.25
242.13	83.25
242.363	64.25
242.597	70.25
242.83	82.25
243.064	72.25
243.298	85.25
243.531	85.25
243.765	67.25
243.998	73.25
244.232	74.25
244.465	61.25
244.699	98.25
244.932	74.25
245.166	89.25
245.399	85.25
245.633	86.25
245.866	74.25
246.099	85.25
246.333	82.25
246.566	76.25
246.8	80.25
247.033	72.25
247.266	82.25
247.5	80.25
247.733	81.25
247.966	82.25
248.2	80.25
248.433	71.25
248.666	77.25
248.899	69.25
249.133	87.25
249.366	78.25
249.599	103.25
249.832	94.25
250.066	89.25
250.299	98.25
250.532	71.25
250.765	81.25
250.998	81.25
251.231	80.25
251.465	84.25
251.698	78.25
251.931	73.25
252.164	79.25
252.397	84.25
252.63	77.25
252.863	77.25
253.096	72.25
253.329	85.25
253.562	79.25
253.795	81.25
254.028	92.25
254.261	79.25
254.494	94.25
254.727	86.25
254.96	85.25
255.193	76.25
255.426	85.25
255.659	79.25
255.892	91.25
256.124	81.25
256.357	75.25
256.59	77.25
256.823	63.25
257.056	80.25
257.289	67.25
257.521	76.25
257.754	69.25
257.987	76.25
258.22	79.25
258.452	92.25
258.685	77.25
258.918	81.25
259.151	79.25
259.383	80.25
259.616	80.25
259.849	77.25
260.081	101.25
260.314	76.25
260.547	88.25
260.779	82.25
261.012	86.25
261.244	83.25
261.477	78.25
261.71	88.25
261.942	108.25
262.175	99.25
262.407	80.25
262.64	84.25
262.872	105.25
263.105	87.25
263.337	76.25
263.57	76.25
263.802	84.25
264.035	78.25
264.267	69.25
264.499	77.25
264.732	91.25
264.964	84.25
265.197	90.25
265.429	88.25
265.661	87.25
265.894	88.25
266.126	78.25
266.358	76.25
266.591	94.25
266.823	90.25
267.055	81.25
267.287	83.25
267.52	87.25
267.752	80.25
267.984	73.25
268.216	85.25
268.448	85.25
268.681	66.25
268.913	77.25
269.145	80.25
269.377	75.25
269.609	86.25
269.841	86.25
270.073	74.25
270.306	79.25
270.538	74.25
270.77	71.25
271.002	78.25
271.234	78.25
271.466	85.25
271.698	104.25
271.93	81.25
272.162	96.25
272.394	81.25
272.626	81.25
272.858	75.25
273.09	82.25
273.322	78.25
273.553	81.25
273.785	86.25
274.017	93.25
274.249	82.25
274.481	85.25
274.713	98.25
274.945	83.25
275.176	86.25
275.408	73.25
275.64	74.25
275.872	84.25
276.104	104.25
276.335	96.25
276.567	71.25
276.799	102.25
277.031	87.25
277.262	90.25
277.494	79.25
277.726	68.25
277.957	79.25
278.189	87.25
278.421	75.25
278.652	79.25
278.884	89.25
279.115	69.25
279.347	87.25
279.579	84.25
279.81	85.25
280.042	90.25
280.273	91.25
280.505	78.25
280.736	83.25
280.968	85.25
281.199	91.25
281.431	86.25
281.662	81.25
281.894	72.25
282.125	84.25
282.356	97.25
282.588	108.25
282.819	100.25
283.051	87.25
283.282	76.25
283.513	94.25
283.745	103.25
283.976	109.25
284.207	104.25
284.439	79.25
284.67	101.25
284.901	81.25
285.132	91.25
285.364	73.25
285.595	96.25
285.826	90.25
286.057	88.25
286.288	88.25
286.52	84.25
286.751	88.25
286.982	76.25
287.213	91.25
287.444	98.25
287.675	89.25
287.906	80.25
288.138	92.25
288.369	88.25
288.6	81.25
288.831	82.25
289.062	89.25
289.293	78.25
289.524	95.25
289.755	92.25
289.986	76.25
290.217	80.25
290.448	86.25
290.679	87.25
290.91	81.25
291.141	68.25
291.371	79.25
291.602	80.25
291.833	72.25
292.064	75.25
292.295	78.25
292.526	93.25
292.757	78.25
292.987	89.25
293.218	85.25
293.449	84.25
293.68	87.25
293.91	78.25
294.141	71.25
294.372	85.25
294.603	92.25
294.833	97.25
295.064	79.25
295.295	93.25
295.525	79.25
295.756	89.25
295.987	93.25
296.217	109.25
296.448	93.25
296.679	97.25
296.909	82.25
297.14	89.25
297.37	78.25
297.601	90.25
297.831	78.25
298.062	87.25
298.292	80.25
298.523	85.25
298.753	85.25
298.984	87.25
299.214	80.25
299.445	98.25
299.675	80.25
299.905	91.25
300.136	89.25
300.366	90.25
300.597	85.25
300.827	86.25
301.057	104.25
301.288	88.25
301.518	102.25
301.748	94.25
301.979	83.25
302.209	92.25
302.439	82.25
302.669	93.25
302.9	92.25
303.13	100.25
303.36	110.25
303.59	120.25
303.82	115.25
304.051	92.25
304.281	86.25
304.511	92.25
304.741	86.25
304.971	79.25
305.201	93.25
305.431	75.25
305.661	73.25
305.891	82.25
306.121	81.25
306.352	85.25
306.582	79.25
306.812	81.25
307.042	87.25
307.272	94.25
307.502	79.25
307.731	92.25
307.961	93.25
308.191	105.25
308.421	86.25
308.651	80.25
308.881	89.25
309.111	95.25
309.341	85.25
309.571	96.25
309.8	102.25
310.03	86.25
310.26	93.25
310.49	72.25
310.72	83.25
310.949	95.25
311.179	106.25
311.409	94.25
311.639	81.25
311.868	89.25
312.098	92.25
312.328	90.25
312.557	90.25
312.787	111.25
313.017	109.25
313.246	96.25
313.476	99.25
313.706	92.25
313.935	96.25
314.165	96.25
314.394	109.25
314.624	97.25
314.853	96.25
315.083	87.25
315.312	96.25
315.542	91.25
315.771	95.25
316.001	89.25
316.23	75.25
316.46	88.25
316.689	95.25
316.919	94.25
317.148	110.25
317.377	106.25
317.607	120.25
317.836	100.25
318.065	91.25
318.295	85.25
318.524	75.25
318.753	98.25
318.983	87.25
319.212	95.25
319.441	104.25
319.67	92.25
319.9	86.25
320.129	92.25
320.358	91.25
320.587	83.25
320.816	105.25
321.046	102.25
321.275	84.25
321.504	87.25
321.733	86.25
321.962	78.25
322.191	85.25
322.42	106.25
322.649	98.25
322.878	113.25
323.108	120.25
323.337	125.25
323.566	120.25
323.795	156.25
324.024	183.25
324.253	335.25
324.482	715.25
324.71	1412.25
324.939	1845.25
325.168	679.25
325.397	213.25
325.626	147.25
325.855	112.25
326.084	131.25
326.313	148.25
326.542	149.25
326.77	226.25
326.999	406.25
327.228	829.25
327.457	1468.25
327.686	1160.25
327.914	303.25
328.143	168.25
328.372	133.25
328.6	121.25
328.829	102.25
329.058	113.25
329.287	116.25
329.515	104.25
329.744	96.25
329.972	108.25
330.201	113.25
330.43	107.25
330.658	115.25
330.887	110.25
331.115	99.25
331.344	96.25
331.572	107.25
331.801	96.25
332.03	92.25
332.258	104.25
332.486	96.25
332.715	92.25
332.943	97.25
333.172	76.25
333.4	88.25
333.629	92.25
333.857	105.25
334.085	109.25
334.314	107.25
334.542	107.25
334.771	112.25
334.999	87.25
335.227	102.25
335.455	92.25
335.684	87.25
335.912	95.25
336.14	94.25
336.369	96.25
336.597	93.25
336.825	88.25
337.053	92.25
337.281	92.25
337.51	83.25
337.738	95.25
337.966	80.25
338.194	109.25
338.422	92.25
338.65	95.25
338.878	88.25
339.106	81.25
339.334	87.25
339.562	82.25
339.79	99.25
340.018	91.25
340.246	107.25
340.474	89.25
340.702	93.25
340.93	88.25
341.158	89.25
341.386	94.25
341.614	78.25
341.842	96.25
342.07	96.25
342.298	89.25
342.526	86.25
342.754	89.25
342.981	93.25
343.209	90.25
343.437	100.25
343.665	80.25
343.893	103.25
344.12	95.25
344.348	94.25
344.576	81.25
344.804	83.25
345.031	99.25
345.259	109.25
345.487	86.25
345.714	86.25
345.942	92.25
346.17	91.25
346.397	84.25
346.625	92.25
346.853	95.25
347.08	85.25
347.308	96.25
347.535	91.25
347.763	112.25
347.99	90.25
348.218	80.25
348.445	87.25
348.673	87.25
348.9	87.25
349.128	91.25
349.355	101.25
349.583	96.25
349.81	76.25
350.037	85.25
350.265	84.25
350.492	79.25
350.72	94.25
350.947	85.25
351.174	111.25
351.402	101.25
351.629	99.25
351.856	90.25
352.083	92.25
352.311	103.25
352.538	94.25
352.765	102.25
352.992	109.25
353.22	106.25
353.447	104.25
353.674	99.25
353.901	95.25
354.128	93.25
354.355	93.25
354.583	94.25
354.81	92.25
355.037	100.25
355.264	82.25
355.491	82.25
355.718	105.25
355.945	89.25
356.172	90.25
356.399	94.25
356.626	98.25
356.853	94.25
357.08	89.25
357.307	86.25
357.534	85.25
357.761	101.25
357.988	101.25
358.215	86.25
358.441	85.25
358.668	94.25
358.895	94.25
359.122	83.25
359.349	82.25
359.576	76.25
359.802	100.25
360.029	99.25
360.256	93.25
360.483	97.25
360.709	77.25
360.936	92.25
361.163	87.25
361.39	95.25
361.616	91.25
361.843	86.25
362.07	95.25
362.296	88.25
362.523	81.25
362.749	83.25
362.976	95.25
363.203	90.25
363.429	94.25
363.656	84.25
363.882	84.25
364.109	90.25
364.335	79.25
364.562	100.25
364.788	96.25
365.015	81.25
365.241	100.25
365.468	106.25
365.694	93.25
365.92	90.25
366.147	96.25
366.373	100.25
366.599	99.25
366.826	86.25
367.052	81.25
367.278	86.25
367.505	81.25
367.731	82.25
367.957	94.25
368.184	87.25
368.41	107.25
368.636	106.25
368.862	101.25
369.089	86.25
369.315	67.25
369.541	84.25
369.767	96.25
369.993	85.25
370.219	85.25
370.445	103.25
370.672	86.25
370.898	96.25
371.124	96.25
371.35	91.25
371.576	93.25
371.802	81.25
372.028	79.25
372.254	96.25
372.48	75.25
372.706	85.25
372.932	77.25
373.158	100.25
373.384	90.25
373.61	83.25
373.835	92.25
374.061	87.25
374.287	78.25
374.513	82.25
374.739	94.25
374.965	69.25
375.191	89.25
375.416	86.25
375.642	104.25
375.868	97.25
376.094	78.25
376.319	86.25
376.545	95.25
376.771	77.25
376.997	97.25
377.222	76.25
377.448	86.25
377.674	90.25
377.899	86.25
378.125	78.25
378.35	91.25
378.576	80.25
378.802	85.25
379.027	88.25
379.253	81.25
379.478	95.25
379.704	94.25
379.929	104.25
380.155	89.25
380.38	103.25
380.606	95.25
380.831	103.25
381.057	88.25
381.282	90.25
381.507	99.25
381.733	106.25
381.958	88.25
382.184	85.25
382.409	107.25
382.634	92.25
382.86	104.25
383.085	96.25
383.31	101.25
383.535	93.25
383.761	88.25
383.986	83.25
384.211	95.25
384.436	87.25
384.662	105.25
384.887	97.25
385.112	91.25
385.337	98.25
385.562	103.25
385.787	115.25
386.013	96.25
386.238	104.25
386.463	106.25
386.688	103.25
386.913	96.25
387.138	104.25
387.363	84.25
387.588	93.25
387.813	96.25
388.038	111.25
388.263	115.25
388.488	97.25
388.713	91.25
388.938	87.25
389.163	85.25
389.387	88.25
389.612	75.25
389.837	91.25
390.062	94.25
390.287	79.25
390.512	102.25
390.736	94.25
390.961	96.25
391.186	104.25
391.411	90.25
391.636	86.25
391.86	97.25
392.085	91.25
392.31	78.25
392.534	91.25
392.759	80.25
392.984	76.25
393.208	96.25
393.433	102.25
393.658	84.25
393.882	93.25
394.107	80.25
394.331	79.25
394.556	81.25
394.78	63.25
395.005	87.25
395.229	73.25
395.454	86.25
395.678	79.25
395.903	97.25
396.127	80.25
396.352	73.25
396.576	81.25
396.801	93.25
397.025	75.25
397.249	87.25
397.474	84.25
397.698	88.25
397.922	82.25
398.147	85.25
398.371	70.25
398.595	92.25
398.82	94.25
399.044	90.25
399.268	94.25
399.492	82.25
399.717	78.25
399.941	76.25
400.165	98.25
400.389	76.25
400.613	77.25
400.837	79.25
401.062	83.25
401.286	86.25
401.51	85.25
401.734	102.25
401.958	93.25
402.182	111.25
402.406	144.25
402.63	118.25
402.854	84.25
403.078	86.25
403.302	84.25
403.526	89.25
403.75	76.25
403.974	85.25
404.198	98.25
404.422	91.25
404.645	99.25
404.869	87.25
405.093	101.25
405.317	92.25
405.541	98.25
405.765	84.25
405.988	101.25
406.212	133.25
406.436	173.25
406.66	107.25
406.883	88.25
407.107	81.25
407.331	99.25
407.555	112.25
407.778	97.25
408.002	87.25
408.226	86.25
408.449	93.25
408.673	91.25
408.896	88.25
409.12	88.25
409.344	95.25
409.567	92.25
409.791	80.25
410.014	94.25
410.238	77.25
410.461	90.25
410.685	102.25
410.908	99.25
411.132	113.25
411.355	91.25
411.578	92.25
411.802	81.25
412.025	94.25
412.249	99.25
412.472	92.25
412.695	85.25
412.919	77.25
413.142	75.25
413.365	87.25
413.589	93.25
413.812	83.25
414.035	103.25
414.258	79.25
414.482	77.25
414.705	92.25
414.928	74.25
415.151	83.25
415.374	98.25
415.597	87.25
415.821	93.25
416.044	68.25
416.267	87.25
416.49	79.25
416.713	91.25
416.936	86.25
417.159	91.25
417.382	75.25
417.605	81.25
417.828	98.25
418.051	91.25
418.274	86.25
418.497	89.25
418.72	83.25
418.943	68.25
419.166	96.25
419.389	76.25
419.611	81.25
419.834	75.25
420.057	89.25
420.28	70.25
420.503	83.25
420.726	92.25
420.948	91.25
421.171	89.25
421.394	84.25
421.617	77.25
421.839	76.25
422.062	102.25
422.285	100.25
422.507	105.25
422.73	87.25
422.953	87.25
423.175	81.25
423.398	80.25
423.621	83.25
423.843	84.25
424.066	80.25
424.288	83.25
424.511	92.25
424.733	93.25
424.956	116.25
425.178	90.25
425.401	100.25
425.623	100.25
425.846	89.25
426.068	94.25
426.291	95.25
426.513	101.25
426.735	95.25
426.958	93.25
427.18	85.25
427.402	119.25
427.625	130.25
427.847	107.25
428.069	87.25
428.292	96.25
428.514	83.25
428.736	87.25
428.958	84.25
429.181	78.25
429.403	89.25
429.625	87.25
429.847	81.25
430.069	88.25
430.292	80.25
430.514	73.25
430.736	80.25
430.958	93.25
431.18	86.25
431.402	85.25
431.624	81.25
431.846	88.25
432.068	99.25
432.29	59.25
432.512	81.25
432.734	76.25
432.956	92.25
433.178	98.25
433.4	81.25
433.622	101.25
433.844	95.25
434.066	85.25
434.287	89.25
434.509	87.25
434.731	94.25
434.953	81.25
435.175	94.25
435.397	87.25
435.618	98.25
435.84	91.25
436.062	121.25
436.284	95.25
436.505	105.25
436.727	94.25
436.949	78.25
437.17	91.25
437.392	78.25
437.614	93.25
437.835	88.25
438.057	99.25
438.278	92.25
438.5	87.25
438.721	113.25
438.943	105.25
439.165	81.25
439.386	92.25
439.608	88.25
439.829	103.25
440.05	101.25
440.272	108.25
440.493	100.25
440.715	85.25
440.936	84.25
441.158	88.25
441.379	95.25
441.6	100.25
441.822	96.25
442.043	99.25
442.264	78.25
442.486	95.25
442.707	87.25
442.928	85.25
443.149	108.25
443.371	111.25
443.592	100.25
443.813	108.25
444.034	105.25
444.255	92.25
444.476	78.25
444.698	68.25
444.919	87.25
445.14	135.25
445.361	133.25
445.582	101.25
445.803	120.25
446.024	108.25
446.245	113.25
446.466	91.25
446.687	80.25
446.908	77.25
447.129	89.25
447.35	78.25
447.571	91.25
447.792	85.25
448.013	69.25
448.234	83.25
448.455	105.25
448.675	104.25
448.896	107.25
449.117	83.25
449.338	104.25
449.559	117.25
449.779	112.25
450	99.25
450.221	81.25
450.442	86.25
450.662	97.25
450.883	100.25
451.104	99.25
451.324	77.25
451.545	87.25
451.766	86.25
451.986	69.25
452.207	85.25
452.428	92.25
452.648	94.25
452.869	91.25
453.089	88.25
453.31	112.25
453.53	84.25
453.751	99.25
453.971	99.25
454.192	97.25
454.412	84.25
454.633	90.25
454.853	83.25
455.073	74.25
455.294	82.25
455.514	80.25
455.734	74.25
455.955	80.25
456.175	67.25
456.395	88.25
456.616	78.25
456.836	72.25
457.056	87.25
457.276	87.25
457.497	92.25
457.717	71.25
457.937	76.25
458.157	83.25
458.377	91.25
458.598	95.25
458.818	118.25
459.038	110.25
459.258	93.25
459.478	91.25
459.698	80.25
459.918	93.25
460.138	90.25
460.358	92.25
460.578	88.25
460.798	87.25
461.018	85.25
461.238	84.25
461.458	85.25
461.678	84.25
461.898	77.25
462.118	91.25
462.338	91.25
462.558	91.25
462.777	77.25
462.997	79.25
463.217	89.25
463.437	96.25
463.657	96.25
463.876	96.25
464.096	80.25
464.316	88.25
464.536	95.25
464.755	91.25
464.975	91.25
465.195	128.25
465.414	128.25
465.634	88.25
465.854	76.25
466.073	83.25
466.293	91.25
466.512	93.25
466.732	84.25
466.951	85.25
467.171	100.25
467.391	86.25
467.61	92.25
467.829	90.25
468.049	95.25
468.268	101.25
468.488	84.25
468.707	78.25
468.927	76.25
469.146	97.25
469.365	85.25
469.585	89.25
469.804	96.25
470.023	101.25
470.243	89.25
470.462	82.25
470.681	85.25
470.901	86.25
471.12	88.25
471.339	86.25
471.558	82.25
471.777	75.25
471.997	88.25
472.216	105.25
472.435	132.25
472.654	97.25
472.873	85.25
473.092	71.25
473.311	91.25
473.53	89.25
473.749	79.25
473.968	82.25
474.187	96.25
474.406	107.25
474.625	81.25
474.844	82.25
475.063	85.25
475.282	84.25
475.501	85.25
475.72	105.25
475.939	83.25
476.158	86.25
476.377	89.25
476.596	90.25
476.814	80.25
477.033	93.25
477.252	83.25
477.471	74.25
477.69	85.25
477.908	99.25
478.127	99.25
478.346	93.25
478.564	77.25
478.783	89.25
479.002	81.25
479.22	100.25
479.439	96.25
479.658	89.25
479.876	77.25
480.095	86.25
480.313	89.25
480.532	88.25
480.751	90.25
480.969	95.25
481.188	152.25
481.406	123.25
481.624	80.25
481.843	80.25
482.061	91.25
482.28	83.25
482.498	88.25
482.717	76.25
482.935	88.25
483.153	83.25
483.372	86.25
483.59	83.25
483.808	86.25
484.027	72.25
484.245	90.25
484.463	81.25
484.681	97.25
484.9	107.25
485.118	98.25
485.336	71.25
485.554	94.25
485.772	90.25
485.99	94.25
486.209	104.25
486.427	89.25
486.645	100.25
486.863	102.25
487.081	102.25
487.299	91.25
487.517	86.25
487.735	84.25
487.953	77.25
488.171	93.25
488.389	96.25
488.607	98.25
488.825	94.25
489.043	98.25
489.261	84.25
489.479	90.25
489.696	91.25
489.914	94.25
490.132	95.25
490.35	96.25
490.568	89.25
490.786	69.25
491.003	96.25
491.221	104.25
491.439	84.25
491.657	86.25
491.874	100.25
492.092	97.25
492.31	102.25
492.527	81.25
492.745	81.25
492.963	83.25
493.18	87.25
493.398	75.25
493.615	96.25
493.833	91.25
494.05	97.25
494.268	100.25
494.485	93.25
494.703	81.25
494.92	91.25
495.138	90.25
495.355	75.25
495.573	104.25
495.79	92.25
496.008	86.25
496.225	72.25
496.442	90.25
496.66	99.25
496.877	84.25
497.094	94.25
497.312	96.25
497.529	85.25
497.746	81.25
497.963	99.25
498.181	78.25
498.398	89.25
498.615	97.25
498.832	93.25
499.049	70.25
499.267	77.25
499.484	84.25
499.701	83.25
499.918	82.25
500.135	90.25
500.352	96.25
500.569	88.25
500.786	83.25
501.003	83.25
501.22	106.25
501.437	93.25
501.654	99.25
501.871	94.25
502.088	86.25
502.305	92.25
502.522	85.25
502.739	85.25
502.956	83.25
503.172	93.25
503.389	85.25
503.606	90.25
503.823	95.25
504.04	81.25
504.256	94.25
504.473	86.25
504.69	76.25
504.907	92.25
505.123	101.25
505.34	91.25
505.557	91.25
505.773	87.25
505.99	72.25
506.207	78.25
506.423	82.25
506.64	89.25
506.856	83.25
507.073	86.25
507.289	100.25
507.506	76.25
507.722	99.25
507.939	97.25
508.155	91.25
508.372	98.25
508.588	82.25
508.805	64.25
509.021	92.25
509.238	96.25
509.454	92.25
509.67	92.25
509.887	99.25
510.103	115.25
510.319	163.25
510.536	507.25
510.752	1547.25
510.968	474.25
511.184	122.25
511.401	105.25
511.617	88.25
511.833	103.25
512.049	92.25
512.265	89.25
512.481	97.25
512.698	92.25
512.914	97.25
513.13	87.25
513.346	89.25
513.562	83.25
513.778	96.25
513.994	87.25
514.21	92.25
514.426	97.25
514.642	108.25
514.858	108.25
515.074	123.25
515.29	299.25
515.506	894.25
515.721	367.25
515.937	114.25
516.153	113.25
516.369	102.25
516.585	97.25
516.801	97.25
517.016	99.25
