Data from Uncirc_2009_H10_HRD10591_00081.txt Node
Date: Wed Jan 03 10:12:18 EST 2024
User: Yrep
Spectrometer: HR+D1059
Trigger mode: 1
Integration Time (sec): 1.000000E-1
Scans to average: 1
Electric dark correction enabled: true
Nonlinearity correction enabled: false
Boxcar width: 0
XAxis mode: Wavelengths
Number of Pixels in Spectrum: 2048
>>>>>Begin Spectral Data<<<<<
223.165	-21.25
223.4	-21.25
223.635	-21.25
223.869	-32.25
224.104	-31.25
224.338	-19.25
224.573	-30.25
224.808	-17.25
225.042	-3.25
225.277	1.75
225.511	8.75
225.746	0.75
225.98	14.75
226.215	25.75
226.449	24.75
226.683	17.75
226.918	27.75
227.152	32.75
227.387	39.75
227.621	47.75
227.856	45.75
228.09	34.75
228.324	53.75
228.559	51.75
228.793	55.75
229.027	56.75
229.262	61.75
229.496	54.75
229.73	70.75
229.964	65.75
230.199	72.75
230.433	78.75
230.667	74.75
230.901	71.75
231.136	83.75
231.37	83.75
231.604	72.75
231.838	74.75
232.072	82.75
232.306	81.75
232.541	76.75
232.775	79.75
233.009	66.75
233.243	79.75
233.477	90.75
233.711	66.75
233.945	69.75
234.179	76.75
234.413	91.75
234.647	81.75
234.881	67.75
235.115	80.75
235.349	75.75
235.583	91.75
235.817	84.75
236.051	98.75
236.285	83.75
236.519	73.75
236.753	74.75
236.987	75.75
237.221	84.75
237.455	86.75
237.689	90.75
237.922	81.75
238.156	73.75
238.39	72.75
238.624	63.75
238.858	83.75
239.091	69.75
239.325	75.75
239.559	76.75
239.793	65.75
240.027	71.75
240.26	77.75
240.494	61.75
240.728	55.75
240.961	76.75
241.195	88.75
241.429	80.75
241.662	66.75
241.896	70.75
242.13	75.75
242.363	85.75
242.597	75.75
242.83	77.75
243.064	59.75
243.298	77.75
243.531	76.75
243.765	59.75
243.998	74.75
244.232	70.75
244.465	88.75
244.699	83.75
244.932	81.75
245.166	70.75
245.399	75.75
245.633	81.75
245.866	75.75
246.099	73.75
246.333	75.75
246.566	78.75
246.8	64.75
247.033	74.75
247.266	60.75
247.5	71.75
247.733	70.75
247.966	81.75
248.2	87.75
248.433	82.75
248.666	90.75
248.899	80.75
249.133	94.75
249.366	87.75
249.599	76.75
249.832	81.75
250.066	74.75
250.299	78.75
250.532	76.75
250.765	78.75
250.998	74.75
251.231	79.75
251.465	67.75
251.698	82.75
251.931	81.75
252.164	75.75
252.397	76.75
252.63	58.75
252.863	81.75
253.096	77.75
253.329	85.75
253.562	68.75
253.795	71.75
254.028	78.75
254.261	69.75
254.494	84.75
254.727	91.75
254.96	81.75
255.193	84.75
255.426	71.75
255.659	81.75
255.892	81.75
256.124	76.75
256.357	88.75
256.59	95.75
256.823	87.75
257.056	77.75
257.289	67.75
257.521	78.75
257.754	73.75
257.987	86.75
258.22	71.75
258.452	77.75
258.685	91.75
258.918	77.75
259.151	79.75
259.383	78.75
259.616	80.75
259.849	91.75
260.081	79.75
260.314	86.75
260.547	66.75
260.779	82.75
261.012	85.75
261.244	87.75
261.477	81.75
261.71	84.75
261.942	91.75
262.175	109.75
262.407	86.75
262.64	75.75
262.872	79.75
263.105	72.75
263.337	74.75
263.57	68.75
263.802	70.75
264.035	93.75
264.267	85.75
264.499	74.75
264.732	81.75
264.964	79.75
265.197	83.75
265.429	87.75
265.661	92.75
265.894	75.75
266.126	85.75
266.358	92.75
266.591	77.75
266.823	69.75
267.055	80.75
267.287	85.75
267.52	81.75
267.752	73.75
267.984	84.75
268.216	80.75
268.448	83.75
268.681	91.75
268.913	96.75
269.145	74.75
269.377	78.75
269.609	84.75
269.841	80.75
270.073	94.75
270.306	87.75
270.538	74.75
270.77	93.75
271.002	87.75
271.234	93.75
271.466	88.75
271.698	95.75
271.93	88.75
272.162	89.75
272.394	83.75
272.626	75.75
272.858	83.75
273.09	93.75
273.322	87.75
273.553	72.75
273.785	78.75
274.017	83.75
274.249	78.75
274.481	89.75
274.713	82.75
274.945	87.75
275.176	80.75
275.408	89.75
275.64	95.75
275.872	86.75
276.104	75.75
276.335	87.75
276.567	99.75
276.799	101.75
277.031	95.75
277.262	80.75
277.494	68.75
277.726	77.75
277.957	84.75
278.189	85.75
278.421	90.75
278.652	73.75
278.884	79.75
279.115	71.75
279.347	72.75
279.579	87.75
279.81	88.75
280.042	88.75
280.273	97.75
280.505	88.75
280.736	88.75
280.968	85.75
281.199	99.75
281.431	77.75
281.662	96.75
281.894	95.75
282.125	100.75
282.356	102.75
282.588	109.75
282.819	116.75
283.051	83.75
283.282	89.75
283.513	91.75
283.745	80.75
283.976	113.75
284.207	94.75
284.439	91.75
284.67	98.75
284.901	93.75
285.132	93.75
285.364	84.75
285.595	79.75
285.826	84.75
286.057	102.75
286.288	97.75
286.52	97.75
286.751	87.75
286.982	75.75
287.213	78.75
287.444	86.75
287.675	91.75
287.906	97.75
288.138	80.75
288.369	87.75
288.6	102.75
288.831	77.75
289.062	71.75
289.293	76.75
289.524	82.75
289.755	85.75
289.986	81.75
290.217	85.75
290.448	82.75
290.679	78.75
290.91	87.75
291.141	90.75
291.371	91.75
291.602	92.75
291.833	92.75
292.064	93.75
292.295	87.75
292.526	80.75
292.757	81.75
292.987	74.75
293.218	88.75
293.449	88.75
293.68	86.75
293.91	82.75
294.141	97.75
294.372	89.75
294.603	90.75
294.833	96.75
295.064	93.75
295.295	88.75
295.525	94.75
295.756	107.75
295.987	107.75
296.217	124.75
296.448	111.75
296.679	92.75
296.909	76.75
297.14	83.75
297.37	101.75
297.601	96.75
297.831	91.75
298.062	86.75
298.292	80.75
298.523	96.75
298.753	82.75
298.984	84.75
299.214	92.75
299.445	71.75
299.675	84.75
299.905	79.75
300.136	102.75
300.366	92.75
300.597	82.75
300.827	100.75
301.057	94.75
301.288	117.75
301.518	93.75
301.748	89.75
301.979	97.75
302.209	91.75
302.439	88.75
302.669	78.75
302.9	80.75
303.13	88.75
303.36	99.75
303.59	124.75
303.82	104.75
304.051	92.75
304.281	96.75
304.511	92.75
304.741	87.75
304.971	79.75
305.201	92.75
305.431	82.75
305.661	91.75
305.891	101.75
306.121	103.75
306.352	92.75
306.582	83.75
306.812	89.75
307.042	90.75
307.272	96.75
307.502	99.75
307.731	97.75
307.961	95.75
308.191	80.75
308.421	94.75
308.651	98.75
308.881	99.75
309.111	84.75
309.341	85.75
309.571	89.75
309.8	88.75
310.03	102.75
310.26	84.75
310.49	82.75
310.72	78.75
310.949	90.75
311.179	97.75
311.409	81.75
311.639	88.75
311.868	89.75
312.098	92.75
312.328	89.75
312.557	80.75
312.787	94.75
313.017	94.75
313.246	111.75
313.476	81.75
313.706	81.75
313.935	92.75
314.165	85.75
314.394	94.75
314.624	101.75
314.853	102.75
315.083	85.75
315.312	88.75
315.542	87.75
315.771	89.75
316.001	92.75
316.23	80.75
316.46	78.75
316.689	94.75
316.919	84.75
317.148	112.75
317.377	107.75
317.607	117.75
317.836	117.75
318.065	90.75
318.295	97.75
318.524	97.75
318.753	77.75
318.983	93.75
319.212	87.75
319.441	107.75
319.67	109.75
319.9	93.75
320.129	88.75
320.358	84.75
320.587	88.75
320.816	105.75
321.046	105.75
321.275	78.75
321.504	91.75
321.733	93.75
321.962	93.75
322.191	103.75
322.42	93.75
322.649	118.75
322.878	99.75
323.108	103.75
323.337	110.75
323.566	111.75
323.795	156.75
324.024	170.75
324.253	331.75
324.482	710.75
324.71	1442.75
324.939	1888.75
325.168	704.75
325.397	233.75
325.626	133.75
325.855	133.75
326.084	109.75
326.313	142.75
326.542	177.75
326.77	209.75
326.999	426.75
327.228	855.75
327.457	1500.75
327.686	1203.75
327.914	324.75
328.143	168.75
328.372	135.75
328.6	116.75
328.829	102.75
329.058	107.75
329.287	116.75
329.515	107.75
329.744	115.75
329.972	98.75
330.201	111.75
330.43	114.75
330.658	107.75
330.887	119.75
331.115	121.75
331.344	97.75
331.572	104.75
331.801	91.75
332.03	99.75
332.258	89.75
332.486	94.75
332.715	98.75
332.943	93.75
333.172	102.75
333.4	99.75
333.629	100.75
333.857	94.75
334.085	88.75
334.314	103.75
334.542	103.75
334.771	117.75
334.999	89.75
335.227	93.75
335.455	99.75
335.684	89.75
335.912	86.75
336.14	92.75
336.369	87.75
336.597	103.75
336.825	92.75
337.053	89.75
337.281	79.75
337.51	80.75
337.738	92.75
337.966	96.75
338.194	85.75
338.422	93.75
338.65	78.75
338.878	91.75
339.106	88.75
339.334	90.75
339.562	90.75
339.79	92.75
340.018	91.75
340.246	102.75
340.474	84.75
340.702	86.75
340.93	93.75
341.158	86.75
341.386	83.75
341.614	99.75
341.842	85.75
342.07	93.75
342.298	97.75
342.526	84.75
342.754	84.75
342.981	90.75
343.209	95.75
343.437	102.75
343.665	95.75
343.893	95.75
344.12	92.75
344.348	80.75
344.576	84.75
344.804	108.75
345.031	85.75
345.259	100.75
345.487	103.75
345.714	87.75
345.942	86.75
346.17	100.75
346.397	85.75
346.625	103.75
346.853	95.75
347.08	84.75
347.308	91.75
347.535	100.75
347.763	94.75
347.99	95.75
348.218	119.75
348.445	112.75
348.673	89.75
348.9	98.75
349.128	89.75
349.355	93.75
349.583	91.75
349.81	96.75
350.037	81.75
350.265	82.75
350.492	91.75
350.72	89.75
350.947	101.75
351.174	95.75
351.402	93.75
351.629	95.75
351.856	103.75
352.083	96.75
352.311	85.75
352.538	92.75
352.765	111.75
352.992	120.75
353.22	103.75
353.447	110.75
353.674	103.75
353.901	109.75
354.128	102.75
354.355	88.75
354.583	98.75
354.81	81.75
355.037	105.75
355.264	101.75
355.491	110.75
355.718	84.75
355.945	106.75
356.172	90.75
356.399	87.75
356.626	93.75
356.853	93.75
357.08	92.75
357.307	94.75
357.534	80.75
357.761	91.75
357.988	98.75
358.215	88.75
358.441	78.75
358.668	92.75
358.895	102.75
359.122	76.75
359.349	87.75
359.576	79.75
359.802	86.75
360.029	103.75
360.256	95.75
360.483	95.75
360.709	96.75
360.936	105.75
361.163	96.75
361.39	97.75
361.616	88.75
361.843	88.75
362.07	72.75
362.296	79.75
362.523	85.75
362.749	80.75
362.976	91.75
363.203	103.75
363.429	94.75
363.656	83.75
363.882	84.75
364.109	92.75
364.335	97.75
364.562	91.75
364.788	95.75
365.015	96.75
365.241	74.75
365.468	94.75
365.694	90.75
365.92	97.75
366.147	91.75
366.373	90.75
366.599	83.75
366.826	79.75
367.052	67.75
367.278	83.75
367.505	95.75
367.731	89.75
367.957	77.75
368.184	85.75
368.41	99.75
368.636	94.75
368.862	117.75
369.089	107.75
369.315	83.75
369.541	72.75
369.767	80.75
369.993	83.75
370.219	80.75
370.445	76.75
370.672	94.75
370.898	88.75
371.124	100.75
371.35	89.75
371.576	82.75
371.802	71.75
372.028	95.75
372.254	68.75
372.48	78.75
372.706	92.75
372.932	91.75
373.158	73.75
373.384	78.75
373.61	84.75
373.835	80.75
374.061	89.75
374.287	100.75
374.513	89.75
374.739	94.75
374.965	79.75
375.191	95.75
375.416	86.75
375.642	85.75
375.868	79.75
376.094	93.75
376.319	95.75
376.545	88.75
376.771	78.75
376.997	88.75
377.222	78.75
377.448	97.75
377.674	83.75
377.899	83.75
378.125	90.75
378.35	96.75
378.576	96.75
378.802	93.75
379.027	101.75
379.253	73.75
379.478	86.75
379.704	85.75
379.929	87.75
380.155	95.75
380.38	100.75
380.606	90.75
380.831	86.75
381.057	95.75
381.282	95.75
381.507	95.75
381.733	90.75
381.958	100.75
382.184	92.75
382.409	102.75
382.634	107.75
382.86	110.75
383.085	96.75
383.31	101.75
383.535	86.75
383.761	95.75
383.986	97.75
384.211	96.75
384.436	105.75
384.662	98.75
384.887	82.75
385.112	86.75
385.337	86.75
385.562	110.75
385.787	102.75
386.013	105.75
386.238	106.75
386.463	103.75
386.688	110.75
386.913	104.75
387.138	99.75
387.363	110.75
387.588	101.75
387.813	94.75
388.038	103.75
388.263	98.75
388.488	102.75
388.713	87.75
388.938	69.75
389.163	89.75
389.387	92.75
389.612	118.75
389.837	99.75
390.062	103.75
390.287	83.75
390.512	76.75
390.736	101.75
390.961	95.75
391.186	77.75
391.411	116.75
391.636	64.75
391.86	87.75
392.085	104.75
392.31	88.75
392.534	97.75
392.759	104.75
392.984	78.75
393.208	84.75
393.433	81.75
393.658	89.75
393.882	90.75
394.107	98.75
394.331	75.75
394.556	79.75
394.78	89.75
395.005	89.75
395.229	97.75
395.454	86.75
395.678	75.75
395.903	90.75
396.127	91.75
396.352	96.75
396.576	79.75
396.801	89.75
397.025	79.75
397.249	89.75
397.474	90.75
397.698	100.75
397.922	85.75
398.147	89.75
398.371	86.75
398.595	54.75
398.82	80.75
399.044	89.75
399.268	87.75
399.492	95.75
399.717	82.75
399.941	95.75
400.165	93.75
400.389	85.75
400.613	94.75
400.837	80.75
401.062	98.75
401.286	89.75
401.51	96.75
401.734	80.75
401.958	83.75
402.182	115.75
402.406	137.75
402.63	112.75
402.854	92.75
403.078	94.75
403.302	85.75
403.526	80.75
403.75	79.75
403.974	80.75
404.198	83.75
404.422	95.75
404.645	81.75
404.869	87.75
405.093	97.75
405.317	98.75
405.541	91.75
405.765	96.75
405.988	103.75
406.212	140.75
406.436	186.75
406.66	119.75
406.883	89.75
407.107	92.75
407.331	110.75
407.555	86.75
407.778	103.75
408.002	88.75
408.226	82.75
408.449	78.75
408.673	79.75
408.896	72.75
409.12	80.75
409.344	75.75
409.567	83.75
409.791	91.75
410.014	107.75
410.238	102.75
410.461	86.75
410.685	91.75
410.908	86.75
411.132	93.75
411.355	98.75
411.578	86.75
411.802	86.75
412.025	84.75
412.249	94.75
412.472	90.75
412.695	75.75
412.919	76.75
413.142	100.75
413.365	89.75
413.589	74.75
413.812	85.75
414.035	91.75
414.258	90.75
414.482	92.75
414.705	93.75
414.928	91.75
415.151	91.75
415.374	73.75
415.597	85.75
415.821	77.75
416.044	94.75
416.267	83.75
416.49	83.75
416.713	104.75
416.936	85.75
417.159	89.75
417.382	83.75
417.605	93.75
417.828	88.75
418.051	89.75
418.274	88.75
418.497	78.75
418.72	79.75
418.943	93.75
419.166	93.75
419.389	85.75
419.611	81.75
419.834	87.75
420.057	97.75
420.28	89.75
420.503	76.75
420.726	88.75
420.948	89.75
421.171	87.75
421.394	76.75
421.617	90.75
421.839	87.75
422.062	80.75
422.285	96.75
422.507	90.75
422.73	93.75
422.953	83.75
423.175	79.75
423.398	94.75
423.621	88.75
423.843	83.75
424.066	83.75
424.288	86.75
424.511	76.75
424.733	83.75
424.956	88.75
425.178	90.75
425.401	77.75
425.623	103.75
425.846	79.75
426.068	97.75
426.291	94.75
426.513	88.75
426.735	90.75
426.958	89.75
427.18	97.75
427.402	133.75
427.625	134.75
427.847	115.75
428.069	103.75
428.292	81.75
428.514	84.75
428.736	93.75
428.958	94.75
429.181	101.75
429.403	77.75
429.625	95.75
429.847	88.75
430.069	93.75
430.292	103.75
430.514	87.75
430.736	84.75
430.958	74.75
431.18	87.75
431.402	86.75
431.624	94.75
431.846	88.75
432.068	88.75
432.29	86.75
432.512	85.75
432.734	73.75
432.956	87.75
433.178	80.75
433.4	80.75
433.622	76.75
433.844	89.75
434.066	97.75
434.287	91.75
434.509	88.75
434.731	87.75
434.953	80.75
435.175	91.75
435.397	87.75
435.618	93.75
435.84	109.75
436.062	111.75
436.284	113.75
436.505	95.75
436.727	83.75
436.949	93.75
437.17	78.75
437.392	73.75
437.614	76.75
437.835	83.75
438.057	92.75
438.278	101.75
438.5	93.75
438.721	105.75
438.943	92.75
439.165	86.75
439.386	85.75
439.608	85.75
439.829	87.75
440.05	107.75
440.272	128.75
440.493	90.75
440.715	90.75
440.936	79.75
441.158	80.75
441.379	78.75
441.6	110.75
441.822	99.75
442.043	90.75
442.264	89.75
442.486	92.75
442.707	97.75
442.928	104.75
443.149	109.75
443.371	104.75
443.592	99.75
443.813	92.75
444.034	98.75
444.255	88.75
444.476	78.75
444.698	85.75
444.919	89.75
445.14	133.75
445.361	135.75
445.582	91.75
445.803	113.75
446.024	141.75
446.245	115.75
446.466	101.75
446.687	75.75
446.908	75.75
447.129	79.75
447.35	80.75
447.571	84.75
447.792	80.75
448.013	84.75
448.234	97.75
448.455	85.75
448.675	102.75
448.896	112.75
449.117	92.75
449.338	100.75
449.559	125.75
449.779	111.75
450	85.75
450.221	89.75
450.442	91.75
450.662	93.75
450.883	104.75
451.104	103.75
451.324	96.75
451.545	89.75
451.766	81.75
451.986	82.75
452.207	81.75
452.428	88.75
452.648	91.75
452.869	105.75
453.089	100.75
453.31	106.75
453.53	88.75
453.751	96.75
453.971	99.75
454.192	91.75
454.412	98.75
454.633	77.75
454.853	84.75
455.073	93.75
455.294	77.75
455.514	85.75
455.734	82.75
455.955	84.75
456.175	87.75
456.395	89.75
456.616	82.75
456.836	84.75
457.056	95.75
457.276	86.75
457.497	92.75
457.717	79.75
457.937	84.75
458.157	102.75
458.377	81.75
458.598	97.75
458.818	116.75
459.038	139.75
459.258	118.75
459.478	85.75
459.698	88.75
459.918	91.75
460.138	75.75
460.358	71.75
460.578	73.75
460.798	75.75
461.018	90.75
461.238	80.75
461.458	73.75
461.678	81.75
461.898	74.75
462.118	92.75
462.338	93.75
462.558	95.75
462.777	79.75
462.997	89.75
463.217	85.75
463.437	80.75
463.657	93.75
463.876	90.75
464.096	91.75
464.316	91.75
464.536	86.75
464.755	88.75
464.975	106.75
465.195	144.75
465.414	134.75
465.634	91.75
465.854	93.75
466.073	79.75
466.293	89.75
466.512	77.75
466.732	83.75
466.951	77.75
467.171	80.75
467.391	93.75
467.61	95.75
467.829	90.75
468.049	86.75
468.268	106.75
468.488	79.75
468.707	91.75
468.927	86.75
469.146	77.75
469.365	78.75
469.585	91.75
469.804	78.75
470.023	83.75
470.243	86.75
470.462	82.75
470.681	104.75
470.901	91.75
471.12	82.75
471.339	84.75
471.558	86.75
471.777	81.75
471.997	81.75
472.216	96.75
472.435	130.75
472.654	99.75
472.873	86.75
473.092	91.75
473.311	74.75
473.53	77.75
473.749	92.75
473.968	91.75
474.187	96.75
474.406	89.75
474.625	79.75
474.844	80.75
475.063	81.75
475.282	87.75
475.501	74.75
475.72	88.75
475.939	82.75
476.158	81.75
476.377	87.75
476.596	97.75
476.814	76.75
477.033	77.75
477.252	94.75
477.471	95.75
477.69	78.75
477.908	69.75
478.127	101.75
478.346	78.75
478.564	88.75
478.783	83.75
479.002	87.75
479.22	84.75
479.439	93.75
479.658	104.75
479.876	100.75
480.095	81.75
480.313	83.75
480.532	89.75
480.751	78.75
480.969	110.75
481.188	165.75
481.406	143.75
481.624	102.75
481.843	87.75
482.061	88.75
482.28	73.75
482.498	88.75
482.717	68.75
482.935	80.75
483.153	95.75
483.372	96.75
483.59	96.75
483.808	98.75
484.027	88.75
484.245	80.75
484.463	89.75
484.681	114.75
484.9	87.75
485.118	89.75
485.336	80.75
485.554	90.75
485.772	92.75
485.99	102.75
486.209	90.75
486.427	93.75
486.645	108.75
486.863	98.75
487.081	106.75
487.299	95.75
487.517	98.75
487.735	94.75
487.953	96.75
488.171	94.75
488.389	92.75
488.607	78.75
488.825	92.75
489.043	81.75
489.261	84.75
489.479	96.75
489.696	87.75
489.914	95.75
490.132	99.75
490.35	85.75
490.568	81.75
490.786	93.75
491.003	92.75
491.221	104.75
491.439	80.75
491.657	76.75
491.874	98.75
492.092	86.75
492.31	87.75
492.527	88.75
492.745	87.75
492.963	93.75
493.18	92.75
493.398	87.75
493.615	91.75
493.833	86.75
494.05	79.75
494.268	83.75
494.485	86.75
494.703	95.75
494.92	91.75
495.138	92.75
495.355	84.75
495.573	88.75
495.79	88.75
496.008	95.75
496.225	81.75
496.442	95.75
496.66	84.75
496.877	96.75
497.094	102.75
497.312	100.75
497.529	83.75
497.746	87.75
497.963	94.75
498.181	85.75
498.398	104.75
498.615	104.75
498.832	98.75
499.049	85.75
499.267	79.75
499.484	98.75
499.701	84.75
499.918	93.75
500.135	81.75
500.352	87.75
500.569	97.75
500.786	84.75
501.003	83.75
501.22	91.75
501.437	84.75
501.654	106.75
501.871	99.75
502.088	92.75
502.305	100.75
502.522	96.75
502.739	91.75
502.956	81.75
503.172	89.75
503.389	88.75
503.606	106.75
503.823	93.75
504.04	87.75
504.256	87.75
504.473	91.75
504.69	97.75
504.907	88.75
505.123	80.75
505.34	102.75
505.557	88.75
505.773	91.75
505.99	97.75
506.207	80.75
506.423	81.75
506.64	98.75
506.856	102.75
507.073	81.75
507.289	95.75
507.506	97.75
507.722	95.75
507.939	91.75
508.155	89.75
508.372	95.75
508.588	84.75
508.805	94.75
509.021	100.75
509.238	100.75
509.454	102.75
509.67	107.75
509.887	99.75
510.103	133.75
510.319	187.75
510.536	618.75
510.752	1808.75
510.968	529.75
511.184	142.75
511.401	106.75
511.617	103.75
511.833	88.75
512.049	102.75
512.265	93.75
512.481	97.75
512.698	92.75
512.914	88.75
513.13	94.75
513.346	103.75
513.562	99.75
513.778	103.75
513.994	91.75
514.21	91.75
514.426	112.75
514.642	132.75
514.858	102.75
515.074	139.75
515.29	347.75
515.506	1043.75
515.721	405.75
515.937	136.75
516.153	91.75
516.369	87.75
516.585	100.75
516.801	96.75
