Data from Uncirc_2009_H10_HRD10591_00096.txt Node
Date: Wed Jan 03 10:12:21 EST 2024
User: Yrep
Spectrometer: HR+D1059
Trigger mode: 1
Integration Time (sec): 1.000000E-1
Scans to average: 1
Electric dark correction enabled: true
Nonlinearity correction enabled: false
Boxcar width: 0
XAxis mode: Wavelengths
Number of Pixels in Spectrum: 2048
>>>>>Begin Spectral Data<<<<<
223.165	-4.81
223.4	-4.81
223.635	-4.81
223.869	-26.81
224.104	-26.81
224.338	-25.81
224.573	-19.81
224.808	-25.81
225.042	2.19
225.277	4.19
225.511	-3.81
225.746	8.19
225.98	8.19
226.215	10.19
226.449	22.19
226.683	2.19
226.918	33.19
227.152	43.19
227.387	20.19
227.621	38.19
227.856	46.19
228.09	46.19
228.324	40.19
228.559	63.19
228.793	51.19
229.027	54.19
229.262	61.19
229.496	52.19
229.73	60.19
229.964	90.19
230.199	72.19
230.433	81.19
230.667	72.19
230.901	59.19
231.136	72.19
231.37	66.19
231.604	74.19
231.838	66.19
232.072	75.19
232.306	78.19
232.541	64.19
232.775	76.19
233.009	76.19
233.243	65.19
233.477	80.19
233.711	83.19
233.945	71.19
234.179	81.19
234.413	90.19
234.647	92.19
234.881	75.19
235.115	86.19
235.349	69.19
235.583	62.19
235.817	78.19
236.051	83.19
236.285	74.19
236.519	80.19
236.753	83.19
236.987	87.19
237.221	78.19
237.455	73.19
237.689	75.19
237.922	86.19
238.156	69.19
238.39	66.19
238.624	55.19
238.858	70.19
239.091	75.19
239.325	74.19
239.559	85.19
239.793	71.19
240.027	87.19
240.26	72.19
240.494	73.19
240.728	60.19
240.961	85.19
241.195	76.19
241.429	75.19
241.662	67.19
241.896	61.19
242.13	74.19
242.363	75.19
242.597	73.19
242.83	67.19
243.064	75.19
243.298	60.19
243.531	59.19
243.765	65.19
243.998	74.19
244.232	75.19
244.465	68.19
244.699	78.19
244.932	71.19
245.166	72.19
245.399	74.19
245.633	78.19
245.866	75.19
246.099	78.19
246.333	77.19
246.566	83.19
246.8	61.19
247.033	79.19
247.266	73.19
247.5	77.19
247.733	71.19
247.966	79.19
248.2	75.19
248.433	77.19
248.666	59.19
248.899	92.19
249.133	80.19
249.366	92.19
249.599	84.19
249.832	76.19
250.066	78.19
250.299	76.19
250.532	76.19
250.765	76.19
250.998	74.19
251.231	83.19
251.465	64.19
251.698	60.19
251.931	73.19
252.164	66.19
252.397	79.19
252.63	91.19
252.863	68.19
253.096	69.19
253.329	83.19
253.562	69.19
253.795	87.19
254.028	77.19
254.261	81.19
254.494	98.19
254.727	78.19
254.96	69.19
255.193	64.19
255.426	67.19
255.659	70.19
255.892	80.19
256.124	75.19
256.357	75.19
256.59	57.19
256.823	73.19
257.056	75.19
257.289	83.19
257.521	78.19
257.754	88.19
257.987	86.19
258.22	77.19
258.452	88.19
258.685	78.19
258.918	86.19
259.151	77.19
259.383	82.19
259.616	74.19
259.849	74.19
260.081	76.19
260.314	94.19
260.547	73.19
260.779	73.19
261.012	78.19
261.244	77.19
261.477	74.19
261.71	89.19
261.942	85.19
262.175	97.19
262.407	82.19
262.64	89.19
262.872	69.19
263.105	80.19
263.337	74.19
263.57	74.19
263.802	84.19
264.035	85.19
264.267	82.19
264.499	72.19
264.732	79.19
264.964	73.19
265.197	74.19
265.429	74.19
265.661	88.19
265.894	68.19
266.126	90.19
266.358	89.19
266.591	72.19
266.823	58.19
267.055	75.19
267.287	67.19
267.52	80.19
267.752	90.19
267.984	84.19
268.216	70.19
268.448	72.19
268.681	88.19
268.913	73.19
269.145	74.19
269.377	90.19
269.609	90.19
269.841	70.19
270.073	83.19
270.306	74.19
270.538	72.19
270.77	85.19
271.002	74.19
271.234	85.19
271.466	78.19
271.698	81.19
271.93	79.19
272.162	83.19
272.394	92.19
272.626	86.19
272.858	85.19
273.09	82.19
273.322	76.19
273.553	72.19
273.785	75.19
274.017	68.19
274.249	89.19
274.481	76.19
274.713	67.19
274.945	90.19
275.176	80.19
275.408	68.19
275.64	75.19
275.872	78.19
276.104	77.19
276.335	73.19
276.567	74.19
276.799	73.19
277.031	97.19
277.262	81.19
277.494	84.19
277.726	75.19
277.957	77.19
278.189	84.19
278.421	99.19
278.652	72.19
278.884	82.19
279.115	81.19
279.347	81.19
279.579	84.19
279.81	84.19
280.042	88.19
280.273	86.19
280.505	75.19
280.736	76.19
280.968	73.19
281.199	86.19
281.431	83.19
281.662	86.19
281.894	83.19
282.125	90.19
282.356	97.19
282.588	117.19
282.819	97.19
283.051	84.19
283.282	87.19
283.513	80.19
283.745	87.19
283.976	78.19
284.207	102.19
284.439	93.19
284.67	75.19
284.901	79.19
285.132	85.19
285.364	80.19
285.595	86.19
285.826	84.19
286.057	97.19
286.288	92.19
286.52	90.19
286.751	75.19
286.982	85.19
287.213	83.19
287.444	87.19
287.675	84.19
287.906	73.19
288.138	85.19
288.369	99.19
288.6	84.19
288.831	71.19
289.062	83.19
289.293	81.19
289.524	88.19
289.755	75.19
289.986	89.19
290.217	86.19
290.448	89.19
290.679	92.19
290.91	89.19
291.141	83.19
291.371	69.19
291.602	92.19
291.833	85.19
292.064	97.19
292.295	74.19
292.526	97.19
292.757	90.19
292.987	84.19
293.218	79.19
293.449	82.19
293.68	76.19
293.91	76.19
294.141	92.19
294.372	82.19
294.603	81.19
294.833	72.19
295.064	84.19
295.295	83.19
295.525	80.19
295.756	84.19
295.987	96.19
296.217	106.19
296.448	90.19
296.679	87.19
296.909	97.19
297.14	85.19
297.37	78.19
297.601	93.19
297.831	81.19
298.062	88.19
298.292	89.19
298.523	88.19
298.753	82.19
298.984	81.19
299.214	82.19
299.445	93.19
299.675	74.19
299.905	90.19
300.136	88.19
300.366	82.19
300.597	89.19
300.827	92.19
301.057	90.19
301.288	105.19
301.518	89.19
301.748	101.19
301.979	99.19
302.209	82.19
302.439	90.19
302.669	76.19
302.9	89.19
303.13	89.19
303.36	102.19
303.59	105.19
303.82	98.19
304.051	95.19
304.281	85.19
304.511	83.19
304.741	80.19
304.971	93.19
305.201	78.19
305.431	83.19
305.661	75.19
305.891	75.19
306.121	95.19
306.352	96.19
306.582	82.19
306.812	88.19
307.042	76.19
307.272	84.19
307.502	74.19
307.731	89.19
307.961	87.19
308.191	97.19
308.421	87.19
308.651	71.19
308.881	73.19
309.111	72.19
309.341	93.19
309.571	95.19
309.8	83.19
310.03	86.19
310.26	80.19
310.49	80.19
310.72	84.19
310.949	89.19
311.179	94.19
311.409	100.19
311.639	102.19
311.868	85.19
312.098	91.19
312.328	102.19
312.557	97.19
312.787	77.19
313.017	96.19
313.246	85.19
313.476	73.19
313.706	73.19
313.935	86.19
314.165	97.19
314.394	81.19
314.624	91.19
314.853	95.19
315.083	77.19
315.312	81.19
315.542	84.19
315.771	80.19
316.001	98.19
316.23	94.19
316.46	68.19
316.689	75.19
316.919	90.19
317.148	102.19
317.377	102.19
317.607	110.19
317.836	103.19
318.065	95.19
318.295	81.19
318.524	74.19
318.753	91.19
318.983	105.19
319.212	89.19
319.441	83.19
319.67	92.19
319.9	91.19
320.129	84.19
320.358	76.19
320.587	89.19
320.816	89.19
321.046	81.19
321.275	87.19
321.504	101.19
321.733	94.19
321.962	104.19
322.191	88.19
322.42	85.19
322.649	116.19
322.878	103.19
323.108	113.19
323.337	104.19
323.566	118.19
323.795	128.19
324.024	178.19
324.253	323.19
324.482	713.19
324.71	1441.19
324.939	1891.19
325.168	710.19
325.397	213.19
325.626	144.19
325.855	136.19
326.084	136.19
326.313	136.19
326.542	152.19
326.77	224.19
326.999	404.19
327.228	812.19
327.457	1501.19
327.686	1152.19
327.914	320.19
328.143	172.19
328.372	138.19
328.6	116.19
328.829	111.19
329.058	99.19
329.287	106.19
329.515	91.19
329.744	82.19
329.972	96.19
330.201	101.19
330.43	107.19
330.658	103.19
330.887	103.19
331.115	97.19
331.344	82.19
331.572	106.19
331.801	89.19
332.03	89.19
332.258	83.19
332.486	81.19
332.715	87.19
332.943	99.19
333.172	94.19
333.4	106.19
333.629	90.19
333.857	103.19
334.085	92.19
334.314	92.19
334.542	106.19
334.771	109.19
334.999	99.19
335.227	91.19
335.455	87.19
335.684	87.19
335.912	73.19
336.14	81.19
336.369	91.19
336.597	81.19
336.825	86.19
337.053	82.19
337.281	91.19
337.51	95.19
337.738	81.19
337.966	79.19
338.194	90.19
338.422	95.19
338.65	99.19
338.878	91.19
339.106	73.19
339.334	73.19
339.562	82.19
339.79	76.19
340.018	90.19
340.246	80.19
340.474	95.19
340.702	73.19
340.93	100.19
341.158	84.19
341.386	104.19
341.614	94.19
341.842	91.19
342.07	78.19
342.298	86.19
342.526	86.19
342.754	84.19
342.981	104.19
343.209	93.19
343.437	91.19
343.665	99.19
343.893	90.19
344.12	89.19
344.348	98.19
344.576	89.19
344.804	92.19
345.031	91.19
345.259	96.19
345.487	94.19
345.714	89.19
345.942	76.19
346.17	80.19
346.397	77.19
346.625	80.19
346.853	102.19
347.08	92.19
347.308	85.19
347.535	84.19
347.763	93.19
347.99	97.19
348.218	89.19
348.445	86.19
348.673	93.19
348.9	99.19
349.128	103.19
349.355	78.19
349.583	92.19
349.81	89.19
350.037	85.19
350.265	104.19
350.492	89.19
350.72	85.19
350.947	93.19
351.174	101.19
351.402	104.19
351.629	98.19
351.856	90.19
352.083	100.19
352.311	110.19
352.538	109.19
352.765	98.19
352.992	99.19
353.22	105.19
353.447	103.19
353.674	102.19
353.901	89.19
354.128	84.19
354.355	87.19
354.583	83.19
354.81	87.19
355.037	80.19
355.264	82.19
355.491	96.19
355.718	77.19
355.945	77.19
356.172	90.19
356.399	99.19
356.626	97.19
356.853	91.19
357.08	90.19
357.307	105.19
357.534	85.19
357.761	90.19
357.988	88.19
358.215	96.19
358.441	78.19
358.668	95.19
358.895	89.19
359.122	92.19
359.349	98.19
359.576	93.19
359.802	93.19
360.029	87.19
360.256	93.19
360.483	93.19
360.709	90.19
360.936	89.19
361.163	83.19
361.39	75.19
361.616	85.19
361.843	97.19
362.07	82.19
362.296	97.19
362.523	103.19
362.749	85.19
362.976	70.19
363.203	85.19
363.429	79.19
363.656	84.19
363.882	86.19
364.109	87.19
364.335	88.19
364.562	88.19
364.788	81.19
365.015	98.19
365.241	85.19
365.468	98.19
365.694	109.19
365.92	84.19
366.147	90.19
366.373	92.19
366.599	99.19
366.826	88.19
367.052	70.19
367.278	90.19
367.505	98.19
367.731	91.19
367.957	81.19
368.184	76.19
368.41	106.19
368.636	101.19
368.862	111.19
369.089	95.19
369.315	89.19
369.541	82.19
369.767	99.19
369.993	92.19
370.219	96.19
370.445	93.19
370.672	88.19
370.898	90.19
371.124	89.19
371.35	93.19
371.576	81.19
371.802	75.19
372.028	79.19
372.254	97.19
372.48	79.19
372.706	65.19
372.932	88.19
373.158	82.19
373.384	102.19
373.61	94.19
373.835	88.19
374.061	85.19
374.287	77.19
374.513	90.19
374.739	76.19
374.965	103.19
375.191	80.19
375.416	80.19
375.642	74.19
375.868	81.19
376.094	86.19
376.319	82.19
376.545	72.19
376.771	91.19
376.997	94.19
377.222	96.19
377.448	86.19
377.674	83.19
377.899	77.19
378.125	89.19
378.35	100.19
378.576	96.19
378.802	87.19
379.027	80.19
379.253	86.19
379.478	85.19
379.704	84.19
379.929	89.19
380.155	94.19
380.38	103.19
380.606	108.19
380.831	101.19
381.057	91.19
381.282	102.19
381.507	100.19
381.733	86.19
381.958	104.19
382.184	90.19
382.409	79.19
382.634	77.19
382.86	95.19
383.085	90.19
383.31	117.19
383.535	99.19
383.761	90.19
383.986	93.19
384.211	93.19
384.436	99.19
384.662	97.19
384.887	76.19
385.112	97.19
385.337	93.19
385.562	94.19
385.787	90.19
386.013	82.19
386.238	82.19
386.463	89.19
386.688	97.19
386.913	89.19
387.138	88.19
387.363	99.19
387.588	107.19
387.813	99.19
388.038	103.19
388.263	108.19
388.488	98.19
388.713	98.19
388.938	95.19
389.163	91.19
389.387	93.19
389.612	88.19
389.837	87.19
390.062	84.19
390.287	88.19
390.512	79.19
390.736	88.19
390.961	99.19
391.186	96.19
391.411	94.19
391.636	87.19
391.86	99.19
392.085	84.19
392.31	92.19
392.534	83.19
392.759	82.19
392.984	84.19
393.208	76.19
393.433	86.19
393.658	85.19
393.882	77.19
394.107	88.19
394.331	84.19
394.556	73.19
394.78	90.19
395.005	79.19
395.229	91.19
395.454	89.19
395.678	87.19
395.903	78.19
396.127	81.19
396.352	84.19
396.576	80.19
396.801	97.19
397.025	78.19
397.249	85.19
397.474	77.19
397.698	85.19
397.922	77.19
398.147	87.19
398.371	99.19
398.595	82.19
398.82	89.19
399.044	81.19
399.268	90.19
399.492	69.19
399.717	82.19
399.941	76.19
400.165	90.19
400.389	98.19
400.613	86.19
400.837	84.19
401.062	96.19
401.286	93.19
401.51	78.19
401.734	87.19
401.958	91.19
402.182	96.19
402.406	115.19
402.63	86.19
402.854	81.19
403.078	95.19
403.302	78.19
403.526	92.19
403.75	72.19
403.974	70.19
404.198	89.19
404.422	85.19
404.645	91.19
404.869	94.19
405.093	99.19
405.317	97.19
405.541	94.19
405.765	92.19
405.988	96.19
406.212	130.19
406.436	169.19
406.66	135.19
406.883	91.19
407.107	90.19
407.331	85.19
407.555	87.19
407.778	83.19
408.002	86.19
408.226	82.19
408.449	88.19
408.673	78.19
408.896	86.19
409.12	101.19
409.344	84.19
409.567	81.19
409.791	92.19
410.014	98.19
410.238	88.19
410.461	92.19
410.685	100.19
410.908	105.19
411.132	96.19
411.355	93.19
411.578	100.19
411.802	78.19
412.025	82.19
412.249	88.19
412.472	92.19
412.695	80.19
412.919	84.19
413.142	73.19
413.365	92.19
413.589	93.19
413.812	77.19
414.035	94.19
414.258	93.19
414.482	77.19
414.705	89.19
414.928	92.19
415.151	95.19
415.374	89.19
415.597	89.19
415.821	79.19
416.044	89.19
416.267	89.19
416.49	77.19
416.713	77.19
416.936	82.19
417.159	83.19
417.382	74.19
417.605	92.19
417.828	94.19
418.051	96.19
418.274	81.19
418.497	98.19
418.72	86.19
418.943	89.19
419.166	78.19
419.389	79.19
419.611	89.19
419.834	77.19
420.057	83.19
420.28	94.19
420.503	89.19
420.726	87.19
420.948	94.19
421.171	87.19
421.394	91.19
421.617	78.19
421.839	93.19
422.062	76.19
422.285	78.19
422.507	93.19
422.73	86.19
422.953	81.19
423.175	91.19
423.398	72.19
423.621	90.19
423.843	88.19
424.066	93.19
424.288	89.19
424.511	88.19
424.733	85.19
424.956	96.19
425.178	92.19
425.401	92.19
425.623	99.19
425.846	92.19
426.068	95.19
426.291	87.19
426.513	80.19
426.735	81.19
426.958	101.19
427.18	96.19
427.402	112.19
427.625	123.19
427.847	108.19
428.069	106.19
428.292	84.19
428.514	83.19
428.736	78.19
428.958	81.19
429.181	96.19
429.403	80.19
429.625	82.19
429.847	79.19
430.069	100.19
430.292	78.19
430.514	84.19
430.736	86.19
430.958	76.19
431.18	79.19
431.402	97.19
431.624	86.19
431.846	90.19
432.068	82.19
432.29	89.19
432.512	94.19
432.734	91.19
432.956	82.19
433.178	84.19
433.4	75.19
433.622	76.19
433.844	93.19
434.066	78.19
434.287	87.19
434.509	89.19
434.731	83.19
434.953	84.19
435.175	73.19
435.397	97.19
435.618	88.19
435.84	97.19
436.062	117.19
436.284	98.19
436.505	100.19
436.727	86.19
436.949	74.19
437.17	87.19
437.392	76.19
437.614	89.19
437.835	77.19
438.057	106.19
438.278	90.19
438.5	76.19
438.721	128.19
438.943	103.19
439.165	78.19
439.386	98.19
439.608	98.19
439.829	92.19
440.05	110.19
440.272	125.19
440.493	93.19
440.715	85.19
440.936	77.19
441.158	85.19
441.379	85.19
441.6	93.19
441.822	83.19
442.043	80.19
442.264	87.19
442.486	78.19
442.707	83.19
442.928	91.19
443.149	108.19
443.371	107.19
443.592	91.19
443.813	96.19
444.034	96.19
444.255	93.19
444.476	89.19
444.698	81.19
444.919	76.19
445.14	127.19
445.361	108.19
445.582	109.19
445.803	119.19
446.024	112.19
446.245	126.19
446.466	106.19
446.687	84.19
446.908	86.19
447.129	78.19
447.35	78.19
447.571	94.19
447.792	92.19
448.013	97.19
448.234	94.19
448.455	98.19
448.675	109.19
448.896	103.19
449.117	90.19
449.338	106.19
449.559	105.19
449.779	100.19
450	83.19
450.221	86.19
450.442	91.19
450.662	94.19
450.883	84.19
451.104	86.19
451.324	85.19
451.545	79.19
451.766	81.19
451.986	77.19
452.207	82.19
452.428	84.19
452.648	96.19
452.869	89.19
453.089	102.19
453.31	87.19
453.53	93.19
453.751	82.19
453.971	92.19
454.192	117.19
454.412	92.19
454.633	75.19
454.853	96.19
455.073	91.19
455.294	94.19
455.514	83.19
455.734	93.19
455.955	86.19
456.175	92.19
456.395	82.19
456.616	60.19
456.836	87.19
457.056	89.19
457.276	63.19
457.497	75.19
457.717	66.19
457.937	71.19
458.157	92.19
458.377	89.19
458.598	107.19
458.818	103.19
459.038	125.19
459.258	106.19
459.478	95.19
459.698	87.19
459.918	76.19
460.138	68.19
460.358	78.19
460.578	93.19
460.798	86.19
461.018	79.19
461.238	84.19
461.458	75.19
461.678	78.19
461.898	74.19
462.118	83.19
462.338	88.19
462.558	79.19
462.777	75.19
462.997	75.19
463.217	81.19
463.437	96.19
463.657	85.19
463.876	82.19
464.096	81.19
464.316	81.19
464.536	97.19
464.755	98.19
464.975	96.19
465.195	131.19
465.414	128.19
465.634	96.19
465.854	86.19
466.073	86.19
466.293	82.19
466.512	86.19
466.732	89.19
466.951	83.19
467.171	89.19
467.391	102.19
467.61	94.19
467.829	87.19
468.049	90.19
468.268	97.19
468.488	80.19
468.707	84.19
468.927	76.19
469.146	82.19
469.365	90.19
469.585	83.19
469.804	75.19
470.023	92.19
470.243	95.19
470.462	114.19
470.681	97.19
470.901	64.19
471.12	88.19
471.339	89.19
471.558	89.19
471.777	86.19
471.997	88.19
472.216	100.19
472.435	118.19
472.654	88.19
472.873	87.19
473.092	81.19
473.311	75.19
473.53	87.19
473.749	89.19
473.968	97.19
474.187	84.19
474.406	81.19
474.625	81.19
474.844	89.19
475.063	70.19
475.282	66.19
475.501	83.19
475.72	100.19
475.939	85.19
476.158	81.19
476.377	85.19
476.596	82.19
476.814	75.19
477.033	84.19
477.252	96.19
477.471	83.19
477.69	93.19
477.908	80.19
478.127	90.19
478.346	78.19
478.564	82.19
478.783	86.19
479.002	88.19
479.22	83.19
479.439	89.19
479.658	81.19
479.876	85.19
480.095	77.19
480.313	83.19
480.532	96.19
480.751	84.19
480.969	102.19
481.188	157.19
481.406	134.19
481.624	85.19
481.843	98.19
482.061	92.19
482.28	82.19
482.498	100.19
482.717	91.19
482.935	63.19
483.153	90.19
483.372	103.19
483.59	74.19
483.808	84.19
484.027	87.19
484.245	77.19
484.463	81.19
484.681	109.19
484.9	84.19
485.118	109.19
485.336	94.19
485.554	87.19
485.772	95.19
485.99	98.19
486.209	91.19
486.427	103.19
486.645	98.19
486.863	99.19
487.081	89.19
487.299	74.19
487.517	73.19
487.735	78.19
487.953	78.19
488.171	74.19
488.389	99.19
488.607	96.19
488.825	83.19
489.043	81.19
489.261	81.19
489.479	90.19
489.696	76.19
489.914	88.19
490.132	85.19
490.35	89.19
490.568	83.19
490.786	80.19
491.003	86.19
491.221	92.19
491.439	94.19
491.657	87.19
491.874	89.19
492.092	84.19
492.31	96.19
492.527	78.19
492.745	86.19
492.963	98.19
493.18	75.19
493.398	81.19
493.615	94.19
493.833	100.19
494.05	72.19
494.268	88.19
494.485	96.19
494.703	98.19
494.92	89.19
495.138	80.19
495.355	84.19
495.573	108.19
495.79	91.19
496.008	84.19
496.225	97.19
496.442	77.19
496.66	82.19
496.877	94.19
497.094	81.19
497.312	87.19
497.529	90.19
497.746	101.19
497.963	92.19
498.181	92.19
498.398	81.19
498.615	96.19
498.832	95.19
499.049	81.19
499.267	87.19
499.484	80.19
499.701	87.19
499.918	94.19
500.135	81.19
500.352	85.19
500.569	106.19
500.786	88.19
501.003	83.19
501.22	88.19
501.437	92.19
501.654	85.19
501.871	100.19
502.088	82.19
502.305	73.19
502.522	85.19
502.739	71.19
502.956	86.19
503.172	80.19
503.389	84.19
503.606	109.19
503.823	90.19
504.04	98.19
504.256	84.19
504.473	76.19
504.69	86.19
504.907	73.19
505.123	88.19
505.34	75.19
505.557	86.19
505.773	80.19
505.99	82.19
506.207	91.19
506.423	75.19
506.64	91.19
506.856	87.19
507.073	93.19
507.289	92.19
507.506	84.19
507.722	96.19
507.939	98.19
508.155	89.19
508.372	86.19
508.588	98.19
508.805	81.19
509.021	93.19
509.238	101.19
509.454	90.19
509.67	88.19
509.887	87.19
510.103	121.19
510.319	166.19
510.536	534.19
510.752	1625.19
510.968	488.19
511.184	137.19
511.401	105.19
511.617	89.19
511.833	84.19
512.049	83.19
512.265	91.19
512.481	81.19
512.698	81.19
512.914	101.19
513.13	102.19
513.346	80.19
513.562	84.19
513.778	90.19
513.994	87.19
514.21	83.19
514.426	100.19
514.642	103.19
514.858	105.19
515.074	128.19
515.29	306.19
515.506	958.19
515.721	370.19
515.937	130.19
516.153	109.19
516.369	100.19
516.585	85.19
516.801	91.19
517.016	97.19
517.232	88.19
517.448	81.19
517.664	94.19
