Data from Uncirc_2009_H10_HRD10591_00001.txt Node
Date: Wed Jan 03 10:12:02 EST 2024
User: Yrep
Spectrometer: HR+D1059
Trigger mode: 1
Integration Time (sec): 1.000000E-1
Scans to average: 1
Electric dark correction enabled: true
Nonlinearity correction enabled: false
Boxcar width: 0
XAxis mode: Wavelengths
Number of Pixels in Spectrum: 2048
>>>>>Begin Spectral Data<<<<<
223.165	-16.81
223.4	-16.81
223.635	-16.81
223.869	-22.81
224.104	-13.81
224.338	-10.81
224.573	-18.81
224.808	7.19
225.042	-8.81
225.277	-12.81
225.511	2.19
225.746	-6.81
225.98	10.19
226.215	12.19
226.449	20.19
226.683	14.19
226.918	26.19
227.152	19.19
227.387	40.19
227.621	33.19
227.856	55.19
228.09	47.19
228.324	53.19
228.559	55.19
228.793	51.19
229.027	66.19
229.262	58.19
229.496	61.19
229.73	79.19
229.964	69.19
230.199	69.19
230.433	77.19
230.667	68.19
230.901	87.19
231.136	71.19
231.37	79.19
231.604	80.19
231.838	90.19
232.072	69.19
232.306	83.19
232.541	97.19
232.775	80.19
233.009	75.19
233.243	88.19
233.477	77.19
233.711	78.19
233.945	95.19
234.179	89.19
234.413	78.19
234.647	79.19
234.881	74.19
235.115	83.19
235.349	73.19
235.583	73.19
235.817	68.19
236.051	96.19
236.285	81.19
236.519	82.19
236.753	76.19
236.987	83.19
237.221	83.19
237.455	80.19
237.689	75.19
237.922	76.19
238.156	78.19
238.39	87.19
238.624	87.19
238.858	83.19
239.091	94.19
239.325	82.19
239.559	67.19
239.793	83.19
240.027	84.19
240.26	70.19
240.494	56.19
240.728	71.19
240.961	76.19
241.195	87.19
241.429	82.19
241.662	80.19
241.896	63.19
242.13	62.19
242.363	84.19
242.597	69.19
242.83	75.19
243.064	86.19
243.298	69.19
243.531	83.19
243.765	66.19
243.998	92.19
244.232	88.19
244.465	108.19
244.699	78.19
244.932	85.19
245.166	73.19
245.399	66.19
245.633	57.19
245.866	87.19
246.099	74.19
246.333	78.19
246.566	83.19
246.8	74.19
247.033	75.19
247.266	68.19
247.5	81.19
247.733	94.19
247.966	81.19
248.2	77.19
248.433	79.19
248.666	75.19
248.899	60.19
249.133	83.19
249.366	82.19
249.599	78.19
249.832	70.19
250.066	67.19
250.299	72.19
250.532	91.19
250.765	84.19
250.998	78.19
251.231	79.19
251.465	68.19
251.698	77.19
251.931	70.19
252.164	85.19
252.397	79.19
252.63	76.19
252.863	79.19
253.096	92.19
253.329	70.19
253.562	80.19
253.795	75.19
254.028	85.19
254.261	84.19
254.494	65.19
254.727	84.19
254.96	74.19
255.193	90.19
255.426	88.19
255.659	82.19
255.892	76.19
256.124	79.19
256.357	72.19
256.59	90.19
256.823	79.19
257.056	81.19
257.289	78.19
257.521	67.19
257.754	91.19
257.987	93.19
258.22	78.19
258.452	87.19
258.685	78.19
258.918	66.19
259.151	71.19
259.383	83.19
259.616	88.19
259.849	77.19
260.081	70.19
260.314	92.19
260.547	83.19
260.779	80.19
261.012	88.19
261.244	98.19
261.477	87.19
261.71	101.19
261.942	93.19
262.175	101.19
262.407	90.19
262.64	81.19
262.872	92.19
263.105	69.19
263.337	87.19
263.57	71.19
263.802	87.19
264.035	80.19
264.267	89.19
264.499	93.19
264.732	100.19
264.964	95.19
265.197	80.19
265.429	85.19
265.661	72.19
265.894	85.19
266.126	90.19
266.358	77.19
266.591	83.19
266.823	87.19
267.055	82.19
267.287	88.19
267.52	86.19
267.752	84.19
267.984	82.19
268.216	71.19
268.448	92.19
268.681	79.19
268.913	86.19
269.145	79.19
269.377	86.19
269.609	73.19
269.841	91.19
270.073	85.19
270.306	80.19
270.538	95.19
270.77	80.19
271.002	85.19
271.234	84.19
271.466	79.19
271.698	79.19
271.93	91.19
272.162	94.19
272.394	84.19
272.626	92.19
272.858	86.19
273.09	76.19
273.322	82.19
273.553	80.19
273.785	80.19
274.017	93.19
274.249	96.19
274.481	72.19
274.713	93.19
274.945	77.19
275.176	80.19
275.408	80.19
275.64	87.19
275.872	96.19
276.104	83.19
276.335	96.19
276.567	78.19
276.799	102.19
277.031	97.19
277.262	97.19
277.494	89.19
277.726	107.19
277.957	84.19
278.189	80.19
278.421	91.19
278.652	86.19
278.884	95.19
279.115	83.19
279.347	93.19
279.579	83.19
279.81	91.19
280.042	87.19
280.273	92.19
280.505	96.19
280.736	92.19
280.968	103.19
281.199	97.19
281.431	102.19
281.662	86.19
281.894	91.19
282.125	100.19
282.356	106.19
282.588	110.19
282.819	96.19
283.051	84.19
283.282	82.19
283.513	96.19
283.745	79.19
283.976	95.19
284.207	109.19
284.439	92.19
284.67	93.19
284.901	88.19
285.132	83.19
285.364	87.19
285.595	91.19
285.826	91.19
286.057	94.19
286.288	102.19
286.52	90.19
286.751	81.19
286.982	80.19
287.213	89.19
287.444	89.19
287.675	90.19
287.906	86.19
288.138	82.19
288.369	82.19
288.6	101.19
288.831	95.19
289.062	97.19
289.293	95.19
289.524	89.19
289.755	90.19
289.986	87.19
290.217	78.19
290.448	83.19
290.679	87.19
290.91	98.19
291.141	97.19
291.371	81.19
291.602	82.19
291.833	86.19
292.064	100.19
292.295	88.19
292.526	95.19
292.757	105.19
292.987	88.19
293.218	96.19
293.449	89.19
293.68	90.19
293.91	94.19
294.141	91.19
294.372	73.19
294.603	88.19
294.833	82.19
295.064	89.19
295.295	85.19
295.525	85.19
295.756	97.19
295.987	98.19
296.217	120.19
296.448	97.19
296.679	88.19
296.909	88.19
297.14	95.19
297.37	95.19
297.601	82.19
297.831	89.19
298.062	97.19
298.292	84.19
298.523	76.19
298.753	94.19
298.984	90.19
299.214	85.19
299.445	95.19
299.675	100.19
299.905	108.19
300.136	97.19
300.366	94.19
300.597	91.19
300.827	91.19
301.057	110.19
301.288	103.19
301.518	119.19
301.748	81.19
301.979	89.19
302.209	95.19
302.439	86.19
302.669	78.19
302.9	91.19
303.13	104.19
303.36	103.19
303.59	111.19
303.82	106.19
304.051	89.19
304.281	101.19
304.511	87.19
304.741	88.19
304.971	89.19
305.201	95.19
305.431	87.19
305.661	84.19
305.891	86.19
306.121	88.19
306.352	97.19
306.582	103.19
306.812	91.19
307.042	95.19
307.272	97.19
307.502	93.19
307.731	94.19
307.961	90.19
308.191	77.19
308.421	98.19
308.651	90.19
308.881	94.19
309.111	92.19
309.341	86.19
309.571	93.19
309.8	90.19
310.03	82.19
310.26	92.19
310.49	89.19
310.72	110.19
310.949	105.19
311.179	81.19
311.409	92.19
311.639	94.19
311.868	91.19
312.098	96.19
312.328	88.19
312.557	97.19
312.787	98.19
313.017	105.19
313.246	104.19
313.476	76.19
313.706	84.19
313.935	84.19
314.165	98.19
314.394	96.19
314.624	94.19
314.853	109.19
315.083	96.19
315.312	95.19
315.542	89.19
315.771	100.19
316.001	98.19
316.23	98.19
316.46	93.19
316.689	91.19
316.919	103.19
317.148	81.19
317.377	103.19
317.607	114.19
317.836	99.19
318.065	111.19
318.295	92.19
318.524	97.19
318.753	90.19
318.983	92.19
319.212	97.19
319.441	96.19
319.67	109.19
319.9	95.19
320.129	100.19
320.358	96.19
320.587	107.19
320.816	95.19
321.046	93.19
321.275	99.19
321.504	108.19
321.733	92.19
321.962	94.19
322.191	92.19
322.42	87.19
322.649	92.19
322.878	122.19
323.108	110.19
323.337	109.19
323.566	118.19
323.795	139.19
324.024	159.19
324.253	300.19
324.482	665.19
324.71	1318.19
324.939	1734.19
325.168	634.19
325.397	215.19
325.626	135.19
325.855	131.19
326.084	131.19
326.313	157.19
326.542	165.19
326.77	210.19
326.999	377.19
327.228	759.19
327.457	1309.19
327.686	1052.19
327.914	301.19
328.143	163.19
328.372	133.19
328.6	112.19
328.829	111.19
329.058	114.19
329.287	111.19
329.515	98.19
329.744	98.19
329.972	85.19
330.201	103.19
330.43	102.19
330.658	110.19
330.887	133.19
331.115	103.19
331.344	103.19
331.572	99.19
331.801	100.19
332.03	100.19
332.258	103.19
332.486	88.19
332.715	95.19
332.943	100.19
333.172	97.19
333.4	106.19
333.629	98.19
333.857	94.19
334.085	105.19
334.314	106.19
334.542	106.19
334.771	128.19
334.999	107.19
335.227	102.19
335.455	92.19
335.684	107.19
335.912	95.19
336.14	101.19
336.369	93.19
336.597	97.19
336.825	92.19
337.053	89.19
337.281	96.19
337.51	109.19
337.738	89.19
337.966	102.19
338.194	101.19
338.422	97.19
338.65	94.19
338.878	100.19
339.106	95.19
339.334	96.19
339.562	86.19
339.79	89.19
340.018	92.19
340.246	93.19
340.474	84.19
340.702	91.19
340.93	96.19
341.158	103.19
341.386	99.19
341.614	74.19
341.842	91.19
342.07	91.19
342.298	95.19
342.526	93.19
342.754	89.19
342.981	94.19
343.209	106.19
343.437	94.19
343.665	83.19
343.893	93.19
344.12	100.19
344.348	96.19
344.576	75.19
344.804	96.19
345.031	83.19
345.259	99.19
345.487	90.19
345.714	96.19
345.942	102.19
346.17	106.19
346.397	92.19
346.625	97.19
346.853	87.19
347.08	91.19
347.308	92.19
347.535	97.19
347.763	96.19
347.99	102.19
348.218	87.19
348.445	99.19
348.673	91.19
348.9	87.19
349.128	96.19
349.355	83.19
349.583	107.19
349.81	94.19
350.037	79.19
350.265	103.19
350.492	104.19
350.72	101.19
350.947	91.19
351.174	88.19
351.402	105.19
351.629	98.19
351.856	98.19
352.083	91.19
352.311	109.19
352.538	102.19
352.765	111.19
352.992	113.19
353.22	105.19
353.447	98.19
353.674	110.19
353.901	103.19
354.128	101.19
354.355	93.19
354.583	108.19
354.81	96.19
355.037	114.19
355.264	112.19
355.491	93.19
355.718	88.19
355.945	102.19
356.172	89.19
356.399	110.19
356.626	98.19
356.853	110.19
357.08	103.19
357.307	99.19
357.534	95.19
357.761	103.19
357.988	96.19
358.215	104.19
358.441	98.19
358.668	83.19
358.895	89.19
359.122	82.19
359.349	94.19
359.576	97.19
359.802	91.19
360.029	100.19
360.256	100.19
360.483	99.19
360.709	99.19
360.936	101.19
361.163	83.19
361.39	102.19
361.616	91.19
361.843	84.19
362.07	93.19
362.296	91.19
362.523	93.19
362.749	98.19
362.976	89.19
363.203	93.19
363.429	89.19
363.656	95.19
363.882	90.19
364.109	102.19
364.335	105.19
364.562	87.19
364.788	93.19
365.015	99.19
365.241	107.19
365.468	101.19
365.694	107.19
365.92	96.19
366.147	83.19
366.373	77.19
366.599	97.19
366.826	78.19
367.052	102.19
367.278	86.19
367.505	81.19
367.731	90.19
367.957	82.19
368.184	96.19
368.41	102.19
368.636	95.19
368.862	100.19
369.089	96.19
369.315	88.19
369.541	104.19
369.767	79.19
369.993	83.19
370.219	82.19
370.445	105.19
370.672	89.19
370.898	77.19
371.124	102.19
371.35	82.19
371.576	84.19
371.802	83.19
372.028	80.19
372.254	96.19
372.48	93.19
372.706	104.19
372.932	82.19
373.158	93.19
373.384	86.19
373.61	88.19
373.835	90.19
374.061	88.19
374.287	87.19
374.513	88.19
374.739	90.19
374.965	92.19
375.191	91.19
375.416	91.19
375.642	97.19
375.868	99.19
376.094	94.19
376.319	98.19
376.545	94.19
376.771	79.19
376.997	99.19
377.222	95.19
377.448	99.19
377.674	91.19
377.899	91.19
378.125	93.19
378.35	85.19
378.576	77.19
378.802	91.19
379.027	101.19
379.253	94.19
379.478	89.19
379.704	91.19
379.929	100.19
380.155	119.19
380.38	93.19
380.606	93.19
380.831	108.19
381.057	100.19
381.282	91.19
381.507	98.19
381.733	98.19
381.958	102.19
382.184	114.19
382.409	127.19
382.634	97.19
382.86	98.19
383.085	107.19
383.31	101.19
383.535	109.19
383.761	117.19
383.986	108.19
384.211	109.19
384.436	110.19
384.662	114.19
384.887	110.19
385.112	110.19
385.337	123.19
385.562	115.19
385.787	106.19
386.013	111.19
386.238	118.19
386.463	104.19
386.688	110.19
386.913	108.19
387.138	113.19
387.363	102.19
387.588	104.19
387.813	110.19
388.038	105.19
388.263	133.19
388.488	119.19
388.713	97.19
388.938	97.19
389.163	98.19
389.387	107.19
389.612	105.19
389.837	94.19
390.062	97.19
390.287	81.19
390.512	94.19
390.736	87.19
390.961	96.19
391.186	83.19
391.411	86.19
391.636	87.19
391.86	83.19
392.085	90.19
392.31	81.19
392.534	86.19
392.759	87.19
392.984	90.19
393.208	83.19
393.433	96.19
393.658	80.19
393.882	84.19
394.107	86.19
394.331	84.19
394.556	82.19
394.78	90.19
395.005	87.19
395.229	93.19
395.454	98.19
395.678	87.19
395.903	88.19
396.127	94.19
396.352	95.19
396.576	83.19
396.801	80.19
397.025	91.19
397.249	89.19
397.474	88.19
397.698	89.19
397.922	80.19
398.147	96.19
398.371	90.19
398.595	69.19
398.82	93.19
399.044	87.19
399.268	82.19
399.492	79.19
399.717	77.19
399.941	89.19
400.165	103.19
400.389	92.19
400.613	84.19
400.837	80.19
401.062	78.19
401.286	95.19
401.51	95.19
401.734	92.19
401.958	100.19
402.182	115.19
402.406	111.19
402.63	104.19
402.854	89.19
403.078	93.19
403.302	89.19
403.526	98.19
403.75	86.19
403.974	75.19
404.198	97.19
404.422	86.19
404.645	83.19
404.869	82.19
405.093	88.19
405.317	101.19
405.541	106.19
405.765	91.19
405.988	94.19
406.212	137.19
406.436	167.19
406.66	114.19
406.883	97.19
407.107	98.19
407.331	90.19
407.555	88.19
407.778	92.19
408.002	100.19
408.226	80.19
408.449	85.19
408.673	81.19
408.896	84.19
409.12	96.19
409.344	82.19
409.567	97.19
409.791	92.19
410.014	88.19
410.238	89.19
410.461	92.19
410.685	91.19
410.908	96.19
411.132	101.19
411.355	92.19
411.578	92.19
411.802	93.19
412.025	94.19
412.249	87.19
412.472	88.19
412.695	79.19
412.919	88.19
413.142	101.19
413.365	97.19
413.589	92.19
413.812	91.19
414.035	94.19
414.258	93.19
414.482	97.19
414.705	81.19
414.928	78.19
415.151	89.19
415.374	94.19
415.597	82.19
415.821	88.19
416.044	85.19
416.267	87.19
416.49	99.19
416.713	93.19
416.936	94.19
417.159	80.19
417.382	83.19
417.605	84.19
417.828	91.19
418.051	91.19
418.274	87.19
418.497	87.19
418.72	102.19
418.943	86.19
419.166	93.19
419.389	91.19
419.611	88.19
419.834	77.19
420.057	84.19
420.28	86.19
420.503	96.19
420.726	83.19
420.948	81.19
421.171	88.19
421.394	98.19
421.617	96.19
421.839	88.19
422.062	87.19
422.285	95.19
422.507	75.19
422.73	104.19
422.953	100.19
423.175	87.19
423.398	81.19
423.621	101.19
423.843	86.19
424.066	88.19
424.288	82.19
424.511	101.19
424.733	79.19
424.956	95.19
425.178	82.19
425.401	95.19
425.623	93.19
425.846	84.19
426.068	84.19
426.291	104.19
426.513	90.19
426.735	86.19
426.958	86.19
427.18	91.19
427.402	105.19
427.625	150.19
427.847	106.19
428.069	95.19
428.292	98.19
428.514	77.19
428.736	89.19
428.958	81.19
429.181	91.19
429.403	86.19
429.625	87.19
429.847	91.19
430.069	92.19
430.292	80.19
430.514	77.19
430.736	87.19
430.958	90.19
431.18	80.19
431.402	85.19
431.624	88.19
431.846	85.19
432.068	95.19
432.29	93.19
432.512	80.19
432.734	92.19
432.956	97.19
433.178	102.19
433.4	99.19
433.622	100.19
433.844	89.19
434.066	106.19
434.287	80.19
434.509	87.19
434.731	97.19
434.953	96.19
435.175	105.19
435.397	93.19
435.618	93.19
435.84	98.19
436.062	101.19
436.284	105.19
436.505	87.19
436.727	111.19
436.949	87.19
437.17	86.19
437.392	85.19
437.614	93.19
437.835	108.19
438.057	94.19
438.278	114.19
438.5	96.19
438.721	102.19
438.943	101.19
439.165	87.19
439.386	95.19
439.608	95.19
439.829	90.19
440.05	106.19
440.272	108.19
440.493	87.19
440.715	69.19
440.936	89.19
441.158	81.19
441.379	75.19
441.6	109.19
441.822	98.19
442.043	96.19
442.264	114.19
442.486	93.19
442.707	97.19
442.928	89.19
443.149	111.19
443.371	104.19
443.592	90.19
443.813	112.19
444.034	109.19
444.255	93.19
444.476	89.19
444.698	91.19
444.919	83.19
445.14	145.19
445.361	123.19
445.582	111.19
445.803	113.19
446.024	124.19
446.245	111.19
446.466	102.19
446.687	94.19
446.908	89.19
447.129	101.19
447.35	83.19
447.571	77.19
447.792	111.19
448.013	106.19
448.234	103.19
448.455	81.19
448.675	93.19
448.896	102.19
449.117	91.19
449.338	101.19
449.559	121.19
449.779	111.19
450	102.19
450.221	99.19
450.442	86.19
450.662	86.19
450.883	88.19
451.104	98.19
451.324	101.19
451.545	93.19
451.766	89.19
451.986	71.19
452.207	90.19
452.428	101.19
452.648	96.19
452.869	100.19
453.089	91.19
453.31	119.19
453.53	102.19
453.751	86.19
453.971	101.19
454.192	100.19
454.412	82.19
454.633	92.19
454.853	89.19
455.073	73.19
455.294	92.19
455.514	103.19
455.734	95.19
455.955	89.19
456.175	95.19
456.395	82.19
456.616	87.19
456.836	80.19
457.056	84.19
457.276	79.19
457.497	87.19
457.717	95.19
457.937	81.19
458.157	89.19
458.377	90.19
458.598	94.19
458.818	125.19
459.038	120.19
459.258	101.19
459.478	94.19
459.698	85.19
459.918	81.19
460.138	80.19
460.358	78.19
460.578	101.19
460.798	93.19
461.018	83.19
461.238	96.19
461.458	86.19
461.678	87.19
461.898	90.19
462.118	84.19
462.338	90.19
462.558	89.19
462.777	77.19
462.997	89.19
463.217	79.19
463.437	86.19
463.657	96.19
463.876	94.19
464.096	85.19
464.316	106.19
464.536	81.19
464.755	94.19
464.975	93.19
465.195	130.19
465.414	125.19
465.634	105.19
465.854	96.19
466.073	83.19
466.293	90.19
466.512	86.19
466.732	92.19
466.951	97.19
467.171	85.19
467.391	94.19
467.61	91.19
467.829	86.19
468.049	97.19
468.268	96.19
468.488	78.19
468.707	85.19
468.927	76.19
469.146	101.19
469.365	79.19
469.585	89.19
469.804	92.19
470.023	102.19
470.243	99.19
470.462	89.19
470.681	106.19
470.901	85.19
471.12	93.19
471.339	77.19
471.558	97.19
471.777	93.19
471.997	90.19
472.216	99.19
472.435	109.19
472.654	91.19
472.873	91.19
473.092	83.19
473.311	96.19
473.53	71.19
473.749	89.19
473.968	101.19
474.187	98.19
474.406	89.19
474.625	80.19
474.844	87.19
475.063	85.19
475.282	94.19
475.501	83.19
475.72	86.19
475.939	87.19
476.158	83.19
476.377	83.19
476.596	89.19
476.814	99.19
477.033	96.19
477.252	107.19
477.471	90.19
477.69	80.19
477.908	91.19
478.127	94.19
478.346	85.19
478.564	91.19
478.783	94.19
479.002	95.19
479.22	83.19
479.439	95.19
479.658	99.19
479.876	80.19
480.095	91.19
480.313	85.19
480.532	94.19
480.751	96.19
480.969	102.19
481.188	133.19
481.406	113.19
481.624	94.19
481.843	83.19
482.061	99.19
482.28	90.19
482.498	80.19
482.717	84.19
482.935	88.19
483.153	84.19
483.372	80.19
483.59	86.19
483.808	85.19
484.027	109.19
484.245	87.19
484.463	102.19
484.681	99.19
484.9	95.19
485.118	98.19
485.336	102.19
485.554	90.19
485.772	91.19
485.99	94.19
486.209	101.19
486.427	101.19
486.645	104.19
486.863	110.19
487.081	99.19
487.299	95.19
487.517	94.19
487.735	97.19
487.953	91.19
488.171	92.19
488.389	101.19
488.607	91.19
488.825	104.19
489.043	90.19
489.261	91.19
489.479	97.19
489.696	109.19
489.914	94.19
490.132	97.19
490.35	80.19
490.568	80.19
490.786	90.19
491.003	89.19
491.221	93.19
491.439	90.19
491.657	92.19
491.874	93.19
492.092	103.19
492.31	92.19
492.527	93.19
492.745	79.19
492.963	97.19
493.18	83.19
493.398	83.19
493.615	105.19
493.833	99.19
494.05	93.19
494.268	84.19
494.485	84.19
494.703	100.19
494.92	87.19
495.138	88.19
495.355	104.19
495.573	94.19
495.79	99.19
496.008	96.19
496.225	86.19
496.442	83.19
496.66	96.19
496.877	89.19
497.094	97.19
497.312	85.19
497.529	91.19
497.746	91.19
497.963	95.19
498.181	98.19
498.398	104.19
498.615	104.19
498.832	90.19
499.049	91.19
499.267	90.19
499.484	74.19
499.701	94.19
499.918	103.19
500.135	79.19
500.352	93.19
500.569	84.19
500.786	87.19
501.003	80.19
501.22	97.19
501.437	94.19
501.654	104.19
501.871	111.19
502.088	89.19
502.305	97.19
502.522	83.19
502.739	87.19
502.956	100.19
503.172	77.19
503.389	96.19
503.606	99.19
503.823	87.19
504.04	94.19
504.256	100.19
504.473	89.19
504.69	76.19
504.907	97.19
505.123	89.19
505.34	95.19
505.557	87.19
505.773	81.19
505.99	97.19
506.207	89.19
506.423	94.19
506.64	98.19
506.856	81.19
507.073	97.19
507.289	110.19
507.506	91.19
507.722	96.19
507.939	95.19
508.155	102.19
508.372	82.19
508.588	90.19
508.805	108.19
509.021	95.19
509.238	92.19
509.454	94.19
509.67	93.19
509.887	115.19
510.103	115.19
510.319	176.19
510.536	539.19
510.752	1483.19
510.968	429.19
511.184	145.19
511.401	94.19
511.617	89.19
511.833	102.19
512.049	107.19
512.265	88.19
512.481	96.19
512.698	97.19
512.914	86.19
513.13	92.19
513.346	103.19
513.562	105.19
513.778	91.19
513.994	100.19
514.21	98.19
514.426	96.19
514.642	104.19
514.858	104.19
515.074	139.19
515.29	290.19
515.506	865.19
515.721	347.19
