Data from Uncirc_2009_H10_HRD10591_00087.txt Node
Date: Wed Jan 03 10:12:19 EST 2024
User: Yrep
Spectrometer: HR+D1059
Trigger mode: 1
Integration Time (sec): 1.000000E-1
Scans to average: 1
Electric dark correction enabled: true
Nonlinearity correction enabled: false
Boxcar width: 0
XAxis mode: Wavelengths
Number of Pixels in Spectrum: 2048
>>>>>Begin Spectral Data<<<<<
223.165	-25.81
223.4	-25.81
223.635	-25.81
223.869	-21.81
224.104	-27.81
224.338	-6.81
224.573	-13.81
224.808	-0.81
225.042	-6.81
225.277	3.19
225.511	4.19
225.746	1.19
225.98	0.19
226.215	24.19
226.449	19.19
226.683	13.19
226.918	17.19
227.152	21.19
227.387	32.19
227.621	40.19
227.856	48.19
228.09	44.19
228.324	45.19
228.559	51.19
228.793	57.19
229.027	67.19
229.262	75.19
229.496	56.19
229.73	82.19
229.964	70.19
230.199	77.19
230.433	78.19
230.667	84.19
230.901	72.19
231.136	65.19
231.37	79.19
231.604	70.19
231.838	84.19
232.072	84.19
232.306	76.19
232.541	73.19
232.775	86.19
233.009	70.19
233.243	75.19
233.477	68.19
233.711	61.19
233.945	62.19
234.179	82.19
234.413	80.19
234.647	80.19
234.881	69.19
235.115	81.19
235.349	55.19
235.583	74.19
235.817	87.19
236.051	92.19
236.285	76.19
236.519	69.19
236.753	78.19
236.987	82.19
237.221	93.19
237.455	71.19
237.689	65.19
237.922	72.19
238.156	81.19
238.39	71.19
238.624	79.19
238.858	79.19
239.091	70.19
239.325	80.19
239.559	73.19
239.793	89.19
240.027	83.19
240.26	53.19
240.494	70.19
240.728	70.19
240.961	68.19
241.195	72.19
241.429	69.19
241.662	75.19
241.896	73.19
242.13	83.19
242.363	75.19
242.597	90.19
242.83	83.19
243.064	72.19
243.298	75.19
243.531	76.19
243.765	77.19
243.998	74.19
244.232	73.19
244.465	68.19
244.699	69.19
244.932	75.19
245.166	73.19
245.399	70.19
245.633	89.19
245.866	90.19
246.099	78.19
246.333	89.19
246.566	86.19
246.8	66.19
247.033	79.19
247.266	78.19
247.5	79.19
247.733	99.19
247.966	68.19
248.2	63.19
248.433	84.19
248.666	79.19
248.899	84.19
249.133	70.19
249.366	99.19
249.599	94.19
249.832	85.19
250.066	85.19
250.299	77.19
250.532	88.19
250.765	68.19
250.998	74.19
251.231	67.19
251.465	89.19
251.698	85.19
251.931	75.19
252.164	80.19
252.397	82.19
252.63	83.19
252.863	77.19
253.096	80.19
253.329	65.19
253.562	60.19
253.795	85.19
254.028	78.19
254.261	84.19
254.494	69.19
254.727	69.19
254.96	77.19
255.193	77.19
255.426	74.19
255.659	76.19
255.892	79.19
256.124	68.19
256.357	82.19
256.59	85.19
256.823	76.19
257.056	87.19
257.289	87.19
257.521	87.19
257.754	73.19
257.987	80.19
258.22	90.19
258.452	76.19
258.685	72.19
258.918	83.19
259.151	72.19
259.383	79.19
259.616	80.19
259.849	92.19
260.081	92.19
260.314	79.19
260.547	74.19
260.779	76.19
261.012	90.19
261.244	88.19
261.477	98.19
261.71	80.19
261.942	81.19
262.175	93.19
262.407	85.19
262.64	94.19
262.872	68.19
263.105	82.19
263.337	85.19
263.57	80.19
263.802	67.19
264.035	86.19
264.267	64.19
264.499	78.19
264.732	91.19
264.964	69.19
265.197	79.19
265.429	82.19
265.661	76.19
265.894	72.19
266.126	74.19
266.358	82.19
266.591	74.19
266.823	72.19
267.055	78.19
267.287	68.19
267.52	76.19
267.752	73.19
267.984	74.19
268.216	87.19
268.448	86.19
268.681	88.19
268.913	80.19
269.145	90.19
269.377	72.19
269.609	75.19
269.841	75.19
270.073	76.19
270.306	93.19
270.538	81.19
270.77	95.19
271.002	98.19
271.234	78.19
271.466	85.19
271.698	91.19
271.93	89.19
272.162	75.19
272.394	70.19
272.626	87.19
272.858	82.19
273.09	77.19
273.322	70.19
273.553	73.19
273.785	73.19
274.017	77.19
274.249	86.19
274.481	83.19
274.713	77.19
274.945	86.19
275.176	89.19
275.408	81.19
275.64	84.19
275.872	68.19
276.104	83.19
276.335	82.19
276.567	87.19
276.799	96.19
277.031	76.19
277.262	82.19
277.494	80.19
277.726	78.19
277.957	76.19
278.189	76.19
278.421	82.19
278.652	88.19
278.884	73.19
279.115	83.19
279.347	77.19
279.579	67.19
279.81	75.19
280.042	81.19
280.273	90.19
280.505	82.19
280.736	72.19
280.968	87.19
281.199	87.19
281.431	79.19
281.662	98.19
281.894	83.19
282.125	87.19
282.356	106.19
282.588	119.19
282.819	90.19
283.051	88.19
283.282	86.19
283.513	86.19
283.745	87.19
283.976	98.19
284.207	103.19
284.439	90.19
284.67	90.19
284.901	79.19
285.132	98.19
285.364	81.19
285.595	81.19
285.826	86.19
286.057	80.19
286.288	87.19
286.52	87.19
286.751	76.19
286.982	91.19
287.213	81.19
287.444	101.19
287.675	94.19
287.906	91.19
288.138	91.19
288.369	95.19
288.6	91.19
288.831	94.19
289.062	87.19
289.293	75.19
289.524	91.19
289.755	86.19
289.986	88.19
290.217	85.19
290.448	84.19
290.679	90.19
290.91	94.19
291.141	80.19
291.371	70.19
291.602	85.19
291.833	84.19
292.064	85.19
292.295	73.19
292.526	84.19
292.757	90.19
292.987	86.19
293.218	84.19
293.449	80.19
293.68	79.19
293.91	84.19
294.141	87.19
294.372	93.19
294.603	95.19
294.833	89.19
295.064	85.19
295.295	84.19
295.525	89.19
295.756	77.19
295.987	97.19
296.217	120.19
296.448	93.19
296.679	83.19
296.909	83.19
297.14	94.19
297.37	97.19
297.601	78.19
297.831	88.19
298.062	83.19
298.292	79.19
298.523	94.19
298.753	75.19
298.984	95.19
299.214	94.19
299.445	80.19
299.675	80.19
299.905	91.19
300.136	84.19
300.366	86.19
300.597	98.19
300.827	99.19
301.057	102.19
301.288	110.19
301.518	100.19
301.748	81.19
301.979	106.19
302.209	83.19
302.439	91.19
302.669	91.19
302.9	84.19
303.13	99.19
303.36	114.19
303.59	107.19
303.82	94.19
304.051	75.19
304.281	85.19
304.511	87.19
304.741	94.19
304.971	95.19
305.201	89.19
305.431	85.19
305.661	83.19
305.891	79.19
306.121	82.19
306.352	77.19
306.582	90.19
306.812	100.19
307.042	82.19
307.272	85.19
307.502	91.19
307.731	93.19
307.961	88.19
308.191	76.19
308.421	86.19
308.651	79.19
308.881	94.19
309.111	102.19
309.341	82.19
309.571	92.19
309.8	100.19
310.03	80.19
310.26	90.19
310.49	105.19
310.72	88.19
310.949	91.19
311.179	84.19
311.409	86.19
311.639	94.19
311.868	91.19
312.098	86.19
312.328	80.19
312.557	89.19
312.787	96.19
313.017	93.19
313.246	89.19
313.476	79.19
313.706	91.19
313.935	94.19
314.165	103.19
314.394	83.19
314.624	96.19
314.853	103.19
315.083	88.19
315.312	95.19
315.542	95.19
315.771	85.19
316.001	87.19
316.23	79.19
316.46	96.19
316.689	100.19
316.919	94.19
317.148	97.19
317.377	108.19
317.607	109.19
317.836	100.19
318.065	79.19
318.295	79.19
318.524	75.19
318.753	105.19
318.983	84.19
319.212	80.19
319.441	80.19
319.67	86.19
319.9	94.19
320.129	76.19
320.358	82.19
320.587	97.19
320.816	82.19
321.046	92.19
321.275	95.19
321.504	90.19
321.733	87.19
321.962	90.19
322.191	103.19
322.42	90.19
322.649	89.19
322.878	105.19
323.108	88.19
323.337	98.19
323.566	130.19
323.795	117.19
324.024	170.19
324.253	324.19
324.482	644.19
324.71	1341.19
324.939	1730.19
325.168	650.19
325.397	197.19
325.626	132.19
325.855	118.19
326.084	123.19
326.313	134.19
326.542	162.19
326.77	199.19
326.999	370.19
327.228	820.19
327.457	1397.19
327.686	1086.19
327.914	302.19
328.143	156.19
328.372	126.19
328.6	119.19
328.829	110.19
329.058	112.19
329.287	114.19
329.515	88.19
329.744	114.19
329.972	101.19
330.201	112.19
330.43	107.19
330.658	102.19
330.887	111.19
331.115	93.19
331.344	82.19
331.572	87.19
331.801	97.19
332.03	100.19
332.258	97.19
332.486	105.19
332.715	83.19
332.943	87.19
333.172	84.19
333.4	93.19
333.629	92.19
333.857	116.19
334.085	102.19
334.314	103.19
334.542	119.19
334.771	106.19
334.999	94.19
335.227	85.19
335.455	83.19
335.684	80.19
335.912	94.19
336.14	97.19
336.369	96.19
336.597	91.19
336.825	90.19
337.053	84.19
337.281	91.19
337.51	92.19
337.738	92.19
337.966	90.19
338.194	93.19
338.422	80.19
338.65	87.19
338.878	83.19
339.106	95.19
339.334	92.19
339.562	83.19
339.79	81.19
340.018	93.19
340.246	98.19
340.474	92.19
340.702	99.19
340.93	95.19
341.158	90.19
341.386	79.19
341.614	84.19
341.842	101.19
342.07	98.19
342.298	85.19
342.526	100.19
342.754	85.19
342.981	84.19
343.209	87.19
343.437	102.19
343.665	82.19
343.893	72.19
344.12	74.19
344.348	79.19
344.576	85.19
344.804	98.19
345.031	98.19
345.259	92.19
345.487	98.19
345.714	83.19
345.942	92.19
346.17	107.19
346.397	94.19
346.625	89.19
346.853	79.19
347.08	93.19
347.308	93.19
347.535	95.19
347.763	94.19
347.99	89.19
348.218	91.19
348.445	101.19
348.673	101.19
348.9	83.19
349.128	94.19
349.355	92.19
349.583	91.19
349.81	81.19
350.037	89.19
350.265	98.19
350.492	88.19
350.72	88.19
350.947	84.19
351.174	86.19
351.402	79.19
351.629	82.19
351.856	85.19
352.083	80.19
352.311	99.19
352.538	95.19
352.765	91.19
352.992	103.19
353.22	92.19
353.447	88.19
353.674	98.19
353.901	118.19
354.128	105.19
354.355	91.19
354.583	87.19
354.81	86.19
355.037	110.19
355.264	89.19
355.491	92.19
355.718	80.19
355.945	87.19
356.172	97.19
356.399	101.19
356.626	97.19
356.853	80.19
357.08	110.19
357.307	82.19
357.534	78.19
357.761	100.19
357.988	88.19
358.215	89.19
358.441	80.19
358.668	84.19
358.895	83.19
359.122	86.19
359.349	88.19
359.576	90.19
359.802	102.19
360.029	107.19
360.256	107.19
360.483	77.19
360.709	91.19
360.936	88.19
361.163	93.19
361.39	89.19
361.616	90.19
361.843	91.19
362.07	95.19
362.296	86.19
362.523	75.19
362.749	90.19
362.976	86.19
363.203	92.19
363.429	83.19
363.656	94.19
363.882	95.19
364.109	74.19
364.335	83.19
364.562	84.19
364.788	92.19
365.015	98.19
365.241	93.19
365.468	91.19
365.694	106.19
365.92	108.19
366.147	91.19
366.373	101.19
366.599	75.19
366.826	80.19
367.052	95.19
367.278	80.19
367.505	84.19
367.731	86.19
367.957	91.19
368.184	80.19
368.41	77.19
368.636	98.19
368.862	112.19
369.089	94.19
369.315	89.19
369.541	79.19
369.767	89.19
369.993	93.19
370.219	100.19
370.445	74.19
370.672	76.19
370.898	70.19
371.124	99.19
371.35	83.19
371.576	97.19
371.802	93.19
372.028	93.19
372.254	87.19
372.48	90.19
372.706	99.19
372.932	84.19
373.158	70.19
373.384	95.19
373.61	94.19
373.835	80.19
374.061	89.19
374.287	87.19
374.513	85.19
374.739	77.19
374.965	87.19
375.191	82.19
375.416	96.19
375.642	103.19
375.868	96.19
376.094	85.19
376.319	90.19
376.545	79.19
376.771	79.19
376.997	92.19
377.222	83.19
377.448	86.19
377.674	77.19
377.899	79.19
378.125	94.19
378.35	83.19
378.576	97.19
378.802	87.19
379.027	91.19
379.253	94.19
379.478	91.19
379.704	92.19
379.929	92.19
380.155	101.19
380.38	96.19
380.606	85.19
380.831	103.19
381.057	88.19
381.282	99.19
381.507	90.19
381.733	80.19
381.958	85.19
382.184	87.19
382.409	87.19
382.634	92.19
382.86	97.19
383.085	98.19
383.31	94.19
383.535	101.19
383.761	97.19
383.986	90.19
384.211	93.19
384.436	85.19
384.662	81.19
384.887	81.19
385.112	107.19
385.337	81.19
385.562	118.19
385.787	98.19
386.013	102.19
386.238	102.19
386.463	102.19
386.688	103.19
386.913	96.19
387.138	98.19
387.363	97.19
387.588	102.19
387.813	95.19
388.038	84.19
388.263	96.19
388.488	98.19
388.713	80.19
388.938	103.19
389.163	108.19
389.387	100.19
389.612	90.19
389.837	92.19
390.062	80.19
390.287	85.19
390.512	93.19
390.736	80.19
390.961	90.19
391.186	94.19
391.411	93.19
391.636	88.19
391.86	87.19
392.085	90.19
392.31	77.19
392.534	78.19
392.759	80.19
392.984	75.19
393.208	84.19
393.433	84.19
393.658	76.19
393.882	84.19
394.107	86.19
394.331	81.19
394.556	78.19
394.78	93.19
395.005	106.19
395.229	84.19
395.454	84.19
395.678	73.19
395.903	85.19
396.127	87.19
396.352	92.19
396.576	86.19
396.801	83.19
397.025	79.19
397.249	84.19
397.474	84.19
397.698	74.19
397.922	86.19
398.147	103.19
398.371	75.19
398.595	84.19
398.82	79.19
399.044	77.19
399.268	90.19
399.492	80.19
399.717	72.19
399.941	71.19
400.165	86.19
400.389	79.19
400.613	87.19
400.837	81.19
401.062	78.19
401.286	94.19
401.51	100.19
401.734	80.19
401.958	84.19
402.182	118.19
402.406	130.19
402.63	93.19
402.854	93.19
403.078	90.19
403.302	79.19
403.526	83.19
403.75	75.19
403.974	82.19
404.198	74.19
404.422	87.19
404.645	84.19
404.869	93.19
405.093	76.19
405.317	84.19
405.541	88.19
405.765	83.19
405.988	90.19
406.212	124.19
406.436	171.19
406.66	110.19
406.883	107.19
407.107	88.19
407.331	92.19
407.555	92.19
407.778	88.19
408.002	90.19
408.226	80.19
408.449	75.19
408.673	69.19
408.896	87.19
409.12	88.19
409.344	87.19
409.567	85.19
409.791	85.19
410.014	87.19
410.238	82.19
410.461	91.19
410.685	96.19
410.908	100.19
411.132	107.19
411.355	95.19
411.578	98.19
411.802	97.19
412.025	85.19
412.249	87.19
412.472	92.19
412.695	81.19
412.919	99.19
413.142	92.19
413.365	85.19
413.589	78.19
413.812	101.19
414.035	85.19
414.258	78.19
414.482	96.19
414.705	78.19
414.928	83.19
415.151	84.19
415.374	83.19
415.597	96.19
415.821	86.19
416.044	78.19
416.267	95.19
416.49	80.19
416.713	64.19
416.936	75.19
417.159	89.19
417.382	90.19
417.605	88.19
417.828	73.19
418.051	89.19
418.274	86.19
418.497	68.19
418.72	96.19
418.943	86.19
419.166	95.19
419.389	87.19
419.611	82.19
419.834	81.19
420.057	81.19
420.28	80.19
420.503	89.19
420.726	93.19
420.948	85.19
421.171	95.19
421.394	105.19
421.617	96.19
421.839	94.19
422.062	85.19
422.285	95.19
422.507	99.19
422.73	94.19
422.953	83.19
423.175	81.19
423.398	94.19
423.621	93.19
423.843	96.19
424.066	78.19
424.288	78.19
424.511	83.19
424.733	95.19
424.956	92.19
425.178	88.19
425.401	83.19
425.623	92.19
425.846	79.19
426.068	89.19
426.291	97.19
426.513	83.19
426.735	87.19
426.958	71.19
427.18	96.19
427.402	136.19
427.625	143.19
427.847	112.19
428.069	96.19
428.292	90.19
428.514	91.19
428.736	77.19
428.958	74.19
429.181	95.19
429.403	101.19
429.625	92.19
429.847	86.19
430.069	83.19
430.292	91.19
430.514	92.19
430.736	95.19
430.958	80.19
431.18	88.19
431.402	86.19
431.624	99.19
431.846	78.19
432.068	85.19
432.29	85.19
432.512	95.19
432.734	88.19
432.956	86.19
433.178	101.19
433.4	93.19
433.622	78.19
433.844	104.19
434.066	74.19
434.287	82.19
434.509	88.19
434.731	72.19
434.953	77.19
435.175	95.19
435.397	85.19
435.618	78.19
435.84	92.19
436.062	102.19
436.284	107.19
436.505	108.19
436.727	94.19
436.949	80.19
437.17	82.19
437.392	93.19
437.614	83.19
437.835	78.19
438.057	75.19
438.278	94.19
438.5	99.19
438.721	108.19
438.943	107.19
439.165	85.19
439.386	94.19
439.608	101.19
439.829	94.19
440.05	102.19
440.272	117.19
440.493	90.19
440.715	75.19
440.936	69.19
441.158	85.19
441.379	77.19
441.6	72.19
441.822	92.19
442.043	88.19
442.264	99.19
442.486	91.19
442.707	89.19
442.928	103.19
443.149	94.19
443.371	110.19
443.592	98.19
443.813	101.19
444.034	99.19
444.255	93.19
444.476	94.19
444.698	88.19
444.919	86.19
445.14	148.19
445.361	110.19
445.582	104.19
445.803	101.19
446.024	117.19
446.245	118.19
446.466	95.19
446.687	84.19
446.908	65.19
447.129	90.19
447.35	86.19
447.571	93.19
447.792	86.19
448.013	78.19
448.234	83.19
448.455	89.19
448.675	98.19
448.896	103.19
449.117	86.19
449.338	82.19
449.559	119.19
449.779	119.19
450	102.19
450.221	72.19
450.442	82.19
450.662	82.19
450.883	89.19
451.104	84.19
451.324	92.19
451.545	76.19
451.766	82.19
451.986	81.19
452.207	89.19
452.428	89.19
452.648	101.19
452.869	90.19
453.089	78.19
453.31	98.19
453.53	98.19
453.751	72.19
453.971	85.19
454.192	87.19
454.412	99.19
454.633	79.19
454.853	101.19
455.073	86.19
455.294	96.19
455.514	92.19
455.734	86.19
455.955	92.19
456.175	74.19
456.395	102.19
456.616	86.19
456.836	84.19
457.056	81.19
457.276	70.19
457.497	77.19
457.717	66.19
457.937	74.19
458.157	83.19
458.377	87.19
458.598	97.19
458.818	119.19
459.038	122.19
459.258	101.19
459.478	82.19
459.698	89.19
459.918	75.19
460.138	80.19
460.358	85.19
460.578	82.19
460.798	88.19
461.018	90.19
461.238	96.19
461.458	81.19
461.678	87.19
461.898	75.19
462.118	97.19
462.338	81.19
462.558	85.19
462.777	89.19
462.997	86.19
463.217	83.19
463.437	86.19
463.657	91.19
463.876	79.19
464.096	80.19
464.316	86.19
464.536	101.19
464.755	95.19
464.975	98.19
465.195	125.19
465.414	118.19
465.634	96.19
465.854	90.19
466.073	74.19
466.293	86.19
466.512	89.19
466.732	83.19
466.951	88.19
467.171	88.19
467.391	89.19
467.61	92.19
467.829	95.19
468.049	86.19
468.268	92.19
468.488	78.19
468.707	78.19
468.927	75.19
469.146	90.19
469.365	78.19
469.585	98.19
469.804	86.19
470.023	73.19
470.243	94.19
470.462	82.19
470.681	88.19
470.901	96.19
471.12	90.19
471.339	72.19
471.558	74.19
471.777	79.19
471.997	79.19
472.216	96.19
472.435	117.19
472.654	94.19
472.873	83.19
473.092	90.19
473.311	88.19
473.53	89.19
473.749	81.19
473.968	86.19
474.187	101.19
474.406	80.19
474.625	94.19
474.844	85.19
475.063	81.19
475.282	83.19
475.501	86.19
475.72	88.19
475.939	76.19
476.158	75.19
476.377	82.19
476.596	87.19
476.814	86.19
477.033	88.19
477.252	89.19
477.471	71.19
477.69	86.19
477.908	89.19
478.127	90.19
478.346	72.19
478.564	79.19
478.783	88.19
479.002	92.19
479.22	71.19
479.439	87.19
479.658	101.19
479.876	82.19
480.095	87.19
480.313	88.19
480.532	85.19
480.751	103.19
480.969	96.19
481.188	127.19
481.406	116.19
481.624	86.19
481.843	84.19
482.061	75.19
482.28	93.19
482.498	78.19
482.717	81.19
482.935	91.19
483.153	93.19
483.372	92.19
483.59	81.19
483.808	80.19
484.027	84.19
484.245	75.19
484.463	95.19
484.681	89.19
484.9	101.19
485.118	92.19
485.336	99.19
485.554	91.19
485.772	86.19
485.99	105.19
486.209	106.19
486.427	95.19
486.645	86.19
486.863	97.19
487.081	92.19
487.299	93.19
487.517	89.19
487.735	85.19
487.953	100.19
488.171	93.19
488.389	96.19
488.607	91.19
488.825	74.19
489.043	70.19
489.261	96.19
489.479	91.19
489.696	93.19
489.914	87.19
490.132	98.19
490.35	100.19
490.568	81.19
490.786	89.19
491.003	85.19
491.221	85.19
491.439	92.19
491.657	96.19
491.874	79.19
492.092	70.19
492.31	87.19
492.527	77.19
492.745	78.19
492.963	93.19
493.18	90.19
493.398	88.19
493.615	90.19
493.833	98.19
494.05	96.19
494.268	86.19
494.485	93.19
494.703	75.19
494.92	83.19
495.138	77.19
495.355	95.19
495.573	94.19
495.79	72.19
496.008	91.19
496.225	79.19
496.442	87.19
496.66	86.19
496.877	86.19
497.094	94.19
497.312	68.19
497.529	76.19
497.746	89.19
497.963	101.19
498.181	89.19
498.398	85.19
498.615	100.19
498.832	101.19
499.049	80.19
499.267	85.19
499.484	93.19
499.701	91.19
499.918	82.19
500.135	88.19
500.352	95.19
500.569	83.19
500.786	86.19
501.003	92.19
501.22	92.19
501.437	96.19
501.654	71.19
501.871	98.19
502.088	81.19
502.305	81.19
502.522	93.19
502.739	75.19
502.956	84.19
503.172	84.19
503.389	83.19
503.606	97.19
503.823	83.19
504.04	89.19
504.256	106.19
504.473	93.19
504.69	88.19
504.907	94.19
505.123	82.19
505.34	90.19
505.557	82.19
505.773	88.19
505.99	84.19
506.207	84.19
506.423	86.19
506.64	89.19
506.856	83.19
507.073	91.19
507.289	86.19
507.506	91.19
507.722	77.19
507.939	86.19
508.155	82.19
508.372	93.19
508.588	79.19
508.805	87.19
509.021	100.19
509.238	90.19
509.454	84.19
509.67	91.19
509.887	94.19
510.103	106.19
510.319	168.19
510.536	521.19
510.752	1606.19
510.968	468.19
511.184	136.19
511.401	101.19
511.617	99.19
511.833	102.19
512.049	89.19
512.265	82.19
512.481	93.19
512.698	78.19
512.914	87.19
513.13	90.19
513.346	87.19
513.562	92.19
513.778	88.19
513.994	85.19
514.21	93.19
514.426	96.19
514.642	111.19
514.858	107.19
515.074	134.19
515.29	291.19
515.506	922.19
515.721	364.19
515.937	121.19
516.153	94.19
516.369	94.19
516.585	93.19
516.801	88.19
517.016	104.19
517.232	92.19
517.448	100.19
517.664	90.19
