Data from Uncirc_2009_H10_HRD10591_00072.txt Node
Date: Wed Jan 03 10:12:16 EST 2024
User: Yrep
Spectrometer: HR+D1059
Trigger mode: 1
Integration Time (sec): 1.000000E-1
Scans to average: 1
Electric dark correction enabled: true
Nonlinearity correction enabled: false
Boxcar width: 0
XAxis mode: Wavelengths
Number of Pixels in Spectrum: 2048
>>>>>Begin Spectral Data<<<<<
223.165	-3.31
223.4	-3.31
223.635	-3.31
223.869	-25.31
224.104	-14.31
224.338	-10.31
224.573	-12.31
224.808	-26.31
225.042	-6.31
225.277	-7.31
225.511	-22.31
225.746	9.69
225.98	6.69
226.215	15.69
226.449	17.69
226.683	24.69
226.918	20.69
227.152	32.69
227.387	28.69
227.621	32.69
227.856	41.69
228.09	41.69
228.324	41.69
228.559	53.69
228.793	51.69
229.027	71.69
229.262	75.69
229.496	68.69
229.73	77.69
229.964	81.69
230.199	67.69
230.433	62.69
230.667	82.69
230.901	79.69
231.136	69.69
231.37	80.69
231.604	79.69
231.838	78.69
232.072	70.69
232.306	85.69
232.541	79.69
232.775	77.69
233.009	88.69
233.243	99.69
233.477	86.69
233.711	79.69
233.945	74.69
234.179	69.69
234.413	84.69
234.647	83.69
234.881	71.69
235.115	79.69
235.349	72.69
235.583	83.69
235.817	66.69
236.051	71.69
236.285	70.69
236.519	76.69
236.753	73.69
236.987	78.69
237.221	79.69
237.455	68.69
237.689	63.69
237.922	75.69
238.156	76.69
238.39	69.69
238.624	75.69
238.858	75.69
239.091	64.69
239.325	74.69
239.559	64.69
239.793	81.69
240.027	79.69
240.26	60.69
240.494	65.69
240.728	89.69
240.961	76.69
241.195	78.69
241.429	79.69
241.662	74.69
241.896	71.69
242.13	67.69
242.363	86.69
242.597	72.69
242.83	77.69
243.064	83.69
243.298	77.69
243.531	88.69
243.765	73.69
243.998	75.69
244.232	80.69
244.465	77.69
244.699	74.69
244.932	70.69
245.166	78.69
245.399	76.69
245.633	75.69
245.866	81.69
246.099	66.69
246.333	78.69
246.566	87.69
246.8	78.69
247.033	79.69
247.266	65.69
247.5	79.69
247.733	94.69
247.966	83.69
248.2	78.69
248.433	79.69
248.666	89.69
248.899	76.69
249.133	77.69
249.366	86.69
249.599	84.69
249.832	81.69
250.066	84.69
250.299	81.69
250.532	89.69
250.765	80.69
250.998	67.69
251.231	80.69
251.465	75.69
251.698	79.69
251.931	75.69
252.164	74.69
252.397	72.69
252.63	86.69
252.863	70.69
253.096	76.69
253.329	78.69
253.562	72.69
253.795	73.69
254.028	65.69
254.261	87.69
254.494	77.69
254.727	77.69
254.96	88.69
255.193	71.69
255.426	80.69
255.659	84.69
255.892	72.69
256.124	73.69
256.357	75.69
256.59	81.69
256.823	73.69
257.056	72.69
257.289	71.69
257.521	78.69
257.754	78.69
257.987	72.69
258.22	84.69
258.452	75.69
258.685	67.69
258.918	85.69
259.151	91.69
259.383	92.69
259.616	87.69
259.849	86.69
260.081	89.69
260.314	61.69
260.547	89.69
260.779	84.69
261.012	74.69
261.244	81.69
261.477	69.69
261.71	85.69
261.942	97.69
262.175	97.69
262.407	100.69
262.64	90.69
262.872	85.69
263.105	94.69
263.337	79.69
263.57	75.69
263.802	78.69
264.035	100.69
264.267	84.69
264.499	86.69
264.732	76.69
264.964	76.69
265.197	94.69
265.429	85.69
265.661	86.69
265.894	91.69
266.126	81.69
266.358	79.69
266.591	73.69
266.823	84.69
267.055	75.69
267.287	90.69
267.52	74.69
267.752	91.69
267.984	96.69
268.216	92.69
268.448	85.69
268.681	84.69
268.913	79.69
269.145	77.69
269.377	79.69
269.609	79.69
269.841	80.69
270.073	77.69
270.306	88.69
270.538	88.69
270.77	84.69
271.002	98.69
271.234	91.69
271.466	81.69
271.698	77.69
271.93	76.69
272.162	71.69
272.394	74.69
272.626	77.69
272.858	84.69
273.09	85.69
273.322	76.69
273.553	92.69
273.785	86.69
274.017	85.69
274.249	78.69
274.481	68.69
274.713	79.69
274.945	90.69
275.176	80.69
275.408	90.69
275.64	91.69
275.872	87.69
276.104	88.69
276.335	74.69
276.567	85.69
276.799	97.69
277.031	80.69
277.262	86.69
277.494	80.69
277.726	80.69
277.957	60.69
278.189	83.69
278.421	96.69
278.652	84.69
278.884	79.69
279.115	79.69
279.347	72.69
279.579	80.69
279.81	86.69
280.042	77.69
280.273	76.69
280.505	83.69
280.736	81.69
280.968	82.69
281.199	88.69
281.431	92.69
281.662	86.69
281.894	89.69
282.125	94.69
282.356	104.69
282.588	112.69
282.819	104.69
283.051	90.69
283.282	73.69
283.513	89.69
283.745	92.69
283.976	92.69
284.207	90.69
284.439	73.69
284.67	89.69
284.901	86.69
285.132	92.69
285.364	77.69
285.595	80.69
285.826	80.69
286.057	85.69
286.288	86.69
286.52	88.69
286.751	70.69
286.982	85.69
287.213	80.69
287.444	91.69
287.675	79.69
287.906	84.69
288.138	73.69
288.369	93.69
288.6	89.69
288.831	101.69
289.062	78.69
289.293	91.69
289.524	73.69
289.755	73.69
289.986	87.69
290.217	77.69
290.448	89.69
290.679	90.69
290.91	93.69
291.141	87.69
291.371	93.69
291.602	82.69
291.833	84.69
292.064	79.69
292.295	95.69
292.526	82.69
292.757	89.69
292.987	92.69
293.218	80.69
293.449	91.69
293.68	83.69
293.91	90.69
294.141	92.69
294.372	77.69
294.603	79.69
294.833	85.69
295.064	80.69
295.295	81.69
295.525	82.69
295.756	99.69
295.987	108.69
296.217	127.69
296.448	104.69
296.679	73.69
296.909	81.69
297.14	77.69
297.37	89.69
297.601	81.69
297.831	84.69
298.062	83.69
298.292	95.69
298.523	91.69
298.753	87.69
298.984	76.69
299.214	76.69
299.445	88.69
299.675	88.69
299.905	87.69
300.136	80.69
300.366	100.69
300.597	86.69
300.827	109.69
301.057	108.69
301.288	105.69
301.518	95.69
301.748	81.69
301.979	99.69
302.209	93.69
302.439	83.69
302.669	85.69
302.9	79.69
303.13	99.69
303.36	93.69
303.59	104.69
303.82	97.69
304.051	83.69
304.281	93.69
304.511	87.69
304.741	91.69
304.971	97.69
305.201	88.69
305.431	80.69
305.661	84.69
305.891	94.69
306.121	96.69
306.352	92.69
306.582	97.69
306.812	95.69
307.042	95.69
307.272	108.69
307.502	83.69
307.731	90.69
307.961	88.69
308.191	93.69
308.421	84.69
308.651	100.69
308.881	85.69
309.111	84.69
309.341	79.69
309.571	97.69
309.8	84.69
310.03	93.69
310.26	77.69
310.49	84.69
310.72	88.69
310.949	83.69
311.179	91.69
311.409	78.69
311.639	89.69
311.868	88.69
312.098	92.69
312.328	91.69
312.557	92.69
312.787	95.69
313.017	91.69
313.246	75.69
313.476	89.69
313.706	106.69
313.935	88.69
314.165	90.69
314.394	88.69
314.624	90.69
314.853	94.69
315.083	100.69
315.312	90.69
315.542	80.69
315.771	90.69
316.001	84.69
316.23	96.69
316.46	80.69
316.689	106.69
316.919	98.69
317.148	95.69
317.377	110.69
317.607	107.69
317.836	108.69
318.065	94.69
318.295	79.69
318.524	93.69
318.753	93.69
318.983	96.69
319.212	83.69
319.441	102.69
319.67	97.69
319.9	104.69
320.129	81.69
320.358	78.69
320.587	92.69
320.816	94.69
321.046	93.69
321.275	86.69
321.504	83.69
321.733	95.69
321.962	92.69
322.191	94.69
322.42	109.69
322.649	104.69
322.878	104.69
323.108	109.69
323.337	104.69
323.566	102.69
323.795	123.69
324.024	171.69
324.253	312.69
324.482	634.69
324.71	1302.69
324.939	1704.69
325.168	643.69
325.397	215.69
325.626	122.69
325.855	124.69
326.084	135.69
326.313	143.69
326.542	151.69
326.77	208.69
326.999	384.69
327.228	780.69
327.457	1378.69
327.686	1110.69
327.914	300.69
328.143	168.69
328.372	120.69
328.6	120.69
328.829	106.69
329.058	96.69
329.287	115.69
329.515	102.69
329.744	89.69
329.972	110.69
330.201	104.69
330.43	108.69
330.658	107.69
330.887	112.69
331.115	109.69
331.344	115.69
331.572	100.69
331.801	98.69
332.03	97.69
332.258	89.69
332.486	80.69
332.715	82.69
332.943	77.69
333.172	113.69
333.4	105.69
333.629	96.69
333.857	96.69
334.085	114.69
334.314	113.69
334.542	119.69
334.771	122.69
334.999	87.69
335.227	91.69
335.455	76.69
335.684	102.69
335.912	109.69
336.14	101.69
336.369	81.69
336.597	83.69
336.825	89.69
337.053	95.69
337.281	90.69
337.51	92.69
337.738	94.69
337.966	87.69
338.194	99.69
338.422	89.69
338.65	81.69
338.878	83.69
339.106	99.69
339.334	92.69
339.562	79.69
339.79	86.69
340.018	91.69
340.246	98.69
340.474	92.69
340.702	100.69
340.93	98.69
341.158	87.69
341.386	83.69
341.614	84.69
341.842	92.69
342.07	86.69
342.298	89.69
342.526	93.69
342.754	69.69
342.981	94.69
343.209	92.69
343.437	87.69
343.665	89.69
343.893	93.69
344.12	96.69
344.348	104.69
344.576	107.69
344.804	105.69
345.031	104.69
345.259	95.69
345.487	80.69
345.714	95.69
345.942	92.69
346.17	96.69
346.397	88.69
346.625	93.69
346.853	92.69
347.08	100.69
347.308	83.69
347.535	95.69
347.763	94.69
347.99	93.69
348.218	91.69
348.445	100.69
348.673	101.69
348.9	94.69
349.128	80.69
349.355	86.69
349.583	99.69
349.81	96.69
350.037	103.69
350.265	97.69
350.492	92.69
350.72	93.69
350.947	84.69
351.174	107.69
351.402	103.69
351.629	109.69
351.856	100.69
352.083	95.69
352.311	94.69
352.538	103.69
352.765	99.69
352.992	95.69
353.22	84.69
353.447	102.69
353.674	110.69
353.901	87.69
354.128	92.69
354.355	101.69
354.583	99.69
354.81	99.69
355.037	105.69
355.264	103.69
355.491	100.69
355.718	88.69
355.945	94.69
356.172	98.69
356.399	105.69
356.626	77.69
356.853	83.69
357.08	90.69
357.307	83.69
357.534	88.69
357.761	89.69
357.988	99.69
358.215	97.69
358.441	82.69
358.668	90.69
358.895	90.69
359.122	95.69
359.349	94.69
359.576	103.69
359.802	88.69
360.029	112.69
360.256	86.69
360.483	93.69
360.709	88.69
360.936	98.69
361.163	81.69
361.39	93.69
361.616	91.69
361.843	84.69
362.07	86.69
362.296	90.69
362.523	84.69
362.749	86.69
362.976	91.69
363.203	90.69
363.429	85.69
363.656	86.69
363.882	79.69
364.109	84.69
364.335	91.69
364.562	89.69
364.788	75.69
365.015	77.69
365.241	95.69
365.468	96.69
365.694	80.69
365.92	57.69
366.147	81.69
366.373	84.69
366.599	94.69
366.826	83.69
367.052	93.69
367.278	84.69
367.505	79.69
367.731	95.69
367.957	79.69
368.184	103.69
368.41	90.69
368.636	100.69
368.862	103.69
369.089	103.69
369.315	91.69
369.541	91.69
369.767	105.69
369.993	80.69
370.219	94.69
370.445	76.69
370.672	91.69
370.898	83.69
371.124	88.69
371.35	107.69
371.576	80.69
371.802	81.69
372.028	78.69
372.254	91.69
372.48	93.69
372.706	92.69
372.932	82.69
373.158	94.69
373.384	90.69
373.61	90.69
373.835	77.69
374.061	96.69
374.287	84.69
374.513	85.69
374.739	76.69
374.965	80.69
375.191	91.69
375.416	85.69
375.642	74.69
375.868	96.69
376.094	89.69
376.319	93.69
376.545	93.69
376.771	104.69
376.997	94.69
377.222	97.69
377.448	93.69
377.674	99.69
377.899	92.69
378.125	88.69
378.35	98.69
378.576	93.69
378.802	72.69
379.027	87.69
379.253	86.69
379.478	80.69
379.704	79.69
379.929	98.69
380.155	98.69
380.38	90.69
380.606	104.69
380.831	97.69
381.057	92.69
381.282	92.69
381.507	87.69
381.733	101.69
381.958	97.69
382.184	88.69
382.409	87.69
382.634	120.69
382.86	98.69
383.085	102.69
383.31	98.69
383.535	100.69
383.761	96.69
383.986	85.69
384.211	95.69
384.436	101.69
384.662	101.69
384.887	96.69
385.112	92.69
385.337	83.69
385.562	87.69
385.787	97.69
386.013	93.69
386.238	102.69
386.463	99.69
386.688	107.69
386.913	92.69
387.138	108.69
387.363	101.69
387.588	104.69
387.813	97.69
388.038	92.69
388.263	109.69
388.488	102.69
388.713	104.69
388.938	96.69
389.163	104.69
389.387	95.69
389.612	74.69
389.837	89.69
390.062	96.69
390.287	102.69
390.512	101.69
390.736	87.69
390.961	97.69
391.186	96.69
391.411	96.69
391.636	95.69
391.86	88.69
392.085	88.69
392.31	84.69
392.534	87.69
392.759	95.69
392.984	88.69
393.208	77.69
393.433	87.69
393.658	86.69
393.882	72.69
394.107	87.69
394.331	81.69
394.556	85.69
394.78	79.69
395.005	70.69
395.229	91.69
395.454	91.69
395.678	73.69
395.903	77.69
396.127	89.69
396.352	81.69
396.576	95.69
396.801	89.69
397.025	81.69
397.249	87.69
397.474	97.69
397.698	96.69
397.922	89.69
398.147	101.69
398.371	82.69
398.595	86.69
398.82	81.69
399.044	84.69
399.268	70.69
399.492	92.69
399.717	81.69
399.941	92.69
400.165	112.69
400.389	96.69
400.613	89.69
400.837	81.69
401.062	91.69
401.286	104.69
401.51	96.69
401.734	92.69
401.958	73.69
402.182	116.69
402.406	112.69
402.63	109.69
402.854	87.69
403.078	83.69
403.302	79.69
403.526	81.69
403.75	89.69
403.974	95.69
404.198	88.69
404.422	75.69
404.645	72.69
404.869	84.69
405.093	95.69
405.317	94.69
405.541	84.69
405.765	82.69
405.988	105.69
406.212	146.69
406.436	153.69
406.66	114.69
406.883	85.69
407.107	90.69
407.331	89.69
407.555	79.69
407.778	89.69
408.002	84.69
408.226	90.69
408.449	79.69
408.673	89.69
408.896	104.69
409.12	97.69
409.344	91.69
409.567	85.69
409.791	93.69
410.014	103.69
410.238	87.69
410.461	99.69
410.685	101.69
410.908	93.69
411.132	91.69
411.355	99.69
411.578	85.69
411.802	82.69
412.025	89.69
412.249	83.69
412.472	86.69
412.695	95.69
412.919	78.69
413.142	89.69
413.365	90.69
413.589	92.69
413.812	95.69
414.035	90.69
414.258	92.69
414.482	80.69
414.705	88.69
414.928	81.69
415.151	75.69
415.374	92.69
415.597	81.69
415.821	89.69
416.044	76.69
416.267	85.69
416.49	99.69
416.713	96.69
416.936	74.69
417.159	90.69
417.382	81.69
417.605	93.69
417.828	87.69
418.051	85.69
418.274	84.69
418.497	79.69
418.72	88.69
418.943	88.69
419.166	81.69
419.389	96.69
419.611	72.69
419.834	74.69
420.057	77.69
420.28	99.69
420.503	81.69
420.726	84.69
420.948	85.69
421.171	79.69
421.394	95.69
421.617	89.69
421.839	76.69
422.062	93.69
422.285	92.69
422.507	93.69
422.73	102.69
422.953	110.69
423.175	76.69
423.398	96.69
423.621	91.69
423.843	85.69
424.066	74.69
424.288	89.69
424.511	76.69
424.733	92.69
424.956	104.69
425.178	99.69
425.401	113.69
425.623	95.69
425.846	87.69
426.068	73.69
426.291	86.69
426.513	80.69
426.735	85.69
426.958	101.69
427.18	93.69
427.402	125.69
427.625	143.69
427.847	120.69
428.069	95.69
428.292	92.69
428.514	91.69
428.736	85.69
428.958	94.69
429.181	83.69
429.403	76.69
429.625	97.69
429.847	91.69
430.069	89.69
430.292	96.69
430.514	81.69
430.736	73.69
430.958	93.69
431.18	87.69
431.402	87.69
431.624	74.69
431.846	83.69
432.068	88.69
432.29	94.69
432.512	76.69
432.734	101.69
432.956	79.69
433.178	89.69
433.4	87.69
433.622	78.69
433.844	83.69
434.066	94.69
434.287	84.69
434.509	84.69
434.731	92.69
434.953	94.69
435.175	91.69
435.397	89.69
435.618	77.69
435.84	86.69
436.062	86.69
436.284	112.69
436.505	102.69
436.727	84.69
436.949	84.69
437.17	93.69
437.392	65.69
437.614	74.69
437.835	103.69
438.057	93.69
438.278	93.69
438.5	110.69
438.721	99.69
438.943	103.69
439.165	97.69
439.386	99.69
439.608	96.69
439.829	108.69
440.05	99.69
440.272	108.69
440.493	83.69
440.715	81.69
440.936	85.69
441.158	85.69
441.379	93.69
441.6	94.69
441.822	93.69
442.043	78.69
442.264	89.69
442.486	88.69
442.707	73.69
442.928	80.69
443.149	95.69
443.371	123.69
443.592	90.69
443.813	104.69
444.034	89.69
444.255	91.69
444.476	92.69
444.698	95.69
444.919	99.69
445.14	129.69
445.361	130.69
445.582	88.69
445.803	120.69
446.024	125.69
446.245	124.69
446.466	101.69
446.687	90.69
446.908	84.69
447.129	86.69
447.35	76.69
447.571	84.69
447.792	87.69
448.013	89.69
448.234	105.69
448.455	101.69
448.675	100.69
448.896	99.69
449.117	90.69
449.338	108.69
449.559	116.69
449.779	115.69
450	91.69
450.221	80.69
450.442	83.69
450.662	90.69
450.883	93.69
451.104	85.69
451.324	95.69
451.545	83.69
451.766	92.69
451.986	85.69
452.207	87.69
452.428	93.69
452.648	90.69
452.869	95.69
453.089	99.69
453.31	105.69
453.53	99.69
453.751	92.69
453.971	94.69
454.192	97.69
454.412	95.69
454.633	85.69
454.853	102.69
455.073	91.69
455.294	83.69
455.514	91.69
455.734	72.69
455.955	78.69
456.175	91.69
456.395	92.69
456.616	92.69
456.836	91.69
457.056	78.69
457.276	73.69
457.497	71.69
457.717	77.69
457.937	97.69
458.157	92.69
458.377	78.69
458.598	93.69
458.818	127.69
459.038	133.69
459.258	93.69
459.478	94.69
459.698	68.69
459.918	83.69
460.138	75.69
460.358	87.69
460.578	88.69
460.798	88.69
461.018	90.69
461.238	88.69
461.458	91.69
461.678	79.69
461.898	83.69
462.118	84.69
462.338	88.69
462.558	89.69
462.777	79.69
462.997	84.69
463.217	80.69
463.437	89.69
463.657	85.69
463.876	81.69
464.096	79.69
464.316	89.69
464.536	84.69
464.755	91.69
464.975	109.69
465.195	150.69
465.414	125.69
465.634	76.69
465.854	86.69
466.073	75.69
466.293	76.69
466.512	87.69
466.732	99.69
466.951	85.69
467.171	71.69
467.391	87.69
467.61	95.69
467.829	97.69
468.049	91.69
468.268	100.69
468.488	79.69
468.707	100.69
468.927	77.69
469.146	78.69
469.365	80.69
469.585	95.69
469.804	89.69
470.023	88.69
470.243	104.69
470.462	88.69
470.681	108.69
470.901	74.69
471.12	84.69
471.339	99.69
471.558	76.69
471.777	76.69
471.997	85.69
472.216	111.69
472.435	119.69
472.654	84.69
472.873	91.69
473.092	84.69
473.311	91.69
473.53	77.69
473.749	89.69
473.968	94.69
474.187	93.69
474.406	98.69
474.625	73.69
474.844	76.69
475.063	69.69
475.282	90.69
475.501	81.69
475.72	89.69
475.939	86.69
476.158	94.69
476.377	75.69
476.596	85.69
476.814	77.69
477.033	100.69
477.252	95.69
477.471	78.69
477.69	73.69
477.908	88.69
478.127	101.69
478.346	88.69
478.564	70.69
478.783	84.69
479.002	80.69
479.22	87.69
479.439	90.69
479.658	95.69
479.876	93.69
480.095	96.69
480.313	108.69
480.532	88.69
480.751	73.69
480.969	107.69
481.188	145.69
481.406	120.69
481.624	96.69
481.843	76.69
482.061	84.69
482.28	95.69
482.498	100.69
482.717	73.69
482.935	83.69
483.153	88.69
483.372	83.69
483.59	87.69
483.808	97.69
484.027	81.69
484.245	87.69
484.463	89.69
484.681	99.69
484.9	85.69
485.118	91.69
485.336	94.69
485.554	108.69
485.772	107.69
485.99	111.69
486.209	91.69
486.427	103.69
486.645	99.69
486.863	116.69
487.081	89.69
487.299	83.69
487.517	82.69
487.735	91.69
487.953	82.69
488.171	95.69
488.389	81.69
488.607	91.69
488.825	77.69
489.043	91.69
489.261	70.69
489.479	89.69
489.696	92.69
489.914	85.69
490.132	91.69
490.35	85.69
490.568	80.69
490.786	84.69
491.003	95.69
491.221	85.69
491.439	85.69
491.657	95.69
491.874	79.69
492.092	81.69
492.31	81.69
492.527	91.69
492.745	87.69
492.963	85.69
493.18	89.69
493.398	99.69
493.615	88.69
493.833	104.69
494.05	107.69
494.268	91.69
494.485	77.69
494.703	92.69
494.92	91.69
495.138	79.69
495.355	89.69
495.573	90.69
495.79	78.69
496.008	92.69
496.225	74.69
496.442	88.69
496.66	89.69
496.877	82.69
497.094	100.69
497.312	83.69
497.529	91.69
497.746	93.69
497.963	85.69
498.181	95.69
498.398	97.69
498.615	121.69
498.832	87.69
499.049	86.69
499.267	94.69
499.484	89.69
499.701	88.69
499.918	80.69
500.135	81.69
500.352	94.69
500.569	93.69
500.786	87.69
501.003	94.69
501.22	85.69
501.437	92.69
501.654	91.69
501.871	109.69
502.088	94.69
502.305	96.69
502.522	93.69
502.739	87.69
502.956	84.69
503.172	94.69
503.389	91.69
503.606	103.69
503.823	92.69
504.04	93.69
504.256	94.69
504.473	87.69
504.69	82.69
504.907	87.69
505.123	92.69
505.34	89.69
505.557	76.69
505.773	81.69
505.99	79.69
506.207	81.69
506.423	92.69
506.64	96.69
506.856	95.69
507.073	89.69
507.289	73.69
507.506	91.69
507.722	106.69
507.939	96.69
508.155	102.69
508.372	89.69
508.588	89.69
508.805	109.69
509.021	90.69
509.238	92.69
509.454	86.69
509.67	82.69
509.887	105.69
510.103	110.69
510.319	175.69
510.536	506.69
510.752	1553.69
510.968	474.69
511.184	123.69
511.401	99.69
511.617	88.69
511.833	67.69
512.049	94.69
512.265	80.69
512.481	73.69
512.698	88.69
512.914	91.69
513.13	85.69
513.346	91.69
513.562	87.69
513.778	90.69
513.994	87.69
514.21	105.69
514.426	114.69
514.642	112.69
514.858	115.69
515.074	136.69
515.29	304.69
515.506	895.69
515.721	355.69
515.937	130.69
516.153	103.69
516.369	95.69
516.585	73.69
516.801	93.69
517.016	94.69
