Data from Uncirc_2009_H10_HRD10591_00002.txt Node
Date: Wed Jan 03 10:12:02 EST 2024
User: Yrep
Spectrometer: HR+D1059
Trigger mode: 1
Integration Time (sec): 1.000000E-1
Scans to average: 1
Electric dark correction enabled: true
Nonlinearity correction enabled: false
Boxcar width: 0
XAxis mode: Wavelengths
Number of Pixels in Spectrum: 2048
>>>>>Begin Spectral Data<<<<<
223.165	-37.56
223.4	-37.56
223.635	-37.56
223.869	-24.56
224.104	-7.56
224.338	-7.56
224.573	-3.56
224.808	-0.56
225.042	-13.56
225.277	-5.56
225.511	2.44
225.746	7.44
225.98	14.44
226.215	17.44
226.449	-2.56
226.683	11.44
226.918	23.44
227.152	26.44
227.387	37.44
227.621	55.44
227.856	30.44
228.09	48.44
228.324	45.44
228.559	63.44
228.793	73.44
229.027	62.44
229.262	59.44
229.496	73.44
229.73	84.44
229.964	76.44
230.199	73.44
230.433	73.44
230.667	78.44
230.901	81.44
231.136	70.44
231.37	87.44
231.604	82.44
231.838	80.44
232.072	81.44
232.306	82.44
232.541	78.44
232.775	77.44
233.009	77.44
233.243	72.44
233.477	67.44
233.711	75.44
233.945	77.44
234.179	77.44
234.413	86.44
234.647	81.44
234.881	76.44
235.115	76.44
235.349	86.44
235.583	85.44
235.817	80.44
236.051	73.44
236.285	83.44
236.519	75.44
236.753	79.44
236.987	84.44
237.221	73.44
237.455	83.44
237.689	82.44
237.922	83.44
238.156	65.44
238.39	63.44
238.624	79.44
238.858	87.44
239.091	87.44
239.325	91.44
239.559	71.44
239.793	70.44
240.027	70.44
240.26	74.44
240.494	78.44
240.728	74.44
240.961	64.44
241.195	74.44
241.429	76.44
241.662	81.44
241.896	74.44
242.13	70.44
242.363	80.44
242.597	75.44
242.83	74.44
243.064	72.44
243.298	77.44
243.531	68.44
243.765	83.44
243.998	76.44
244.232	68.44
244.465	81.44
244.699	90.44
244.932	79.44
245.166	76.44
245.399	78.44
245.633	83.44
245.866	80.44
246.099	82.44
246.333	84.44
246.566	75.44
246.8	80.44
247.033	77.44
247.266	89.44
247.5	85.44
247.733	90.44
247.966	78.44
248.2	75.44
248.433	87.44
248.666	80.44
248.899	83.44
249.133	80.44
249.366	86.44
249.599	79.44
249.832	84.44
250.066	76.44
250.299	83.44
250.532	76.44
250.765	100.44
250.998	92.44
251.231	90.44
251.465	89.44
251.698	76.44
251.931	82.44
252.164	81.44
252.397	91.44
252.63	69.44
252.863	74.44
253.096	88.44
253.329	78.44
253.562	69.44
253.795	71.44
254.028	68.44
254.261	78.44
254.494	96.44
254.727	94.44
254.96	81.44
255.193	90.44
255.426	83.44
255.659	72.44
255.892	79.44
256.124	80.44
256.357	79.44
256.59	91.44
256.823	90.44
257.056	83.44
257.289	83.44
257.521	78.44
257.754	77.44
257.987	70.44
258.22	82.44
258.452	84.44
258.685	68.44
258.918	69.44
259.151	72.44
259.383	88.44
259.616	80.44
259.849	70.44
260.081	77.44
260.314	80.44
260.547	77.44
260.779	87.44
261.012	99.44
261.244	78.44
261.477	65.44
261.71	74.44
261.942	104.44
262.175	85.44
262.407	108.44
262.64	77.44
262.872	89.44
263.105	78.44
263.337	93.44
263.57	77.44
263.802	97.44
264.035	87.44
264.267	85.44
264.499	86.44
264.732	81.44
264.964	76.44
265.197	91.44
265.429	97.44
265.661	74.44
265.894	81.44
266.126	89.44
266.358	73.44
266.591	70.44
266.823	89.44
267.055	80.44
267.287	78.44
267.52	75.44
267.752	89.44
267.984	79.44
268.216	87.44
268.448	98.44
268.681	96.44
268.913	83.44
269.145	80.44
269.377	88.44
269.609	83.44
269.841	80.44
270.073	87.44
270.306	89.44
270.538	79.44
270.77	80.44
271.002	87.44
271.234	105.44
271.466	78.44
271.698	97.44
271.93	93.44
272.162	89.44
272.394	107.44
272.626	91.44
272.858	97.44
273.09	90.44
273.322	96.44
273.553	82.44
273.785	76.44
274.017	86.44
274.249	83.44
274.481	86.44
274.713	88.44
274.945	87.44
275.176	82.44
275.408	95.44
275.64	83.44
275.872	77.44
276.104	110.44
276.335	94.44
276.567	77.44
276.799	99.44
277.031	79.44
277.262	75.44
277.494	91.44
277.726	80.44
277.957	86.44
278.189	90.44
278.421	88.44
278.652	89.44
278.884	86.44
279.115	102.44
279.347	91.44
279.579	86.44
279.81	88.44
280.042	80.44
280.273	83.44
280.505	86.44
280.736	81.44
280.968	79.44
281.199	82.44
281.431	94.44
281.662	81.44
281.894	107.44
282.125	96.44
282.356	112.44
282.588	113.44
282.819	95.44
283.051	91.44
283.282	86.44
283.513	80.44
283.745	90.44
283.976	79.44
284.207	76.44
284.439	102.44
284.67	104.44
284.901	75.44
285.132	89.44
285.364	77.44
285.595	74.44
285.826	90.44
286.057	90.44
286.288	80.44
286.52	88.44
286.751	100.44
286.982	94.44
287.213	93.44
287.444	81.44
287.675	90.44
287.906	91.44
288.138	73.44
288.369	91.44
288.6	97.44
288.831	95.44
289.062	85.44
289.293	83.44
289.524	98.44
289.755	87.44
289.986	80.44
290.217	84.44
290.448	89.44
290.679	86.44
290.91	94.44
291.141	97.44
291.371	90.44
291.602	98.44
291.833	95.44
292.064	87.44
292.295	95.44
292.526	75.44
292.757	101.44
292.987	94.44
293.218	88.44
293.449	78.44
293.68	95.44
293.91	93.44
294.141	91.44
294.372	87.44
294.603	87.44
294.833	95.44
295.064	88.44
295.295	91.44
295.525	94.44
295.756	88.44
295.987	106.44
296.217	110.44
296.448	90.44
296.679	83.44
296.909	80.44
297.14	67.44
297.37	87.44
297.601	85.44
297.831	70.44
298.062	90.44
298.292	76.44
298.523	77.44
298.753	94.44
298.984	89.44
299.214	88.44
299.445	86.44
299.675	100.44
299.905	78.44
300.136	97.44
300.366	95.44
300.597	109.44
300.827	99.44
301.057	104.44
301.288	88.44
301.518	95.44
301.748	101.44
301.979	103.44
302.209	97.44
302.439	109.44
302.669	100.44
302.9	99.44
303.13	84.44
303.36	95.44
303.59	121.44
303.82	111.44
304.051	91.44
304.281	78.44
304.511	90.44
304.741	88.44
304.971	80.44
305.201	94.44
305.431	80.44
305.661	90.44
305.891	83.44
306.121	76.44
306.352	88.44
306.582	98.44
306.812	92.44
307.042	83.44
307.272	102.44
307.502	97.44
307.731	81.44
307.961	92.44
308.191	94.44
308.421	94.44
308.651	99.44
308.881	93.44
309.111	95.44
309.341	90.44
309.571	93.44
309.8	88.44
310.03	90.44
310.26	91.44
310.49	87.44
310.72	81.44
310.949	93.44
311.179	105.44
311.409	95.44
311.639	89.44
311.868	90.44
312.098	102.44
312.328	90.44
312.557	104.44
312.787	98.44
313.017	98.44
313.246	87.44
313.476	76.44
313.706	97.44
313.935	100.44
314.165	96.44
314.394	111.44
314.624	90.44
314.853	103.44
315.083	96.44
315.312	87.44
315.542	82.44
315.771	82.44
316.001	84.44
316.23	99.44
316.46	97.44
316.689	96.44
316.919	104.44
317.148	88.44
317.377	102.44
317.607	124.44
317.836	98.44
318.065	92.44
318.295	97.44
318.524	98.44
318.753	87.44
318.983	84.44
319.212	84.44
319.441	105.44
319.67	92.44
319.9	81.44
320.129	96.44
320.358	104.44
320.587	101.44
320.816	87.44
321.046	92.44
321.275	109.44
321.504	94.44
321.733	101.44
321.962	102.44
322.191	88.44
322.42	101.44
322.649	96.44
322.878	104.44
323.108	97.44
323.337	105.44
323.566	113.44
323.795	134.44
324.024	167.44
324.253	323.44
324.482	660.44
324.71	1285.44
324.939	1661.44
325.168	623.44
325.397	207.44
325.626	146.44
325.855	118.44
326.084	126.44
326.313	139.44
326.542	152.44
326.77	186.44
326.999	375.44
327.228	737.44
327.457	1300.44
327.686	1019.44
327.914	298.44
328.143	167.44
328.372	129.44
328.6	111.44
328.829	117.44
329.058	111.44
329.287	108.44
329.515	89.44
329.744	98.44
329.972	95.44
330.201	112.44
330.43	122.44
330.658	100.44
330.887	113.44
331.115	112.44
331.344	102.44
331.572	101.44
331.801	99.44
332.03	102.44
332.258	98.44
332.486	98.44
332.715	87.44
332.943	82.44
333.172	101.44
333.4	97.44
333.629	93.44
333.857	106.44
334.085	93.44
334.314	96.44
334.542	114.44
334.771	111.44
334.999	99.44
335.227	94.44
335.455	89.44
335.684	105.44
335.912	108.44
336.14	104.44
336.369	97.44
336.597	88.44
336.825	97.44
337.053	87.44
337.281	79.44
337.51	85.44
337.738	90.44
337.966	89.44
338.194	83.44
338.422	95.44
338.65	86.44
338.878	90.44
339.106	87.44
339.334	90.44
339.562	82.44
339.79	104.44
340.018	100.44
340.246	95.44
340.474	87.44
340.702	82.44
340.93	99.44
341.158	96.44
341.386	96.44
341.614	101.44
341.842	85.44
342.07	92.44
342.298	89.44
342.526	87.44
342.754	75.44
342.981	93.44
343.209	92.44
343.437	91.44
343.665	91.44
343.893	88.44
344.12	97.44
344.348	112.44
344.576	83.44
344.804	82.44
345.031	103.44
345.259	88.44
345.487	94.44
345.714	81.44
345.942	87.44
346.17	105.44
346.397	93.44
346.625	86.44
346.853	89.44
347.08	80.44
347.308	94.44
347.535	104.44
347.763	92.44
347.99	96.44
348.218	100.44
348.445	99.44
348.673	101.44
348.9	88.44
349.128	93.44
349.355	105.44
349.583	89.44
349.81	103.44
350.037	97.44
350.265	98.44
350.492	103.44
350.72	106.44
350.947	96.44
351.174	94.44
351.402	99.44
351.629	92.44
351.856	104.44
352.083	97.44
352.311	107.44
352.538	96.44
352.765	112.44
352.992	105.44
353.22	91.44
353.447	95.44
353.674	107.44
353.901	102.44
354.128	106.44
354.355	101.44
354.583	96.44
354.81	96.44
355.037	114.44
355.264	105.44
355.491	96.44
355.718	85.44
355.945	101.44
356.172	103.44
356.399	82.44
356.626	89.44
356.853	98.44
357.08	105.44
357.307	95.44
357.534	97.44
357.761	90.44
357.988	93.44
358.215	100.44
358.441	98.44
358.668	86.44
358.895	87.44
359.122	86.44
359.349	94.44
359.576	98.44
359.802	95.44
360.029	97.44
360.256	90.44
360.483	101.44
360.709	86.44
360.936	90.44
361.163	98.44
361.39	101.44
361.616	100.44
361.843	94.44
362.07	95.44
362.296	95.44
362.523	80.44
362.749	72.44
362.976	86.44
363.203	96.44
363.429	95.44
363.656	89.44
363.882	92.44
364.109	89.44
364.335	85.44
364.562	97.44
364.788	98.44
365.015	95.44
365.241	94.44
365.468	103.44
365.694	78.44
365.92	89.44
366.147	96.44
366.373	91.44
366.599	90.44
366.826	86.44
367.052	102.44
367.278	95.44
367.505	93.44
367.731	83.44
367.957	103.44
368.184	89.44
368.41	81.44
368.636	91.44
368.862	115.44
369.089	109.44
369.315	96.44
369.541	88.44
369.767	90.44
369.993	88.44
370.219	85.44
370.445	96.44
370.672	77.44
370.898	91.44
371.124	85.44
371.35	101.44
371.576	102.44
371.802	99.44
372.028	91.44
372.254	85.44
372.48	90.44
372.706	94.44
372.932	95.44
373.158	89.44
373.384	88.44
373.61	107.44
373.835	87.44
374.061	101.44
374.287	83.44
374.513	89.44
374.739	90.44
374.965	84.44
375.191	89.44
375.416	93.44
375.642	89.44
375.868	98.44
376.094	86.44
376.319	86.44
376.545	83.44
376.771	89.44
376.997	94.44
377.222	93.44
377.448	93.44
377.674	74.44
377.899	94.44
378.125	90.44
378.35	90.44
378.576	88.44
378.802	89.44
379.027	92.44
379.253	107.44
379.478	88.44
379.704	97.44
379.929	95.44
380.155	102.44
380.38	99.44
380.606	109.44
380.831	102.44
381.057	87.44
381.282	101.44
381.507	98.44
381.733	101.44
381.958	99.44
382.184	101.44
382.409	112.44
382.634	112.44
382.86	107.44
383.085	94.44
383.31	127.44
383.535	108.44
383.761	105.44
383.986	101.44
384.211	106.44
384.436	93.44
384.662	103.44
384.887	105.44
385.112	106.44
385.337	106.44
385.562	118.44
385.787	106.44
386.013	111.44
386.238	113.44
386.463	120.44
386.688	126.44
386.913	107.44
387.138	118.44
387.363	102.44
387.588	101.44
387.813	112.44
388.038	107.44
388.263	137.44
388.488	117.44
388.713	94.44
388.938	98.44
389.163	96.44
389.387	88.44
389.612	93.44
389.837	98.44
390.062	94.44
390.287	105.44
390.512	84.44
390.736	93.44
390.961	93.44
391.186	91.44
391.411	104.44
391.636	96.44
391.86	70.44
392.085	86.44
392.31	83.44
392.534	82.44
392.759	75.44
392.984	88.44
393.208	91.44
393.433	101.44
393.658	95.44
393.882	79.44
394.107	79.44
394.331	77.44
394.556	87.44
394.78	89.44
395.005	98.44
395.229	84.44
395.454	102.44
395.678	69.44
395.903	94.44
396.127	91.44
396.352	91.44
396.576	94.44
396.801	67.44
397.025	89.44
397.249	76.44
397.474	78.44
397.698	87.44
397.922	101.44
398.147	89.44
398.371	92.44
398.595	93.44
398.82	82.44
399.044	78.44
399.268	88.44
399.492	91.44
399.717	82.44
399.941	93.44
400.165	95.44
400.389	91.44
400.613	92.44
400.837	79.44
401.062	79.44
401.286	84.44
401.51	82.44
401.734	89.44
401.958	88.44
402.182	117.44
402.406	127.44
402.63	104.44
402.854	95.44
403.078	89.44
403.302	88.44
403.526	88.44
403.75	83.44
403.974	97.44
404.198	91.44
404.422	96.44
404.645	91.44
404.869	93.44
405.093	94.44
405.317	95.44
405.541	87.44
405.765	101.44
405.988	108.44
406.212	121.44
406.436	168.44
406.66	111.44
406.883	96.44
407.107	88.44
407.331	89.44
407.555	104.44
407.778	87.44
408.002	89.44
408.226	75.44
408.449	94.44
408.673	81.44
408.896	90.44
409.12	97.44
409.344	97.44
409.567	87.44
409.791	102.44
410.014	96.44
410.238	110.44
410.461	91.44
410.685	82.44
410.908	94.44
411.132	87.44
411.355	108.44
411.578	89.44
411.802	100.44
412.025	80.44
412.249	87.44
412.472	86.44
412.695	97.44
412.919	101.44
413.142	101.44
413.365	76.44
413.589	87.44
413.812	98.44
414.035	90.44
414.258	94.44
414.482	91.44
414.705	82.44
414.928	79.44
415.151	94.44
415.374	98.44
415.597	94.44
415.821	76.44
416.044	75.44
416.267	83.44
416.49	75.44
416.713	94.44
416.936	102.44
417.159	83.44
417.382	101.44
417.605	91.44
417.828	101.44
418.051	93.44
418.274	91.44
418.497	101.44
418.72	83.44
418.943	90.44
419.166	83.44
419.389	92.44
419.611	85.44
419.834	83.44
420.057	105.44
420.28	79.44
420.503	82.44
420.726	91.44
420.948	79.44
421.171	102.44
421.394	98.44
421.617	84.44
421.839	78.44
422.062	107.44
422.285	85.44
422.507	104.44
422.73	99.44
422.953	78.44
423.175	61.44
423.398	93.44
423.621	84.44
423.843	93.44
424.066	84.44
424.288	80.44
424.511	93.44
424.733	77.44
424.956	98.44
425.178	99.44
425.401	96.44
425.623	102.44
425.846	92.44
426.068	87.44
426.291	82.44
426.513	96.44
426.735	90.44
426.958	90.44
427.18	102.44
427.402	122.44
427.625	133.44
427.847	114.44
428.069	121.44
428.292	89.44
428.514	96.44
428.736	96.44
428.958	83.44
429.181	91.44
429.403	94.44
429.625	91.44
429.847	84.44
430.069	94.44
430.292	98.44
430.514	86.44
430.736	85.44
430.958	86.44
431.18	82.44
431.402	78.44
431.624	81.44
431.846	90.44
432.068	81.44
432.29	89.44
432.512	91.44
432.734	77.44
432.956	96.44
433.178	101.44
433.4	94.44
433.622	94.44
433.844	95.44
434.066	87.44
434.287	86.44
434.509	78.44
434.731	96.44
434.953	101.44
435.175	74.44
435.397	86.44
435.618	89.44
435.84	108.44
436.062	98.44
436.284	109.44
436.505	101.44
436.727	87.44
436.949	93.44
437.17	89.44
437.392	99.44
437.614	93.44
437.835	107.44
438.057	88.44
438.278	105.44
438.5	111.44
438.721	101.44
438.943	90.44
439.165	75.44
439.386	83.44
439.608	98.44
439.829	86.44
440.05	98.44
440.272	113.44
440.493	98.44
440.715	71.44
440.936	94.44
441.158	100.44
441.379	100.44
441.6	88.44
441.822	91.44
442.043	94.44
442.264	97.44
442.486	92.44
442.707	77.44
442.928	95.44
443.149	121.44
443.371	108.44
443.592	102.44
443.813	106.44
444.034	103.44
444.255	99.44
444.476	95.44
444.698	81.44
444.919	71.44
445.14	139.44
445.361	107.44
445.582	103.44
445.803	133.44
446.024	125.44
446.245	114.44
446.466	120.44
446.687	91.44
446.908	82.44
447.129	87.44
447.35	104.44
447.571	97.44
447.792	99.44
448.013	93.44
448.234	101.44
448.455	103.44
448.675	105.44
448.896	104.44
449.117	84.44
449.338	101.44
449.559	144.44
449.779	121.44
450	98.44
450.221	85.44
450.442	86.44
450.662	90.44
450.883	97.44
451.104	98.44
451.324	100.44
451.545	83.44
451.766	93.44
451.986	84.44
452.207	82.44
452.428	82.44
452.648	80.44
452.869	97.44
453.089	103.44
453.31	104.44
453.53	98.44
453.751	103.44
453.971	101.44
454.192	95.44
454.412	95.44
454.633	91.44
454.853	95.44
455.073	101.44
455.294	93.44
455.514	95.44
455.734	91.44
455.955	96.44
456.175	85.44
456.395	83.44
456.616	84.44
456.836	73.44
457.056	84.44
457.276	95.44
457.497	89.44
457.717	95.44
457.937	92.44
458.157	87.44
458.377	71.44
458.598	91.44
458.818	111.44
459.038	111.44
459.258	105.44
459.478	87.44
459.698	78.44
459.918	92.44
460.138	88.44
460.358	82.44
460.578	85.44
460.798	87.44
461.018	110.44
461.238	99.44
461.458	95.44
461.678	92.44
461.898	81.44
462.118	99.44
462.338	73.44
462.558	87.44
462.777	75.44
462.997	86.44
463.217	90.44
463.437	98.44
463.657	94.44
463.876	78.44
464.096	86.44
464.316	88.44
464.536	91.44
464.755	89.44
464.975	95.44
465.195	133.44
465.414	114.44
465.634	85.44
465.854	89.44
466.073	88.44
466.293	78.44
466.512	77.44
466.732	82.44
466.951	78.44
467.171	84.44
467.391	103.44
467.61	92.44
467.829	95.44
468.049	123.44
468.268	77.44
468.488	93.44
468.707	83.44
468.927	89.44
469.146	73.44
469.365	83.44
469.585	99.44
469.804	101.44
470.023	76.44
470.243	74.44
470.462	83.44
470.681	95.44
470.901	104.44
471.12	96.44
471.339	88.44
471.558	91.44
471.777	92.44
471.997	81.44
472.216	116.44
472.435	103.44
472.654	87.44
472.873	107.44
473.092	98.44
473.311	102.44
473.53	91.44
473.749	81.44
473.968	86.44
474.187	93.44
474.406	83.44
474.625	86.44
474.844	89.44
475.063	109.44
475.282	104.44
475.501	95.44
475.72	91.44
475.939	89.44
476.158	91.44
476.377	94.44
476.596	91.44
476.814	83.44
477.033	91.44
477.252	84.44
477.471	93.44
477.69	89.44
477.908	98.44
478.127	90.44
478.346	97.44
478.564	86.44
478.783	77.44
479.002	93.44
479.22	78.44
479.439	92.44
479.658	83.44
479.876	91.44
480.095	83.44
480.313	84.44
480.532	85.44
480.751	88.44
480.969	104.44
481.188	144.44
481.406	117.44
481.624	93.44
481.843	75.44
482.061	85.44
482.28	96.44
482.498	105.44
482.717	101.44
482.935	77.44
483.153	75.44
483.372	89.44
483.59	98.44
483.808	95.44
484.027	79.44
484.245	89.44
484.463	106.44
484.681	97.44
484.9	85.44
485.118	101.44
485.336	92.44
485.554	81.44
485.772	96.44
485.99	109.44
486.209	102.44
486.427	94.44
486.645	109.44
486.863	103.44
487.081	92.44
487.299	91.44
487.517	92.44
487.735	95.44
487.953	94.44
488.171	97.44
488.389	83.44
488.607	104.44
488.825	94.44
489.043	94.44
489.261	83.44
489.479	93.44
489.696	82.44
489.914	89.44
490.132	83.44
490.35	88.44
490.568	96.44
490.786	86.44
491.003	77.44
491.221	86.44
491.439	95.44
491.657	86.44
491.874	99.44
492.092	101.44
492.31	102.44
492.527	99.44
492.745	96.44
492.963	77.44
493.18	93.44
493.398	86.44
493.615	96.44
493.833	98.44
494.05	91.44
494.268	98.44
494.485	92.44
494.703	98.44
494.92	93.44
495.138	90.44
495.355	83.44
495.573	99.44
495.79	77.44
496.008	98.44
496.225	93.44
496.442	79.44
496.66	107.44
496.877	93.44
497.094	94.44
497.312	84.44
497.529	102.44
497.746	91.44
497.963	87.44
498.181	83.44
498.398	89.44
498.615	96.44
498.832	92.44
499.049	87.44
499.267	91.44
499.484	104.44
499.701	80.44
499.918	80.44
500.135	86.44
500.352	85.44
500.569	79.44
500.786	87.44
501.003	99.44
501.22	92.44
501.437	95.44
501.654	91.44
501.871	86.44
502.088	93.44
502.305	85.44
502.522	99.44
502.739	93.44
502.956	92.44
503.172	101.44
503.389	112.44
503.606	97.44
503.823	77.44
504.04	87.44
504.256	79.44
504.473	88.44
504.69	108.44
504.907	91.44
505.123	91.44
505.34	74.44
505.557	90.44
505.773	78.44
505.99	102.44
506.207	99.44
506.423	89.44
506.64	95.44
506.856	90.44
507.073	102.44
507.289	97.44
507.506	93.44
507.722	85.44
507.939	96.44
508.155	90.44
508.372	125.44
508.588	78.44
508.805	91.44
509.021	100.44
509.238	86.44
509.454	94.44
509.67	87.44
509.887	96.44
510.103	117.44
510.319	156.44
510.536	491.44
510.752	1451.44
510.968	449.44
511.184	128.44
511.401	91.44
511.617	107.44
511.833	94.44
512.049	89.44
512.265	93.44
512.481	95.44
512.698	87.44
512.914	82.44
513.13	87.44
513.346	87.44
513.562	96.44
513.778	83.44
513.994	87.44
514.21	95.44
514.426	101.44
514.642	108.44
514.858	101.44
515.074	117.44
515.29	267.44
515.506	837.44
515.721	359.44
515.937	128.44
516.153	102.44
