Data from Uncirc_2009_H10_HRD10591_00057.txt Node
Date: Wed Jan 03 10:12:13 EST 2024
User: Yrep
Spectrometer: HR+D1059
Trigger mode: 1
Integration Time (sec): 1.000000E-1
Scans to average: 1
Electric dark correction enabled: true
Nonlinearity correction enabled: false
Boxcar width: 0
XAxis mode: Wavelengths
Number of Pixels in Spectrum: 2048
>>>>>Begin Spectral Data<<<<<
223.165	-9.44
223.4	-9.44
223.635	-9.44
223.869	-3.44
224.104	-15.44
224.338	-22.44
224.573	-10.44
224.808	-20.44
225.042	-11.44
225.277	-8.44
225.511	-6.44
225.746	1.56
225.98	14.56
226.215	14.56
226.449	5.56
226.683	24.56
226.918	16.56
227.152	30.56
227.387	16.56
227.621	30.56
227.856	31.56
228.09	60.56
228.324	59.56
228.559	46.56
228.793	51.56
229.027	72.56
229.262	54.56
229.496	82.56
229.73	76.56
229.964	76.56
230.199	79.56
230.433	81.56
230.667	74.56
230.901	68.56
231.136	76.56
231.37	83.56
231.604	80.56
231.838	60.56
232.072	83.56
232.306	74.56
232.541	73.56
232.775	75.56
233.009	80.56
233.243	80.56
233.477	94.56
233.711	68.56
233.945	64.56
234.179	72.56
234.413	89.56
234.647	60.56
234.881	88.56
235.115	82.56
235.349	76.56
235.583	75.56
235.817	80.56
236.051	75.56
236.285	74.56
236.519	71.56
236.753	82.56
236.987	79.56
237.221	79.56
237.455	72.56
237.689	75.56
237.922	70.56
238.156	74.56
238.39	72.56
238.624	70.56
238.858	68.56
239.091	71.56
239.325	73.56
239.559	77.56
239.793	74.56
240.027	86.56
240.26	73.56
240.494	71.56
240.728	74.56
240.961	69.56
241.195	61.56
241.429	84.56
241.662	70.56
241.896	69.56
242.13	62.56
242.363	73.56
242.597	72.56
242.83	84.56
243.064	80.56
243.298	71.56
243.531	64.56
243.765	90.56
243.998	69.56
244.232	87.56
244.465	91.56
244.699	77.56
244.932	82.56
245.166	79.56
245.399	81.56
245.633	86.56
245.866	64.56
246.099	64.56
246.333	74.56
246.566	78.56
246.8	78.56
247.033	75.56
247.266	76.56
247.5	84.56
247.733	80.56
247.966	84.56
248.2	88.56
248.433	87.56
248.666	75.56
248.899	75.56
249.133	65.56
249.366	82.56
249.599	82.56
249.832	84.56
250.066	75.56
250.299	74.56
250.532	78.56
250.765	75.56
250.998	76.56
251.231	77.56
251.465	66.56
251.698	86.56
251.931	75.56
252.164	86.56
252.397	83.56
252.63	73.56
252.863	80.56
253.096	82.56
253.329	82.56
253.562	75.56
253.795	77.56
254.028	79.56
254.261	88.56
254.494	80.56
254.727	98.56
254.96	86.56
255.193	86.56
255.426	81.56
255.659	70.56
255.892	73.56
256.124	79.56
256.357	84.56
256.59	82.56
256.823	78.56
257.056	79.56
257.289	83.56
257.521	88.56
257.754	89.56
257.987	90.56
258.22	79.56
258.452	92.56
258.685	72.56
258.918	75.56
259.151	79.56
259.383	74.56
259.616	69.56
259.849	91.56
260.081	76.56
260.314	84.56
260.547	57.56
260.779	72.56
261.012	75.56
261.244	90.56
261.477	77.56
261.71	95.56
261.942	83.56
262.175	88.56
262.407	76.56
262.64	79.56
262.872	83.56
263.105	90.56
263.337	95.56
263.57	77.56
263.802	76.56
264.035	88.56
264.267	79.56
264.499	93.56
264.732	77.56
264.964	73.56
265.197	82.56
265.429	91.56
265.661	98.56
265.894	79.56
266.126	72.56
266.358	71.56
266.591	82.56
266.823	89.56
267.055	90.56
267.287	78.56
267.52	81.56
267.752	89.56
267.984	85.56
268.216	63.56
268.448	80.56
268.681	86.56
268.913	84.56
269.145	75.56
269.377	74.56
269.609	84.56
269.841	80.56
270.073	77.56
270.306	75.56
270.538	72.56
270.77	94.56
271.002	79.56
271.234	83.56
271.466	73.56
271.698	78.56
271.93	75.56
272.162	82.56
272.394	70.56
272.626	79.56
272.858	79.56
273.09	88.56
273.322	88.56
273.553	67.56
273.785	68.56
274.017	89.56
274.249	91.56
274.481	81.56
274.713	77.56
274.945	82.56
275.176	86.56
275.408	75.56
275.64	80.56
275.872	88.56
276.104	80.56
276.335	86.56
276.567	95.56
276.799	90.56
277.031	83.56
277.262	87.56
277.494	86.56
277.726	84.56
277.957	74.56
278.189	88.56
278.421	93.56
278.652	87.56
278.884	80.56
279.115	74.56
279.347	82.56
279.579	76.56
279.81	90.56
280.042	95.56
280.273	88.56
280.505	91.56
280.736	86.56
280.968	85.56
281.199	79.56
281.431	85.56
281.662	81.56
281.894	79.56
282.125	87.56
282.356	102.56
282.588	103.56
282.819	102.56
283.051	98.56
283.282	77.56
283.513	89.56
283.745	90.56
283.976	76.56
284.207	94.56
284.439	107.56
284.67	89.56
284.901	90.56
285.132	88.56
285.364	88.56
285.595	82.56
285.826	96.56
286.057	95.56
286.288	90.56
286.52	107.56
286.751	80.56
286.982	86.56
287.213	85.56
287.444	71.56
287.675	83.56
287.906	98.56
288.138	86.56
288.369	93.56
288.6	92.56
288.831	83.56
289.062	82.56
289.293	86.56
289.524	94.56
289.755	90.56
289.986	90.56
290.217	79.56
290.448	69.56
290.679	87.56
290.91	86.56
291.141	83.56
291.371	101.56
291.602	92.56
291.833	78.56
292.064	84.56
292.295	89.56
292.526	70.56
292.757	85.56
292.987	88.56
293.218	71.56
293.449	83.56
293.68	85.56
293.91	84.56
294.141	84.56
294.372	91.56
294.603	74.56
294.833	89.56
295.064	89.56
295.295	95.56
295.525	86.56
295.756	97.56
295.987	102.56
296.217	108.56
296.448	107.56
296.679	86.56
296.909	97.56
297.14	66.56
297.37	90.56
297.601	82.56
297.831	81.56
298.062	107.56
298.292	87.56
298.523	92.56
298.753	79.56
298.984	80.56
299.214	94.56
299.445	90.56
299.675	89.56
299.905	96.56
300.136	75.56
300.366	77.56
300.597	84.56
300.827	86.56
301.057	93.56
301.288	103.56
301.518	91.56
301.748	90.56
301.979	91.56
302.209	91.56
302.439	72.56
302.669	103.56
302.9	82.56
303.13	98.56
303.36	102.56
303.59	120.56
303.82	89.56
304.051	84.56
304.281	97.56
304.511	80.56
304.741	86.56
304.971	79.56
305.201	86.56
305.431	82.56
305.661	96.56
305.891	87.56
306.121	93.56
306.352	106.56
306.582	86.56
306.812	88.56
307.042	83.56
307.272	96.56
307.502	100.56
307.731	85.56
307.961	77.56
308.191	87.56
308.421	82.56
308.651	80.56
308.881	100.56
309.111	106.56
309.341	91.56
309.571	78.56
309.8	94.56
310.03	89.56
310.26	84.56
310.49	90.56
310.72	84.56
310.949	102.56
311.179	88.56
311.409	94.56
311.639	76.56
311.868	81.56
312.098	92.56
312.328	108.56
312.557	100.56
312.787	94.56
313.017	90.56
313.246	86.56
313.476	86.56
313.706	86.56
313.935	89.56
314.165	92.56
314.394	92.56
314.624	86.56
314.853	96.56
315.083	93.56
315.312	86.56
315.542	83.56
315.771	81.56
316.001	87.56
316.23	87.56
316.46	80.56
316.689	84.56
316.919	107.56
317.148	93.56
317.377	106.56
317.607	114.56
317.836	104.56
318.065	98.56
318.295	75.56
318.524	89.56
318.753	91.56
318.983	91.56
319.212	94.56
319.441	98.56
319.67	103.56
319.9	92.56
320.129	75.56
320.358	91.56
320.587	109.56
320.816	92.56
321.046	100.56
321.275	88.56
321.504	89.56
321.733	73.56
321.962	102.56
322.191	87.56
322.42	92.56
322.649	95.56
322.878	119.56
323.108	102.56
323.337	103.56
323.566	111.56
323.795	131.56
324.024	170.56
324.253	336.56
324.482	680.56
324.71	1388.56
324.939	1783.56
325.168	657.56
325.397	230.56
325.626	158.56
325.855	139.56
326.084	134.56
326.313	136.56
326.542	146.56
326.77	207.56
326.999	379.56
327.228	772.56
327.457	1424.56
327.686	1116.56
327.914	303.56
328.143	167.56
328.372	124.56
328.6	117.56
328.829	103.56
329.058	107.56
329.287	117.56
329.515	100.56
329.744	95.56
329.972	94.56
330.201	109.56
330.43	107.56
330.658	105.56
330.887	134.56
331.115	95.56
331.344	67.56
331.572	80.56
331.801	99.56
332.03	96.56
332.258	84.56
332.486	83.56
332.715	70.56
332.943	90.56
333.172	103.56
333.4	85.56
333.629	78.56
333.857	93.56
334.085	99.56
334.314	103.56
334.542	114.56
334.771	108.56
334.999	98.56
335.227	93.56
335.455	90.56
335.684	89.56
335.912	86.56
336.14	83.56
336.369	94.56
336.597	94.56
336.825	93.56
337.053	72.56
337.281	93.56
337.51	90.56
337.738	84.56
337.966	92.56
338.194	101.56
338.422	94.56
338.65	99.56
338.878	80.56
339.106	91.56
339.334	87.56
339.562	87.56
339.79	77.56
340.018	90.56
340.246	103.56
340.474	79.56
340.702	88.56
340.93	92.56
341.158	80.56
341.386	94.56
341.614	93.56
341.842	80.56
342.07	82.56
342.298	87.56
342.526	86.56
342.754	92.56
342.981	86.56
343.209	78.56
343.437	89.56
343.665	95.56
343.893	91.56
344.12	88.56
344.348	96.56
344.576	84.56
344.804	94.56
345.031	88.56
345.259	75.56
345.487	89.56
345.714	81.56
345.942	101.56
346.17	85.56
346.397	88.56
346.625	81.56
346.853	79.56
347.08	89.56
347.308	96.56
347.535	92.56
347.763	88.56
347.99	95.56
348.218	102.56
348.445	104.56
348.673	89.56
348.9	86.56
349.128	90.56
349.355	100.56
349.583	86.56
349.81	109.56
350.037	90.56
350.265	91.56
350.492	102.56
350.72	87.56
350.947	93.56
351.174	108.56
351.402	111.56
351.629	102.56
351.856	86.56
352.083	98.56
352.311	108.56
352.538	104.56
352.765	87.56
352.992	103.56
353.22	84.56
353.447	95.56
353.674	92.56
353.901	90.56
354.128	103.56
354.355	96.56
354.583	98.56
354.81	98.56
355.037	93.56
355.264	87.56
355.491	92.56
355.718	92.56
355.945	96.56
356.172	89.56
356.399	86.56
356.626	89.56
356.853	86.56
357.08	105.56
357.307	101.56
357.534	95.56
357.761	83.56
357.988	92.56
358.215	106.56
358.441	96.56
358.668	78.56
358.895	72.56
359.122	91.56
359.349	80.56
359.576	100.56
359.802	100.56
360.029	94.56
360.256	96.56
360.483	82.56
360.709	78.56
360.936	66.56
361.163	87.56
361.39	91.56
361.616	76.56
361.843	66.56
362.07	85.56
362.296	81.56
362.523	88.56
362.749	79.56
362.976	75.56
363.203	83.56
363.429	92.56
363.656	97.56
363.882	101.56
364.109	92.56
364.335	100.56
364.562	91.56
364.788	84.56
365.015	101.56
365.241	82.56
365.468	108.56
365.694	115.56
365.92	82.56
366.147	80.56
366.373	83.56
366.599	75.56
366.826	78.56
367.052	87.56
367.278	106.56
367.505	100.56
367.731	101.56
367.957	87.56
368.184	95.56
368.41	86.56
368.636	108.56
368.862	105.56
369.089	89.56
369.315	99.56
369.541	87.56
369.767	96.56
369.993	99.56
370.219	90.56
370.445	79.56
370.672	101.56
370.898	78.56
371.124	77.56
371.35	79.56
371.576	79.56
371.802	87.56
372.028	86.56
372.254	102.56
372.48	104.56
372.706	86.56
372.932	79.56
373.158	73.56
373.384	91.56
373.61	85.56
373.835	94.56
374.061	91.56
374.287	83.56
374.513	83.56
374.739	91.56
374.965	84.56
375.191	93.56
375.416	90.56
375.642	86.56
375.868	80.56
376.094	81.56
376.319	96.56
376.545	75.56
376.771	88.56
376.997	75.56
377.222	77.56
377.448	92.56
377.674	93.56
377.899	89.56
378.125	73.56
378.35	96.56
378.576	81.56
378.802	85.56
379.027	89.56
379.253	94.56
379.478	72.56
379.704	86.56
379.929	91.56
380.155	88.56
380.38	109.56
380.606	87.56
380.831	95.56
381.057	92.56
381.282	87.56
381.507	94.56
381.733	88.56
381.958	83.56
382.184	92.56
382.409	87.56
382.634	107.56
382.86	97.56
383.085	108.56
383.31	90.56
383.535	100.56
383.761	99.56
383.986	86.56
384.211	91.56
384.436	71.56
384.662	95.56
384.887	94.56
385.112	103.56
385.337	95.56
385.562	111.56
385.787	88.56
386.013	99.56
386.238	131.56
386.463	95.56
386.688	116.56
386.913	92.56
387.138	110.56
387.363	107.56
387.588	94.56
387.813	116.56
388.038	104.56
388.263	111.56
388.488	106.56
388.713	87.56
388.938	86.56
389.163	85.56
389.387	98.56
389.612	93.56
389.837	98.56
390.062	81.56
390.287	101.56
390.512	84.56
390.736	87.56
390.961	90.56
391.186	102.56
391.411	96.56
391.636	89.56
391.86	93.56
392.085	82.56
392.31	82.56
392.534	86.56
392.759	87.56
392.984	91.56
393.208	86.56
393.433	94.56
393.658	83.56
393.882	81.56
394.107	85.56
394.331	78.56
394.556	81.56
394.78	84.56
395.005	102.56
395.229	89.56
395.454	89.56
395.678	86.56
395.903	86.56
396.127	83.56
396.352	100.56
396.576	88.56
396.801	70.56
397.025	101.56
397.249	99.56
397.474	95.56
397.698	91.56
397.922	80.56
398.147	87.56
398.371	87.56
398.595	77.56
398.82	88.56
399.044	94.56
399.268	78.56
399.492	86.56
399.717	88.56
399.941	75.56
400.165	88.56
400.389	93.56
400.613	72.56
400.837	80.56
401.062	76.56
401.286	90.56
401.51	88.56
401.734	80.56
401.958	91.56
402.182	101.56
402.406	134.56
402.63	105.56
402.854	82.56
403.078	70.56
403.302	77.56
403.526	72.56
403.75	92.56
403.974	83.56
404.198	85.56
404.422	87.56
404.645	65.56
404.869	82.56
405.093	104.56
405.317	95.56
405.541	88.56
405.765	89.56
405.988	99.56
406.212	148.56
406.436	174.56
406.66	103.56
406.883	86.56
407.107	86.56
407.331	87.56
407.555	88.56
407.778	83.56
408.002	86.56
408.226	92.56
408.449	79.56
408.673	76.56
408.896	92.56
409.12	83.56
409.344	93.56
409.567	90.56
409.791	84.56
410.014	92.56
410.238	102.56
410.461	87.56
410.685	93.56
410.908	105.56
411.132	103.56
411.355	103.56
411.578	82.56
411.802	89.56
412.025	95.56
412.249	98.56
412.472	79.56
412.695	86.56
412.919	87.56
413.142	92.56
413.365	91.56
413.589	87.56
413.812	100.56
414.035	109.56
414.258	88.56
414.482	83.56
414.705	77.56
414.928	110.56
415.151	83.56
415.374	86.56
415.597	87.56
415.821	94.56
416.044	84.56
416.267	92.56
416.49	92.56
416.713	83.56
416.936	94.56
417.159	93.56
417.382	79.56
417.605	76.56
417.828	92.56
418.051	88.56
418.274	87.56
418.497	77.56
418.72	82.56
418.943	102.56
419.166	89.56
419.389	93.56
419.611	91.56
419.834	87.56
420.057	85.56
420.28	80.56
420.503	88.56
420.726	89.56
420.948	84.56
421.171	90.56
421.394	80.56
421.617	86.56
421.839	93.56
422.062	90.56
422.285	79.56
422.507	94.56
422.73	91.56
422.953	89.56
423.175	85.56
423.398	98.56
423.621	94.56
423.843	91.56
424.066	88.56
424.288	67.56
424.511	100.56
424.733	101.56
424.956	101.56
425.178	98.56
425.401	95.56
425.623	87.56
425.846	87.56
426.068	101.56
426.291	91.56
426.513	92.56
426.735	96.56
426.958	83.56
427.18	88.56
427.402	132.56
427.625	140.56
427.847	110.56
428.069	96.56
428.292	85.56
428.514	78.56
428.736	90.56
428.958	73.56
429.181	77.56
429.403	99.56
429.625	75.56
429.847	71.56
430.069	99.56
430.292	92.56
430.514	84.56
430.736	78.56
430.958	85.56
431.18	85.56
431.402	69.56
431.624	100.56
431.846	78.56
432.068	101.56
432.29	85.56
432.512	85.56
432.734	89.56
432.956	89.56
433.178	96.56
433.4	99.56
433.622	80.56
433.844	72.56
434.066	90.56
434.287	82.56
434.509	98.56
434.731	91.56
434.953	88.56
435.175	86.56
435.397	86.56
435.618	91.56
435.84	96.56
436.062	98.56
436.284	99.56
436.505	70.56
436.727	95.56
436.949	78.56
437.17	86.56
437.392	86.56
437.614	95.56
437.835	87.56
438.057	96.56
438.278	104.56
438.5	84.56
438.721	118.56
438.943	90.56
439.165	90.56
439.386	76.56
439.608	93.56
439.829	88.56
440.05	96.56
440.272	119.56
440.493	87.56
440.715	86.56
440.936	75.56
441.158	82.56
441.379	84.56
441.6	83.56
441.822	90.56
442.043	84.56
442.264	94.56
442.486	94.56
442.707	69.56
442.928	97.56
443.149	106.56
443.371	105.56
443.592	110.56
443.813	102.56
444.034	100.56
444.255	95.56
444.476	93.56
444.698	81.56
444.919	82.56
445.14	124.56
445.361	118.56
445.582	104.56
445.803	111.56
446.024	104.56
446.245	114.56
446.466	84.56
446.687	84.56
446.908	95.56
447.129	81.56
447.35	72.56
447.571	87.56
447.792	99.56
448.013	86.56
448.234	92.56
448.455	101.56
448.675	101.56
448.896	102.56
449.117	104.56
449.338	89.56
449.559	111.56
449.779	115.56
450	79.56
450.221	92.56
450.442	83.56
450.662	78.56
450.883	96.56
451.104	94.56
451.324	82.56
451.545	95.56
451.766	86.56
451.986	75.56
452.207	99.56
452.428	83.56
452.648	89.56
452.869	92.56
453.089	115.56
453.31	108.56
453.53	90.56
453.751	78.56
453.971	100.56
454.192	94.56
454.412	96.56
454.633	81.56
454.853	87.56
455.073	106.56
455.294	88.56
455.514	79.56
455.734	76.56
455.955	79.56
456.175	78.56
456.395	78.56
456.616	99.56
456.836	107.56
457.056	88.56
457.276	78.56
457.497	85.56
457.717	87.56
457.937	78.56
458.157	79.56
458.377	83.56
458.598	104.56
458.818	120.56
459.038	115.56
459.258	96.56
459.478	88.56
459.698	75.56
459.918	79.56
460.138	86.56
460.358	80.56
460.578	93.56
460.798	89.56
461.018	75.56
461.238	98.56
461.458	76.56
461.678	88.56
461.898	86.56
462.118	94.56
462.338	71.56
462.558	87.56
462.777	71.56
462.997	93.56
463.217	94.56
463.437	94.56
463.657	91.56
463.876	89.56
464.096	88.56
464.316	80.56
464.536	92.56
464.755	97.56
464.975	98.56
465.195	129.56
465.414	120.56
465.634	94.56
465.854	82.56
466.073	88.56
466.293	79.56
466.512	81.56
466.732	85.56
466.951	96.56
467.171	83.56
467.391	87.56
467.61	102.56
467.829	92.56
468.049	104.56
468.268	94.56
468.488	90.56
468.707	79.56
468.927	84.56
469.146	75.56
469.365	84.56
469.585	101.56
469.804	94.56
470.023	92.56
470.243	92.56
470.462	95.56
470.681	84.56
470.901	93.56
471.12	88.56
471.339	100.56
471.558	82.56
471.777	89.56
471.997	79.56
472.216	89.56
472.435	112.56
472.654	76.56
472.873	95.56
473.092	70.56
473.311	82.56
473.53	69.56
473.749	92.56
473.968	99.56
474.187	77.56
474.406	89.56
474.625	94.56
474.844	100.56
475.063	85.56
475.282	88.56
475.501	94.56
475.72	95.56
475.939	91.56
476.158	86.56
476.377	85.56
476.596	89.56
476.814	90.56
477.033	92.56
477.252	94.56
477.471	75.56
477.69	85.56
477.908	87.56
478.127	77.56
478.346	84.56
478.564	104.56
478.783	85.56
479.002	91.56
479.22	92.56
479.439	97.56
479.658	93.56
479.876	97.56
480.095	81.56
480.313	93.56
480.532	77.56
480.751	98.56
480.969	101.56
481.188	154.56
481.406	136.56
481.624	93.56
481.843	98.56
482.061	84.56
482.28	85.56
482.498	77.56
482.717	98.56
482.935	78.56
483.153	87.56
483.372	83.56
483.59	86.56
483.808	95.56
484.027	84.56
484.245	87.56
484.463	95.56
484.681	99.56
484.9	94.56
485.118	91.56
485.336	99.56
485.554	109.56
485.772	103.56
485.99	92.56
486.209	100.56
486.427	105.56
486.645	92.56
486.863	115.56
487.081	82.56
487.299	85.56
487.517	79.56
487.735	84.56
487.953	83.56
488.171	87.56
488.389	78.56
488.607	94.56
488.825	105.56
489.043	87.56
489.261	74.56
489.479	91.56
489.696	85.56
489.914	94.56
490.132	86.56
490.35	85.56
490.568	83.56
490.786	99.56
491.003	84.56
491.221	89.56
491.439	86.56
491.657	94.56
491.874	83.56
492.092	82.56
492.31	73.56
492.527	92.56
492.745	90.56
492.963	85.56
493.18	84.56
493.398	99.56
493.615	98.56
493.833	94.56
494.05	88.56
494.268	89.56
494.485	89.56
494.703	90.56
494.92	86.56
495.138	90.56
495.355	101.56
495.573	91.56
495.79	84.56
496.008	93.56
496.225	90.56
496.442	84.56
496.66	88.56
496.877	91.56
497.094	93.56
497.312	82.56
497.529	83.56
497.746	91.56
497.963	89.56
498.181	89.56
498.398	100.56
498.615	82.56
498.832	100.56
499.049	86.56
499.267	90.56
499.484	93.56
499.701	95.56
499.918	99.56
500.135	97.56
500.352	99.56
500.569	80.56
500.786	94.56
501.003	91.56
501.22	93.56
501.437	91.56
501.654	86.56
501.871	79.56
502.088	106.56
502.305	94.56
502.522	79.56
502.739	89.56
502.956	89.56
503.172	88.56
503.389	88.56
503.606	88.56
503.823	98.56
504.04	89.56
504.256	86.56
504.473	96.56
504.69	89.56
504.907	94.56
505.123	91.56
505.34	93.56
505.557	90.56
505.773	90.56
505.99	76.56
506.207	69.56
506.423	92.56
506.64	93.56
506.856	94.56
507.073	94.56
507.289	95.56
507.506	88.56
507.722	99.56
507.939	90.56
508.155	87.56
508.372	88.56
508.588	103.56
508.805	85.56
509.021	91.56
509.238	103.56
509.454	102.56
509.67	110.56
509.887	87.56
510.103	126.56
510.319	180.56
510.536	582.56
510.752	1690.56
510.968	510.56
511.184	124.56
511.401	93.56
511.617	88.56
511.833	85.56
512.049	100.56
512.265	75.56
512.481	85.56
512.698	99.56
512.914	102.56
513.13	95.56
513.346	91.56
513.562	101.56
513.778	95.56
513.994	97.56
514.21	100.56
514.426	106.56
514.642	119.56
514.858	114.56
515.074	150.56
515.29	312.56
515.506	983.56
515.721	395.56
515.937	133.56
516.153	96.56
516.369	106.56
516.585	89.56
516.801	103.56
517.016	80.56
