Data from Uncirc_2009_H10_HRD10591_00070.txt Node
Date: Wed Jan 03 10:12:15 EST 2024
User: Yrep
Spectrometer: HR+D1059
Trigger mode: 1
Integration Time (sec): 1.000000E-1
Scans to average: 1
Electric dark correction enabled: true
Nonlinearity correction enabled: false
Boxcar width: 0
XAxis mode: Wavelengths
Number of Pixels in Spectrum: 2048
>>>>>Begin Spectral Data<<<<<
223.165	-20.81
223.4	-20.81
223.635	-20.81
223.869	-4.81
224.104	-13.81
224.338	-5.81
224.573	-29.81
224.808	-29.81
225.042	-4.81
225.277	-1.81
225.511	0.19
225.746	8.19
225.98	4.19
226.215	4.19
226.449	24.19
226.683	21.19
226.918	18.19
227.152	31.19
227.387	50.19
227.621	45.19
227.856	42.19
228.09	53.19
228.324	49.19
228.559	55.19
228.793	70.19
229.027	60.19
229.262	73.19
229.496	71.19
229.73	68.19
229.964	76.19
230.199	86.19
230.433	74.19
230.667	86.19
230.901	69.19
231.136	85.19
231.37	74.19
231.604	99.19
231.838	85.19
232.072	95.19
232.306	95.19
232.541	83.19
232.775	95.19
233.009	79.19
233.243	84.19
233.477	75.19
233.711	81.19
233.945	76.19
234.179	83.19
234.413	76.19
234.647	69.19
234.881	77.19
235.115	97.19
235.349	85.19
235.583	89.19
235.817	81.19
236.051	90.19
236.285	77.19
236.519	69.19
236.753	100.19
236.987	80.19
237.221	76.19
237.455	77.19
237.689	64.19
237.922	82.19
238.156	82.19
238.39	83.19
238.624	90.19
238.858	86.19
239.091	75.19
239.325	86.19
239.559	84.19
239.793	86.19
240.027	85.19
240.26	77.19
240.494	71.19
240.728	74.19
240.961	84.19
241.195	86.19
241.429	74.19
241.662	79.19
241.896	76.19
242.13	87.19
242.363	70.19
242.597	60.19
242.83	72.19
243.064	91.19
243.298	72.19
243.531	80.19
243.765	92.19
243.998	100.19
244.232	97.19
244.465	84.19
244.699	84.19
244.932	88.19
245.166	86.19
245.399	80.19
245.633	100.19
245.866	79.19
246.099	68.19
246.333	93.19
246.566	96.19
246.8	73.19
247.033	86.19
247.266	83.19
247.5	83.19
247.733	80.19
247.966	86.19
248.2	70.19
248.433	84.19
248.666	89.19
248.899	87.19
249.133	85.19
249.366	95.19
249.599	81.19
249.832	86.19
250.066	93.19
250.299	84.19
250.532	72.19
250.765	82.19
250.998	81.19
251.231	78.19
251.465	83.19
251.698	80.19
251.931	77.19
252.164	83.19
252.397	93.19
252.63	76.19
252.863	79.19
253.096	73.19
253.329	74.19
253.562	85.19
253.795	98.19
254.028	80.19
254.261	86.19
254.494	88.19
254.727	73.19
254.96	92.19
255.193	85.19
255.426	85.19
255.659	84.19
255.892	93.19
256.124	91.19
256.357	91.19
256.59	88.19
256.823	78.19
257.056	87.19
257.289	84.19
257.521	88.19
257.754	66.19
257.987	103.19
258.22	100.19
258.452	76.19
258.685	79.19
258.918	92.19
259.151	89.19
259.383	78.19
259.616	90.19
259.849	82.19
260.081	95.19
260.314	74.19
260.547	89.19
260.779	85.19
261.012	85.19
261.244	92.19
261.477	82.19
261.71	93.19
261.942	118.19
262.175	115.19
262.407	94.19
262.64	85.19
262.872	80.19
263.105	83.19
263.337	92.19
263.57	88.19
263.802	91.19
264.035	76.19
264.267	93.19
264.499	94.19
264.732	104.19
264.964	78.19
265.197	92.19
265.429	93.19
265.661	83.19
265.894	87.19
266.126	85.19
266.358	88.19
266.591	66.19
266.823	92.19
267.055	80.19
267.287	97.19
267.52	93.19
267.752	85.19
267.984	88.19
268.216	81.19
268.448	93.19
268.681	96.19
268.913	88.19
269.145	94.19
269.377	88.19
269.609	86.19
269.841	88.19
270.073	86.19
270.306	91.19
270.538	82.19
270.77	100.19
271.002	98.19
271.234	89.19
271.466	93.19
271.698	91.19
271.93	77.19
272.162	93.19
272.394	86.19
272.626	77.19
272.858	97.19
273.09	86.19
273.322	90.19
273.553	88.19
273.785	82.19
274.017	91.19
274.249	88.19
274.481	89.19
274.713	94.19
274.945	101.19
275.176	83.19
275.408	92.19
275.64	92.19
275.872	96.19
276.104	90.19
276.335	93.19
276.567	99.19
276.799	103.19
277.031	99.19
277.262	99.19
277.494	67.19
277.726	94.19
277.957	83.19
278.189	86.19
278.421	86.19
278.652	91.19
278.884	90.19
279.115	100.19
279.347	88.19
279.579	107.19
279.81	89.19
280.042	98.19
280.273	94.19
280.505	110.19
280.736	88.19
280.968	82.19
281.199	80.19
281.431	92.19
281.662	83.19
281.894	75.19
282.125	101.19
282.356	100.19
282.588	120.19
282.819	89.19
283.051	89.19
283.282	92.19
283.513	110.19
283.745	108.19
283.976	89.19
284.207	113.19
284.439	107.19
284.67	81.19
284.901	91.19
285.132	98.19
285.364	74.19
285.595	77.19
285.826	88.19
286.057	86.19
286.288	97.19
286.52	92.19
286.751	85.19
286.982	93.19
287.213	99.19
287.444	89.19
287.675	86.19
287.906	95.19
288.138	81.19
288.369	84.19
288.6	91.19
288.831	80.19
289.062	96.19
289.293	94.19
289.524	93.19
289.755	86.19
289.986	98.19
290.217	92.19
290.448	104.19
290.679	93.19
290.91	90.19
291.141	94.19
291.371	89.19
291.602	89.19
291.833	90.19
292.064	97.19
292.295	77.19
292.526	101.19
292.757	92.19
292.987	76.19
293.218	76.19
293.449	106.19
293.68	100.19
293.91	90.19
294.141	96.19
294.372	92.19
294.603	98.19
294.833	92.19
295.064	89.19
295.295	95.19
295.525	92.19
295.756	112.19
295.987	99.19
296.217	104.19
296.448	109.19
296.679	89.19
296.909	110.19
297.14	85.19
297.37	95.19
297.601	93.19
297.831	91.19
298.062	91.19
298.292	89.19
298.523	78.19
298.753	97.19
298.984	87.19
299.214	85.19
299.445	94.19
299.675	103.19
299.905	95.19
300.136	90.19
300.366	87.19
300.597	88.19
300.827	79.19
301.057	111.19
301.288	108.19
301.518	102.19
301.748	72.19
301.979	108.19
302.209	92.19
302.439	99.19
302.669	93.19
302.9	89.19
303.13	98.19
303.36	114.19
303.59	117.19
303.82	109.19
304.051	98.19
304.281	91.19
304.511	109.19
304.741	94.19
304.971	101.19
305.201	106.19
305.431	100.19
305.661	83.19
305.891	86.19
306.121	89.19
306.352	98.19
306.582	104.19
306.812	99.19
307.042	108.19
307.272	94.19
307.502	97.19
307.731	104.19
307.961	90.19
308.191	86.19
308.421	89.19
308.651	91.19
308.881	92.19
309.111	107.19
309.341	100.19
309.571	93.19
309.8	93.19
310.03	102.19
310.26	96.19
310.49	92.19
310.72	108.19
310.949	109.19
311.179	99.19
311.409	100.19
311.639	96.19
311.868	106.19
312.098	92.19
312.328	81.19
312.557	112.19
312.787	107.19
313.017	88.19
313.246	89.19
313.476	93.19
313.706	95.19
313.935	113.19
314.165	105.19
314.394	91.19
314.624	106.19
314.853	92.19
315.083	91.19
315.312	86.19
315.542	94.19
315.771	92.19
316.001	85.19
316.23	89.19
316.46	86.19
316.689	101.19
316.919	98.19
317.148	99.19
317.377	127.19
317.607	128.19
317.836	111.19
318.065	103.19
318.295	96.19
318.524	94.19
318.753	99.19
318.983	104.19
319.212	91.19
319.441	102.19
319.67	123.19
319.9	101.19
320.129	93.19
320.358	99.19
320.587	96.19
320.816	92.19
321.046	97.19
321.275	94.19
321.504	93.19
321.733	98.19
321.962	84.19
322.191	100.19
322.42	105.19
322.649	106.19
322.878	116.19
323.108	113.19
323.337	118.19
323.566	134.19
323.795	139.19
324.024	190.19
324.253	343.19
324.482	735.19
324.71	1414.19
324.939	1809.19
325.168	685.19
325.397	224.19
325.626	142.19
325.855	138.19
326.084	140.19
326.313	149.19
326.542	160.19
326.77	219.19
326.999	422.19
327.228	815.19
327.457	1477.19
327.686	1150.19
327.914	316.19
328.143	194.19
328.372	122.19
328.6	110.19
328.829	112.19
329.058	117.19
329.287	130.19
329.515	120.19
329.744	94.19
329.972	111.19
330.201	110.19
330.43	118.19
330.658	115.19
330.887	126.19
331.115	100.19
331.344	98.19
331.572	109.19
331.801	96.19
332.03	106.19
332.258	100.19
332.486	102.19
332.715	81.19
332.943	91.19
333.172	112.19
333.4	104.19
333.629	112.19
333.857	113.19
334.085	96.19
334.314	106.19
334.542	125.19
334.771	121.19
334.999	94.19
335.227	102.19
335.455	92.19
335.684	107.19
335.912	103.19
336.14	88.19
336.369	101.19
336.597	99.19
336.825	97.19
337.053	100.19
337.281	94.19
337.51	89.19
337.738	100.19
337.966	81.19
338.194	99.19
338.422	94.19
338.65	93.19
338.878	100.19
339.106	94.19
339.334	93.19
339.562	102.19
339.79	90.19
340.018	90.19
340.246	81.19
340.474	101.19
340.702	109.19
340.93	94.19
341.158	86.19
341.386	105.19
341.614	108.19
341.842	96.19
342.07	93.19
342.298	98.19
342.526	96.19
342.754	89.19
342.981	105.19
343.209	94.19
343.437	100.19
343.665	97.19
343.893	89.19
344.12	99.19
344.348	97.19
344.576	89.19
344.804	84.19
345.031	91.19
345.259	99.19
345.487	107.19
345.714	91.19
345.942	93.19
346.17	106.19
346.397	103.19
346.625	89.19
346.853	92.19
347.08	92.19
347.308	111.19
347.535	103.19
347.763	92.19
347.99	88.19
348.218	113.19
348.445	98.19
348.673	102.19
348.9	98.19
349.128	100.19
349.355	94.19
349.583	85.19
349.81	95.19
350.037	108.19
350.265	102.19
350.492	97.19
350.72	100.19
350.947	100.19
351.174	113.19
351.402	134.19
351.629	96.19
351.856	108.19
352.083	101.19
352.311	126.19
352.538	115.19
352.765	108.19
352.992	115.19
353.22	107.19
353.447	116.19
353.674	105.19
353.901	108.19
354.128	108.19
354.355	99.19
354.583	96.19
354.81	92.19
355.037	93.19
355.264	94.19
355.491	101.19
355.718	88.19
355.945	89.19
356.172	99.19
356.399	90.19
356.626	94.19
356.853	101.19
357.08	80.19
357.307	96.19
357.534	90.19
357.761	78.19
357.988	85.19
358.215	99.19
358.441	93.19
358.668	94.19
358.895	105.19
359.122	108.19
359.349	94.19
359.576	93.19
359.802	101.19
360.029	94.19
360.256	107.19
360.483	94.19
360.709	112.19
360.936	92.19
361.163	102.19
361.39	107.19
361.616	108.19
361.843	109.19
362.07	88.19
362.296	88.19
362.523	112.19
362.749	104.19
362.976	88.19
363.203	97.19
363.429	95.19
363.656	82.19
363.882	91.19
364.109	104.19
364.335	94.19
364.562	90.19
364.788	86.19
365.015	86.19
365.241	99.19
365.468	94.19
365.694	102.19
365.92	101.19
366.147	88.19
366.373	90.19
366.599	96.19
366.826	100.19
367.052	83.19
367.278	84.19
367.505	77.19
367.731	84.19
367.957	95.19
368.184	104.19
368.41	98.19
368.636	110.19
368.862	106.19
369.089	91.19
369.315	97.19
369.541	97.19
369.767	93.19
369.993	94.19
370.219	99.19
370.445	98.19
370.672	92.19
370.898	95.19
371.124	88.19
371.35	80.19
371.576	86.19
371.802	99.19
372.028	93.19
372.254	94.19
372.48	90.19
372.706	89.19
372.932	92.19
373.158	96.19
373.384	97.19
373.61	103.19
373.835	100.19
374.061	97.19
374.287	98.19
374.513	99.19
374.739	88.19
374.965	79.19
375.191	97.19
375.416	92.19
375.642	98.19
375.868	97.19
376.094	83.19
376.319	87.19
376.545	91.19
376.771	88.19
376.997	82.19
377.222	91.19
377.448	94.19
377.674	95.19
377.899	89.19
378.125	89.19
378.35	89.19
378.576	84.19
378.802	92.19
379.027	97.19
379.253	82.19
379.478	89.19
379.704	95.19
379.929	93.19
380.155	112.19
380.38	102.19
380.606	85.19
380.831	96.19
381.057	97.19
381.282	101.19
381.507	90.19
381.733	108.19
381.958	100.19
382.184	105.19
382.409	98.19
382.634	99.19
382.86	111.19
383.085	98.19
383.31	99.19
383.535	115.19
383.761	93.19
383.986	92.19
384.211	103.19
384.436	101.19
384.662	91.19
384.887	87.19
385.112	107.19
385.337	110.19
385.562	94.19
385.787	109.19
386.013	94.19
386.238	105.19
386.463	104.19
386.688	102.19
386.913	83.19
387.138	94.19
387.363	106.19
387.588	94.19
387.813	100.19
388.038	97.19
388.263	99.19
388.488	110.19
388.713	99.19
388.938	89.19
389.163	98.19
389.387	99.19
389.612	82.19
389.837	100.19
390.062	106.19
390.287	109.19
390.512	96.19
390.736	95.19
390.961	96.19
391.186	103.19
391.411	97.19
391.636	85.19
391.86	94.19
392.085	91.19
392.31	89.19
392.534	92.19
392.759	85.19
392.984	87.19
393.208	96.19
393.433	90.19
393.658	101.19
393.882	88.19
394.107	95.19
394.331	91.19
394.556	94.19
394.78	98.19
395.005	103.19
395.229	89.19
395.454	100.19
395.678	98.19
395.903	99.19
396.127	79.19
396.352	82.19
396.576	99.19
396.801	83.19
397.025	102.19
397.249	94.19
397.474	101.19
397.698	97.19
397.922	95.19
398.147	94.19
398.371	93.19
398.595	92.19
398.82	95.19
399.044	90.19
399.268	97.19
399.492	85.19
399.717	94.19
399.941	98.19
400.165	94.19
400.389	84.19
400.613	101.19
400.837	86.19
401.062	86.19
401.286	97.19
401.51	102.19
401.734	84.19
401.958	87.19
402.182	108.19
402.406	132.19
402.63	93.19
402.854	91.19
403.078	83.19
403.302	91.19
403.526	99.19
403.75	79.19
403.974	100.19
404.198	83.19
404.422	88.19
404.645	89.19
404.869	92.19
405.093	107.19
405.317	90.19
405.541	105.19
405.765	109.19
405.988	115.19
406.212	133.19
406.436	184.19
406.66	128.19
406.883	108.19
407.107	101.19
407.331	92.19
407.555	100.19
407.778	95.19
408.002	98.19
408.226	72.19
408.449	80.19
408.673	84.19
408.896	111.19
409.12	93.19
409.344	97.19
409.567	94.19
409.791	89.19
410.014	89.19
410.238	99.19
410.461	104.19
410.685	94.19
410.908	105.19
411.132	121.19
411.355	93.19
411.578	98.19
411.802	96.19
412.025	101.19
412.249	102.19
412.472	86.19
412.695	99.19
412.919	81.19
413.142	86.19
413.365	90.19
413.589	90.19
413.812	95.19
414.035	106.19
414.258	100.19
414.482	88.19
414.705	82.19
414.928	92.19
415.151	90.19
415.374	104.19
415.597	89.19
415.821	88.19
416.044	90.19
416.267	81.19
416.49	76.19
416.713	94.19
416.936	85.19
417.159	88.19
417.382	85.19
417.605	99.19
417.828	90.19
418.051	95.19
418.274	85.19
418.497	96.19
418.72	100.19
418.943	90.19
419.166	100.19
419.389	101.19
419.611	86.19
419.834	100.19
420.057	88.19
420.28	86.19
420.503	93.19
420.726	92.19
420.948	94.19
421.171	91.19
421.394	101.19
421.617	92.19
421.839	92.19
422.062	80.19
422.285	92.19
422.507	90.19
422.73	96.19
422.953	102.19
423.175	94.19
423.398	103.19
423.621	92.19
423.843	84.19
424.066	94.19
424.288	102.19
424.511	102.19
424.733	85.19
424.956	109.19
425.178	90.19
425.401	96.19
425.623	105.19
425.846	95.19
426.068	93.19
426.291	96.19
426.513	87.19
426.735	98.19
426.958	98.19
427.18	101.19
427.402	117.19
427.625	149.19
427.847	118.19
428.069	99.19
428.292	102.19
428.514	111.19
428.736	96.19
428.958	83.19
429.181	84.19
429.403	86.19
429.625	93.19
429.847	87.19
430.069	90.19
430.292	85.19
430.514	87.19
430.736	80.19
430.958	85.19
431.18	85.19
431.402	87.19
431.624	91.19
431.846	104.19
432.068	88.19
432.29	102.19
432.512	93.19
432.734	82.19
432.956	98.19
433.178	103.19
433.4	92.19
433.622	89.19
433.844	98.19
434.066	87.19
434.287	91.19
434.509	77.19
434.731	88.19
434.953	87.19
435.175	97.19
435.397	99.19
435.618	84.19
435.84	103.19
436.062	120.19
436.284	114.19
436.505	93.19
436.727	100.19
436.949	100.19
437.17	103.19
437.392	88.19
437.614	83.19
437.835	96.19
438.057	100.19
438.278	114.19
438.5	111.19
438.721	117.19
438.943	93.19
439.165	85.19
439.386	86.19
439.608	95.19
439.829	99.19
440.05	100.19
440.272	108.19
440.493	86.19
440.715	93.19
440.936	82.19
441.158	86.19
441.379	95.19
441.6	97.19
441.822	91.19
442.043	99.19
442.264	103.19
442.486	108.19
442.707	94.19
442.928	105.19
443.149	116.19
443.371	125.19
443.592	99.19
443.813	116.19
444.034	104.19
444.255	89.19
444.476	95.19
444.698	105.19
444.919	79.19
445.14	133.19
445.361	123.19
445.582	129.19
445.803	112.19
446.024	120.19
446.245	123.19
446.466	105.19
446.687	96.19
446.908	94.19
447.129	94.19
447.35	85.19
447.571	91.19
447.792	74.19
448.013	100.19
448.234	101.19
448.455	94.19
448.675	116.19
448.896	126.19
449.117	121.19
449.338	105.19
449.559	121.19
449.779	121.19
450	79.19
450.221	87.19
450.442	85.19
450.662	101.19
450.883	107.19
451.104	108.19
451.324	98.19
451.545	89.19
451.766	89.19
451.986	98.19
452.207	105.19
452.428	85.19
452.648	97.19
452.869	109.19
453.089	105.19
453.31	120.19
453.53	100.19
453.751	100.19
453.971	102.19
454.192	101.19
454.412	96.19
454.633	83.19
454.853	82.19
455.073	89.19
455.294	97.19
455.514	90.19
455.734	91.19
455.955	90.19
456.175	87.19
456.395	82.19
456.616	84.19
456.836	90.19
457.056	87.19
457.276	98.19
457.497	84.19
457.717	87.19
457.937	80.19
458.157	96.19
458.377	86.19
458.598	114.19
458.818	130.19
459.038	125.19
459.258	101.19
459.478	82.19
459.698	97.19
459.918	76.19
460.138	82.19
460.358	93.19
460.578	105.19
460.798	108.19
461.018	93.19
461.238	92.19
461.458	87.19
461.678	80.19
461.898	96.19
462.118	93.19
462.338	86.19
462.558	91.19
462.777	89.19
462.997	101.19
463.217	77.19
463.437	88.19
463.657	90.19
463.876	98.19
464.096	89.19
464.316	82.19
464.536	98.19
464.755	88.19
464.975	100.19
465.195	128.19
465.414	132.19
465.634	77.19
465.854	97.19
466.073	95.19
466.293	85.19
466.512	77.19
466.732	83.19
466.951	99.19
467.171	105.19
467.391	82.19
467.61	98.19
467.829	109.19
468.049	99.19
468.268	108.19
468.488	81.19
468.707	95.19
468.927	104.19
469.146	77.19
469.365	89.19
469.585	104.19
469.804	85.19
470.023	86.19
470.243	95.19
470.462	82.19
470.681	101.19
470.901	93.19
471.12	71.19
471.339	97.19
471.558	85.19
471.777	80.19
471.997	85.19
472.216	99.19
472.435	127.19
472.654	83.19
472.873	82.19
473.092	94.19
473.311	84.19
473.53	104.19
473.749	81.19
473.968	93.19
474.187	106.19
474.406	104.19
474.625	99.19
474.844	79.19
475.063	92.19
475.282	99.19
475.501	80.19
475.72	96.19
475.939	90.19
476.158	89.19
476.377	86.19
476.596	88.19
476.814	84.19
477.033	85.19
477.252	108.19
477.471	99.19
477.69	91.19
477.908	94.19
478.127	94.19
478.346	89.19
478.564	93.19
478.783	96.19
479.002	91.19
479.22	94.19
479.439	81.19
479.658	98.19
479.876	101.19
480.095	85.19
480.313	91.19
480.532	102.19
480.751	97.19
480.969	111.19
481.188	160.19
481.406	136.19
481.624	101.19
481.843	104.19
482.061	93.19
482.28	99.19
482.498	93.19
482.717	84.19
482.935	80.19
483.153	87.19
483.372	102.19
483.59	90.19
483.808	94.19
484.027	90.19
484.245	92.19
484.463	81.19
484.681	86.19
484.9	95.19
485.118	87.19
485.336	109.19
485.554	96.19
485.772	106.19
485.99	104.19
486.209	97.19
486.427	109.19
486.645	106.19
486.863	108.19
487.081	102.19
487.299	108.19
487.517	99.19
487.735	80.19
487.953	89.19
488.171	90.19
488.389	111.19
488.607	83.19
488.825	87.19
489.043	100.19
489.261	97.19
489.479	79.19
489.696	89.19
489.914	110.19
490.132	101.19
490.35	100.19
490.568	96.19
490.786	87.19
491.003	101.19
491.221	84.19
491.439	93.19
491.657	88.19
491.874	90.19
492.092	107.19
492.31	101.19
492.527	101.19
492.745	96.19
492.963	91.19
493.18	109.19
493.398	97.19
493.615	94.19
493.833	92.19
494.05	83.19
494.268	93.19
494.485	96.19
494.703	89.19
494.92	81.19
495.138	90.19
495.355	100.19
495.573	89.19
495.79	88.19
496.008	94.19
496.225	82.19
496.442	105.19
496.66	88.19
496.877	91.19
497.094	95.19
497.312	84.19
497.529	94.19
497.746	96.19
497.963	100.19
498.181	96.19
498.398	95.19
498.615	99.19
498.832	89.19
499.049	92.19
499.267	84.19
499.484	98.19
499.701	96.19
499.918	70.19
500.135	89.19
500.352	83.19
500.569	101.19
500.786	97.19
501.003	96.19
501.22	87.19
501.437	102.19
501.654	86.19
501.871	97.19
502.088	112.19
502.305	94.19
502.522	96.19
502.739	105.19
502.956	98.19
503.172	81.19
503.389	93.19
503.606	104.19
503.823	102.19
504.04	99.19
504.256	104.19
504.473	102.19
504.69	89.19
504.907	94.19
505.123	94.19
505.34	100.19
505.557	103.19
505.773	104.19
505.99	94.19
506.207	103.19
506.423	92.19
506.64	92.19
506.856	79.19
507.073	96.19
507.289	96.19
507.506	93.19
507.722	100.19
507.939	105.19
508.155	96.19
508.372	101.19
508.588	91.19
508.805	96.19
509.021	90.19
509.238	111.19
509.454	102.19
509.67	96.19
509.887	91.19
510.103	123.19
510.319	193.19
510.536	587.19
510.752	1664.19
510.968	512.19
511.184	144.19
511.401	109.19
511.617	93.19
511.833	91.19
512.049	106.19
512.265	80.19
512.481	90.19
512.698	85.19
512.914	102.19
513.13	111.19
513.346	101.19
513.562	88.19
513.778	86.19
513.994	83.19
514.21	84.19
514.426	118.19
514.642	120.19
514.858	117.19
