Data from Uncirc_2009_H10_HRD10591_00012.txt Node
Date: Wed Jan 03 10:12:04 EST 2024
User: Yrep
Spectrometer: HR+D1059
Trigger mode: 1
Integration Time (sec): 1.000000E-1
Scans to average: 1
Electric dark correction enabled: true
Nonlinearity correction enabled: false
Boxcar width: 0
XAxis mode: Wavelengths
Number of Pixels in Spectrum: 2048
>>>>>Begin Spectral Data<<<<<
223.165	-15.12
223.4	-15.12
223.635	-15.12
223.869	-28.12
224.104	-12.12
224.338	-12.12
224.573	-14.12
224.808	-10.12
225.042	-8.12
225.277	7.88
225.511	6.88
225.746	-8.12
225.98	8.88
226.215	13.88
226.449	4.88
226.683	15.88
226.918	23.88
227.152	25.88
227.387	24.88
227.621	42.88
227.856	50.88
228.09	47.88
228.324	53.88
228.559	61.88
228.793	51.88
229.027	46.88
229.262	61.88
229.496	67.88
229.73	79.88
229.964	77.88
230.199	61.88
230.433	78.88
230.667	70.88
230.901	84.88
231.136	68.88
231.37	72.88
231.604	82.88
231.838	80.88
232.072	85.88
232.306	81.88
232.541	81.88
232.775	80.88
233.009	74.88
233.243	77.88
233.477	82.88
233.711	79.88
233.945	81.88
234.179	81.88
234.413	77.88
234.647	74.88
234.881	76.88
235.115	71.88
235.349	81.88
235.583	77.88
235.817	75.88
236.051	82.88
236.285	75.88
236.519	81.88
236.753	85.88
236.987	88.88
237.221	74.88
237.455	83.88
237.689	84.88
237.922	71.88
238.156	67.88
238.39	83.88
238.624	80.88
238.858	79.88
239.091	73.88
239.325	93.88
239.559	89.88
239.793	76.88
240.027	68.88
240.26	81.88
240.494	68.88
240.728	71.88
240.961	74.88
241.195	75.88
241.429	73.88
241.662	79.88
241.896	85.88
242.13	68.88
242.363	78.88
242.597	75.88
242.83	80.88
243.064	78.88
243.298	78.88
243.531	76.88
243.765	76.88
243.998	70.88
244.232	74.88
244.465	84.88
244.699	73.88
244.932	91.88
245.166	73.88
245.399	75.88
245.633	71.88
245.866	79.88
246.099	85.88
246.333	80.88
246.566	74.88
246.8	74.88
247.033	65.88
247.266	81.88
247.5	74.88
247.733	76.88
247.966	72.88
248.2	70.88
248.433	78.88
248.666	75.88
248.899	88.88
249.133	74.88
249.366	92.88
249.599	87.88
249.832	78.88
250.066	82.88
250.299	70.88
250.532	68.88
250.765	81.88
250.998	84.88
251.231	73.88
251.465	84.88
251.698	87.88
251.931	76.88
252.164	86.88
252.397	71.88
252.63	82.88
252.863	75.88
253.096	72.88
253.329	77.88
253.562	95.88
253.795	71.88
254.028	86.88
254.261	83.88
254.494	73.88
254.727	84.88
254.96	78.88
255.193	91.88
255.426	82.88
255.659	87.88
255.892	91.88
256.124	78.88
256.357	90.88
256.59	82.88
256.823	83.88
257.056	75.88
257.289	87.88
257.521	75.88
257.754	78.88
257.987	79.88
258.22	100.88
258.452	76.88
258.685	76.88
258.918	76.88
259.151	77.88
259.383	81.88
259.616	76.88
259.849	76.88
260.081	87.88
260.314	92.88
260.547	83.88
260.779	78.88
261.012	80.88
261.244	83.88
261.477	89.88
261.71	89.88
261.942	98.88
262.175	106.88
262.407	94.88
262.64	88.88
262.872	77.88
263.105	79.88
263.337	79.88
263.57	95.88
263.802	98.88
264.035	84.88
264.267	82.88
264.499	87.88
264.732	89.88
264.964	77.88
265.197	77.88
265.429	70.88
265.661	77.88
265.894	83.88
266.126	79.88
266.358	74.88
266.591	90.88
266.823	91.88
267.055	83.88
267.287	77.88
267.52	101.88
267.752	96.88
267.984	83.88
268.216	81.88
268.448	81.88
268.681	87.88
268.913	85.88
269.145	73.88
269.377	88.88
269.609	80.88
269.841	81.88
270.073	74.88
270.306	88.88
270.538	80.88
270.77	81.88
271.002	83.88
271.234	87.88
271.466	85.88
271.698	94.88
271.93	78.88
272.162	75.88
272.394	88.88
272.626	75.88
272.858	87.88
273.09	85.88
273.322	80.88
273.553	77.88
273.785	81.88
274.017	64.88
274.249	76.88
274.481	76.88
274.713	89.88
274.945	80.88
275.176	83.88
275.408	87.88
275.64	83.88
275.872	78.88
276.104	91.88
276.335	85.88
276.567	94.88
276.799	94.88
277.031	82.88
277.262	97.88
277.494	86.88
277.726	89.88
277.957	84.88
278.189	88.88
278.421	88.88
278.652	76.88
278.884	77.88
279.115	81.88
279.347	94.88
279.579	89.88
279.81	96.88
280.042	84.88
280.273	90.88
280.505	81.88
280.736	81.88
280.968	79.88
281.199	89.88
281.431	91.88
281.662	94.88
281.894	78.88
282.125	95.88
282.356	106.88
282.588	125.88
282.819	115.88
283.051	78.88
283.282	86.88
283.513	92.88
283.745	88.88
283.976	107.88
284.207	100.88
284.439	91.88
284.67	88.88
284.901	77.88
285.132	85.88
285.364	81.88
285.595	88.88
285.826	79.88
286.057	79.88
286.288	87.88
286.52	97.88
286.751	78.88
286.982	83.88
287.213	69.88
287.444	84.88
287.675	97.88
287.906	86.88
288.138	103.88
288.369	88.88
288.6	89.88
288.831	88.88
289.062	111.88
289.293	95.88
289.524	90.88
289.755	90.88
289.986	84.88
290.217	87.88
290.448	92.88
290.679	86.88
290.91	85.88
291.141	95.88
291.371	94.88
291.602	95.88
291.833	75.88
292.064	84.88
292.295	83.88
292.526	98.88
292.757	98.88
292.987	88.88
293.218	86.88
293.449	92.88
293.68	84.88
293.91	72.88
294.141	89.88
294.372	86.88
294.603	100.88
294.833	76.88
295.064	84.88
295.295	102.88
295.525	107.88
295.756	89.88
295.987	106.88
296.217	128.88
296.448	109.88
296.679	90.88
296.909	95.88
297.14	84.88
297.37	101.88
297.601	89.88
297.831	80.88
298.062	95.88
298.292	85.88
298.523	88.88
298.753	90.88
298.984	87.88
299.214	90.88
299.445	84.88
299.675	97.88
299.905	72.88
300.136	82.88
300.366	80.88
300.597	100.88
300.827	105.88
301.057	115.88
301.288	89.88
301.518	88.88
301.748	92.88
301.979	90.88
302.209	87.88
302.439	80.88
302.669	93.88
302.9	80.88
303.13	103.88
303.36	107.88
303.59	121.88
303.82	108.88
304.051	99.88
304.281	91.88
304.511	108.88
304.741	87.88
304.971	87.88
305.201	90.88
305.431	86.88
305.661	76.88
305.891	96.88
306.121	90.88
306.352	87.88
306.582	99.88
306.812	92.88
307.042	97.88
307.272	88.88
307.502	80.88
307.731	89.88
307.961	80.88
308.191	91.88
308.421	86.88
308.651	85.88
308.881	94.88
309.111	103.88
309.341	91.88
309.571	93.88
309.8	98.88
310.03	96.88
310.26	94.88
310.49	80.88
310.72	87.88
310.949	94.88
311.179	91.88
311.409	77.88
311.639	79.88
311.868	84.88
312.098	94.88
312.328	99.88
312.557	102.88
312.787	89.88
313.017	108.88
313.246	79.88
313.476	88.88
313.706	94.88
313.935	98.88
314.165	96.88
314.394	115.88
314.624	92.88
314.853	92.88
315.083	87.88
315.312	87.88
315.542	79.88
315.771	96.88
316.001	105.88
316.23	91.88
316.46	108.88
316.689	87.88
316.919	87.88
317.148	115.88
317.377	114.88
317.607	117.88
317.836	97.88
318.065	90.88
318.295	99.88
318.524	96.88
318.753	95.88
318.983	98.88
319.212	102.88
319.441	105.88
319.67	90.88
319.9	88.88
320.129	85.88
320.358	96.88
320.587	97.88
320.816	98.88
321.046	103.88
321.275	104.88
321.504	74.88
321.733	94.88
321.962	87.88
322.191	83.88
322.42	96.88
322.649	95.88
322.878	107.88
323.108	115.88
323.337	110.88
323.566	141.88
323.795	138.88
324.024	190.88
324.253	352.88
324.482	748.88
324.71	1546.88
324.939	2043.88
325.168	767.88
325.397	221.88
325.626	150.88
325.855	130.88
326.084	148.88
326.313	161.88
326.542	177.88
326.77	200.88
326.999	418.88
327.228	881.88
327.457	1568.88
327.686	1240.88
327.914	351.88
328.143	164.88
328.372	131.88
328.6	117.88
328.829	116.88
329.058	130.88
329.287	126.88
329.515	95.88
329.744	97.88
329.972	99.88
330.201	110.88
330.43	132.88
330.658	115.88
330.887	112.88
331.115	117.88
331.344	92.88
331.572	101.88
331.801	115.88
332.03	99.88
332.258	94.88
332.486	94.88
332.715	83.88
332.943	96.88
333.172	107.88
333.4	103.88
333.629	109.88
333.857	105.88
334.085	100.88
334.314	96.88
334.542	131.88
334.771	134.88
334.999	98.88
335.227	85.88
335.455	102.88
335.684	98.88
335.912	79.88
336.14	108.88
336.369	99.88
336.597	92.88
336.825	97.88
337.053	97.88
337.281	75.88
337.51	98.88
337.738	88.88
337.966	96.88
338.194	96.88
338.422	92.88
338.65	92.88
338.878	91.88
339.106	89.88
339.334	86.88
339.562	97.88
339.79	86.88
340.018	95.88
340.246	94.88
340.474	95.88
340.702	98.88
340.93	67.88
341.158	91.88
341.386	95.88
341.614	86.88
341.842	102.88
342.07	84.88
342.298	87.88
342.526	81.88
342.754	92.88
342.981	96.88
343.209	99.88
343.437	109.88
343.665	94.88
343.893	89.88
344.12	100.88
344.348	104.88
344.576	95.88
344.804	93.88
345.031	80.88
345.259	98.88
345.487	68.88
345.714	92.88
345.942	96.88
346.17	104.88
346.397	91.88
346.625	88.88
346.853	96.88
347.08	86.88
347.308	85.88
347.535	94.88
347.763	102.88
347.99	94.88
348.218	90.88
348.445	115.88
348.673	94.88
348.9	86.88
349.128	93.88
349.355	87.88
349.583	94.88
349.81	90.88
350.037	104.88
350.265	91.88
350.492	91.88
350.72	93.88
350.947	115.88
351.174	98.88
351.402	106.88
351.629	111.88
351.856	104.88
352.083	95.88
352.311	96.88
352.538	108.88
352.765	99.88
352.992	118.88
353.22	97.88
353.447	100.88
353.674	107.88
353.901	108.88
354.128	96.88
354.355	96.88
354.583	92.88
354.81	73.88
355.037	84.88
355.264	92.88
355.491	82.88
355.718	98.88
355.945	93.88
356.172	88.88
356.399	97.88
356.626	96.88
356.853	72.88
357.08	95.88
357.307	103.88
357.534	89.88
357.761	89.88
357.988	94.88
358.215	104.88
358.441	99.88
358.668	79.88
358.895	79.88
359.122	91.88
359.349	79.88
359.576	93.88
359.802	103.88
360.029	102.88
360.256	96.88
360.483	91.88
360.709	83.88
360.936	100.88
361.163	89.88
361.39	101.88
361.616	83.88
361.843	75.88
362.07	93.88
362.296	84.88
362.523	82.88
362.749	81.88
362.976	92.88
363.203	88.88
363.429	93.88
363.656	95.88
363.882	89.88
364.109	91.88
364.335	83.88
364.562	73.88
364.788	89.88
365.015	80.88
365.241	88.88
365.468	100.88
365.694	94.88
365.92	81.88
366.147	90.88
366.373	92.88
366.599	102.88
366.826	81.88
367.052	75.88
367.278	82.88
367.505	87.88
367.731	99.88
367.957	80.88
368.184	91.88
368.41	96.88
368.636	99.88
368.862	96.88
369.089	97.88
369.315	93.88
369.541	91.88
369.767	100.88
369.993	99.88
370.219	83.88
370.445	99.88
370.672	88.88
370.898	84.88
371.124	79.88
371.35	94.88
371.576	85.88
371.802	95.88
372.028	86.88
372.254	87.88
372.48	75.88
372.706	96.88
372.932	87.88
373.158	85.88
373.384	94.88
373.61	84.88
373.835	94.88
374.061	99.88
374.287	73.88
374.513	88.88
374.739	87.88
374.965	86.88
375.191	77.88
375.416	84.88
375.642	94.88
375.868	91.88
376.094	101.88
376.319	85.88
376.545	78.88
376.771	76.88
376.997	74.88
377.222	91.88
377.448	78.88
377.674	84.88
377.899	88.88
378.125	80.88
378.35	91.88
378.576	85.88
378.802	81.88
379.027	82.88
379.253	81.88
379.478	81.88
379.704	96.88
379.929	92.88
380.155	97.88
380.38	93.88
380.606	80.88
380.831	98.88
381.057	105.88
381.282	94.88
381.507	92.88
381.733	96.88
381.958	100.88
382.184	88.88
382.409	91.88
382.634	95.88
382.86	111.88
383.085	104.88
383.31	93.88
383.535	95.88
383.761	97.88
383.986	86.88
384.211	88.88
384.436	90.88
384.662	104.88
384.887	107.88
385.112	99.88
385.337	95.88
385.562	118.88
385.787	102.88
386.013	106.88
386.238	109.88
386.463	119.88
386.688	106.88
386.913	99.88
387.138	118.88
387.363	110.88
387.588	103.88
387.813	112.88
388.038	107.88
388.263	108.88
388.488	107.88
388.713	99.88
388.938	97.88
389.163	98.88
389.387	98.88
389.612	99.88
389.837	87.88
390.062	96.88
390.287	103.88
390.512	94.88
390.736	85.88
390.961	89.88
391.186	94.88
391.411	93.88
391.636	96.88
391.86	94.88
392.085	89.88
392.31	76.88
392.534	82.88
392.759	88.88
392.984	84.88
393.208	102.88
393.433	80.88
393.658	80.88
393.882	71.88
394.107	77.88
394.331	85.88
394.556	88.88
394.78	90.88
395.005	88.88
395.229	93.88
395.454	93.88
395.678	93.88
395.903	80.88
396.127	88.88
396.352	83.88
396.576	77.88
396.801	94.88
397.025	89.88
397.249	85.88
397.474	93.88
397.698	81.88
397.922	88.88
398.147	79.88
398.371	87.88
398.595	74.88
398.82	88.88
399.044	89.88
399.268	83.88
399.492	85.88
399.717	91.88
399.941	86.88
400.165	79.88
400.389	87.88
400.613	80.88
400.837	83.88
401.062	89.88
401.286	82.88
401.51	90.88
401.734	96.88
401.958	90.88
402.182	132.88
402.406	152.88
402.63	112.88
402.854	83.88
403.078	85.88
403.302	88.88
403.526	105.88
403.75	77.88
403.974	89.88
404.198	96.88
404.422	95.88
404.645	81.88
404.869	85.88
405.093	91.88
405.317	88.88
405.541	96.88
405.765	85.88
405.988	101.88
406.212	146.88
406.436	184.88
406.66	115.88
406.883	74.88
407.107	101.88
407.331	78.88
407.555	84.88
407.778	84.88
408.002	78.88
408.226	97.88
408.449	93.88
408.673	89.88
408.896	84.88
409.12	96.88
409.344	94.88
409.567	95.88
409.791	99.88
410.014	99.88
410.238	79.88
410.461	99.88
410.685	82.88
410.908	91.88
411.132	87.88
411.355	85.88
411.578	92.88
411.802	91.88
412.025	75.88
412.249	81.88
412.472	99.88
412.695	93.88
412.919	73.88
413.142	90.88
413.365	78.88
413.589	87.88
413.812	85.88
414.035	87.88
414.258	89.88
414.482	83.88
414.705	85.88
414.928	75.88
415.151	88.88
415.374	92.88
415.597	94.88
415.821	100.88
416.044	93.88
416.267	93.88
416.49	93.88
416.713	77.88
416.936	81.88
417.159	96.88
417.382	84.88
417.605	89.88
417.828	85.88
418.051	90.88
418.274	77.88
418.497	83.88
418.72	87.88
418.943	96.88
419.166	91.88
419.389	88.88
419.611	68.88
419.834	87.88
420.057	88.88
420.28	73.88
420.503	88.88
420.726	74.88
420.948	82.88
421.171	103.88
421.394	77.88
421.617	91.88
421.839	84.88
422.062	92.88
422.285	93.88
422.507	91.88
422.73	88.88
422.953	97.88
423.175	82.88
423.398	82.88
423.621	92.88
423.843	74.88
424.066	82.88
424.288	80.88
424.511	78.88
424.733	95.88
424.956	102.88
425.178	85.88
425.401	94.88
425.623	82.88
425.846	92.88
426.068	90.88
426.291	84.88
426.513	77.88
426.735	83.88
426.958	87.88
427.18	101.88
427.402	122.88
427.625	127.88
427.847	128.88
428.069	105.88
428.292	87.88
428.514	83.88
428.736	95.88
428.958	89.88
429.181	98.88
429.403	90.88
429.625	87.88
429.847	105.88
430.069	93.88
430.292	86.88
430.514	89.88
430.736	85.88
430.958	96.88
431.18	79.88
431.402	80.88
431.624	84.88
431.846	92.88
432.068	73.88
432.29	87.88
432.512	74.88
432.734	91.88
432.956	76.88
433.178	96.88
433.4	82.88
433.622	99.88
433.844	103.88
434.066	93.88
434.287	79.88
434.509	90.88
434.731	89.88
434.953	91.88
435.175	89.88
435.397	89.88
435.618	96.88
435.84	98.88
436.062	112.88
436.284	106.88
436.505	92.88
436.727	111.88
436.949	84.88
437.17	86.88
437.392	91.88
437.614	81.88
437.835	105.88
438.057	96.88
438.278	98.88
438.5	100.88
438.721	102.88
438.943	96.88
439.165	80.88
439.386	76.88
439.608	94.88
439.829	85.88
440.05	103.88
440.272	120.88
440.493	99.88
440.715	78.88
440.936	80.88
441.158	80.88
441.379	100.88
441.6	92.88
441.822	91.88
442.043	80.88
442.264	91.88
442.486	93.88
442.707	99.88
442.928	97.88
443.149	105.88
443.371	112.88
443.592	84.88
443.813	107.88
444.034	96.88
444.255	91.88
444.476	81.88
444.698	87.88
444.919	85.88
445.14	120.88
445.361	126.88
445.582	105.88
445.803	121.88
446.024	107.88
446.245	126.88
446.466	89.88
446.687	96.88
446.908	84.88
447.129	80.88
447.35	87.88
447.571	94.88
447.792	95.88
448.013	89.88
448.234	104.88
448.455	89.88
448.675	109.88
448.896	102.88
449.117	85.88
449.338	93.88
449.559	129.88
449.779	121.88
450	94.88
450.221	90.88
450.442	103.88
450.662	97.88
450.883	92.88
451.104	93.88
451.324	94.88
451.545	76.88
451.766	87.88
451.986	87.88
452.207	93.88
452.428	87.88
452.648	99.88
452.869	104.88
453.089	111.88
453.31	111.88
453.53	96.88
453.751	100.88
453.971	89.88
454.192	103.88
454.412	87.88
454.633	87.88
454.853	83.88
455.073	68.88
455.294	83.88
455.514	97.88
455.734	100.88
455.955	84.88
456.175	71.88
456.395	88.88
456.616	87.88
456.836	94.88
457.056	75.88
457.276	73.88
457.497	85.88
457.717	78.88
457.937	76.88
458.157	95.88
458.377	86.88
458.598	91.88
458.818	130.88
459.038	146.88
459.258	100.88
459.478	92.88
459.698	88.88
459.918	81.88
460.138	75.88
460.358	81.88
460.578	80.88
460.798	89.88
461.018	87.88
461.238	87.88
461.458	85.88
461.678	87.88
461.898	78.88
462.118	80.88
462.338	77.88
462.558	80.88
462.777	93.88
462.997	87.88
463.217	96.88
463.437	90.88
463.657	81.88
463.876	85.88
464.096	75.88
464.316	102.88
464.536	90.88
464.755	88.88
464.975	109.88
465.195	139.88
465.414	135.88
465.634	95.88
465.854	93.88
466.073	79.88
466.293	90.88
466.512	87.88
466.732	86.88
466.951	88.88
467.171	83.88
467.391	89.88
467.61	92.88
467.829	84.88
468.049	80.88
468.268	100.88
468.488	93.88
468.707	85.88
468.927	93.88
469.146	81.88
469.365	96.88
469.585	91.88
469.804	93.88
470.023	83.88
470.243	85.88
470.462	94.88
470.681	105.88
470.901	101.88
471.12	89.88
471.339	92.88
471.558	92.88
471.777	93.88
471.997	87.88
472.216	97.88
472.435	126.88
472.654	101.88
472.873	85.88
473.092	87.88
473.311	86.88
473.53	77.88
473.749	100.88
473.968	85.88
474.187	102.88
474.406	86.88
474.625	101.88
474.844	85.88
475.063	96.88
475.282	88.88
475.501	102.88
475.72	91.88
475.939	85.88
476.158	87.88
476.377	91.88
476.596	82.88
476.814	98.88
477.033	96.88
477.252	85.88
477.471	90.88
477.69	82.88
477.908	93.88
478.127	100.88
478.346	107.88
478.564	87.88
478.783	104.88
479.002	95.88
479.22	96.88
479.439	85.88
479.658	85.88
479.876	98.88
480.095	93.88
480.313	96.88
480.532	88.88
480.751	84.88
480.969	104.88
481.188	162.88
481.406	144.88
481.624	100.88
481.843	91.88
482.061	81.88
482.28	75.88
482.498	92.88
482.717	86.88
482.935	89.88
483.153	75.88
483.372	80.88
483.59	84.88
483.808	76.88
484.027	96.88
484.245	92.88
484.463	92.88
484.681	84.88
484.9	96.88
485.118	91.88
485.336	93.88
485.554	99.88
485.772	105.88
485.99	104.88
486.209	112.88
486.427	96.88
486.645	94.88
486.863	97.88
487.081	99.88
487.299	81.88
487.517	91.88
487.735	94.88
487.953	86.88
488.171	95.88
488.389	100.88
488.607	112.88
488.825	79.88
489.043	83.88
489.261	89.88
489.479	92.88
489.696	81.88
489.914	76.88
490.132	88.88
490.35	85.88
490.568	95.88
490.786	94.88
491.003	85.88
491.221	79.88
491.439	84.88
491.657	81.88
491.874	91.88
492.092	102.88
492.31	93.88
492.527	83.88
492.745	83.88
492.963	91.88
493.18	88.88
493.398	91.88
493.615	110.88
493.833	96.88
494.05	67.88
494.268	73.88
494.485	101.88
494.703	80.88
494.92	76.88
495.138	97.88
495.355	93.88
495.573	76.88
495.79	105.88
496.008	105.88
496.225	93.88
496.442	85.88
496.66	94.88
496.877	74.88
497.094	107.88
497.312	74.88
497.529	95.88
497.746	93.88
497.963	95.88
498.181	81.88
498.398	80.88
498.615	110.88
498.832	96.88
499.049	103.88
499.267	87.88
499.484	91.88
499.701	85.88
499.918	89.88
500.135	89.88
500.352	93.88
500.569	91.88
500.786	81.88
501.003	85.88
501.22	85.88
501.437	98.88
501.654	99.88
501.871	92.88
502.088	80.88
502.305	75.88
502.522	78.88
502.739	85.88
502.956	102.88
503.172	94.88
503.389	95.88
503.606	101.88
503.823	87.88
504.04	87.88
504.256	90.88
504.473	89.88
504.69	77.88
504.907	84.88
505.123	102.88
505.34	100.88
505.557	77.88
505.773	83.88
505.99	84.88
506.207	81.88
506.423	104.88
506.64	102.88
506.856	82.88
507.073	97.88
507.289	78.88
507.506	93.88
507.722	111.88
507.939	90.88
508.155	103.88
508.372	100.88
508.588	85.88
508.805	95.88
509.021	87.88
509.238	75.88
509.454	89.88
509.67	102.88
509.887	93.88
510.103	114.88
510.319	194.88
510.536	620.88
510.752	1849.88
510.968	548.88
511.184	135.88
511.401	102.88
511.617	88.88
511.833	86.88
512.049	100.88
512.265	86.88
512.481	97.88
512.698	89.88
512.914	100.88
513.13	83.88
513.346	75.88
513.562	75.88
513.778	90.88
513.994	99.88
514.21	99.88
514.426	110.88
514.642	113.88
514.858	123.88
515.074	139.88
515.29	369.88
515.506	1143.88
515.721	461.88
515.937	133.88
516.153	105.88
516.369	105.88
516.585	89.88
