Data from Uncirc_2009_H10_HRD10591_00093.txt Node
Date: Wed Jan 03 10:12:20 EST 2024
User: Yrep
Spectrometer: HR+D1059
Trigger mode: 1
Integration Time (sec): 1.000000E-1
Scans to average: 1
Electric dark correction enabled: true
Nonlinearity correction enabled: false
Boxcar width: 0
XAxis mode: Wavelengths
Number of Pixels in Spectrum: 2048
>>>>>Begin Spectral Data<<<<<
223.165	-17.62
223.4	-17.62
223.635	-17.62
223.869	-21.62
224.104	-19.62
224.338	-19.62
224.573	-10.62
224.808	-24.62
225.042	-10.62
225.277	6.38
225.511	2.38
225.746	14.38
225.98	22.38
226.215	22.38
226.449	1.38
226.683	6.38
226.918	27.38
227.152	21.38
227.387	34.38
227.621	37.38
227.856	37.38
228.09	48.38
228.324	57.38
228.559	57.38
228.793	70.38
229.027	65.38
229.262	73.38
229.496	61.38
229.73	78.38
229.964	73.38
230.199	69.38
230.433	75.38
230.667	76.38
230.901	80.38
231.136	76.38
231.37	76.38
231.604	61.38
231.838	83.38
232.072	81.38
232.306	81.38
232.541	79.38
232.775	76.38
233.009	81.38
233.243	87.38
233.477	82.38
233.711	83.38
233.945	82.38
234.179	71.38
234.413	82.38
234.647	81.38
234.881	73.38
235.115	72.38
235.349	61.38
235.583	72.38
235.817	74.38
236.051	63.38
236.285	70.38
236.519	76.38
236.753	84.38
236.987	74.38
237.221	83.38
237.455	84.38
237.689	82.38
237.922	76.38
238.156	81.38
238.39	72.38
238.624	67.38
238.858	66.38
239.091	81.38
239.325	66.38
239.559	88.38
239.793	71.38
240.027	70.38
240.26	75.38
240.494	81.38
240.728	65.38
240.961	68.38
241.195	83.38
241.429	74.38
241.662	74.38
241.896	74.38
242.13	84.38
242.363	74.38
242.597	85.38
242.83	92.38
243.064	83.38
243.298	84.38
243.531	79.38
243.765	87.38
243.998	79.38
244.232	71.38
244.465	93.38
244.699	78.38
244.932	72.38
245.166	85.38
245.399	82.38
245.633	68.38
245.866	72.38
246.099	66.38
246.333	71.38
246.566	87.38
246.8	87.38
247.033	65.38
247.266	68.38
247.5	76.38
247.733	69.38
247.966	70.38
248.2	84.38
248.433	86.38
248.666	81.38
248.899	91.38
249.133	82.38
249.366	96.38
249.599	82.38
249.832	82.38
250.066	77.38
250.299	81.38
250.532	79.38
250.765	78.38
250.998	78.38
251.231	71.38
251.465	71.38
251.698	88.38
251.931	72.38
252.164	79.38
252.397	80.38
252.63	77.38
252.863	84.38
253.096	79.38
253.329	82.38
253.562	74.38
253.795	76.38
254.028	91.38
254.261	88.38
254.494	82.38
254.727	77.38
254.96	76.38
255.193	88.38
255.426	61.38
255.659	75.38
255.892	102.38
256.124	76.38
256.357	82.38
256.59	85.38
256.823	80.38
257.056	89.38
257.289	81.38
257.521	79.38
257.754	90.38
257.987	78.38
258.22	64.38
258.452	68.38
258.685	84.38
258.918	81.38
259.151	73.38
259.383	76.38
259.616	79.38
259.849	75.38
260.081	81.38
260.314	73.38
260.547	86.38
260.779	90.38
261.012	84.38
261.244	85.38
261.477	93.38
261.71	92.38
261.942	101.38
262.175	95.38
262.407	89.38
262.64	72.38
262.872	80.38
263.105	78.38
263.337	72.38
263.57	82.38
263.802	78.38
264.035	81.38
264.267	89.38
264.499	74.38
264.732	67.38
264.964	73.38
265.197	70.38
265.429	82.38
265.661	93.38
265.894	80.38
266.126	79.38
266.358	86.38
266.591	80.38
266.823	87.38
267.055	86.38
267.287	79.38
267.52	79.38
267.752	81.38
267.984	79.38
268.216	89.38
268.448	80.38
268.681	84.38
268.913	87.38
269.145	85.38
269.377	84.38
269.609	85.38
269.841	102.38
270.073	85.38
270.306	80.38
270.538	81.38
270.77	84.38
271.002	86.38
271.234	86.38
271.466	95.38
271.698	82.38
271.93	78.38
272.162	94.38
272.394	81.38
272.626	80.38
272.858	83.38
273.09	73.38
273.322	72.38
273.553	86.38
273.785	100.38
274.017	92.38
274.249	88.38
274.481	81.38
274.713	72.38
274.945	88.38
275.176	81.38
275.408	74.38
275.64	87.38
275.872	82.38
276.104	87.38
276.335	88.38
276.567	97.38
276.799	98.38
277.031	88.38
277.262	75.38
277.494	82.38
277.726	66.38
277.957	89.38
278.189	67.38
278.421	89.38
278.652	67.38
278.884	85.38
279.115	85.38
279.347	102.38
279.579	73.38
279.81	86.38
280.042	80.38
280.273	88.38
280.505	94.38
280.736	91.38
280.968	88.38
281.199	97.38
281.431	97.38
281.662	74.38
281.894	87.38
282.125	80.38
282.356	103.38
282.588	126.38
282.819	102.38
283.051	88.38
283.282	76.38
283.513	93.38
283.745	92.38
283.976	96.38
284.207	97.38
284.439	72.38
284.67	84.38
284.901	105.38
285.132	88.38
285.364	93.38
285.595	93.38
285.826	79.38
286.057	84.38
286.288	93.38
286.52	96.38
286.751	98.38
286.982	84.38
287.213	94.38
287.444	81.38
287.675	96.38
287.906	92.38
288.138	81.38
288.369	84.38
288.6	69.38
288.831	91.38
289.062	86.38
289.293	79.38
289.524	82.38
289.755	82.38
289.986	97.38
290.217	85.38
290.448	85.38
290.679	79.38
290.91	83.38
291.141	86.38
291.371	78.38
291.602	81.38
291.833	79.38
292.064	83.38
292.295	86.38
292.526	96.38
292.757	101.38
292.987	98.38
293.218	63.38
293.449	78.38
293.68	87.38
293.91	97.38
294.141	86.38
294.372	79.38
294.603	86.38
294.833	65.38
295.064	95.38
295.295	92.38
295.525	90.38
295.756	88.38
295.987	95.38
296.217	117.38
296.448	92.38
296.679	86.38
296.909	102.38
297.14	88.38
297.37	93.38
297.601	81.38
297.831	89.38
298.062	83.38
298.292	96.38
298.523	85.38
298.753	81.38
298.984	87.38
299.214	89.38
299.445	89.38
299.675	106.38
299.905	89.38
300.136	92.38
300.366	88.38
300.597	94.38
300.827	110.38
301.057	108.38
301.288	97.38
301.518	78.38
301.748	91.38
301.979	96.38
302.209	96.38
302.439	87.38
302.669	76.38
302.9	103.38
303.13	99.38
303.36	102.38
303.59	99.38
303.82	114.38
304.051	94.38
304.281	86.38
304.511	80.38
304.741	102.38
304.971	104.38
305.201	81.38
305.431	84.38
305.661	83.38
305.891	95.38
306.121	100.38
306.352	92.38
306.582	100.38
306.812	88.38
307.042	83.38
307.272	95.38
307.502	89.38
307.731	94.38
307.961	89.38
308.191	88.38
308.421	80.38
308.651	86.38
308.881	90.38
309.111	94.38
309.341	97.38
309.571	108.38
309.8	94.38
310.03	105.38
310.26	84.38
310.49	92.38
310.72	92.38
310.949	98.38
311.179	105.38
311.409	97.38
311.639	94.38
311.868	91.38
312.098	85.38
312.328	81.38
312.557	92.38
312.787	97.38
313.017	87.38
313.246	87.38
313.476	105.38
313.706	100.38
313.935	95.38
314.165	95.38
314.394	111.38
314.624	91.38
314.853	81.38
315.083	96.38
315.312	86.38
315.542	97.38
315.771	98.38
316.001	80.38
316.23	88.38
316.46	91.38
316.689	89.38
316.919	88.38
317.148	103.38
317.377	120.38
317.607	121.38
317.836	111.38
318.065	102.38
318.295	81.38
318.524	91.38
318.753	81.38
318.983	77.38
319.212	89.38
319.441	81.38
319.67	88.38
319.9	97.38
320.129	88.38
320.358	96.38
320.587	97.38
320.816	91.38
321.046	93.38
321.275	99.38
321.504	103.38
321.733	98.38
321.962	103.38
322.191	94.38
322.42	97.38
322.649	115.38
322.878	111.38
323.108	109.38
323.337	125.38
323.566	116.38
323.795	124.38
324.024	168.38
324.253	335.38
324.482	682.38
324.71	1429.38
324.939	1854.38
325.168	690.38
325.397	210.38
325.626	136.38
325.855	118.38
326.084	125.38
326.313	148.38
326.542	163.38
326.77	211.38
326.999	432.38
327.228	815.38
327.457	1465.38
327.686	1159.38
327.914	314.38
328.143	148.38
328.372	133.38
328.6	111.38
328.829	108.38
329.058	99.38
329.287	102.38
329.515	92.38
329.744	102.38
329.972	93.38
330.201	102.38
330.43	135.38
330.658	118.38
330.887	118.38
331.115	121.38
331.344	105.38
331.572	104.38
331.801	104.38
332.03	97.38
332.258	94.38
332.486	94.38
332.715	90.38
332.943	89.38
333.172	89.38
333.4	93.38
333.629	103.38
333.857	90.38
334.085	110.38
334.314	112.38
334.542	111.38
334.771	117.38
334.999	85.38
335.227	95.38
335.455	100.38
335.684	94.38
335.912	96.38
336.14	100.38
336.369	105.38
336.597	110.38
336.825	110.38
337.053	89.38
337.281	102.38
337.51	97.38
337.738	98.38
337.966	68.38
338.194	94.38
338.422	78.38
338.65	90.38
338.878	88.38
339.106	81.38
339.334	94.38
339.562	86.38
339.79	96.38
340.018	95.38
340.246	96.38
340.474	92.38
340.702	107.38
340.93	94.38
341.158	100.38
341.386	112.38
341.614	94.38
341.842	97.38
342.07	82.38
342.298	81.38
342.526	97.38
342.754	88.38
342.981	74.38
343.209	89.38
343.437	100.38
343.665	90.38
343.893	88.38
344.12	93.38
344.348	95.38
344.576	88.38
344.804	79.38
345.031	94.38
345.259	106.38
345.487	82.38
345.714	86.38
345.942	95.38
346.17	78.38
346.397	81.38
346.625	87.38
346.853	75.38
347.08	94.38
347.308	104.38
347.535	98.38
347.763	98.38
347.99	103.38
348.218	97.38
348.445	87.38
348.673	90.38
348.9	81.38
349.128	103.38
349.355	93.38
349.583	101.38
349.81	93.38
350.037	85.38
350.265	93.38
350.492	100.38
350.72	89.38
350.947	105.38
351.174	97.38
351.402	110.38
351.629	90.38
351.856	100.38
352.083	92.38
352.311	95.38
352.538	99.38
352.765	105.38
352.992	99.38
353.22	104.38
353.447	104.38
353.674	93.38
353.901	84.38
354.128	95.38
354.355	91.38
354.583	97.38
354.81	89.38
355.037	86.38
355.264	101.38
355.491	85.38
355.718	103.38
355.945	95.38
356.172	104.38
356.399	95.38
356.626	100.38
356.853	91.38
357.08	84.38
357.307	90.38
357.534	72.38
357.761	101.38
357.988	92.38
358.215	96.38
358.441	94.38
358.668	91.38
358.895	91.38
359.122	87.38
359.349	80.38
359.576	87.38
359.802	85.38
360.029	103.38
360.256	101.38
360.483	94.38
360.709	95.38
360.936	88.38
361.163	73.38
361.39	102.38
361.616	82.38
361.843	75.38
362.07	83.38
362.296	92.38
362.523	84.38
362.749	91.38
362.976	90.38
363.203	99.38
363.429	63.38
363.656	89.38
363.882	81.38
364.109	83.38
364.335	103.38
364.562	94.38
364.788	88.38
365.015	82.38
365.241	89.38
365.468	90.38
365.694	98.38
365.92	97.38
366.147	102.38
366.373	101.38
366.599	90.38
366.826	93.38
367.052	91.38
367.278	81.38
367.505	104.38
367.731	89.38
367.957	107.38
368.184	92.38
368.41	96.38
368.636	92.38
368.862	113.38
369.089	99.38
369.315	96.38
369.541	92.38
369.767	93.38
369.993	93.38
370.219	79.38
370.445	95.38
370.672	91.38
370.898	97.38
371.124	85.38
371.35	86.38
371.576	80.38
371.802	84.38
372.028	88.38
372.254	91.38
372.48	96.38
372.706	85.38
372.932	71.38
373.158	79.38
373.384	95.38
373.61	95.38
373.835	98.38
374.061	90.38
374.287	87.38
374.513	88.38
374.739	94.38
374.965	97.38
375.191	90.38
375.416	89.38
375.642	87.38
375.868	91.38
376.094	87.38
376.319	85.38
376.545	94.38
376.771	81.38
376.997	95.38
377.222	93.38
377.448	94.38
377.674	94.38
377.899	82.38
378.125	81.38
378.35	73.38
378.576	101.38
378.802	87.38
379.027	83.38
379.253	97.38
379.478	87.38
379.704	82.38
379.929	103.38
380.155	93.38
380.38	96.38
380.606	82.38
380.831	89.38
381.057	90.38
381.282	101.38
381.507	87.38
381.733	102.38
381.958	95.38
382.184	97.38
382.409	110.38
382.634	95.38
382.86	111.38
383.085	93.38
383.31	98.38
383.535	95.38
383.761	89.38
383.986	91.38
384.211	87.38
384.436	90.38
384.662	96.38
384.887	97.38
385.112	101.38
385.337	99.38
385.562	90.38
385.787	109.38
386.013	103.38
386.238	109.38
386.463	99.38
386.688	96.38
386.913	94.38
387.138	117.38
387.363	107.38
387.588	93.38
387.813	101.38
388.038	87.38
388.263	117.38
388.488	102.38
388.713	102.38
388.938	101.38
389.163	97.38
389.387	96.38
389.612	77.38
389.837	82.38
390.062	99.38
390.287	92.38
390.512	80.38
390.736	68.38
390.961	81.38
391.186	93.38
391.411	104.38
391.636	98.38
391.86	96.38
392.085	88.38
392.31	82.38
392.534	85.38
392.759	88.38
392.984	88.38
393.208	88.38
393.433	73.38
393.658	76.38
393.882	80.38
394.107	82.38
394.331	81.38
394.556	79.38
394.78	80.38
395.005	91.38
395.229	93.38
395.454	95.38
395.678	77.38
395.903	82.38
396.127	72.38
396.352	85.38
396.576	85.38
396.801	86.38
397.025	87.38
397.249	92.38
397.474	97.38
397.698	103.38
397.922	82.38
398.147	75.38
398.371	73.38
398.595	91.38
398.82	79.38
399.044	86.38
399.268	85.38
399.492	92.38
399.717	101.38
399.941	81.38
400.165	91.38
400.389	83.38
400.613	77.38
400.837	90.38
401.062	86.38
401.286	82.38
401.51	80.38
401.734	96.38
401.958	96.38
402.182	106.38
402.406	128.38
402.63	106.38
402.854	85.38
403.078	94.38
403.302	100.38
403.526	87.38
403.75	78.38
403.974	86.38
404.198	91.38
404.422	81.38
404.645	91.38
404.869	95.38
405.093	85.38
405.317	77.38
405.541	76.38
405.765	96.38
405.988	92.38
406.212	137.38
406.436	152.38
406.66	120.38
406.883	87.38
407.107	85.38
407.331	87.38
407.555	89.38
407.778	97.38
408.002	70.38
408.226	85.38
408.449	76.38
408.673	90.38
408.896	101.38
409.12	81.38
409.344	85.38
409.567	85.38
409.791	92.38
410.014	73.38
410.238	96.38
410.461	79.38
410.685	92.38
410.908	112.38
411.132	104.38
411.355	92.38
411.578	93.38
411.802	79.38
412.025	88.38
412.249	99.38
412.472	88.38
412.695	94.38
412.919	83.38
413.142	88.38
413.365	86.38
413.589	89.38
413.812	91.38
414.035	93.38
414.258	87.38
414.482	89.38
414.705	94.38
414.928	82.38
415.151	86.38
415.374	78.38
415.597	100.38
415.821	85.38
416.044	71.38
416.267	84.38
416.49	66.38
416.713	83.38
416.936	99.38
417.159	87.38
417.382	95.38
417.605	82.38
417.828	74.38
418.051	92.38
418.274	88.38
418.497	95.38
418.72	81.38
418.943	97.38
419.166	94.38
419.389	93.38
419.611	82.38
419.834	81.38
420.057	95.38
420.28	87.38
420.503	92.38
420.726	88.38
420.948	92.38
421.171	83.38
421.394	90.38
421.617	79.38
421.839	93.38
422.062	70.38
422.285	87.38
422.507	92.38
422.73	105.38
422.953	78.38
423.175	90.38
423.398	89.38
423.621	91.38
423.843	83.38
424.066	96.38
424.288	93.38
424.511	98.38
424.733	114.38
424.956	102.38
425.178	91.38
425.401	98.38
425.623	98.38
425.846	90.38
426.068	93.38
426.291	96.38
426.513	77.38
426.735	87.38
426.958	89.38
427.18	101.38
427.402	110.38
427.625	150.38
427.847	122.38
428.069	104.38
428.292	98.38
428.514	102.38
428.736	81.38
428.958	77.38
429.181	82.38
429.403	86.38
429.625	97.38
429.847	84.38
430.069	97.38
430.292	89.38
430.514	82.38
430.736	88.38
430.958	86.38
431.18	94.38
431.402	82.38
431.624	89.38
431.846	82.38
432.068	88.38
432.29	94.38
432.512	93.38
432.734	87.38
432.956	87.38
433.178	85.38
433.4	94.38
433.622	89.38
433.844	92.38
434.066	109.38
434.287	85.38
434.509	75.38
434.731	80.38
434.953	81.38
435.175	80.38
435.397	72.38
435.618	87.38
435.84	86.38
436.062	111.38
436.284	101.38
436.505	99.38
436.727	91.38
436.949	85.38
437.17	91.38
437.392	73.38
437.614	108.38
437.835	98.38
438.057	114.38
438.278	105.38
438.5	100.38
438.721	113.38
438.943	96.38
439.165	89.38
439.386	92.38
439.608	84.38
439.829	82.38
440.05	101.38
440.272	120.38
440.493	78.38
440.715	84.38
440.936	72.38
441.158	102.38
441.379	87.38
441.6	80.38
441.822	90.38
442.043	94.38
442.264	91.38
442.486	88.38
442.707	84.38
442.928	87.38
443.149	112.38
443.371	111.38
443.592	108.38
443.813	91.38
444.034	109.38
444.255	90.38
444.476	74.38
444.698	81.38
444.919	95.38
445.14	116.38
445.361	107.38
445.582	90.38
445.803	105.38
446.024	111.38
446.245	128.38
446.466	112.38
446.687	100.38
446.908	79.38
447.129	87.38
447.35	92.38
447.571	103.38
447.792	90.38
448.013	91.38
448.234	103.38
448.455	89.38
448.675	98.38
448.896	95.38
449.117	102.38
449.338	101.38
449.559	108.38
449.779	132.38
450	103.38
450.221	92.38
450.442	79.38
450.662	95.38
450.883	102.38
451.104	88.38
451.324	90.38
451.545	80.38
451.766	76.38
451.986	88.38
452.207	78.38
452.428	96.38
452.648	87.38
452.869	98.38
453.089	95.38
453.31	98.38
453.53	88.38
453.751	79.38
453.971	96.38
454.192	94.38
454.412	100.38
454.633	91.38
454.853	82.38
455.073	92.38
455.294	86.38
455.514	91.38
455.734	92.38
455.955	89.38
456.175	89.38
456.395	87.38
456.616	81.38
456.836	97.38
457.056	86.38
457.276	73.38
457.497	96.38
457.717	72.38
457.937	85.38
458.157	76.38
458.377	94.38
458.598	99.38
458.818	128.38
459.038	130.38
459.258	116.38
459.478	87.38
459.698	92.38
459.918	80.38
460.138	90.38
460.358	82.38
460.578	90.38
460.798	97.38
461.018	106.38
461.238	79.38
461.458	78.38
461.678	81.38
461.898	76.38
462.118	84.38
462.338	88.38
462.558	67.38
462.777	72.38
462.997	78.38
463.217	77.38
463.437	94.38
463.657	78.38
463.876	91.38
464.096	71.38
464.316	92.38
464.536	96.38
464.755	94.38
464.975	88.38
465.195	119.38
465.414	120.38
465.634	91.38
465.854	82.38
466.073	81.38
466.293	80.38
466.512	89.38
466.732	89.38
466.951	82.38
467.171	75.38
467.391	74.38
467.61	90.38
467.829	97.38
468.049	89.38
468.268	109.38
468.488	85.38
468.707	92.38
468.927	88.38
469.146	80.38
469.365	80.38
469.585	81.38
469.804	82.38
470.023	89.38
470.243	84.38
470.462	88.38
470.681	101.38
470.901	80.38
471.12	90.38
471.339	92.38
471.558	92.38
471.777	84.38
471.997	80.38
472.216	110.38
472.435	116.38
472.654	94.38
472.873	87.38
473.092	96.38
473.311	78.38
473.53	76.38
473.749	71.38
473.968	85.38
474.187	96.38
474.406	97.38
474.625	86.38
474.844	79.38
475.063	84.38
475.282	92.38
475.501	87.38
475.72	77.38
475.939	89.38
476.158	86.38
476.377	91.38
476.596	77.38
476.814	75.38
477.033	88.38
477.252	91.38
477.471	88.38
477.69	90.38
477.908	76.38
478.127	89.38
478.346	76.38
478.564	96.38
478.783	88.38
479.002	86.38
479.22	96.38
479.439	91.38
479.658	117.38
479.876	87.38
480.095	60.38
480.313	88.38
480.532	89.38
480.751	76.38
480.969	107.38
481.188	161.38
481.406	116.38
481.624	105.38
481.843	85.38
482.061	91.38
482.28	95.38
482.498	83.38
482.717	76.38
482.935	81.38
483.153	99.38
483.372	80.38
483.59	88.38
483.808	95.38
484.027	85.38
484.245	94.38
484.463	91.38
484.681	84.38
484.9	110.38
485.118	101.38
485.336	84.38
485.554	102.38
485.772	99.38
485.99	106.38
486.209	119.38
486.427	102.38
486.645	98.38
486.863	107.38
487.081	97.38
487.299	95.38
487.517	99.38
487.735	88.38
487.953	86.38
488.171	96.38
488.389	87.38
488.607	93.38
488.825	84.38
489.043	79.38
489.261	94.38
489.479	101.38
489.696	83.38
489.914	68.38
490.132	89.38
490.35	84.38
490.568	84.38
490.786	77.38
491.003	82.38
491.221	86.38
491.439	87.38
491.657	95.38
491.874	80.38
492.092	79.38
492.31	98.38
492.527	92.38
492.745	90.38
492.963	90.38
493.18	89.38
493.398	89.38
493.615	100.38
493.833	97.38
494.05	86.38
494.268	97.38
494.485	109.38
494.703	96.38
494.92	81.38
495.138	85.38
495.355	88.38
495.573	76.38
495.79	76.38
496.008	89.38
496.225	76.38
496.442	86.38
496.66	96.38
496.877	96.38
497.094	93.38
497.312	93.38
497.529	93.38
497.746	95.38
497.963	91.38
498.181	79.38
498.398	101.38
498.615	104.38
498.832	93.38
499.049	108.38
499.267	88.38
499.484	81.38
499.701	85.38
499.918	80.38
500.135	107.38
500.352	103.38
500.569	79.38
500.786	101.38
501.003	76.38
501.22	95.38
501.437	80.38
501.654	93.38
501.871	105.38
502.088	97.38
502.305	86.38
502.522	84.38
502.739	86.38
502.956	85.38
503.172	101.38
503.389	76.38
503.606	89.38
503.823	98.38
504.04	90.38
504.256	86.38
504.473	94.38
504.69	90.38
504.907	93.38
505.123	91.38
505.34	99.38
505.557	88.38
505.773	95.38
505.99	97.38
506.207	99.38
506.423	86.38
506.64	92.38
506.856	89.38
507.073	91.38
507.289	98.38
507.506	103.38
507.722	102.38
507.939	110.38
508.155	108.38
508.372	93.38
508.588	91.38
508.805	82.38
509.021	89.38
509.238	103.38
509.454	101.38
509.67	104.38
509.887	108.38
510.103	126.38
510.319	167.38
510.536	560.38
510.752	1620.38
510.968	514.38
511.184	138.38
511.401	96.38
511.617	87.38
511.833	87.38
512.049	91.38
512.265	71.38
512.481	102.38
512.698	87.38
512.914	85.38
513.13	91.38
513.346	91.38
513.562	95.38
513.778	85.38
513.994	80.38
514.21	100.38
514.426	128.38
514.642	122.38
514.858	115.38
515.074	140.38
515.29	295.38
515.506	930.38
515.721	365.38
515.937	131.38
516.153	119.38
516.369	103.38
516.585	96.38
