Data from Uncirc_2009_H10_HRD10591_00047.txt Node
Date: Wed Jan 03 10:12:11 EST 2024
User: Yrep
Spectrometer: HR+D1059
Trigger mode: 1
Integration Time (sec): 1.000000E-1
Scans to average: 1
Electric dark correction enabled: true
Nonlinearity correction enabled: false
Boxcar width: 0
XAxis mode: Wavelengths
Number of Pixels in Spectrum: 2048
>>>>>Begin Spectral Data<<<<<
223.165	-10.44
223.4	-10.44
223.635	-10.44
223.869	-24.44
224.104	-28.44
224.338	-11.44
224.573	-16.44
224.808	-6.44
225.042	-12.44
225.277	-2.44
225.511	5.56
225.746	3.56
225.98	19.56
226.215	13.56
226.449	22.56
226.683	1.56
226.918	25.56
227.152	20.56
227.387	37.56
227.621	35.56
227.856	55.56
228.09	46.56
228.324	59.56
228.559	55.56
228.793	59.56
229.027	81.56
229.262	72.56
229.496	82.56
229.73	76.56
229.964	73.56
230.199	85.56
230.433	68.56
230.667	82.56
230.901	88.56
231.136	87.56
231.37	78.56
231.604	80.56
231.838	88.56
232.072	80.56
232.306	84.56
232.541	74.56
232.775	77.56
233.009	76.56
233.243	71.56
233.477	84.56
233.711	73.56
233.945	88.56
234.179	77.56
234.413	83.56
234.647	98.56
234.881	81.56
235.115	73.56
235.349	71.56
235.583	78.56
235.817	71.56
236.051	88.56
236.285	84.56
236.519	77.56
236.753	75.56
236.987	80.56
237.221	85.56
237.455	93.56
237.689	85.56
237.922	90.56
238.156	76.56
238.39	80.56
238.624	87.56
238.858	82.56
239.091	80.56
239.325	77.56
239.559	72.56
239.793	76.56
240.027	85.56
240.26	73.56
240.494	85.56
240.728	78.56
240.961	80.56
241.195	76.56
241.429	78.56
241.662	72.56
241.896	66.56
242.13	84.56
242.363	68.56
242.597	82.56
242.83	81.56
243.064	82.56
243.298	80.56
243.531	70.56
243.765	80.56
243.998	82.56
244.232	91.56
244.465	101.56
244.699	79.56
244.932	68.56
245.166	75.56
245.399	90.56
245.633	84.56
245.866	77.56
246.099	105.56
246.333	90.56
246.566	80.56
246.8	74.56
247.033	75.56
247.266	81.56
247.5	79.56
247.733	77.56
247.966	94.56
248.2	91.56
248.433	88.56
248.666	84.56
248.899	80.56
249.133	82.56
249.366	94.56
249.599	99.56
249.832	82.56
250.066	75.56
250.299	83.56
250.532	89.56
250.765	74.56
250.998	75.56
251.231	71.56
251.465	79.56
251.698	81.56
251.931	84.56
252.164	82.56
252.397	73.56
252.63	82.56
252.863	77.56
253.096	81.56
253.329	92.56
253.562	81.56
253.795	79.56
254.028	83.56
254.261	96.56
254.494	73.56
254.727	80.56
254.96	80.56
255.193	78.56
255.426	74.56
255.659	89.56
255.892	75.56
256.124	78.56
256.357	69.56
256.59	79.56
256.823	73.56
257.056	92.56
257.289	84.56
257.521	97.56
257.754	77.56
257.987	76.56
258.22	78.56
258.452	79.56
258.685	80.56
258.918	82.56
259.151	92.56
259.383	81.56
259.616	87.56
259.849	87.56
260.081	65.56
260.314	73.56
260.547	88.56
260.779	87.56
261.012	90.56
261.244	81.56
261.477	95.56
261.71	85.56
261.942	93.56
262.175	106.56
262.407	85.56
262.64	91.56
262.872	91.56
263.105	91.56
263.337	79.56
263.57	81.56
263.802	74.56
264.035	94.56
264.267	84.56
264.499	87.56
264.732	87.56
264.964	91.56
265.197	93.56
265.429	68.56
265.661	79.56
265.894	93.56
266.126	79.56
266.358	84.56
266.591	68.56
266.823	73.56
267.055	81.56
267.287	81.56
267.52	84.56
267.752	72.56
267.984	92.56
268.216	84.56
268.448	99.56
268.681	97.56
268.913	92.56
269.145	90.56
269.377	88.56
269.609	74.56
269.841	82.56
270.073	89.56
270.306	80.56
270.538	79.56
270.77	101.56
271.002	83.56
271.234	92.56
271.466	96.56
271.698	84.56
271.93	71.56
272.162	87.56
272.394	89.56
272.626	92.56
272.858	79.56
273.09	76.56
273.322	92.56
273.553	104.56
273.785	81.56
274.017	71.56
274.249	99.56
274.481	89.56
274.713	90.56
274.945	84.56
275.176	83.56
275.408	82.56
275.64	91.56
275.872	100.56
276.104	82.56
276.335	88.56
276.567	97.56
276.799	98.56
277.031	101.56
277.262	84.56
277.494	84.56
277.726	87.56
277.957	87.56
278.189	85.56
278.421	94.56
278.652	88.56
278.884	84.56
279.115	91.56
279.347	74.56
279.579	80.56
279.81	90.56
280.042	77.56
280.273	92.56
280.505	103.56
280.736	99.56
280.968	97.56
281.199	98.56
281.431	69.56
281.662	76.56
281.894	93.56
282.125	97.56
282.356	115.56
282.588	115.56
282.819	103.56
283.051	82.56
283.282	87.56
283.513	92.56
283.745	94.56
283.976	97.56
284.207	86.56
284.439	99.56
284.67	96.56
284.901	87.56
285.132	87.56
285.364	68.56
285.595	95.56
285.826	99.56
286.057	105.56
286.288	93.56
286.52	91.56
286.751	88.56
286.982	76.56
287.213	82.56
287.444	77.56
287.675	87.56
287.906	98.56
288.138	77.56
288.369	98.56
288.6	84.56
288.831	81.56
289.062	95.56
289.293	79.56
289.524	95.56
289.755	79.56
289.986	85.56
290.217	88.56
290.448	92.56
290.679	95.56
290.91	99.56
291.141	88.56
291.371	94.56
291.602	85.56
291.833	81.56
292.064	86.56
292.295	93.56
292.526	97.56
292.757	94.56
292.987	97.56
293.218	104.56
293.449	86.56
293.68	88.56
293.91	90.56
294.141	74.56
294.372	90.56
294.603	100.56
294.833	99.56
295.064	92.56
295.295	84.56
295.525	100.56
295.756	95.56
295.987	107.56
296.217	113.56
296.448	113.56
296.679	94.56
296.909	95.56
297.14	104.56
297.37	94.56
297.601	95.56
297.831	90.56
298.062	87.56
298.292	89.56
298.523	100.56
298.753	91.56
298.984	104.56
299.214	67.56
299.445	82.56
299.675	101.56
299.905	82.56
300.136	90.56
300.366	86.56
300.597	91.56
300.827	96.56
301.057	104.56
301.288	112.56
301.518	108.56
301.748	93.56
301.979	91.56
302.209	95.56
302.439	97.56
302.669	96.56
302.9	93.56
303.13	94.56
303.36	108.56
303.59	101.56
303.82	95.56
304.051	74.56
304.281	102.56
304.511	103.56
304.741	100.56
304.971	85.56
305.201	78.56
305.431	95.56
305.661	91.56
305.891	83.56
306.121	96.56
306.352	93.56
306.582	109.56
306.812	101.56
307.042	90.56
307.272	77.56
307.502	104.56
307.731	94.56
307.961	88.56
308.191	81.56
308.421	83.56
308.651	103.56
308.881	91.56
309.111	110.56
309.341	91.56
309.571	97.56
309.8	90.56
310.03	89.56
310.26	105.56
310.49	98.56
310.72	99.56
310.949	84.56
311.179	102.56
311.409	97.56
311.639	92.56
311.868	95.56
312.098	91.56
312.328	93.56
312.557	104.56
312.787	98.56
313.017	93.56
313.246	91.56
313.476	88.56
313.706	107.56
313.935	97.56
314.165	95.56
314.394	102.56
314.624	92.56
314.853	93.56
315.083	96.56
315.312	85.56
315.542	83.56
315.771	92.56
316.001	88.56
316.23	96.56
316.46	97.56
316.689	94.56
316.919	96.56
317.148	119.56
317.377	121.56
317.607	108.56
317.836	94.56
318.065	78.56
318.295	71.56
318.524	99.56
318.753	96.56
318.983	91.56
319.212	104.56
319.441	106.56
319.67	98.56
319.9	84.56
320.129	88.56
320.358	94.56
320.587	91.56
320.816	102.56
321.046	79.56
321.275	102.56
321.504	94.56
321.733	100.56
321.962	92.56
322.191	89.56
322.42	90.56
322.649	103.56
322.878	106.56
323.108	111.56
323.337	100.56
323.566	113.56
323.795	127.56
324.024	184.56
324.253	332.56
324.482	675.56
324.71	1394.56
324.939	1799.56
325.168	696.56
325.397	217.56
325.626	135.56
325.855	124.56
326.084	127.56
326.313	138.56
326.542	153.56
326.77	203.56
326.999	379.56
327.228	808.56
327.457	1399.56
327.686	1117.56
327.914	319.56
328.143	166.56
328.372	139.56
328.6	115.56
328.829	97.56
329.058	110.56
329.287	114.56
329.515	108.56
329.744	114.56
329.972	108.56
330.201	106.56
330.43	111.56
330.658	122.56
330.887	123.56
331.115	115.56
331.344	105.56
331.572	91.56
331.801	94.56
332.03	96.56
332.258	98.56
332.486	93.56
332.715	95.56
332.943	106.56
333.172	77.56
333.4	104.56
333.629	112.56
333.857	108.56
334.085	103.56
334.314	108.56
334.542	110.56
334.771	109.56
334.999	103.56
335.227	89.56
335.455	96.56
335.684	83.56
335.912	97.56
336.14	99.56
336.369	97.56
336.597	101.56
336.825	96.56
337.053	92.56
337.281	105.56
337.51	94.56
337.738	100.56
337.966	92.56
338.194	93.56
338.422	95.56
338.65	98.56
338.878	92.56
339.106	98.56
339.334	97.56
339.562	87.56
339.79	110.56
340.018	84.56
340.246	96.56
340.474	88.56
340.702	93.56
340.93	79.56
341.158	87.56
341.386	107.56
341.614	106.56
341.842	101.56
342.07	108.56
342.298	103.56
342.526	95.56
342.754	85.56
342.981	80.56
343.209	96.56
343.437	89.56
343.665	81.56
343.893	96.56
344.12	92.56
344.348	96.56
344.576	96.56
344.804	79.56
345.031	77.56
345.259	82.56
345.487	77.56
345.714	99.56
345.942	84.56
346.17	80.56
346.397	94.56
346.625	82.56
346.853	97.56
347.08	92.56
347.308	91.56
347.535	91.56
347.763	104.56
347.99	94.56
348.218	104.56
348.445	106.56
348.673	90.56
348.9	100.56
349.128	94.56
349.355	100.56
349.583	99.56
349.81	104.56
350.037	85.56
350.265	99.56
350.492	102.56
350.72	94.56
350.947	92.56
351.174	111.56
351.402	93.56
351.629	105.56
351.856	104.56
352.083	108.56
352.311	100.56
352.538	106.56
352.765	104.56
352.992	123.56
353.22	119.56
353.447	110.56
353.674	117.56
353.901	105.56
354.128	98.56
354.355	92.56
354.583	94.56
354.81	91.56
355.037	90.56
355.264	98.56
355.491	103.56
355.718	106.56
355.945	101.56
356.172	89.56
356.399	107.56
356.626	91.56
356.853	89.56
357.08	108.56
357.307	86.56
357.534	91.56
357.761	92.56
357.988	91.56
358.215	90.56
358.441	85.56
358.668	84.56
358.895	91.56
359.122	86.56
359.349	92.56
359.576	99.56
359.802	94.56
360.029	93.56
360.256	83.56
360.483	97.56
360.709	99.56
360.936	84.56
361.163	77.56
361.39	89.56
361.616	93.56
361.843	93.56
362.07	95.56
362.296	96.56
362.523	86.56
362.749	88.56
362.976	88.56
363.203	86.56
363.429	90.56
363.656	89.56
363.882	93.56
364.109	78.56
364.335	98.56
364.562	75.56
364.788	92.56
365.015	76.56
365.241	96.56
365.468	92.56
365.694	110.56
365.92	94.56
366.147	95.56
366.373	90.56
366.599	104.56
366.826	85.56
367.052	97.56
367.278	99.56
367.505	98.56
367.731	94.56
367.957	95.56
368.184	91.56
368.41	87.56
368.636	107.56
368.862	100.56
369.089	100.56
369.315	104.56
369.541	83.56
369.767	97.56
369.993	85.56
370.219	94.56
370.445	90.56
370.672	83.56
370.898	92.56
371.124	88.56
371.35	91.56
371.576	92.56
371.802	88.56
372.028	83.56
372.254	87.56
372.48	91.56
372.706	94.56
372.932	88.56
373.158	96.56
373.384	92.56
373.61	90.56
373.835	87.56
374.061	76.56
374.287	107.56
374.513	102.56
374.739	99.56
374.965	84.56
375.191	98.56
375.416	97.56
375.642	96.56
375.868	88.56
376.094	80.56
376.319	97.56
376.545	82.56
376.771	87.56
376.997	94.56
377.222	99.56
377.448	92.56
377.674	80.56
377.899	103.56
378.125	79.56
378.35	89.56
378.576	85.56
378.802	94.56
379.027	95.56
379.253	97.56
379.478	93.56
379.704	88.56
379.929	101.56
380.155	89.56
380.38	99.56
380.606	92.56
380.831	93.56
381.057	83.56
381.282	96.56
381.507	96.56
381.733	94.56
381.958	83.56
382.184	92.56
382.409	91.56
382.634	88.56
382.86	97.56
383.085	111.56
383.31	112.56
383.535	99.56
383.761	96.56
383.986	87.56
384.211	87.56
384.436	84.56
384.662	92.56
384.887	112.56
385.112	104.56
385.337	112.56
385.562	109.56
385.787	104.56
386.013	119.56
386.238	102.56
386.463	105.56
386.688	117.56
386.913	94.56
387.138	96.56
387.363	109.56
387.588	101.56
387.813	99.56
388.038	98.56
388.263	108.56
388.488	96.56
388.713	103.56
388.938	100.56
389.163	96.56
389.387	104.56
389.612	88.56
389.837	95.56
390.062	89.56
390.287	95.56
390.512	104.56
390.736	105.56
390.961	79.56
391.186	101.56
391.411	101.56
391.636	80.56
391.86	88.56
392.085	93.56
392.31	92.56
392.534	96.56
392.759	94.56
392.984	92.56
393.208	89.56
393.433	93.56
393.658	96.56
393.882	88.56
394.107	92.56
394.331	80.56
394.556	92.56
394.78	96.56
395.005	106.56
395.229	85.56
395.454	82.56
395.678	88.56
395.903	86.56
396.127	93.56
396.352	101.56
396.576	94.56
396.801	95.56
397.025	91.56
397.249	80.56
397.474	83.56
397.698	81.56
397.922	98.56
398.147	78.56
398.371	91.56
398.595	84.56
398.82	92.56
399.044	84.56
399.268	87.56
399.492	99.56
399.717	88.56
399.941	89.56
400.165	91.56
400.389	93.56
400.613	91.56
400.837	82.56
401.062	87.56
401.286	73.56
401.51	93.56
401.734	97.56
401.958	81.56
402.182	115.56
402.406	135.56
402.63	109.56
402.854	92.56
403.078	87.56
403.302	77.56
403.526	94.56
403.75	77.56
403.974	81.56
404.198	88.56
404.422	100.56
404.645	83.56
404.869	89.56
405.093	98.56
405.317	89.56
405.541	87.56
405.765	113.56
405.988	103.56
406.212	155.56
406.436	183.56
406.66	116.56
406.883	101.56
407.107	89.56
407.331	96.56
407.555	100.56
407.778	90.56
408.002	76.56
408.226	86.56
408.449	93.56
408.673	97.56
408.896	93.56
409.12	100.56
409.344	93.56
409.567	103.56
409.791	95.56
410.014	96.56
410.238	107.56
410.461	103.56
410.685	93.56
410.908	85.56
411.132	109.56
411.355	90.56
411.578	103.56
411.802	85.56
412.025	91.56
412.249	79.56
412.472	93.56
412.695	89.56
412.919	96.56
413.142	93.56
413.365	96.56
413.589	103.56
413.812	95.56
414.035	95.56
414.258	81.56
414.482	85.56
414.705	97.56
414.928	82.56
415.151	88.56
415.374	91.56
415.597	96.56
415.821	88.56
416.044	98.56
416.267	101.56
416.49	87.56
416.713	85.56
416.936	77.56
417.159	81.56
417.382	85.56
417.605	93.56
417.828	106.56
418.051	101.56
418.274	101.56
418.497	84.56
418.72	78.56
418.943	90.56
419.166	94.56
419.389	86.56
419.611	98.56
419.834	96.56
420.057	86.56
420.28	83.56
420.503	86.56
420.726	82.56
420.948	66.56
421.171	98.56
421.394	93.56
421.617	99.56
421.839	105.56
422.062	84.56
422.285	97.56
422.507	106.56
422.73	110.56
422.953	80.56
423.175	93.56
423.398	87.56
423.621	91.56
423.843	76.56
424.066	82.56
424.288	85.56
424.511	86.56
424.733	90.56
424.956	98.56
425.178	92.56
425.401	90.56
425.623	83.56
425.846	91.56
426.068	83.56
426.291	86.56
426.513	90.56
426.735	96.56
426.958	91.56
427.18	109.56
427.402	122.56
427.625	147.56
427.847	95.56
428.069	103.56
428.292	103.56
428.514	90.56
428.736	81.56
428.958	97.56
429.181	92.56
429.403	89.56
429.625	95.56
429.847	83.56
430.069	97.56
430.292	90.56
430.514	74.56
430.736	79.56
430.958	81.56
431.18	89.56
431.402	88.56
431.624	89.56
431.846	110.56
432.068	89.56
432.29	91.56
432.512	95.56
432.734	82.56
432.956	75.56
433.178	93.56
433.4	97.56
433.622	87.56
433.844	83.56
434.066	97.56
434.287	90.56
434.509	89.56
434.731	78.56
434.953	97.56
435.175	95.56
435.397	99.56
435.618	108.56
435.84	117.56
436.062	118.56
436.284	100.56
436.505	97.56
436.727	85.56
436.949	79.56
437.17	100.56
437.392	87.56
437.614	100.56
437.835	111.56
438.057	107.56
438.278	111.56
438.5	98.56
438.721	103.56
438.943	99.56
439.165	81.56
439.386	89.56
439.608	74.56
439.829	103.56
440.05	111.56
440.272	122.56
440.493	99.56
440.715	84.56
440.936	84.56
441.158	83.56
441.379	112.56
441.6	103.56
441.822	80.56
442.043	89.56
442.264	104.56
442.486	101.56
442.707	82.56
442.928	94.56
443.149	111.56
443.371	109.56
443.592	105.56
443.813	109.56
444.034	96.56
444.255	105.56
444.476	105.56
444.698	96.56
444.919	99.56
445.14	125.56
445.361	111.56
445.582	104.56
445.803	128.56
446.024	121.56
446.245	102.56
446.466	95.56
446.687	84.56
446.908	88.56
447.129	87.56
447.35	79.56
447.571	98.56
447.792	82.56
448.013	96.56
448.234	100.56
448.455	85.56
448.675	113.56
448.896	102.56
449.117	87.56
449.338	108.56
449.559	103.56
449.779	111.56
450	90.56
450.221	107.56
450.442	99.56
450.662	83.56
450.883	85.56
451.104	90.56
451.324	83.56
451.545	71.56
451.766	83.56
451.986	81.56
452.207	76.56
452.428	94.56
452.648	96.56
452.869	93.56
453.089	98.56
453.31	109.56
453.53	97.56
453.751	80.56
453.971	97.56
454.192	103.56
454.412	97.56
454.633	85.56
454.853	82.56
455.073	91.56
455.294	84.56
455.514	79.56
455.734	87.56
455.955	103.56
456.175	99.56
456.395	87.56
456.616	85.56
456.836	69.56
457.056	78.56
457.276	81.56
457.497	90.56
457.717	89.56
457.937	88.56
458.157	99.56
458.377	89.56
458.598	89.56
458.818	97.56
459.038	125.56
459.258	105.56
459.478	91.56
459.698	88.56
459.918	74.56
460.138	88.56
460.358	96.56
460.578	93.56
460.798	78.56
461.018	105.56
461.238	72.56
461.458	90.56
461.678	90.56
461.898	93.56
462.118	92.56
462.338	103.56
462.558	85.56
462.777	94.56
462.997	90.56
463.217	83.56
463.437	95.56
463.657	82.56
463.876	92.56
464.096	89.56
464.316	102.56
464.536	82.56
464.755	85.56
464.975	103.56
465.195	141.56
465.414	135.56
465.634	90.56
465.854	91.56
466.073	93.56
466.293	97.56
466.512	90.56
466.732	94.56
466.951	89.56
467.171	92.56
467.391	96.56
467.61	101.56
467.829	86.56
468.049	103.56
468.268	109.56
468.488	101.56
468.707	88.56
468.927	84.56
469.146	83.56
469.365	82.56
469.585	87.56
469.804	95.56
470.023	87.56
470.243	89.56
470.462	109.56
470.681	109.56
470.901	84.56
471.12	91.56
471.339	80.56
471.558	89.56
471.777	97.56
471.997	93.56
472.216	113.56
472.435	119.56
472.654	87.56
472.873	99.56
473.092	90.56
473.311	88.56
473.53	81.56
473.749	86.56
473.968	90.56
474.187	96.56
474.406	96.56
474.625	84.56
474.844	90.56
475.063	73.56
475.282	78.56
475.501	96.56
475.72	91.56
475.939	70.56
476.158	95.56
476.377	89.56
476.596	92.56
476.814	87.56
477.033	87.56
477.252	88.56
477.471	82.56
477.69	91.56
477.908	95.56
478.127	110.56
478.346	87.56
478.564	110.56
478.783	89.56
479.002	97.56
479.22	85.56
479.439	97.56
479.658	97.56
479.876	82.56
480.095	78.56
480.313	80.56
480.532	89.56
480.751	96.56
480.969	103.56
481.188	168.56
481.406	121.56
481.624	103.56
481.843	93.56
482.061	85.56
482.28	92.56
482.498	104.56
482.717	79.56
482.935	93.56
483.153	96.56
483.372	97.56
483.59	82.56
483.808	100.56
484.027	92.56
484.245	94.56
484.463	97.56
484.681	98.56
484.9	94.56
485.118	87.56
485.336	99.56
485.554	107.56
485.772	106.56
485.99	97.56
486.209	96.56
486.427	97.56
486.645	121.56
486.863	99.56
487.081	106.56
487.299	94.56
487.517	91.56
487.735	91.56
487.953	98.56
488.171	104.56
488.389	89.56
488.607	107.56
488.825	103.56
489.043	96.56
489.261	107.56
489.479	99.56
489.696	96.56
489.914	89.56
490.132	100.56
490.35	91.56
490.568	100.56
490.786	99.56
491.003	99.56
491.221	81.56
491.439	89.56
491.657	97.56
491.874	95.56
492.092	97.56
492.31	85.56
492.527	85.56
492.745	86.56
492.963	89.56
493.18	90.56
493.398	97.56
493.615	84.56
493.833	94.56
494.05	103.56
494.268	92.56
494.485	92.56
494.703	87.56
494.92	88.56
495.138	93.56
495.355	81.56
495.573	87.56
495.79	103.56
496.008	84.56
496.225	82.56
496.442	99.56
496.66	101.56
496.877	109.56
497.094	72.56
497.312	89.56
497.529	74.56
497.746	108.56
497.963	83.56
498.181	93.56
498.398	89.56
498.615	106.56
498.832	91.56
499.049	103.56
499.267	85.56
499.484	85.56
499.701	92.56
499.918	90.56
500.135	82.56
500.352	83.56
500.569	89.56
500.786	87.56
501.003	96.56
501.22	103.56
501.437	81.56
501.654	70.56
501.871	100.56
502.088	91.56
502.305	94.56
502.522	103.56
502.739	79.56
502.956	93.56
503.172	105.56
503.389	93.56
503.606	107.56
503.823	102.56
504.04	89.56
504.256	98.56
504.473	96.56
504.69	81.56
504.907	100.56
505.123	94.56
505.34	88.56
505.557	84.56
505.773	97.56
505.99	86.56
506.207	82.56
506.423	103.56
506.64	85.56
506.856	85.56
507.073	101.56
507.289	95.56
507.506	105.56
507.722	99.56
507.939	109.56
508.155	82.56
508.372	87.56
508.588	83.56
508.805	90.56
509.021	96.56
509.238	96.56
509.454	92.56
509.67	102.56
509.887	89.56
510.103	103.56
510.319	176.56
510.536	559.56
510.752	1618.56
510.968	507.56
511.184	151.56
511.401	107.56
511.617	97.56
511.833	89.56
512.049	97.56
512.265	104.56
512.481	88.56
512.698	98.56
512.914	85.56
513.13	87.56
513.346	84.56
513.562	96.56
513.778	89.56
513.994	88.56
514.21	105.56
514.426	118.56
514.642	110.56
514.858	90.56
515.074	127.56
515.29	313.56
515.506	949.56
515.721	382.56
