Data from Uncirc_2009_H10_HRD10591_00017.txt Node
Date: Wed Jan 03 10:12:05 EST 2024
User: Yrep
Spectrometer: HR+D1059
Trigger mode: 1
Integration Time (sec): 1.000000E-1
Scans to average: 1
Electric dark correction enabled: true
Nonlinearity correction enabled: false
Boxcar width: 0
XAxis mode: Wavelengths
Number of Pixels in Spectrum: 2048
>>>>>Begin Spectral Data<<<<<
223.165	-23.81
223.4	-23.81
223.635	-23.81
223.869	-18.81
224.104	-20.81
224.338	-16.81
224.573	-11.81
224.808	-15.81
225.042	-13.81
225.277	-0.81
225.511	0.19
225.746	13.19
225.98	-2.81
226.215	12.19
226.449	17.19
226.683	21.19
226.918	30.19
227.152	31.19
227.387	16.19
227.621	29.19
227.856	54.19
228.09	55.19
228.324	51.19
228.559	64.19
228.793	58.19
229.027	55.19
229.262	65.19
229.496	64.19
229.73	81.19
229.964	61.19
230.199	74.19
230.433	77.19
230.667	63.19
230.901	72.19
231.136	82.19
231.37	65.19
231.604	80.19
231.838	87.19
232.072	85.19
232.306	91.19
232.541	85.19
232.775	83.19
233.009	81.19
233.243	86.19
233.477	76.19
233.711	72.19
233.945	76.19
234.179	78.19
234.413	94.19
234.647	86.19
234.881	75.19
235.115	88.19
235.349	71.19
235.583	74.19
235.817	70.19
236.051	73.19
236.285	74.19
236.519	77.19
236.753	75.19
236.987	82.19
237.221	60.19
237.455	63.19
237.689	73.19
237.922	63.19
238.156	68.19
238.39	73.19
238.624	67.19
238.858	80.19
239.091	83.19
239.325	69.19
239.559	74.19
239.793	79.19
240.027	87.19
240.26	92.19
240.494	76.19
240.728	74.19
240.961	65.19
241.195	95.19
241.429	72.19
241.662	56.19
241.896	72.19
242.13	80.19
242.363	83.19
242.597	63.19
242.83	80.19
243.064	75.19
243.298	76.19
243.531	74.19
243.765	75.19
243.998	70.19
244.232	89.19
244.465	71.19
244.699	78.19
244.932	68.19
245.166	86.19
245.399	83.19
245.633	84.19
245.866	87.19
246.099	75.19
246.333	86.19
246.566	79.19
246.8	77.19
247.033	77.19
247.266	100.19
247.5	95.19
247.733	76.19
247.966	79.19
248.2	75.19
248.433	82.19
248.666	80.19
248.899	69.19
249.133	79.19
249.366	96.19
249.599	99.19
249.832	82.19
250.066	79.19
250.299	87.19
250.532	85.19
250.765	81.19
250.998	73.19
251.231	77.19
251.465	80.19
251.698	71.19
251.931	75.19
252.164	67.19
252.397	79.19
252.63	87.19
252.863	80.19
253.096	92.19
253.329	84.19
253.562	94.19
253.795	87.19
254.028	74.19
254.261	80.19
254.494	93.19
254.727	78.19
254.96	67.19
255.193	77.19
255.426	84.19
255.659	76.19
255.892	83.19
256.124	75.19
256.357	72.19
256.59	79.19
256.823	78.19
257.056	72.19
257.289	74.19
257.521	71.19
257.754	79.19
257.987	72.19
258.22	97.19
258.452	79.19
258.685	76.19
258.918	93.19
259.151	76.19
259.383	75.19
259.616	75.19
259.849	75.19
260.081	76.19
260.314	78.19
260.547	85.19
260.779	84.19
261.012	82.19
261.244	89.19
261.477	83.19
261.71	81.19
261.942	102.19
262.175	96.19
262.407	78.19
262.64	90.19
262.872	78.19
263.105	91.19
263.337	78.19
263.57	71.19
263.802	89.19
264.035	89.19
264.267	87.19
264.499	89.19
264.732	78.19
264.964	86.19
265.197	78.19
265.429	76.19
265.661	72.19
265.894	81.19
266.126	86.19
266.358	92.19
266.591	83.19
266.823	74.19
267.055	85.19
267.287	71.19
267.52	83.19
267.752	79.19
267.984	96.19
268.216	87.19
268.448	70.19
268.681	88.19
268.913	95.19
269.145	95.19
269.377	81.19
269.609	80.19
269.841	99.19
270.073	72.19
270.306	94.19
270.538	68.19
270.77	79.19
271.002	85.19
271.234	82.19
271.466	78.19
271.698	78.19
271.93	81.19
272.162	88.19
272.394	88.19
272.626	75.19
272.858	77.19
273.09	81.19
273.322	89.19
273.553	85.19
273.785	86.19
274.017	97.19
274.249	96.19
274.481	76.19
274.713	70.19
274.945	81.19
275.176	77.19
275.408	81.19
275.64	80.19
275.872	86.19
276.104	80.19
276.335	87.19
276.567	93.19
276.799	98.19
277.031	93.19
277.262	96.19
277.494	83.19
277.726	72.19
277.957	81.19
278.189	89.19
278.421	102.19
278.652	74.19
278.884	84.19
279.115	84.19
279.347	73.19
279.579	101.19
279.81	79.19
280.042	92.19
280.273	93.19
280.505	75.19
280.736	84.19
280.968	85.19
281.199	83.19
281.431	98.19
281.662	86.19
281.894	80.19
282.125	84.19
282.356	103.19
282.588	108.19
282.819	91.19
283.051	100.19
283.282	86.19
283.513	91.19
283.745	91.19
283.976	85.19
284.207	100.19
284.439	83.19
284.67	88.19
284.901	76.19
285.132	96.19
285.364	95.19
285.595	98.19
285.826	84.19
286.057	90.19
286.288	86.19
286.52	81.19
286.751	93.19
286.982	97.19
287.213	79.19
287.444	87.19
287.675	80.19
287.906	78.19
288.138	90.19
288.369	76.19
288.6	78.19
288.831	96.19
289.062	93.19
289.293	73.19
289.524	87.19
289.755	89.19
289.986	89.19
290.217	85.19
290.448	86.19
290.679	81.19
290.91	91.19
291.141	86.19
291.371	79.19
291.602	78.19
291.833	77.19
292.064	80.19
292.295	82.19
292.526	91.19
292.757	89.19
292.987	86.19
293.218	81.19
293.449	88.19
293.68	92.19
293.91	72.19
294.141	83.19
294.372	95.19
294.603	92.19
294.833	80.19
295.064	93.19
295.295	95.19
295.525	78.19
295.756	80.19
295.987	88.19
296.217	107.19
296.448	110.19
296.679	95.19
296.909	90.19
297.14	113.19
297.37	87.19
297.601	83.19
297.831	82.19
298.062	98.19
298.292	83.19
298.523	76.19
298.753	91.19
298.984	95.19
299.214	73.19
299.445	84.19
299.675	90.19
299.905	100.19
300.136	91.19
300.366	90.19
300.597	88.19
300.827	111.19
301.057	102.19
301.288	97.19
301.518	95.19
301.748	68.19
301.979	89.19
302.209	111.19
302.439	87.19
302.669	96.19
302.9	91.19
303.13	88.19
303.36	114.19
303.59	101.19
303.82	111.19
304.051	111.19
304.281	90.19
304.511	97.19
304.741	81.19
304.971	97.19
305.201	100.19
305.431	90.19
305.661	102.19
305.891	85.19
306.121	91.19
306.352	106.19
306.582	97.19
306.812	86.19
307.042	85.19
307.272	77.19
307.502	98.19
307.731	84.19
307.961	88.19
308.191	88.19
308.421	90.19
308.651	97.19
308.881	87.19
309.111	104.19
309.341	86.19
309.571	108.19
309.8	92.19
310.03	102.19
310.26	107.19
310.49	91.19
310.72	85.19
310.949	94.19
311.179	89.19
311.409	95.19
311.639	83.19
311.868	107.19
312.098	77.19
312.328	86.19
312.557	105.19
312.787	106.19
313.017	99.19
313.246	88.19
313.476	81.19
313.706	92.19
313.935	85.19
314.165	103.19
314.394	87.19
314.624	99.19
314.853	95.19
315.083	93.19
315.312	82.19
315.542	79.19
315.771	94.19
316.001	80.19
316.23	78.19
316.46	73.19
316.689	87.19
316.919	99.19
317.148	98.19
317.377	87.19
317.607	122.19
317.836	106.19
318.065	85.19
318.295	95.19
318.524	99.19
318.753	81.19
318.983	91.19
319.212	98.19
319.441	100.19
319.67	105.19
319.9	103.19
320.129	88.19
320.358	87.19
320.587	91.19
320.816	92.19
321.046	76.19
321.275	100.19
321.504	97.19
321.733	89.19
321.962	93.19
322.191	90.19
322.42	101.19
322.649	103.19
322.878	98.19
323.108	95.19
323.337	105.19
323.566	125.19
323.795	142.19
324.024	180.19
324.253	345.19
324.482	662.19
324.71	1371.19
324.939	1806.19
325.168	663.19
325.397	212.19
325.626	155.19
325.855	118.19
326.084	116.19
326.313	145.19
326.542	155.19
326.77	209.19
326.999	407.19
327.228	771.19
327.457	1411.19
327.686	1135.19
327.914	312.19
328.143	182.19
328.372	125.19
328.6	120.19
328.829	119.19
329.058	103.19
329.287	118.19
329.515	95.19
329.744	92.19
329.972	87.19
330.201	108.19
330.43	137.19
330.658	106.19
330.887	120.19
331.115	127.19
331.344	93.19
331.572	92.19
331.801	95.19
332.03	91.19
332.258	85.19
332.486	95.19
332.715	99.19
332.943	95.19
333.172	108.19
333.4	110.19
333.629	104.19
333.857	112.19
334.085	106.19
334.314	108.19
334.542	119.19
334.771	121.19
334.999	99.19
335.227	91.19
335.455	88.19
335.684	102.19
335.912	87.19
336.14	94.19
336.369	85.19
336.597	96.19
336.825	99.19
337.053	80.19
337.281	104.19
337.51	93.19
337.738	85.19
337.966	80.19
338.194	88.19
338.422	89.19
338.65	91.19
338.878	87.19
339.106	84.19
339.334	103.19
339.562	91.19
339.79	81.19
340.018	82.19
340.246	90.19
340.474	79.19
340.702	100.19
340.93	88.19
341.158	89.19
341.386	87.19
341.614	90.19
341.842	88.19
342.07	87.19
342.298	88.19
342.526	87.19
342.754	85.19
342.981	72.19
343.209	74.19
343.437	96.19
343.665	77.19
343.893	107.19
344.12	88.19
344.348	96.19
344.576	92.19
344.804	89.19
345.031	96.19
345.259	91.19
345.487	89.19
345.714	89.19
345.942	92.19
346.17	107.19
346.397	89.19
346.625	90.19
346.853	91.19
347.08	97.19
347.308	94.19
347.535	88.19
347.763	91.19
347.99	102.19
348.218	102.19
348.445	109.19
348.673	92.19
348.9	85.19
349.128	89.19
349.355	96.19
349.583	89.19
349.81	81.19
350.037	80.19
350.265	87.19
350.492	102.19
350.72	95.19
350.947	85.19
351.174	97.19
351.402	103.19
351.629	91.19
351.856	110.19
352.083	92.19
352.311	107.19
352.538	103.19
352.765	102.19
352.992	111.19
353.22	113.19
353.447	88.19
353.674	99.19
353.901	81.19
354.128	90.19
354.355	85.19
354.583	88.19
354.81	95.19
355.037	109.19
355.264	80.19
355.491	105.19
355.718	108.19
355.945	105.19
356.172	99.19
356.399	99.19
356.626	104.19
356.853	88.19
357.08	81.19
357.307	98.19
357.534	90.19
357.761	105.19
357.988	92.19
358.215	84.19
358.441	100.19
358.668	97.19
358.895	96.19
359.122	94.19
359.349	88.19
359.576	94.19
359.802	93.19
360.029	109.19
360.256	99.19
360.483	95.19
360.709	70.19
360.936	99.19
361.163	91.19
361.39	95.19
361.616	95.19
361.843	94.19
362.07	88.19
362.296	92.19
362.523	86.19
362.749	94.19
362.976	99.19
363.203	87.19
363.429	87.19
363.656	79.19
363.882	86.19
364.109	100.19
364.335	96.19
364.562	96.19
364.788	84.19
365.015	84.19
365.241	92.19
365.468	105.19
365.694	102.19
365.92	92.19
366.147	90.19
366.373	98.19
366.599	83.19
366.826	76.19
367.052	86.19
367.278	87.19
367.505	83.19
367.731	90.19
367.957	91.19
368.184	80.19
368.41	102.19
368.636	106.19
368.862	115.19
369.089	109.19
369.315	97.19
369.541	91.19
369.767	89.19
369.993	86.19
370.219	79.19
370.445	84.19
370.672	97.19
370.898	88.19
371.124	90.19
371.35	93.19
371.576	92.19
371.802	87.19
372.028	88.19
372.254	71.19
372.48	80.19
372.706	92.19
372.932	91.19
373.158	89.19
373.384	93.19
373.61	92.19
373.835	94.19
374.061	84.19
374.287	101.19
374.513	84.19
374.739	91.19
374.965	80.19
375.191	88.19
375.416	93.19
375.642	97.19
375.868	72.19
376.094	74.19
376.319	84.19
376.545	100.19
376.771	92.19
376.997	77.19
377.222	98.19
377.448	87.19
377.674	79.19
377.899	84.19
378.125	94.19
378.35	89.19
378.576	80.19
378.802	86.19
379.027	86.19
379.253	92.19
379.478	84.19
379.704	87.19
379.929	100.19
380.155	106.19
380.38	103.19
380.606	86.19
380.831	101.19
381.057	106.19
381.282	83.19
381.507	85.19
381.733	99.19
381.958	81.19
382.184	98.19
382.409	93.19
382.634	104.19
382.86	104.19
383.085	107.19
383.31	97.19
383.535	101.19
383.761	103.19
383.986	100.19
384.211	84.19
384.436	102.19
384.662	98.19
384.887	91.19
385.112	102.19
385.337	107.19
385.562	101.19
385.787	100.19
386.013	111.19
386.238	101.19
386.463	87.19
386.688	118.19
386.913	102.19
387.138	105.19
387.363	116.19
387.588	103.19
387.813	99.19
388.038	122.19
388.263	122.19
388.488	95.19
388.713	97.19
388.938	84.19
389.163	86.19
389.387	100.19
389.612	87.19
389.837	77.19
390.062	80.19
390.287	94.19
390.512	96.19
390.736	94.19
390.961	113.19
391.186	94.19
391.411	90.19
391.636	81.19
391.86	96.19
392.085	77.19
392.31	90.19
392.534	88.19
392.759	92.19
392.984	79.19
393.208	94.19
393.433	86.19
393.658	77.19
393.882	63.19
394.107	90.19
394.331	73.19
394.556	90.19
394.78	74.19
395.005	72.19
395.229	66.19
395.454	95.19
395.678	94.19
395.903	81.19
396.127	87.19
396.352	79.19
396.576	90.19
396.801	87.19
397.025	95.19
397.249	81.19
397.474	91.19
397.698	85.19
397.922	88.19
398.147	81.19
398.371	88.19
398.595	95.19
398.82	86.19
399.044	93.19
399.268	86.19
399.492	80.19
399.717	92.19
399.941	89.19
400.165	87.19
400.389	94.19
400.613	84.19
400.837	86.19
401.062	103.19
401.286	105.19
401.51	92.19
401.734	99.19
401.958	92.19
402.182	102.19
402.406	133.19
402.63	95.19
402.854	101.19
403.078	79.19
403.302	78.19
403.526	80.19
403.75	89.19
403.974	88.19
404.198	92.19
404.422	85.19
404.645	96.19
404.869	81.19
405.093	80.19
405.317	103.19
405.541	77.19
405.765	91.19
405.988	104.19
406.212	131.19
406.436	181.19
406.66	110.19
406.883	84.19
407.107	72.19
407.331	92.19
407.555	97.19
407.778	95.19
408.002	89.19
408.226	84.19
408.449	90.19
408.673	96.19
408.896	89.19
409.12	74.19
409.344	93.19
409.567	94.19
409.791	99.19
410.014	93.19
410.238	85.19
410.461	92.19
410.685	96.19
410.908	92.19
411.132	106.19
411.355	108.19
411.578	93.19
411.802	88.19
412.025	95.19
412.249	81.19
412.472	101.19
412.695	94.19
412.919	94.19
413.142	96.19
413.365	80.19
413.589	99.19
413.812	95.19
414.035	91.19
414.258	79.19
414.482	75.19
414.705	90.19
414.928	77.19
415.151	77.19
415.374	88.19
415.597	88.19
415.821	96.19
416.044	90.19
416.267	79.19
416.49	87.19
416.713	83.19
416.936	84.19
417.159	98.19
417.382	100.19
417.605	82.19
417.828	89.19
418.051	97.19
418.274	97.19
418.497	82.19
418.72	93.19
418.943	94.19
419.166	87.19
419.389	84.19
419.611	75.19
419.834	94.19
420.057	89.19
420.28	91.19
420.503	76.19
420.726	78.19
420.948	83.19
421.171	88.19
421.394	95.19
421.617	88.19
421.839	79.19
422.062	78.19
422.285	92.19
422.507	88.19
422.73	90.19
422.953	88.19
423.175	87.19
423.398	87.19
423.621	90.19
423.843	107.19
424.066	84.19
424.288	81.19
424.511	88.19
424.733	83.19
424.956	96.19
425.178	87.19
425.401	100.19
425.623	102.19
425.846	79.19
426.068	86.19
426.291	84.19
426.513	84.19
426.735	94.19
426.958	91.19
427.18	103.19
427.402	108.19
427.625	131.19
427.847	117.19
428.069	102.19
428.292	63.19
428.514	90.19
428.736	88.19
428.958	92.19
429.181	78.19
429.403	88.19
429.625	81.19
429.847	85.19
430.069	80.19
430.292	94.19
430.514	73.19
430.736	85.19
430.958	80.19
431.18	70.19
431.402	95.19
431.624	96.19
431.846	83.19
432.068	75.19
432.29	72.19
432.512	91.19
432.734	82.19
432.956	97.19
433.178	87.19
433.4	100.19
433.622	94.19
433.844	89.19
434.066	86.19
434.287	84.19
434.509	93.19
434.731	86.19
434.953	78.19
435.175	82.19
435.397	93.19
435.618	90.19
435.84	88.19
436.062	111.19
436.284	109.19
436.505	85.19
436.727	100.19
436.949	89.19
437.17	99.19
437.392	89.19
437.614	88.19
437.835	78.19
438.057	107.19
438.278	90.19
438.5	83.19
438.721	109.19
438.943	90.19
439.165	93.19
439.386	95.19
439.608	97.19
439.829	89.19
440.05	96.19
440.272	124.19
440.493	95.19
440.715	93.19
440.936	80.19
441.158	91.19
441.379	81.19
441.6	97.19
441.822	78.19
442.043	90.19
442.264	93.19
442.486	89.19
442.707	81.19
442.928	100.19
443.149	118.19
443.371	114.19
443.592	97.19
443.813	103.19
444.034	99.19
444.255	92.19
444.476	90.19
444.698	79.19
444.919	71.19
445.14	132.19
445.361	117.19
445.582	110.19
445.803	117.19
446.024	124.19
446.245	111.19
446.466	99.19
446.687	68.19
446.908	82.19
447.129	80.19
447.35	69.19
447.571	88.19
447.792	76.19
448.013	97.19
448.234	84.19
448.455	96.19
448.675	102.19
448.896	99.19
449.117	95.19
449.338	103.19
449.559	122.19
449.779	111.19
450	98.19
450.221	88.19
450.442	87.19
450.662	83.19
450.883	98.19
451.104	105.19
451.324	88.19
451.545	71.19
451.766	83.19
451.986	87.19
452.207	85.19
452.428	87.19
452.648	96.19
452.869	111.19
453.089	96.19
453.31	98.19
453.53	90.19
453.751	85.19
453.971	85.19
454.192	97.19
454.412	96.19
454.633	93.19
454.853	81.19
455.073	88.19
455.294	90.19
455.514	80.19
455.734	87.19
455.955	81.19
456.175	91.19
456.395	96.19
456.616	86.19
456.836	84.19
457.056	71.19
457.276	80.19
457.497	89.19
457.717	92.19
457.937	84.19
458.157	92.19
458.377	80.19
458.598	86.19
458.818	105.19
459.038	122.19
459.258	97.19
459.478	92.19
459.698	79.19
459.918	93.19
460.138	91.19
460.358	90.19
460.578	75.19
460.798	78.19
461.018	81.19
461.238	91.19
461.458	90.19
461.678	84.19
461.898	87.19
462.118	88.19
462.338	72.19
462.558	86.19
462.777	85.19
462.997	93.19
463.217	81.19
463.437	83.19
463.657	82.19
463.876	77.19
464.096	82.19
464.316	86.19
464.536	92.19
464.755	95.19
464.975	108.19
465.195	139.19
465.414	152.19
465.634	92.19
465.854	81.19
466.073	82.19
466.293	71.19
466.512	72.19
466.732	86.19
466.951	92.19
467.171	69.19
467.391	76.19
467.61	87.19
467.829	100.19
468.049	84.19
468.268	91.19
468.488	83.19
468.707	86.19
468.927	84.19
469.146	82.19
469.365	92.19
469.585	94.19
469.804	89.19
470.023	79.19
470.243	85.19
470.462	92.19
470.681	92.19
470.901	101.19
471.12	92.19
471.339	100.19
471.558	87.19
471.777	74.19
471.997	90.19
472.216	107.19
472.435	124.19
472.654	101.19
472.873	91.19
473.092	78.19
473.311	82.19
473.53	82.19
473.749	77.19
473.968	103.19
474.187	86.19
474.406	78.19
474.625	94.19
474.844	92.19
475.063	74.19
475.282	78.19
475.501	94.19
475.72	78.19
475.939	80.19
476.158	81.19
476.377	81.19
476.596	75.19
476.814	80.19
477.033	86.19
477.252	96.19
477.471	70.19
477.69	84.19
477.908	106.19
478.127	86.19
478.346	83.19
478.564	92.19
478.783	98.19
479.002	97.19
479.22	80.19
479.439	87.19
479.658	80.19
479.876	88.19
480.095	88.19
480.313	88.19
480.532	82.19
480.751	94.19
480.969	96.19
481.188	144.19
481.406	110.19
481.624	84.19
481.843	72.19
482.061	92.19
482.28	89.19
482.498	84.19
482.717	86.19
482.935	88.19
483.153	86.19
483.372	89.19
483.59	93.19
483.808	80.19
484.027	104.19
484.245	96.19
484.463	93.19
484.681	97.19
484.9	86.19
485.118	78.19
485.336	83.19
485.554	82.19
485.772	94.19
485.99	92.19
486.209	95.19
486.427	106.19
486.645	118.19
486.863	100.19
487.081	77.19
487.299	101.19
487.517	101.19
487.735	90.19
487.953	81.19
488.171	91.19
488.389	103.19
488.607	86.19
488.825	86.19
489.043	92.19
489.261	92.19
489.479	80.19
489.696	92.19
489.914	82.19
490.132	71.19
490.35	93.19
490.568	82.19
490.786	96.19
491.003	80.19
491.221	94.19
491.439	87.19
491.657	103.19
491.874	90.19
492.092	74.19
492.31	80.19
492.527	82.19
492.745	92.19
492.963	84.19
493.18	87.19
493.398	86.19
493.615	92.19
493.833	87.19
494.05	100.19
494.268	89.19
494.485	83.19
494.703	88.19
494.92	85.19
495.138	83.19
495.355	79.19
495.573	97.19
495.79	80.19
496.008	93.19
496.225	83.19
496.442	75.19
496.66	89.19
496.877	85.19
497.094	97.19
497.312	87.19
497.529	86.19
497.746	90.19
497.963	79.19
498.181	94.19
498.398	93.19
498.615	93.19
498.832	102.19
499.049	92.19
499.267	92.19
499.484	98.19
499.701	101.19
499.918	89.19
500.135	76.19
500.352	84.19
500.569	93.19
500.786	89.19
501.003	92.19
501.22	93.19
501.437	90.19
501.654	84.19
501.871	87.19
502.088	91.19
502.305	80.19
502.522	81.19
502.739	92.19
502.956	85.19
503.172	73.19
503.389	85.19
503.606	99.19
503.823	88.19
504.04	95.19
504.256	80.19
504.473	65.19
504.69	86.19
504.907	83.19
505.123	106.19
505.34	91.19
505.557	78.19
505.773	92.19
505.99	87.19
506.207	96.19
506.423	88.19
506.64	95.19
506.856	96.19
507.073	88.19
507.289	90.19
507.506	94.19
507.722	103.19
507.939	92.19
508.155	81.19
508.372	82.19
508.588	94.19
508.805	104.19
509.021	85.19
509.238	77.19
509.454	96.19
509.67	100.19
509.887	115.19
510.103	116.19
510.319	172.19
510.536	536.19
510.752	1608.19
510.968	489.19
511.184	111.19
511.401	101.19
511.617	97.19
511.833	80.19
512.049	89.19
512.265	85.19
512.481	89.19
512.698	87.19
512.914	105.19
513.13	76.19
513.346	93.19
513.562	83.19
513.778	94.19
513.994	97.19
514.21	101.19
514.426	115.19
514.642	118.19
514.858	111.19
515.074	129.19
515.29	311.19
515.506	933.19
515.721	393.19
515.937	126.19
516.153	99.19
516.369	89.19
516.585	88.19
516.801	97.19
