Data from Uncirc_2009_H10_HRD10591_00085.txt Node
Date: Wed Jan 03 10:12:18 EST 2024
User: Yrep
Spectrometer: HR+D1059
Trigger mode: 1
Integration Time (sec): 1.000000E-1
Scans to average: 1
Electric dark correction enabled: true
Nonlinearity correction enabled: false
Boxcar width: 0
XAxis mode: Wavelengths
Number of Pixels in Spectrum: 2048
>>>>>Begin Spectral Data<<<<<
223.165	-8.94
223.4	-8.94
223.635	-8.94
223.869	-10.94
224.104	-16.94
224.338	-11.94
224.573	-13.94
224.808	-14.94
225.042	-4.94
225.277	-10.94
225.511	-9.94
225.746	-0.94
225.98	-0.94
226.215	14.06
226.449	27.06
226.683	7.06
226.918	13.06
227.152	44.06
227.387	17.06
227.621	39.06
227.856	44.06
228.09	43.06
228.324	50.06
228.559	49.06
228.793	59.06
229.027	38.06
229.262	53.06
229.496	64.06
229.73	85.06
229.964	80.06
230.199	72.06
230.433	83.06
230.667	75.06
230.901	79.06
231.136	77.06
231.37	90.06
231.604	83.06
231.838	57.06
232.072	70.06
232.306	84.06
232.541	86.06
232.775	94.06
233.009	82.06
233.243	71.06
233.477	66.06
233.711	86.06
233.945	81.06
234.179	81.06
234.413	81.06
234.647	80.06
234.881	77.06
235.115	81.06
235.349	81.06
235.583	76.06
235.817	81.06
236.051	87.06
236.285	71.06
236.519	68.06
236.753	75.06
236.987	78.06
237.221	79.06
237.455	84.06
237.689	62.06
237.922	77.06
238.156	78.06
238.39	75.06
238.624	80.06
238.858	71.06
239.091	59.06
239.325	59.06
239.559	80.06
239.793	76.06
240.027	75.06
240.26	80.06
240.494	66.06
240.728	76.06
240.961	59.06
241.195	77.06
241.429	67.06
241.662	67.06
241.896	63.06
242.13	62.06
242.363	68.06
242.597	70.06
242.83	77.06
243.064	69.06
243.298	72.06
243.531	80.06
243.765	67.06
243.998	76.06
244.232	85.06
244.465	92.06
244.699	91.06
244.932	88.06
245.166	88.06
245.399	69.06
245.633	83.06
245.866	76.06
246.099	82.06
246.333	64.06
246.566	70.06
246.8	88.06
247.033	89.06
247.266	74.06
247.5	80.06
247.733	62.06
247.966	75.06
248.2	82.06
248.433	69.06
248.666	76.06
248.899	92.06
249.133	75.06
249.366	88.06
249.599	85.06
249.832	73.06
250.066	87.06
250.299	70.06
250.532	76.06
250.765	76.06
250.998	73.06
251.231	70.06
251.465	72.06
251.698	60.06
251.931	71.06
252.164	78.06
252.397	65.06
252.63	82.06
252.863	80.06
253.096	82.06
253.329	73.06
253.562	77.06
253.795	79.06
254.028	74.06
254.261	67.06
254.494	81.06
254.727	86.06
254.96	78.06
255.193	84.06
255.426	69.06
255.659	81.06
255.892	90.06
256.124	88.06
256.357	81.06
256.59	78.06
256.823	80.06
257.056	69.06
257.289	83.06
257.521	71.06
257.754	86.06
257.987	83.06
258.22	87.06
258.452	72.06
258.685	77.06
258.918	75.06
259.151	47.06
259.383	84.06
259.616	76.06
259.849	98.06
260.081	90.06
260.314	82.06
260.547	86.06
260.779	84.06
261.012	82.06
261.244	79.06
261.477	99.06
261.71	80.06
261.942	83.06
262.175	80.06
262.407	80.06
262.64	83.06
262.872	90.06
263.105	88.06
263.337	85.06
263.57	86.06
263.802	73.06
264.035	84.06
264.267	63.06
264.499	80.06
264.732	77.06
264.964	81.06
265.197	73.06
265.429	75.06
265.661	88.06
265.894	70.06
266.126	90.06
266.358	79.06
266.591	90.06
266.823	77.06
267.055	86.06
267.287	83.06
267.52	80.06
267.752	80.06
267.984	88.06
268.216	82.06
268.448	89.06
268.681	82.06
268.913	75.06
269.145	74.06
269.377	80.06
269.609	79.06
269.841	76.06
270.073	71.06
270.306	87.06
270.538	74.06
270.77	89.06
271.002	88.06
271.234	91.06
271.466	72.06
271.698	80.06
271.93	81.06
272.162	80.06
272.394	79.06
272.626	82.06
272.858	85.06
273.09	79.06
273.322	73.06
273.553	81.06
273.785	88.06
274.017	71.06
274.249	81.06
274.481	84.06
274.713	86.06
274.945	93.06
275.176	82.06
275.408	81.06
275.64	79.06
275.872	93.06
276.104	83.06
276.335	85.06
276.567	107.06
276.799	94.06
277.031	85.06
277.262	80.06
277.494	95.06
277.726	101.06
277.957	91.06
278.189	81.06
278.421	92.06
278.652	78.06
278.884	83.06
279.115	77.06
279.347	85.06
279.579	79.06
279.81	84.06
280.042	80.06
280.273	81.06
280.505	96.06
280.736	86.06
280.968	85.06
281.199	81.06
281.431	88.06
281.662	88.06
281.894	87.06
282.125	85.06
282.356	98.06
282.588	108.06
282.819	101.06
283.051	79.06
283.282	71.06
283.513	89.06
283.745	78.06
283.976	93.06
284.207	97.06
284.439	99.06
284.67	85.06
284.901	89.06
285.132	103.06
285.364	91.06
285.595	79.06
285.826	85.06
286.057	95.06
286.288	89.06
286.52	99.06
286.751	80.06
286.982	81.06
287.213	92.06
287.444	83.06
287.675	96.06
287.906	93.06
288.138	95.06
288.369	100.06
288.6	82.06
288.831	88.06
289.062	71.06
289.293	89.06
289.524	87.06
289.755	84.06
289.986	76.06
290.217	80.06
290.448	88.06
290.679	83.06
290.91	88.06
291.141	85.06
291.371	104.06
291.602	85.06
291.833	68.06
292.064	90.06
292.295	85.06
292.526	93.06
292.757	79.06
292.987	87.06
293.218	92.06
293.449	90.06
293.68	96.06
293.91	88.06
294.141	93.06
294.372	87.06
294.603	93.06
294.833	88.06
295.064	96.06
295.295	91.06
295.525	86.06
295.756	86.06
295.987	87.06
296.217	112.06
296.448	103.06
296.679	84.06
296.909	93.06
297.14	84.06
297.37	95.06
297.601	79.06
297.831	101.06
298.062	101.06
298.292	83.06
298.523	85.06
298.753	92.06
298.984	68.06
299.214	76.06
299.445	90.06
299.675	94.06
299.905	92.06
300.136	89.06
300.366	99.06
300.597	86.06
300.827	80.06
301.057	92.06
301.288	92.06
301.518	90.06
301.748	80.06
301.979	86.06
302.209	84.06
302.439	84.06
302.669	80.06
302.9	104.06
303.13	99.06
303.36	106.06
303.59	111.06
303.82	105.06
304.051	82.06
304.281	87.06
304.511	91.06
304.741	69.06
304.971	87.06
305.201	91.06
305.431	96.06
305.661	99.06
305.891	88.06
306.121	88.06
306.352	107.06
306.582	91.06
306.812	98.06
307.042	95.06
307.272	92.06
307.502	93.06
307.731	76.06
307.961	94.06
308.191	91.06
308.421	87.06
308.651	94.06
308.881	90.06
309.111	92.06
309.341	106.06
309.571	95.06
309.8	86.06
310.03	89.06
310.26	87.06
310.49	96.06
310.72	95.06
310.949	100.06
311.179	108.06
311.409	87.06
311.639	97.06
311.868	103.06
312.098	101.06
312.328	108.06
312.557	98.06
312.787	86.06
313.017	84.06
313.246	89.06
313.476	100.06
313.706	88.06
313.935	85.06
314.165	105.06
314.394	96.06
314.624	95.06
314.853	109.06
315.083	78.06
315.312	85.06
315.542	101.06
315.771	97.06
316.001	94.06
316.23	86.06
316.46	79.06
316.689	84.06
316.919	96.06
317.148	104.06
317.377	110.06
317.607	114.06
317.836	107.06
318.065	82.06
318.295	76.06
318.524	85.06
318.753	87.06
318.983	92.06
319.212	95.06
319.441	95.06
319.67	111.06
319.9	89.06
320.129	92.06
320.358	89.06
320.587	99.06
320.816	93.06
321.046	101.06
321.275	86.06
321.504	91.06
321.733	101.06
321.962	98.06
322.191	93.06
322.42	96.06
322.649	106.06
322.878	99.06
323.108	94.06
323.337	101.06
323.566	108.06
323.795	126.06
324.024	183.06
324.253	310.06
324.482	614.06
324.71	1265.06
324.939	1640.06
325.168	620.06
325.397	202.06
325.626	142.06
325.855	128.06
326.084	129.06
326.313	158.06
326.542	155.06
326.77	191.06
326.999	363.06
327.228	727.06
327.457	1299.06
327.686	1054.06
327.914	302.06
328.143	171.06
328.372	143.06
328.6	100.06
328.829	111.06
329.058	105.06
329.287	104.06
329.515	110.06
329.744	116.06
329.972	105.06
330.201	105.06
330.43	113.06
330.658	108.06
330.887	106.06
331.115	115.06
331.344	85.06
331.572	90.06
331.801	84.06
332.03	88.06
332.258	103.06
332.486	84.06
332.715	91.06
332.943	94.06
333.172	93.06
333.4	89.06
333.629	91.06
333.857	117.06
334.085	98.06
334.314	105.06
334.542	106.06
334.771	103.06
334.999	95.06
335.227	88.06
335.455	91.06
335.684	99.06
335.912	101.06
336.14	76.06
336.369	92.06
336.597	91.06
336.825	100.06
337.053	87.06
337.281	95.06
337.51	102.06
337.738	82.06
337.966	100.06
338.194	95.06
338.422	92.06
338.65	78.06
338.878	95.06
339.106	92.06
339.334	103.06
339.562	70.06
339.79	83.06
340.018	92.06
340.246	85.06
340.474	91.06
340.702	96.06
340.93	86.06
341.158	99.06
341.386	94.06
341.614	95.06
341.842	88.06
342.07	90.06
342.298	78.06
342.526	91.06
342.754	85.06
342.981	89.06
343.209	100.06
343.437	115.06
343.665	94.06
343.893	94.06
344.12	88.06
344.348	100.06
344.576	89.06
344.804	83.06
345.031	86.06
345.259	100.06
345.487	77.06
345.714	82.06
345.942	76.06
346.17	102.06
346.397	91.06
346.625	92.06
346.853	87.06
347.08	80.06
347.308	104.06
347.535	73.06
347.763	96.06
347.99	107.06
348.218	108.06
348.445	91.06
348.673	91.06
348.9	81.06
349.128	95.06
349.355	96.06
349.583	89.06
349.81	89.06
350.037	79.06
350.265	92.06
350.492	97.06
350.72	82.06
350.947	90.06
351.174	109.06
351.402	112.06
351.629	78.06
351.856	87.06
352.083	86.06
352.311	95.06
352.538	102.06
352.765	108.06
352.992	93.06
353.22	101.06
353.447	103.06
353.674	92.06
353.901	87.06
354.128	100.06
354.355	97.06
354.583	95.06
354.81	99.06
355.037	105.06
355.264	97.06
355.491	106.06
355.718	90.06
355.945	92.06
356.172	95.06
356.399	98.06
356.626	103.06
356.853	103.06
357.08	96.06
357.307	91.06
357.534	95.06
357.761	91.06
357.988	89.06
358.215	91.06
358.441	87.06
358.668	90.06
358.895	81.06
359.122	96.06
359.349	88.06
359.576	81.06
359.802	91.06
360.029	94.06
360.256	96.06
360.483	103.06
360.709	94.06
360.936	95.06
361.163	90.06
361.39	95.06
361.616	88.06
361.843	86.06
362.07	87.06
362.296	91.06
362.523	76.06
362.749	88.06
362.976	93.06
363.203	98.06
363.429	83.06
363.656	94.06
363.882	75.06
364.109	84.06
364.335	90.06
364.562	91.06
364.788	88.06
365.015	87.06
365.241	94.06
365.468	87.06
365.694	85.06
365.92	103.06
366.147	79.06
366.373	88.06
366.599	69.06
366.826	91.06
367.052	92.06
367.278	81.06
367.505	95.06
367.731	80.06
367.957	87.06
368.184	87.06
368.41	89.06
368.636	99.06
368.862	102.06
369.089	94.06
369.315	95.06
369.541	102.06
369.767	86.06
369.993	97.06
370.219	88.06
370.445	72.06
370.672	79.06
370.898	96.06
371.124	79.06
371.35	86.06
371.576	92.06
371.802	88.06
372.028	95.06
372.254	94.06
372.48	89.06
372.706	79.06
372.932	96.06
373.158	95.06
373.384	84.06
373.61	94.06
373.835	80.06
374.061	79.06
374.287	93.06
374.513	90.06
374.739	87.06
374.965	94.06
375.191	86.06
375.416	87.06
375.642	81.06
375.868	94.06
376.094	84.06
376.319	97.06
376.545	99.06
376.771	107.06
376.997	103.06
377.222	85.06
377.448	92.06
377.674	86.06
377.899	91.06
378.125	86.06
378.35	104.06
378.576	107.06
378.802	88.06
379.027	91.06
379.253	100.06
379.478	81.06
379.704	96.06
379.929	102.06
380.155	109.06
380.38	107.06
380.606	98.06
380.831	85.06
381.057	97.06
381.282	92.06
381.507	99.06
381.733	103.06
381.958	89.06
382.184	101.06
382.409	91.06
382.634	105.06
382.86	100.06
383.085	92.06
383.31	101.06
383.535	94.06
383.761	114.06
383.986	89.06
384.211	88.06
384.436	94.06
384.662	81.06
384.887	100.06
385.112	81.06
385.337	100.06
385.562	93.06
385.787	95.06
386.013	106.06
386.238	109.06
386.463	108.06
386.688	108.06
386.913	103.06
387.138	101.06
387.363	101.06
387.588	92.06
387.813	101.06
388.038	100.06
388.263	97.06
388.488	100.06
388.713	93.06
388.938	87.06
389.163	100.06
389.387	105.06
389.612	80.06
389.837	99.06
390.062	95.06
390.287	91.06
390.512	82.06
390.736	94.06
390.961	98.06
391.186	103.06
391.411	88.06
391.636	84.06
391.86	85.06
392.085	92.06
392.31	90.06
392.534	83.06
392.759	65.06
392.984	81.06
393.208	76.06
393.433	94.06
393.658	73.06
393.882	79.06
394.107	77.06
394.331	78.06
394.556	84.06
394.78	84.06
395.005	88.06
395.229	93.06
395.454	86.06
395.678	94.06
395.903	93.06
396.127	75.06
396.352	89.06
396.576	83.06
396.801	67.06
397.025	64.06
397.249	83.06
397.474	98.06
397.698	101.06
397.922	86.06
398.147	95.06
398.371	90.06
398.595	84.06
398.82	80.06
399.044	85.06
399.268	94.06
399.492	89.06
399.717	100.06
399.941	95.06
400.165	81.06
400.389	86.06
400.613	84.06
400.837	82.06
401.062	94.06
401.286	86.06
401.51	81.06
401.734	81.06
401.958	94.06
402.182	113.06
402.406	112.06
402.63	97.06
402.854	89.06
403.078	100.06
403.302	103.06
403.526	100.06
403.75	94.06
403.974	78.06
404.198	91.06
404.422	88.06
404.645	82.06
404.869	101.06
405.093	85.06
405.317	86.06
405.541	74.06
405.765	93.06
405.988	93.06
406.212	134.06
406.436	159.06
406.66	123.06
406.883	99.06
407.107	94.06
407.331	101.06
407.555	89.06
407.778	87.06
408.002	86.06
408.226	87.06
408.449	82.06
408.673	91.06
408.896	87.06
409.12	104.06
409.344	88.06
409.567	88.06
409.791	93.06
410.014	80.06
410.238	81.06
410.461	88.06
410.685	83.06
410.908	91.06
411.132	102.06
411.355	108.06
411.578	80.06
411.802	93.06
412.025	84.06
412.249	79.06
412.472	84.06
412.695	87.06
412.919	88.06
413.142	92.06
413.365	88.06
413.589	99.06
413.812	78.06
414.035	96.06
414.258	75.06
414.482	91.06
414.705	91.06
414.928	89.06
415.151	78.06
415.374	90.06
415.597	89.06
415.821	92.06
416.044	79.06
416.267	94.06
416.49	92.06
416.713	88.06
416.936	94.06
417.159	97.06
417.382	78.06
417.605	79.06
417.828	96.06
418.051	90.06
418.274	95.06
418.497	86.06
418.72	87.06
418.943	85.06
419.166	89.06
419.389	78.06
419.611	78.06
419.834	95.06
420.057	67.06
420.28	80.06
420.503	95.06
420.726	89.06
420.948	89.06
421.171	90.06
421.394	90.06
421.617	91.06
421.839	78.06
422.062	81.06
422.285	87.06
422.507	92.06
422.73	89.06
422.953	79.06
423.175	72.06
423.398	90.06
423.621	87.06
423.843	88.06
424.066	84.06
424.288	96.06
424.511	86.06
424.733	92.06
424.956	91.06
425.178	94.06
425.401	103.06
425.623	84.06
425.846	98.06
426.068	81.06
426.291	86.06
426.513	85.06
426.735	96.06
426.958	84.06
427.18	96.06
427.402	120.06
427.625	148.06
427.847	124.06
428.069	118.06
428.292	98.06
428.514	70.06
428.736	91.06
428.958	91.06
429.181	89.06
429.403	81.06
429.625	78.06
429.847	77.06
430.069	83.06
430.292	111.06
430.514	90.06
430.736	83.06
430.958	90.06
431.18	87.06
431.402	84.06
431.624	88.06
431.846	76.06
432.068	83.06
432.29	83.06
432.512	85.06
432.734	90.06
432.956	89.06
433.178	105.06
433.4	87.06
433.622	88.06
433.844	83.06
434.066	77.06
434.287	106.06
434.509	90.06
434.731	90.06
434.953	92.06
435.175	71.06
435.397	77.06
435.618	84.06
435.84	103.06
436.062	108.06
436.284	115.06
436.505	106.06
436.727	87.06
436.949	91.06
437.17	79.06
437.392	89.06
437.614	88.06
437.835	98.06
438.057	110.06
438.278	99.06
438.5	92.06
438.721	103.06
438.943	74.06
439.165	84.06
439.386	79.06
439.608	101.06
439.829	84.06
440.05	111.06
440.272	118.06
440.493	99.06
440.715	88.06
440.936	89.06
441.158	95.06
441.379	77.06
441.6	88.06
441.822	86.06
442.043	82.06
442.264	94.06
442.486	86.06
442.707	82.06
442.928	104.06
443.149	110.06
443.371	107.06
443.592	94.06
443.813	96.06
444.034	106.06
444.255	95.06
444.476	96.06
444.698	82.06
444.919	70.06
445.14	123.06
445.361	120.06
445.582	98.06
445.803	125.06
446.024	109.06
446.245	124.06
446.466	106.06
446.687	102.06
446.908	92.06
447.129	88.06
447.35	94.06
447.571	77.06
447.792	96.06
448.013	97.06
448.234	96.06
448.455	95.06
448.675	106.06
448.896	97.06
449.117	109.06
449.338	90.06
449.559	108.06
449.779	118.06
450	88.06
450.221	88.06
450.442	81.06
450.662	78.06
450.883	89.06
451.104	105.06
451.324	71.06
451.545	84.06
451.766	90.06
451.986	102.06
452.207	95.06
452.428	96.06
452.648	98.06
452.869	91.06
453.089	104.06
453.31	101.06
453.53	99.06
453.751	93.06
453.971	94.06
454.192	84.06
454.412	77.06
454.633	90.06
454.853	103.06
455.073	81.06
455.294	80.06
455.514	93.06
455.734	78.06
455.955	76.06
456.175	89.06
456.395	63.06
456.616	90.06
456.836	76.06
457.056	93.06
457.276	74.06
457.497	72.06
457.717	88.06
457.937	82.06
458.157	85.06
458.377	77.06
458.598	92.06
458.818	111.06
459.038	128.06
459.258	102.06
459.478	71.06
459.698	93.06
459.918	84.06
460.138	83.06
460.358	86.06
460.578	79.06
460.798	87.06
461.018	78.06
461.238	87.06
461.458	71.06
461.678	81.06
461.898	81.06
462.118	72.06
462.338	83.06
462.558	89.06
462.777	73.06
462.997	93.06
463.217	77.06
463.437	90.06
463.657	85.06
463.876	77.06
464.096	89.06
464.316	101.06
464.536	88.06
464.755	79.06
464.975	95.06
465.195	123.06
465.414	138.06
465.634	94.06
465.854	93.06
466.073	92.06
466.293	83.06
466.512	87.06
466.732	88.06
466.951	84.06
467.171	80.06
467.391	90.06
467.61	75.06
467.829	80.06
468.049	86.06
468.268	100.06
468.488	83.06
468.707	76.06
468.927	79.06
469.146	80.06
469.365	95.06
469.585	85.06
469.804	88.06
470.023	95.06
470.243	80.06
470.462	95.06
470.681	107.06
470.901	96.06
471.12	97.06
471.339	84.06
471.558	69.06
471.777	87.06
471.997	93.06
472.216	100.06
472.435	119.06
472.654	94.06
472.873	80.06
473.092	78.06
473.311	91.06
473.53	72.06
473.749	80.06
473.968	97.06
474.187	87.06
474.406	97.06
474.625	86.06
474.844	90.06
475.063	91.06
475.282	86.06
475.501	79.06
475.72	73.06
475.939	83.06
476.158	89.06
476.377	85.06
476.596	83.06
476.814	86.06
477.033	91.06
477.252	86.06
477.471	87.06
477.69	86.06
477.908	87.06
478.127	95.06
478.346	84.06
478.564	87.06
478.783	93.06
479.002	85.06
479.22	76.06
479.439	98.06
479.658	87.06
479.876	85.06
480.095	91.06
480.313	109.06
480.532	84.06
480.751	81.06
480.969	91.06
481.188	163.06
481.406	124.06
481.624	85.06
481.843	79.06
482.061	72.06
482.28	92.06
482.498	67.06
482.717	79.06
482.935	97.06
483.153	95.06
483.372	91.06
483.59	94.06
483.808	84.06
484.027	105.06
484.245	83.06
484.463	81.06
484.681	77.06
484.9	90.06
485.118	88.06
485.336	88.06
485.554	90.06
485.772	107.06
485.99	100.06
486.209	88.06
486.427	87.06
486.645	91.06
486.863	92.06
487.081	92.06
487.299	83.06
487.517	85.06
487.735	87.06
487.953	78.06
488.171	91.06
488.389	85.06
488.607	92.06
488.825	93.06
489.043	75.06
489.261	79.06
489.479	89.06
489.696	95.06
489.914	73.06
490.132	87.06
490.35	86.06
490.568	87.06
490.786	92.06
491.003	96.06
491.221	94.06
491.439	77.06
491.657	82.06
491.874	64.06
492.092	94.06
492.31	87.06
492.527	91.06
492.745	98.06
492.963	92.06
493.18	94.06
493.398	88.06
493.615	87.06
493.833	108.06
494.05	84.06
494.268	84.06
494.485	95.06
494.703	88.06
494.92	90.06
495.138	81.06
495.355	85.06
495.573	84.06
495.79	90.06
496.008	91.06
496.225	83.06
496.442	77.06
496.66	79.06
496.877	83.06
497.094	100.06
497.312	94.06
497.529	88.06
497.746	99.06
497.963	97.06
498.181	85.06
498.398	108.06
498.615	95.06
498.832	99.06
499.049	88.06
499.267	86.06
499.484	84.06
499.701	88.06
499.918	77.06
500.135	90.06
500.352	88.06
500.569	79.06
500.786	88.06
501.003	92.06
501.22	79.06
501.437	86.06
501.654	93.06
501.871	86.06
502.088	94.06
502.305	104.06
502.522	95.06
502.739	85.06
502.956	81.06
503.172	94.06
503.389	83.06
503.606	101.06
503.823	92.06
504.04	82.06
504.256	95.06
504.473	97.06
504.69	91.06
504.907	92.06
505.123	86.06
505.34	86.06
505.557	81.06
505.773	107.06
505.99	92.06
506.207	72.06
506.423	91.06
506.64	85.06
506.856	104.06
507.073	78.06
507.289	85.06
507.506	93.06
507.722	99.06
507.939	99.06
508.155	90.06
508.372	84.06
508.588	92.06
508.805	95.06
509.021	94.06
509.238	85.06
509.454	82.06
509.67	93.06
509.887	96.06
510.103	123.06
510.319	157.06
510.536	513.06
510.752	1496.06
510.968	473.06
511.184	129.06
511.401	107.06
511.617	108.06
511.833	101.06
512.049	100.06
512.265	106.06
512.481	89.06
512.698	87.06
512.914	101.06
513.13	85.06
513.346	101.06
513.562	94.06
513.778	94.06
513.994	95.06
514.21	112.06
514.426	97.06
514.642	104.06
514.858	111.06
515.074	133.06
515.29	287.06
515.506	887.06
515.721	365.06
515.937	126.06
516.153	108.06
516.369	86.06
516.585	103.06
516.801	101.06
