Data from Uncirc_2009_H10_HRD10591_00003.txt Node
Date: Wed Jan 03 10:12:02 EST 2024
User: Yrep
Spectrometer: HR+D1059
Trigger mode: 1
Integration Time (sec): 1.000000E-1
Scans to average: 1
Electric dark correction enabled: true
Nonlinearity correction enabled: false
Boxcar width: 0
XAxis mode: Wavelengths
Number of Pixels in Spectrum: 2048
>>>>>Begin Spectral Data<<<<<
223.165	-5.38
223.4	-5.38
223.635	-5.38
223.869	-23.38
224.104	-20.38
224.338	-9.38
224.573	-7.38
224.808	-17.38
225.042	-13.38
225.277	-21.38
225.511	10.62
225.746	4.62
225.98	9.62
226.215	11.62
226.449	11.62
226.683	33.62
226.918	21.62
227.152	14.62
227.387	29.62
227.621	36.62
227.856	39.62
228.09	31.62
228.324	56.62
228.559	55.62
228.793	71.62
229.027	68.62
229.262	69.62
229.496	70.62
229.73	89.62
229.964	91.62
230.199	84.62
230.433	92.62
230.667	85.62
230.901	85.62
231.136	78.62
231.37	59.62
231.604	72.62
231.838	81.62
232.072	73.62
232.306	80.62
232.541	84.62
232.775	88.62
233.009	87.62
233.243	77.62
233.477	77.62
233.711	75.62
233.945	76.62
234.179	89.62
234.413	86.62
234.647	74.62
234.881	77.62
235.115	90.62
235.349	80.62
235.583	81.62
235.817	77.62
236.051	89.62
236.285	71.62
236.519	90.62
236.753	88.62
236.987	84.62
237.221	77.62
237.455	84.62
237.689	83.62
237.922	80.62
238.156	84.62
238.39	59.62
238.624	64.62
238.858	77.62
239.091	70.62
239.325	73.62
239.559	91.62
239.793	82.62
240.027	69.62
240.26	74.62
240.494	80.62
240.728	66.62
240.961	78.62
241.195	65.62
241.429	75.62
241.662	82.62
241.896	68.62
242.13	68.62
242.363	90.62
242.597	90.62
242.83	81.62
243.064	92.62
243.298	84.62
243.531	76.62
243.765	84.62
243.998	83.62
244.232	84.62
244.465	86.62
244.699	75.62
244.932	79.62
245.166	69.62
245.399	72.62
245.633	78.62
245.866	69.62
246.099	75.62
246.333	81.62
246.566	61.62
246.8	93.62
247.033	72.62
247.266	80.62
247.5	72.62
247.733	94.62
247.966	76.62
248.2	79.62
248.433	85.62
248.666	76.62
248.899	85.62
249.133	84.62
249.366	79.62
249.599	95.62
249.832	87.62
250.066	85.62
250.299	85.62
250.532	72.62
250.765	78.62
250.998	91.62
251.231	80.62
251.465	67.62
251.698	74.62
251.931	68.62
252.164	77.62
252.397	80.62
252.63	80.62
252.863	78.62
253.096	93.62
253.329	89.62
253.562	88.62
253.795	82.62
254.028	84.62
254.261	66.62
254.494	77.62
254.727	81.62
254.96	72.62
255.193	81.62
255.426	78.62
255.659	97.62
255.892	84.62
256.124	77.62
256.357	79.62
256.59	75.62
256.823	76.62
257.056	75.62
257.289	77.62
257.521	96.62
257.754	85.62
257.987	74.62
258.22	77.62
258.452	81.62
258.685	83.62
258.918	82.62
259.151	90.62
259.383	83.62
259.616	71.62
259.849	79.62
260.081	80.62
260.314	85.62
260.547	81.62
260.779	71.62
261.012	92.62
261.244	75.62
261.477	90.62
261.71	92.62
261.942	91.62
262.175	97.62
262.407	104.62
262.64	93.62
262.872	95.62
263.105	86.62
263.337	93.62
263.57	84.62
263.802	81.62
264.035	72.62
264.267	84.62
264.499	84.62
264.732	84.62
264.964	89.62
265.197	74.62
265.429	88.62
265.661	89.62
265.894	86.62
266.126	89.62
266.358	82.62
266.591	82.62
266.823	81.62
267.055	70.62
267.287	85.62
267.52	75.62
267.752	74.62
267.984	85.62
268.216	83.62
268.448	94.62
268.681	96.62
268.913	86.62
269.145	85.62
269.377	68.62
269.609	74.62
269.841	75.62
270.073	79.62
270.306	90.62
270.538	86.62
270.77	86.62
271.002	97.62
271.234	93.62
271.466	97.62
271.698	97.62
271.93	85.62
272.162	80.62
272.394	88.62
272.626	96.62
272.858	81.62
273.09	84.62
273.322	99.62
273.553	77.62
273.785	66.62
274.017	80.62
274.249	72.62
274.481	85.62
274.713	78.62
274.945	86.62
275.176	85.62
275.408	90.62
275.64	89.62
275.872	90.62
276.104	93.62
276.335	80.62
276.567	110.62
276.799	100.62
277.031	92.62
277.262	85.62
277.494	104.62
277.726	73.62
277.957	92.62
278.189	88.62
278.421	73.62
278.652	85.62
278.884	86.62
279.115	82.62
279.347	78.62
279.579	77.62
279.81	89.62
280.042	77.62
280.273	73.62
280.505	77.62
280.736	79.62
280.968	95.62
281.199	103.62
281.431	87.62
281.662	79.62
281.894	86.62
282.125	84.62
282.356	101.62
282.588	111.62
282.819	104.62
283.051	92.62
283.282	87.62
283.513	92.62
283.745	94.62
283.976	94.62
284.207	99.62
284.439	86.62
284.67	90.62
284.901	88.62
285.132	84.62
285.364	81.62
285.595	82.62
285.826	75.62
286.057	98.62
286.288	95.62
286.52	100.62
286.751	94.62
286.982	82.62
287.213	97.62
287.444	88.62
287.675	73.62
287.906	98.62
288.138	82.62
288.369	78.62
288.6	90.62
288.831	90.62
289.062	100.62
289.293	81.62
289.524	70.62
289.755	93.62
289.986	87.62
290.217	87.62
290.448	83.62
290.679	90.62
290.91	88.62
291.141	84.62
291.371	82.62
291.602	96.62
291.833	83.62
292.064	80.62
292.295	96.62
292.526	84.62
292.757	89.62
292.987	90.62
293.218	96.62
293.449	90.62
293.68	90.62
293.91	90.62
294.141	86.62
294.372	98.62
294.603	80.62
294.833	80.62
295.064	93.62
295.295	99.62
295.525	91.62
295.756	88.62
295.987	103.62
296.217	109.62
296.448	114.62
296.679	94.62
296.909	88.62
297.14	83.62
297.37	89.62
297.601	83.62
297.831	78.62
298.062	100.62
298.292	93.62
298.523	83.62
298.753	96.62
298.984	76.62
299.214	83.62
299.445	81.62
299.675	96.62
299.905	89.62
300.136	96.62
300.366	93.62
300.597	94.62
300.827	103.62
301.057	99.62
301.288	96.62
301.518	82.62
301.748	92.62
301.979	89.62
302.209	76.62
302.439	86.62
302.669	83.62
302.9	78.62
303.13	101.62
303.36	101.62
303.59	113.62
303.82	108.62
304.051	105.62
304.281	92.62
304.511	98.62
304.741	80.62
304.971	91.62
305.201	94.62
305.431	89.62
305.661	85.62
305.891	93.62
306.121	92.62
306.352	86.62
306.582	92.62
306.812	89.62
307.042	94.62
307.272	76.62
307.502	79.62
307.731	70.62
307.961	81.62
308.191	77.62
308.421	85.62
308.651	84.62
308.881	88.62
309.111	92.62
309.341	89.62
309.571	94.62
309.8	86.62
310.03	94.62
310.26	90.62
310.49	95.62
310.72	94.62
310.949	96.62
311.179	105.62
311.409	90.62
311.639	102.62
311.868	110.62
312.098	100.62
312.328	108.62
312.557	105.62
312.787	106.62
313.017	97.62
313.246	84.62
313.476	91.62
313.706	87.62
313.935	89.62
314.165	94.62
314.394	90.62
314.624	85.62
314.853	94.62
315.083	96.62
315.312	97.62
315.542	91.62
315.771	97.62
316.001	86.62
316.23	101.62
316.46	109.62
316.689	88.62
316.919	104.62
317.148	106.62
317.377	97.62
317.607	117.62
317.836	102.62
318.065	86.62
318.295	82.62
318.524	86.62
318.753	86.62
318.983	99.62
319.212	92.62
319.441	96.62
319.67	105.62
319.9	88.62
320.129	105.62
320.358	99.62
320.587	94.62
320.816	100.62
321.046	101.62
321.275	106.62
321.504	97.62
321.733	77.62
321.962	100.62
322.191	106.62
322.42	101.62
322.649	110.62
322.878	107.62
323.108	101.62
323.337	104.62
323.566	120.62
323.795	139.62
324.024	192.62
324.253	338.62
324.482	702.62
324.71	1428.62
324.939	1860.62
325.168	694.62
325.397	204.62
325.626	136.62
325.855	121.62
326.084	142.62
326.313	142.62
326.542	159.62
326.77	217.62
326.999	421.62
327.228	804.62
327.457	1503.62
327.686	1190.62
327.914	320.62
328.143	163.62
328.372	129.62
328.6	107.62
328.829	120.62
329.058	98.62
329.287	106.62
329.515	97.62
329.744	108.62
329.972	105.62
330.201	116.62
330.43	128.62
330.658	108.62
330.887	120.62
331.115	114.62
331.344	99.62
331.572	81.62
331.801	83.62
332.03	101.62
332.258	94.62
332.486	84.62
332.715	82.62
332.943	91.62
333.172	87.62
333.4	110.62
333.629	102.62
333.857	116.62
334.085	111.62
334.314	110.62
334.542	110.62
334.771	106.62
334.999	102.62
335.227	95.62
335.455	93.62
335.684	92.62
335.912	95.62
336.14	98.62
336.369	94.62
336.597	79.62
336.825	87.62
337.053	89.62
337.281	90.62
337.51	105.62
337.738	98.62
337.966	80.62
338.194	86.62
338.422	97.62
338.65	99.62
338.878	81.62
339.106	91.62
339.334	110.62
339.562	87.62
339.79	84.62
340.018	92.62
340.246	93.62
340.474	95.62
340.702	80.62
340.93	88.62
341.158	86.62
341.386	93.62
341.614	92.62
341.842	79.62
342.07	95.62
342.298	92.62
342.526	106.62
342.754	93.62
342.981	96.62
343.209	94.62
343.437	98.62
343.665	93.62
343.893	84.62
344.12	94.62
344.348	92.62
344.576	92.62
344.804	95.62
345.031	87.62
345.259	89.62
345.487	73.62
345.714	82.62
345.942	94.62
346.17	89.62
346.397	82.62
346.625	104.62
346.853	79.62
347.08	100.62
347.308	82.62
347.535	90.62
347.763	92.62
347.99	96.62
348.218	85.62
348.445	96.62
348.673	81.62
348.9	102.62
349.128	92.62
349.355	103.62
349.583	84.62
349.81	104.62
350.037	112.62
350.265	100.62
350.492	88.62
350.72	92.62
350.947	96.62
351.174	106.62
351.402	112.62
351.629	113.62
351.856	102.62
352.083	102.62
352.311	110.62
352.538	111.62
352.765	90.62
352.992	106.62
353.22	114.62
353.447	105.62
353.674	111.62
353.901	88.62
354.128	103.62
354.355	105.62
354.583	107.62
354.81	103.62
355.037	103.62
355.264	107.62
355.491	88.62
355.718	100.62
355.945	97.62
356.172	97.62
356.399	97.62
356.626	94.62
356.853	97.62
357.08	87.62
357.307	86.62
357.534	91.62
357.761	101.62
357.988	104.62
358.215	101.62
358.441	100.62
358.668	95.62
358.895	97.62
359.122	95.62
359.349	89.62
359.576	87.62
359.802	102.62
360.029	113.62
360.256	109.62
360.483	107.62
360.709	84.62
360.936	97.62
361.163	97.62
361.39	104.62
361.616	91.62
361.843	92.62
362.07	92.62
362.296	95.62
362.523	88.62
362.749	108.62
362.976	89.62
363.203	92.62
363.429	78.62
363.656	91.62
363.882	79.62
364.109	84.62
364.335	93.62
364.562	95.62
364.788	99.62
365.015	90.62
365.241	108.62
365.468	90.62
365.694	81.62
365.92	94.62
366.147	98.62
366.373	92.62
366.599	83.62
366.826	100.62
367.052	88.62
367.278	84.62
367.505	81.62
367.731	87.62
367.957	86.62
368.184	108.62
368.41	84.62
368.636	105.62
368.862	101.62
369.089	97.62
369.315	83.62
369.541	91.62
369.767	89.62
369.993	92.62
370.219	88.62
370.445	90.62
370.672	85.62
370.898	84.62
371.124	89.62
371.35	79.62
371.576	100.62
371.802	84.62
372.028	81.62
372.254	85.62
372.48	86.62
372.706	103.62
372.932	81.62
373.158	88.62
373.384	82.62
373.61	93.62
373.835	85.62
374.061	82.62
374.287	88.62
374.513	93.62
374.739	66.62
374.965	85.62
375.191	93.62
375.416	88.62
375.642	84.62
375.868	82.62
376.094	85.62
376.319	98.62
376.545	84.62
376.771	93.62
376.997	96.62
377.222	78.62
377.448	84.62
377.674	100.62
377.899	92.62
378.125	102.62
378.35	74.62
378.576	103.62
378.802	95.62
379.027	108.62
379.253	94.62
379.478	91.62
379.704	97.62
379.929	105.62
380.155	93.62
380.38	107.62
380.606	97.62
380.831	92.62
381.057	104.62
381.282	94.62
381.507	89.62
381.733	105.62
381.958	93.62
382.184	92.62
382.409	100.62
382.634	109.62
382.86	98.62
383.085	108.62
383.31	112.62
383.535	102.62
383.761	87.62
383.986	94.62
384.211	104.62
384.436	91.62
384.662	97.62
384.887	102.62
385.112	105.62
385.337	96.62
385.562	112.62
385.787	102.62
386.013	109.62
386.238	111.62
386.463	111.62
386.688	119.62
386.913	111.62
387.138	116.62
387.363	97.62
387.588	97.62
387.813	93.62
388.038	93.62
388.263	119.62
388.488	119.62
388.713	109.62
388.938	99.62
389.163	81.62
389.387	93.62
389.612	90.62
389.837	95.62
390.062	89.62
390.287	89.62
390.512	79.62
390.736	86.62
390.961	96.62
391.186	85.62
391.411	87.62
391.636	100.62
391.86	74.62
392.085	79.62
392.31	85.62
392.534	106.62
392.759	97.62
392.984	103.62
393.208	95.62
393.433	89.62
393.658	76.62
393.882	93.62
394.107	93.62
394.331	97.62
394.556	82.62
394.78	95.62
395.005	88.62
395.229	93.62
395.454	88.62
395.678	89.62
395.903	89.62
396.127	93.62
396.352	90.62
396.576	90.62
396.801	79.62
397.025	88.62
397.249	89.62
397.474	81.62
397.698	96.62
397.922	89.62
398.147	85.62
398.371	77.62
398.595	88.62
398.82	81.62
399.044	79.62
399.268	86.62
399.492	89.62
399.717	78.62
399.941	73.62
400.165	92.62
400.389	87.62
400.613	88.62
400.837	76.62
401.062	87.62
401.286	85.62
401.51	98.62
401.734	88.62
401.958	99.62
402.182	113.62
402.406	132.62
402.63	121.62
402.854	116.62
403.078	82.62
403.302	84.62
403.526	89.62
403.75	88.62
403.974	89.62
404.198	72.62
404.422	84.62
404.645	90.62
404.869	87.62
405.093	84.62
405.317	104.62
405.541	86.62
405.765	88.62
405.988	96.62
406.212	145.62
406.436	186.62
406.66	124.62
406.883	87.62
407.107	84.62
407.331	93.62
407.555	90.62
407.778	109.62
408.002	89.62
408.226	84.62
408.449	93.62
408.673	108.62
408.896	80.62
409.12	91.62
409.344	75.62
409.567	90.62
409.791	89.62
410.014	95.62
410.238	85.62
410.461	87.62
410.685	96.62
410.908	94.62
411.132	101.62
411.355	92.62
411.578	92.62
411.802	88.62
412.025	92.62
412.249	93.62
412.472	99.62
412.695	103.62
412.919	93.62
413.142	92.62
413.365	71.62
413.589	82.62
413.812	88.62
414.035	93.62
414.258	86.62
414.482	101.62
414.705	90.62
414.928	86.62
415.151	96.62
415.374	83.62
415.597	101.62
415.821	91.62
416.044	100.62
416.267	85.62
416.49	88.62
416.713	89.62
416.936	89.62
417.159	85.62
417.382	89.62
417.605	89.62
417.828	96.62
418.051	94.62
418.274	86.62
418.497	92.62
418.72	86.62
418.943	81.62
419.166	94.62
419.389	89.62
419.611	77.62
419.834	88.62
420.057	92.62
420.28	87.62
420.503	81.62
420.726	96.62
420.948	95.62
421.171	94.62
421.394	102.62
421.617	86.62
421.839	93.62
422.062	113.62
422.285	97.62
422.507	89.62
422.73	107.62
422.953	93.62
423.175	87.62
423.398	95.62
423.621	93.62
423.843	95.62
424.066	91.62
424.288	102.62
424.511	89.62
424.733	88.62
424.956	89.62
425.178	86.62
425.401	95.62
425.623	103.62
425.846	92.62
426.068	95.62
426.291	95.62
426.513	92.62
426.735	89.62
426.958	86.62
427.18	105.62
427.402	120.62
427.625	145.62
427.847	124.62
428.069	106.62
428.292	105.62
428.514	78.62
428.736	103.62
428.958	88.62
429.181	94.62
429.403	70.62
429.625	88.62
429.847	102.62
430.069	102.62
430.292	103.62
430.514	79.62
430.736	90.62
430.958	86.62
431.18	84.62
431.402	70.62
431.624	88.62
431.846	77.62
432.068	70.62
432.29	82.62
432.512	74.62
432.734	86.62
432.956	88.62
433.178	91.62
433.4	97.62
433.622	104.62
433.844	85.62
434.066	88.62
434.287	91.62
434.509	90.62
434.731	84.62
434.953	95.62
435.175	71.62
435.397	89.62
435.618	93.62
435.84	85.62
436.062	114.62
436.284	114.62
436.505	116.62
436.727	93.62
436.949	94.62
437.17	88.62
437.392	92.62
437.614	100.62
437.835	102.62
438.057	92.62
438.278	102.62
438.5	106.62
438.721	115.62
438.943	95.62
439.165	85.62
439.386	84.62
439.608	111.62
439.829	103.62
440.05	116.62
440.272	136.62
440.493	105.62
440.715	77.62
440.936	85.62
441.158	77.62
441.379	78.62
441.6	82.62
441.822	96.62
442.043	85.62
442.264	92.62
442.486	80.62
442.707	94.62
442.928	110.62
443.149	111.62
443.371	120.62
443.592	95.62
443.813	113.62
444.034	97.62
444.255	98.62
444.476	100.62
444.698	81.62
444.919	75.62
445.14	118.62
445.361	120.62
445.582	107.62
445.803	118.62
446.024	121.62
446.245	104.62
446.466	108.62
446.687	103.62
446.908	105.62
447.129	94.62
447.35	98.62
447.571	72.62
447.792	96.62
448.013	92.62
448.234	95.62
448.455	93.62
448.675	107.62
448.896	92.62
449.117	101.62
449.338	93.62
449.559	118.62
449.779	124.62
450	103.62
450.221	95.62
450.442	93.62
450.662	96.62
450.883	94.62
451.104	92.62
451.324	90.62
451.545	97.62
451.766	83.62
451.986	71.62
452.207	85.62
452.428	93.62
452.648	102.62
452.869	95.62
453.089	94.62
453.31	96.62
453.53	100.62
453.751	78.62
453.971	98.62
454.192	113.62
454.412	106.62
454.633	78.62
454.853	85.62
455.073	76.62
455.294	88.62
455.514	92.62
455.734	93.62
455.955	87.62
456.175	69.62
456.395	85.62
456.616	100.62
456.836	104.62
457.056	93.62
457.276	86.62
457.497	88.62
457.717	93.62
457.937	77.62
458.157	89.62
458.377	82.62
458.598	95.62
458.818	103.62
459.038	140.62
459.258	95.62
459.478	80.62
459.698	85.62
459.918	99.62
460.138	90.62
460.358	73.62
460.578	88.62
460.798	84.62
461.018	82.62
461.238	83.62
461.458	90.62
461.678	67.62
461.898	77.62
462.118	82.62
462.338	90.62
462.558	75.62
462.777	78.62
462.997	81.62
463.217	95.62
463.437	87.62
463.657	87.62
463.876	99.62
464.096	98.62
464.316	92.62
464.536	89.62
464.755	87.62
464.975	94.62
465.195	128.62
465.414	126.62
465.634	91.62
465.854	92.62
466.073	105.62
466.293	93.62
466.512	75.62
466.732	84.62
466.951	81.62
467.171	86.62
467.391	79.62
467.61	110.62
467.829	90.62
468.049	89.62
468.268	97.62
468.488	88.62
468.707	84.62
468.927	85.62
469.146	81.62
469.365	88.62
469.585	86.62
469.804	102.62
470.023	93.62
470.243	85.62
470.462	88.62
470.681	105.62
470.901	86.62
471.12	100.62
471.339	110.62
471.558	94.62
471.777	90.62
471.997	83.62
472.216	98.62
472.435	117.62
472.654	97.62
472.873	79.62
473.092	82.62
473.311	95.62
473.53	90.62
473.749	94.62
473.968	90.62
474.187	92.62
474.406	87.62
474.625	92.62
474.844	82.62
475.063	91.62
475.282	88.62
475.501	90.62
475.72	80.62
475.939	84.62
476.158	77.62
476.377	87.62
476.596	95.62
476.814	85.62
477.033	80.62
477.252	88.62
477.471	82.62
477.69	95.62
477.908	100.62
478.127	88.62
478.346	98.62
478.564	94.62
478.783	90.62
479.002	97.62
479.22	98.62
479.439	89.62
479.658	94.62
479.876	88.62
480.095	99.62
480.313	86.62
480.532	86.62
480.751	102.62
480.969	105.62
481.188	156.62
481.406	130.62
481.624	94.62
481.843	85.62
482.061	93.62
482.28	95.62
482.498	94.62
482.717	93.62
482.935	91.62
483.153	95.62
483.372	90.62
483.59	95.62
483.808	92.62
484.027	96.62
484.245	98.62
484.463	93.62
484.681	94.62
484.9	97.62
485.118	86.62
485.336	83.62
485.554	98.62
485.772	97.62
485.99	102.62
486.209	101.62
486.427	94.62
486.645	107.62
486.863	116.62
487.081	94.62
487.299	97.62
487.517	93.62
487.735	95.62
487.953	91.62
488.171	73.62
488.389	94.62
488.607	109.62
488.825	80.62
489.043	91.62
489.261	75.62
489.479	97.62
489.696	89.62
489.914	93.62
490.132	85.62
490.35	90.62
490.568	81.62
490.786	80.62
491.003	82.62
491.221	99.62
491.439	90.62
491.657	114.62
491.874	89.62
492.092	81.62
492.31	87.62
492.527	79.62
492.745	106.62
492.963	92.62
493.18	83.62
493.398	82.62
493.615	95.62
493.833	97.62
494.05	99.62
494.268	93.62
494.485	84.62
494.703	76.62
494.92	88.62
495.138	98.62
495.355	98.62
495.573	96.62
495.79	93.62
496.008	94.62
496.225	96.62
496.442	87.62
496.66	94.62
496.877	104.62
497.094	91.62
497.312	88.62
497.529	97.62
497.746	86.62
497.963	79.62
498.181	81.62
498.398	82.62
498.615	89.62
498.832	101.62
499.049	89.62
499.267	83.62
499.484	81.62
499.701	77.62
499.918	85.62
500.135	93.62
500.352	96.62
500.569	94.62
500.786	108.62
501.003	82.62
501.22	93.62
501.437	100.62
501.654	100.62
501.871	100.62
502.088	90.62
502.305	97.62
502.522	91.62
502.739	94.62
502.956	81.62
503.172	84.62
503.389	82.62
503.606	105.62
503.823	89.62
504.04	86.62
504.256	92.62
504.473	84.62
504.69	99.62
504.907	87.62
505.123	95.62
505.34	88.62
505.557	106.62
505.773	102.62
505.99	91.62
506.207	92.62
506.423	95.62
506.64	90.62
506.856	94.62
507.073	76.62
507.289	86.62
507.506	100.62
507.722	97.62
507.939	84.62
508.155	82.62
508.372	89.62
508.588	90.62
508.805	102.62
509.021	103.62
509.238	95.62
509.454	98.62
509.67	94.62
509.887	114.62
510.103	116.62
510.319	165.62
510.536	549.62
510.752	1627.62
510.968	477.62
511.184	125.62
511.401	93.62
511.617	113.62
511.833	92.62
512.049	86.62
512.265	92.62
512.481	89.62
512.698	96.62
512.914	91.62
513.13	97.62
513.346	85.62
513.562	93.62
513.778	89.62
513.994	98.62
514.21	100.62
514.426	117.62
514.642	120.62
514.858	132.62
515.074	130.62
515.29	324.62
515.506	974.62
515.721	390.62
515.937	137.62
516.153	106.62
