Data from Uncirc_2009_H10_HRD10591_00048.txt Node
Date: Wed Jan 03 10:12:11 EST 2024
User: Yrep
Spectrometer: HR+D1059
Trigger mode: 1
Integration Time (sec): 1.000000E-1
Scans to average: 1
Electric dark correction enabled: true
Nonlinearity correction enabled: false
Boxcar width: 0
XAxis mode: Wavelengths
Number of Pixels in Spectrum: 2048
>>>>>Begin Spectral Data<<<<<
223.165	-13.19
223.4	-13.19
223.635	-13.19
223.869	-17.19
224.104	-6.19
224.338	-22.19
224.573	-17.19
224.808	-20.19
225.042	-0.19
225.277	6.81
225.511	-2.19
225.746	-22.19
225.98	5.81
226.215	13.81
226.449	17.81
226.683	18.81
226.918	19.81
227.152	37.81
227.387	26.81
227.621	41.81
227.856	56.81
228.09	39.81
228.324	50.81
228.559	40.81
228.793	60.81
229.027	79.81
229.262	68.81
229.496	59.81
229.73	86.81
229.964	94.81
230.199	82.81
230.433	73.81
230.667	83.81
230.901	80.81
231.136	66.81
231.37	74.81
231.604	73.81
231.838	82.81
232.072	74.81
232.306	94.81
232.541	75.81
232.775	67.81
233.009	75.81
233.243	76.81
233.477	69.81
233.711	77.81
233.945	90.81
234.179	77.81
234.413	88.81
234.647	65.81
234.881	75.81
235.115	65.81
235.349	81.81
235.583	73.81
235.817	77.81
236.051	75.81
236.285	82.81
236.519	75.81
236.753	77.81
236.987	81.81
237.221	85.81
237.455	85.81
237.689	73.81
237.922	64.81
238.156	77.81
238.39	71.81
238.624	73.81
238.858	70.81
239.091	89.81
239.325	72.81
239.559	81.81
239.793	76.81
240.027	77.81
240.26	71.81
240.494	63.81
240.728	73.81
240.961	78.81
241.195	71.81
241.429	62.81
241.662	97.81
241.896	73.81
242.13	59.81
242.363	72.81
242.597	87.81
242.83	73.81
243.064	81.81
243.298	82.81
243.531	88.81
243.765	86.81
243.998	80.81
244.232	83.81
244.465	86.81
244.699	90.81
244.932	78.81
245.166	93.81
245.399	67.81
245.633	65.81
245.866	75.81
246.099	72.81
246.333	73.81
246.566	90.81
246.8	95.81
247.033	72.81
247.266	93.81
247.5	75.81
247.733	76.81
247.966	81.81
248.2	91.81
248.433	73.81
248.666	76.81
248.899	83.81
249.133	78.81
249.366	92.81
249.599	99.81
249.832	69.81
250.066	74.81
250.299	101.81
250.532	88.81
250.765	72.81
250.998	82.81
251.231	88.81
251.465	74.81
251.698	74.81
251.931	66.81
252.164	82.81
252.397	78.81
252.63	90.81
252.863	72.81
253.096	82.81
253.329	75.81
253.562	70.81
253.795	85.81
254.028	78.81
254.261	84.81
254.494	101.81
254.727	82.81
254.96	77.81
255.193	68.81
255.426	86.81
255.659	67.81
255.892	77.81
256.124	75.81
256.357	85.81
256.59	88.81
256.823	78.81
257.056	79.81
257.289	88.81
257.521	82.81
257.754	65.81
257.987	82.81
258.22	81.81
258.452	73.81
258.685	94.81
258.918	72.81
259.151	77.81
259.383	91.81
259.616	63.81
259.849	84.81
260.081	82.81
260.314	74.81
260.547	83.81
260.779	98.81
261.012	82.81
261.244	77.81
261.477	89.81
261.71	97.81
261.942	102.81
262.175	90.81
262.407	89.81
262.64	80.81
262.872	93.81
263.105	79.81
263.337	81.81
263.57	83.81
263.802	96.81
264.035	83.81
264.267	77.81
264.499	83.81
264.732	75.81
264.964	89.81
265.197	91.81
265.429	77.81
265.661	71.81
265.894	81.81
266.126	82.81
266.358	66.81
266.591	96.81
266.823	75.81
267.055	78.81
267.287	93.81
267.52	72.81
267.752	91.81
267.984	66.81
268.216	89.81
268.448	78.81
268.681	75.81
268.913	87.81
269.145	97.81
269.377	81.81
269.609	87.81
269.841	87.81
270.073	78.81
270.306	85.81
270.538	82.81
270.77	90.81
271.002	97.81
271.234	95.81
271.466	67.81
271.698	71.81
271.93	90.81
272.162	86.81
272.394	82.81
272.626	82.81
272.858	75.81
273.09	89.81
273.322	70.81
273.553	81.81
273.785	94.81
274.017	91.81
274.249	75.81
274.481	103.81
274.713	98.81
274.945	76.81
275.176	81.81
275.408	64.81
275.64	80.81
275.872	73.81
276.104	92.81
276.335	103.81
276.567	99.81
276.799	102.81
277.031	83.81
277.262	92.81
277.494	88.81
277.726	89.81
277.957	83.81
278.189	83.81
278.421	98.81
278.652	81.81
278.884	80.81
279.115	89.81
279.347	84.81
279.579	96.81
279.81	83.81
280.042	73.81
280.273	88.81
280.505	91.81
280.736	90.81
280.968	87.81
281.199	82.81
281.431	76.81
281.662	71.81
281.894	90.81
282.125	98.81
282.356	95.81
282.588	124.81
282.819	104.81
283.051	86.81
283.282	94.81
283.513	94.81
283.745	100.81
283.976	99.81
284.207	105.81
284.439	86.81
284.67	93.81
284.901	89.81
285.132	74.81
285.364	86.81
285.595	89.81
285.826	85.81
286.057	97.81
286.288	90.81
286.52	101.81
286.751	90.81
286.982	78.81
287.213	98.81
287.444	96.81
287.675	83.81
287.906	94.81
288.138	107.81
288.369	83.81
288.6	97.81
288.831	98.81
289.062	94.81
289.293	92.81
289.524	80.81
289.755	74.81
289.986	76.81
290.217	85.81
290.448	96.81
290.679	92.81
290.91	100.81
291.141	81.81
291.371	90.81
291.602	83.81
291.833	85.81
292.064	75.81
292.295	97.81
292.526	85.81
292.757	76.81
292.987	91.81
293.218	90.81
293.449	88.81
293.68	91.81
293.91	93.81
294.141	103.81
294.372	93.81
294.603	89.81
294.833	95.81
295.064	96.81
295.295	89.81
295.525	90.81
295.756	109.81
295.987	94.81
296.217	112.81
296.448	119.81
296.679	98.81
296.909	89.81
297.14	94.81
297.37	77.81
297.601	76.81
297.831	81.81
298.062	89.81
298.292	94.81
298.523	97.81
298.753	86.81
298.984	97.81
299.214	84.81
299.445	86.81
299.675	92.81
299.905	100.81
300.136	80.81
300.366	93.81
300.597	92.81
300.827	99.81
301.057	96.81
301.288	104.81
301.518	78.81
301.748	90.81
301.979	90.81
302.209	101.81
302.439	85.81
302.669	95.81
302.9	96.81
303.13	99.81
303.36	117.81
303.59	115.81
303.82	111.81
304.051	96.81
304.281	89.81
304.511	85.81
304.741	91.81
304.971	92.81
305.201	91.81
305.431	77.81
305.661	95.81
305.891	96.81
306.121	88.81
306.352	95.81
306.582	96.81
306.812	96.81
307.042	84.81
307.272	89.81
307.502	92.81
307.731	101.81
307.961	94.81
308.191	88.81
308.421	88.81
308.651	96.81
308.881	94.81
309.111	90.81
309.341	97.81
309.571	96.81
309.8	98.81
310.03	94.81
310.26	94.81
310.49	93.81
310.72	98.81
310.949	91.81
311.179	95.81
311.409	94.81
311.639	102.81
311.868	97.81
312.098	87.81
312.328	97.81
312.557	94.81
312.787	96.81
313.017	93.81
313.246	86.81
313.476	85.81
313.706	90.81
313.935	99.81
314.165	105.81
314.394	107.81
314.624	93.81
314.853	93.81
315.083	97.81
315.312	90.81
315.542	84.81
315.771	88.81
316.001	99.81
316.23	90.81
316.46	84.81
316.689	82.81
316.919	89.81
317.148	111.81
317.377	119.81
317.607	122.81
317.836	112.81
318.065	82.81
318.295	87.81
318.524	77.81
318.753	83.81
318.983	95.81
319.212	88.81
319.441	94.81
319.67	101.81
319.9	86.81
320.129	89.81
320.358	76.81
320.587	103.81
320.816	98.81
321.046	117.81
321.275	108.81
321.504	102.81
321.733	101.81
321.962	93.81
322.191	93.81
322.42	96.81
322.649	104.81
322.878	103.81
323.108	123.81
323.337	121.81
323.566	138.81
323.795	127.81
324.024	188.81
324.253	356.81
324.482	709.81
324.71	1401.81
324.939	1831.81
325.168	671.81
325.397	220.81
325.626	141.81
325.855	110.81
326.084	134.81
326.313	162.81
326.542	147.81
326.77	211.81
326.999	446.81
327.228	838.81
327.457	1448.81
327.686	1167.81
327.914	322.81
328.143	166.81
328.372	141.81
328.6	130.81
328.829	110.81
329.058	117.81
329.287	109.81
329.515	99.81
329.744	110.81
329.972	87.81
330.201	111.81
330.43	109.81
330.658	112.81
330.887	103.81
331.115	125.81
331.344	104.81
331.572	100.81
331.801	92.81
332.03	106.81
332.258	100.81
332.486	106.81
332.715	96.81
332.943	89.81
333.172	98.81
333.4	93.81
333.629	110.81
333.857	107.81
334.085	121.81
334.314	117.81
334.542	125.81
334.771	119.81
334.999	83.81
335.227	82.81
335.455	96.81
335.684	88.81
335.912	105.81
336.14	99.81
336.369	88.81
336.597	87.81
336.825	83.81
337.053	96.81
337.281	98.81
337.51	101.81
337.738	95.81
337.966	98.81
338.194	103.81
338.422	99.81
338.65	101.81
338.878	82.81
339.106	88.81
339.334	91.81
339.562	82.81
339.79	81.81
340.018	100.81
340.246	85.81
340.474	91.81
340.702	95.81
340.93	76.81
341.158	90.81
341.386	93.81
341.614	106.81
341.842	81.81
342.07	81.81
342.298	100.81
342.526	85.81
342.754	90.81
342.981	101.81
343.209	91.81
343.437	94.81
343.665	92.81
343.893	88.81
344.12	104.81
344.348	101.81
344.576	99.81
344.804	110.81
345.031	93.81
345.259	104.81
345.487	100.81
345.714	88.81
345.942	104.81
346.17	93.81
346.397	79.81
346.625	74.81
346.853	100.81
347.08	86.81
347.308	99.81
347.535	118.81
347.763	98.81
347.99	105.81
348.218	98.81
348.445	103.81
348.673	101.81
348.9	75.81
349.128	95.81
349.355	87.81
349.583	102.81
349.81	109.81
350.037	91.81
350.265	82.81
350.492	90.81
350.72	92.81
350.947	91.81
351.174	110.81
351.402	106.81
351.629	99.81
351.856	90.81
352.083	98.81
352.311	114.81
352.538	108.81
352.765	113.81
352.992	115.81
353.22	109.81
353.447	112.81
353.674	107.81
353.901	100.81
354.128	101.81
354.355	98.81
354.583	85.81
354.81	102.81
355.037	99.81
355.264	88.81
355.491	105.81
355.718	98.81
355.945	89.81
356.172	90.81
356.399	90.81
356.626	92.81
356.853	95.81
357.08	92.81
357.307	86.81
357.534	99.81
357.761	94.81
357.988	89.81
358.215	95.81
358.441	100.81
358.668	83.81
358.895	101.81
359.122	97.81
359.349	83.81
359.576	91.81
359.802	99.81
360.029	112.81
360.256	97.81
360.483	98.81
360.709	90.81
360.936	86.81
361.163	93.81
361.39	88.81
361.616	90.81
361.843	90.81
362.07	83.81
362.296	101.81
362.523	82.81
362.749	80.81
362.976	95.81
363.203	86.81
363.429	92.81
363.656	88.81
363.882	82.81
364.109	89.81
364.335	80.81
364.562	96.81
364.788	103.81
365.015	103.81
365.241	99.81
365.468	93.81
365.694	83.81
365.92	87.81
366.147	91.81
366.373	102.81
366.599	100.81
366.826	82.81
367.052	77.81
367.278	96.81
367.505	89.81
367.731	94.81
367.957	94.81
368.184	86.81
368.41	100.81
368.636	106.81
368.862	110.81
369.089	105.81
369.315	108.81
369.541	97.81
369.767	87.81
369.993	91.81
370.219	78.81
370.445	93.81
370.672	80.81
370.898	96.81
371.124	90.81
371.35	95.81
371.576	90.81
371.802	88.81
372.028	102.81
372.254	77.81
372.48	87.81
372.706	78.81
372.932	91.81
373.158	87.81
373.384	102.81
373.61	96.81
373.835	99.81
374.061	93.81
374.287	83.81
374.513	92.81
374.739	89.81
374.965	96.81
375.191	85.81
375.416	91.81
375.642	91.81
375.868	109.81
376.094	89.81
376.319	94.81
376.545	81.81
376.771	88.81
376.997	85.81
377.222	92.81
377.448	93.81
377.674	93.81
377.899	89.81
378.125	97.81
378.35	102.81
378.576	96.81
378.802	91.81
379.027	73.81
379.253	109.81
379.478	104.81
379.704	89.81
379.929	102.81
380.155	100.81
380.38	106.81
380.606	88.81
380.831	88.81
381.057	99.81
381.282	102.81
381.507	101.81
381.733	101.81
381.958	87.81
382.184	103.81
382.409	98.81
382.634	99.81
382.86	98.81
383.085	113.81
383.31	97.81
383.535	94.81
383.761	106.81
383.986	99.81
384.211	94.81
384.436	103.81
384.662	101.81
384.887	103.81
385.112	101.81
385.337	106.81
385.562	94.81
385.787	105.81
386.013	124.81
386.238	120.81
386.463	88.81
386.688	109.81
386.913	102.81
387.138	102.81
387.363	89.81
387.588	96.81
387.813	108.81
388.038	106.81
388.263	98.81
388.488	107.81
388.713	109.81
388.938	106.81
389.163	93.81
389.387	98.81
389.612	104.81
389.837	93.81
390.062	103.81
390.287	99.81
390.512	80.81
390.736	87.81
390.961	94.81
391.186	91.81
391.411	95.81
391.636	93.81
391.86	98.81
392.085	97.81
392.31	93.81
392.534	87.81
392.759	100.81
392.984	87.81
393.208	93.81
393.433	101.81
393.658	77.81
393.882	83.81
394.107	90.81
394.331	85.81
394.556	85.81
394.78	83.81
395.005	99.81
395.229	88.81
395.454	93.81
395.678	83.81
395.903	92.81
396.127	101.81
396.352	83.81
396.576	93.81
396.801	88.81
397.025	76.81
397.249	99.81
397.474	77.81
397.698	101.81
397.922	84.81
398.147	86.81
398.371	90.81
398.595	100.81
398.82	80.81
399.044	99.81
399.268	81.81
399.492	84.81
399.717	88.81
399.941	99.81
400.165	115.81
400.389	99.81
400.613	103.81
400.837	81.81
401.062	81.81
401.286	72.81
401.51	95.81
401.734	85.81
401.958	110.81
402.182	117.81
402.406	143.81
402.63	113.81
402.854	88.81
403.078	84.81
403.302	91.81
403.526	102.81
403.75	87.81
403.974	85.81
404.198	84.81
404.422	89.81
404.645	105.81
404.869	96.81
405.093	86.81
405.317	100.81
405.541	105.81
405.765	93.81
405.988	119.81
406.212	153.81
406.436	188.81
406.66	134.81
406.883	106.81
407.107	85.81
407.331	95.81
407.555	98.81
407.778	89.81
408.002	90.81
408.226	88.81
408.449	74.81
408.673	92.81
408.896	85.81
409.12	98.81
409.344	94.81
409.567	90.81
409.791	87.81
410.014	94.81
410.238	100.81
410.461	98.81
410.685	80.81
410.908	91.81
411.132	103.81
411.355	97.81
411.578	96.81
411.802	104.81
412.025	94.81
412.249	86.81
412.472	89.81
412.695	77.81
412.919	100.81
413.142	90.81
413.365	87.81
413.589	102.81
413.812	91.81
414.035	92.81
414.258	92.81
414.482	101.81
414.705	83.81
414.928	98.81
415.151	90.81
415.374	94.81
415.597	81.81
415.821	92.81
416.044	86.81
416.267	87.81
416.49	89.81
416.713	92.81
416.936	97.81
417.159	86.81
417.382	86.81
417.605	88.81
417.828	89.81
418.051	97.81
418.274	98.81
418.497	87.81
418.72	81.81
418.943	83.81
419.166	90.81
419.389	98.81
419.611	72.81
419.834	90.81
420.057	88.81
420.28	98.81
420.503	81.81
420.726	90.81
420.948	99.81
421.171	90.81
421.394	84.81
421.617	93.81
421.839	88.81
422.062	82.81
422.285	78.81
422.507	72.81
422.73	94.81
422.953	90.81
423.175	93.81
423.398	94.81
423.621	94.81
423.843	69.81
424.066	81.81
424.288	92.81
424.511	95.81
424.733	96.81
424.956	97.81
425.178	89.81
425.401	100.81
425.623	95.81
425.846	88.81
426.068	93.81
426.291	92.81
426.513	96.81
426.735	96.81
426.958	94.81
427.18	108.81
427.402	134.81
427.625	161.81
427.847	119.81
428.069	124.81
428.292	92.81
428.514	95.81
428.736	83.81
428.958	94.81
429.181	77.81
429.403	93.81
429.625	92.81
429.847	97.81
430.069	102.81
430.292	97.81
430.514	81.81
430.736	86.81
430.958	90.81
431.18	83.81
431.402	79.81
431.624	83.81
431.846	77.81
432.068	90.81
432.29	89.81
432.512	83.81
432.734	88.81
432.956	85.81
433.178	95.81
433.4	102.81
433.622	90.81
433.844	88.81
434.066	98.81
434.287	83.81
434.509	83.81
434.731	91.81
434.953	96.81
435.175	99.81
435.397	78.81
435.618	78.81
435.84	99.81
436.062	119.81
436.284	103.81
436.505	89.81
436.727	109.81
436.949	99.81
437.17	94.81
437.392	77.81
437.614	94.81
437.835	93.81
438.057	103.81
438.278	107.81
438.5	93.81
438.721	119.81
438.943	106.81
439.165	92.81
439.386	89.81
439.608	76.81
439.829	89.81
440.05	117.81
440.272	136.81
440.493	101.81
440.715	85.81
440.936	96.81
441.158	97.81
441.379	91.81
441.6	96.81
441.822	98.81
442.043	101.81
442.264	97.81
442.486	103.81
442.707	94.81
442.928	102.81
443.149	120.81
443.371	108.81
443.592	105.81
443.813	107.81
444.034	103.81
444.255	88.81
444.476	89.81
444.698	93.81
444.919	86.81
445.14	133.81
445.361	112.81
445.582	110.81
445.803	113.81
446.024	140.81
446.245	134.81
446.466	101.81
446.687	85.81
446.908	102.81
447.129	93.81
447.35	80.81
447.571	94.81
447.792	81.81
448.013	87.81
448.234	103.81
448.455	102.81
448.675	98.81
448.896	98.81
449.117	102.81
449.338	99.81
449.559	121.81
449.779	131.81
450	101.81
450.221	96.81
450.442	82.81
450.662	92.81
450.883	90.81
451.104	109.81
451.324	89.81
451.545	88.81
451.766	91.81
451.986	90.81
452.207	87.81
452.428	88.81
452.648	95.81
452.869	101.81
453.089	99.81
453.31	97.81
453.53	89.81
453.751	92.81
453.971	103.81
454.192	98.81
454.412	95.81
454.633	88.81
454.853	96.81
455.073	96.81
455.294	91.81
455.514	90.81
455.734	84.81
455.955	91.81
456.175	88.81
456.395	93.81
456.616	92.81
456.836	82.81
457.056	92.81
457.276	83.81
457.497	80.81
457.717	75.81
457.937	91.81
458.157	83.81
458.377	88.81
458.598	99.81
458.818	121.81
459.038	122.81
459.258	96.81
459.478	90.81
459.698	91.81
459.918	80.81
460.138	95.81
460.358	66.81
460.578	93.81
460.798	77.81
461.018	89.81
461.238	94.81
461.458	86.81
461.678	76.81
461.898	89.81
462.118	80.81
462.338	75.81
462.558	89.81
462.777	96.81
462.997	73.81
463.217	77.81
463.437	81.81
463.657	82.81
463.876	81.81
464.096	95.81
464.316	71.81
464.536	97.81
464.755	83.81
464.975	94.81
465.195	143.81
465.414	138.81
465.634	91.81
465.854	87.81
466.073	77.81
466.293	81.81
466.512	84.81
466.732	82.81
466.951	86.81
467.171	94.81
467.391	94.81
467.61	88.81
467.829	88.81
468.049	79.81
468.268	91.81
468.488	85.81
468.707	98.81
468.927	68.81
469.146	88.81
469.365	82.81
469.585	97.81
469.804	89.81
470.023	91.81
470.243	72.81
470.462	98.81
470.681	98.81
470.901	99.81
471.12	101.81
471.339	105.81
471.558	97.81
471.777	83.81
471.997	91.81
472.216	102.81
472.435	114.81
472.654	101.81
472.873	92.81
473.092	86.81
473.311	83.81
473.53	87.81
473.749	89.81
473.968	91.81
474.187	83.81
474.406	91.81
474.625	87.81
474.844	79.81
475.063	79.81
475.282	95.81
475.501	84.81
475.72	80.81
475.939	101.81
476.158	91.81
476.377	93.81
476.596	89.81
476.814	84.81
477.033	96.81
477.252	92.81
477.471	93.81
477.69	90.81
477.908	88.81
478.127	91.81
478.346	87.81
478.564	83.81
478.783	101.81
479.002	98.81
479.22	98.81
479.439	103.81
479.658	92.81
479.876	89.81
480.095	78.81
480.313	93.81
480.532	95.81
480.751	104.81
480.969	101.81
481.188	154.81
481.406	142.81
481.624	97.81
481.843	82.81
482.061	89.81
482.28	88.81
482.498	100.81
482.717	71.81
482.935	94.81
483.153	73.81
483.372	85.81
483.59	86.81
483.808	83.81
484.027	98.81
484.245	96.81
484.463	95.81
484.681	100.81
484.9	107.81
485.118	92.81
485.336	84.81
485.554	108.81
485.772	92.81
485.99	101.81
486.209	115.81
486.427	101.81
486.645	99.81
486.863	109.81
487.081	90.81
487.299	101.81
487.517	106.81
487.735	85.81
487.953	83.81
488.171	96.81
488.389	77.81
488.607	95.81
488.825	86.81
489.043	87.81
489.261	74.81
489.479	88.81
489.696	94.81
489.914	87.81
490.132	99.81
490.35	86.81
490.568	100.81
490.786	83.81
491.003	86.81
491.221	99.81
491.439	88.81
491.657	93.81
491.874	97.81
492.092	90.81
492.31	87.81
492.527	70.81
492.745	91.81
492.963	83.81
493.18	89.81
493.398	96.81
493.615	90.81
493.833	99.81
494.05	87.81
494.268	91.81
494.485	93.81
494.703	87.81
494.92	98.81
495.138	91.81
495.355	93.81
495.573	78.81
495.79	79.81
496.008	97.81
496.225	90.81
496.442	84.81
496.66	98.81
496.877	94.81
497.094	95.81
497.312	91.81
497.529	102.81
497.746	80.81
497.963	91.81
498.181	93.81
498.398	92.81
498.615	106.81
498.832	97.81
499.049	89.81
499.267	93.81
499.484	88.81
499.701	91.81
499.918	83.81
500.135	86.81
500.352	78.81
500.569	95.81
500.786	102.81
501.003	96.81
501.22	88.81
501.437	78.81
501.654	103.81
501.871	93.81
502.088	83.81
502.305	91.81
502.522	77.81
502.739	106.81
502.956	101.81
503.172	105.81
503.389	102.81
503.606	104.81
503.823	102.81
504.04	93.81
504.256	102.81
504.473	97.81
504.69	98.81
504.907	87.81
505.123	88.81
505.34	95.81
505.557	90.81
505.773	82.81
505.99	84.81
506.207	90.81
506.423	92.81
506.64	88.81
506.856	89.81
507.073	101.81
507.289	88.81
507.506	96.81
507.722	101.81
507.939	110.81
508.155	86.81
508.372	80.81
508.588	88.81
508.805	97.81
509.021	102.81
509.238	93.81
509.454	98.81
509.67	98.81
509.887	99.81
510.103	119.81
510.319	177.81
510.536	583.81
510.752	1738.81
510.968	528.81
511.184	141.81
511.401	106.81
511.617	100.81
511.833	99.81
512.049	93.81
512.265	107.81
512.481	85.81
512.698	101.81
512.914	90.81
513.13	95.81
513.346	90.81
513.562	93.81
513.778	91.81
513.994	95.81
514.21	99.81
514.426	111.81
514.642	117.81
514.858	110.81
515.074	145.81
515.29	343.81
515.506	1062.81
515.721	410.81
515.937	156.81
