Data from Uncirc_2009_H10_HRD10591_00011.txt Node
Date: Wed Jan 03 10:12:04 EST 2024
User: Yrep
Spectrometer: HR+D1059
Trigger mode: 1
Integration Time (sec): 1.000000E-1
Scans to average: 1
Electric dark correction enabled: true
Nonlinearity correction enabled: false
Boxcar width: 0
XAxis mode: Wavelengths
Number of Pixels in Spectrum: 2048
>>>>>Begin Spectral Data<<<<<
223.165	-17.94
223.4	-17.94
223.635	-17.94
223.869	-11.94
224.104	-17.94
224.338	-14.94
224.573	-14.94
224.808	-10.94
225.042	-7.94
225.277	-11.94
225.511	7.06
225.746	14.06
225.98	1.06
226.215	13.06
226.449	16.06
226.683	6.06
226.918	14.06
227.152	37.06
227.387	37.06
227.621	47.06
227.856	45.06
228.09	56.06
228.324	53.06
228.559	63.06
228.793	47.06
229.027	53.06
229.262	77.06
229.496	79.06
229.73	78.06
229.964	85.06
230.199	88.06
230.433	79.06
230.667	73.06
230.901	71.06
231.136	74.06
231.37	86.06
231.604	75.06
231.838	77.06
232.072	76.06
232.306	80.06
232.541	88.06
232.775	90.06
233.009	91.06
233.243	79.06
233.477	71.06
233.711	78.06
233.945	103.06
234.179	76.06
234.413	77.06
234.647	72.06
234.881	82.06
235.115	71.06
235.349	77.06
235.583	76.06
235.817	74.06
236.051	72.06
236.285	86.06
236.519	73.06
236.753	75.06
236.987	81.06
237.221	75.06
237.455	78.06
237.689	77.06
237.922	77.06
238.156	80.06
238.39	74.06
238.624	73.06
238.858	65.06
239.091	77.06
239.325	85.06
239.559	86.06
239.793	82.06
240.027	82.06
240.26	74.06
240.494	64.06
240.728	70.06
240.961	69.06
241.195	80.06
241.429	75.06
241.662	82.06
241.896	86.06
242.13	80.06
242.363	80.06
242.597	70.06
242.83	81.06
243.064	71.06
243.298	78.06
243.531	66.06
243.765	67.06
243.998	74.06
244.232	77.06
244.465	74.06
244.699	74.06
244.932	81.06
245.166	69.06
245.399	82.06
245.633	80.06
245.866	89.06
246.099	65.06
246.333	67.06
246.566	76.06
246.8	93.06
247.033	77.06
247.266	71.06
247.5	85.06
247.733	74.06
247.966	85.06
248.2	74.06
248.433	89.06
248.666	92.06
248.899	80.06
249.133	78.06
249.366	94.06
249.599	86.06
249.832	88.06
250.066	78.06
250.299	86.06
250.532	68.06
250.765	91.06
250.998	80.06
251.231	62.06
251.465	70.06
251.698	91.06
251.931	82.06
252.164	69.06
252.397	88.06
252.63	79.06
252.863	75.06
253.096	72.06
253.329	77.06
253.562	83.06
253.795	84.06
254.028	85.06
254.261	86.06
254.494	84.06
254.727	97.06
254.96	90.06
255.193	80.06
255.426	74.06
255.659	91.06
255.892	103.06
256.124	97.06
256.357	77.06
256.59	73.06
256.823	72.06
257.056	78.06
257.289	84.06
257.521	66.06
257.754	71.06
257.987	68.06
258.22	68.06
258.452	78.06
258.685	81.06
258.918	94.06
259.151	71.06
259.383	96.06
259.616	68.06
259.849	86.06
260.081	88.06
260.314	71.06
260.547	78.06
260.779	75.06
261.012	89.06
261.244	83.06
261.477	81.06
261.71	92.06
261.942	101.06
262.175	97.06
262.407	80.06
262.64	84.06
262.872	77.06
263.105	71.06
263.337	74.06
263.57	85.06
263.802	92.06
264.035	82.06
264.267	96.06
264.499	74.06
264.732	79.06
264.964	87.06
265.197	87.06
265.429	86.06
265.661	88.06
265.894	71.06
266.126	71.06
266.358	85.06
266.591	72.06
266.823	79.06
267.055	85.06
267.287	78.06
267.52	92.06
267.752	77.06
267.984	73.06
268.216	94.06
268.448	77.06
268.681	83.06
268.913	92.06
269.145	65.06
269.377	80.06
269.609	89.06
269.841	89.06
270.073	79.06
270.306	85.06
270.538	73.06
270.77	82.06
271.002	86.06
271.234	86.06
271.466	85.06
271.698	97.06
271.93	89.06
272.162	91.06
272.394	79.06
272.626	78.06
272.858	82.06
273.09	80.06
273.322	87.06
273.553	82.06
273.785	79.06
274.017	73.06
274.249	84.06
274.481	91.06
274.713	85.06
274.945	82.06
275.176	72.06
275.408	88.06
275.64	85.06
275.872	94.06
276.104	88.06
276.335	95.06
276.567	80.06
276.799	88.06
277.031	93.06
277.262	81.06
277.494	95.06
277.726	90.06
277.957	80.06
278.189	90.06
278.421	91.06
278.652	74.06
278.884	101.06
279.115	71.06
279.347	98.06
279.579	96.06
279.81	93.06
280.042	82.06
280.273	79.06
280.505	77.06
280.736	86.06
280.968	86.06
281.199	87.06
281.431	83.06
281.662	93.06
281.894	91.06
282.125	85.06
282.356	101.06
282.588	117.06
282.819	104.06
283.051	105.06
283.282	86.06
283.513	93.06
283.745	103.06
283.976	100.06
284.207	97.06
284.439	93.06
284.67	84.06
284.901	71.06
285.132	89.06
285.364	80.06
285.595	102.06
285.826	94.06
286.057	84.06
286.288	99.06
286.52	104.06
286.751	83.06
286.982	92.06
287.213	89.06
287.444	97.06
287.675	89.06
287.906	89.06
288.138	92.06
288.369	86.06
288.6	82.06
288.831	78.06
289.062	84.06
289.293	77.06
289.524	96.06
289.755	81.06
289.986	81.06
290.217	84.06
290.448	77.06
290.679	76.06
290.91	89.06
291.141	92.06
291.371	96.06
291.602	96.06
291.833	88.06
292.064	91.06
292.295	86.06
292.526	91.06
292.757	89.06
292.987	87.06
293.218	81.06
293.449	90.06
293.68	98.06
293.91	84.06
294.141	91.06
294.372	89.06
294.603	72.06
294.833	85.06
295.064	88.06
295.295	97.06
295.525	81.06
295.756	111.06
295.987	103.06
296.217	116.06
296.448	112.06
296.679	85.06
296.909	94.06
297.14	80.06
297.37	89.06
297.601	92.06
297.831	95.06
298.062	70.06
298.292	93.06
298.523	90.06
298.753	80.06
298.984	86.06
299.214	86.06
299.445	99.06
299.675	92.06
299.905	90.06
300.136	93.06
300.366	84.06
300.597	99.06
300.827	89.06
301.057	106.06
301.288	97.06
301.518	87.06
301.748	75.06
301.979	100.06
302.209	96.06
302.439	97.06
302.669	91.06
302.9	91.06
303.13	96.06
303.36	102.06
303.59	115.06
303.82	90.06
304.051	91.06
304.281	84.06
304.511	94.06
304.741	93.06
304.971	86.06
305.201	95.06
305.431	89.06
305.661	80.06
305.891	87.06
306.121	88.06
306.352	96.06
306.582	99.06
306.812	81.06
307.042	97.06
307.272	101.06
307.502	112.06
307.731	96.06
307.961	80.06
308.191	91.06
308.421	92.06
308.651	90.06
308.881	82.06
309.111	89.06
309.341	102.06
309.571	89.06
309.8	100.06
310.03	84.06
310.26	81.06
310.49	93.06
310.72	90.06
310.949	91.06
311.179	98.06
311.409	107.06
311.639	95.06
311.868	92.06
312.098	80.06
312.328	93.06
312.557	95.06
312.787	98.06
313.017	85.06
313.246	95.06
313.476	98.06
313.706	81.06
313.935	90.06
314.165	91.06
314.394	88.06
314.624	87.06
314.853	94.06
315.083	100.06
315.312	87.06
315.542	101.06
315.771	89.06
316.001	88.06
316.23	79.06
316.46	85.06
316.689	83.06
316.919	88.06
317.148	95.06
317.377	92.06
317.607	123.06
317.836	103.06
318.065	84.06
318.295	91.06
318.524	77.06
318.753	94.06
318.983	95.06
319.212	98.06
319.441	112.06
319.67	107.06
319.9	93.06
320.129	84.06
320.358	80.06
320.587	98.06
320.816	95.06
321.046	96.06
321.275	100.06
321.504	88.06
321.733	86.06
321.962	102.06
322.191	98.06
322.42	96.06
322.649	104.06
322.878	93.06
323.108	102.06
323.337	123.06
323.566	125.06
323.795	127.06
324.024	179.06
324.253	331.06
324.482	725.06
324.71	1444.06
324.939	1938.06
325.168	717.06
325.397	224.06
325.626	140.06
325.855	124.06
326.084	141.06
326.313	155.06
326.542	154.06
326.77	221.06
326.999	421.06
327.228	828.06
327.457	1488.06
327.686	1173.06
327.914	332.06
328.143	168.06
328.372	132.06
328.6	110.06
328.829	104.06
329.058	121.06
329.287	116.06
329.515	100.06
329.744	109.06
329.972	96.06
330.201	124.06
330.43	121.06
330.658	106.06
330.887	113.06
331.115	102.06
331.344	103.06
331.572	103.06
331.801	93.06
332.03	96.06
332.258	100.06
332.486	87.06
332.715	100.06
332.943	94.06
333.172	94.06
333.4	80.06
333.629	105.06
333.857	100.06
334.085	116.06
334.314	104.06
334.542	125.06
334.771	114.06
334.999	98.06
335.227	103.06
335.455	90.06
335.684	89.06
335.912	102.06
336.14	110.06
336.369	94.06
336.597	93.06
336.825	98.06
337.053	70.06
337.281	100.06
337.51	95.06
337.738	88.06
337.966	82.06
338.194	106.06
338.422	106.06
338.65	88.06
338.878	89.06
339.106	103.06
339.334	87.06
339.562	81.06
339.79	79.06
340.018	107.06
340.246	84.06
340.474	86.06
340.702	75.06
340.93	94.06
341.158	91.06
341.386	95.06
341.614	94.06
341.842	95.06
342.07	97.06
342.298	87.06
342.526	92.06
342.754	82.06
342.981	99.06
343.209	92.06
343.437	93.06
343.665	79.06
343.893	86.06
344.12	94.06
344.348	91.06
344.576	96.06
344.804	92.06
345.031	104.06
345.259	95.06
345.487	97.06
345.714	93.06
345.942	75.06
346.17	95.06
346.397	83.06
346.625	101.06
346.853	95.06
347.08	77.06
347.308	94.06
347.535	93.06
347.763	90.06
347.99	107.06
348.218	94.06
348.445	104.06
348.673	92.06
348.9	81.06
349.128	91.06
349.355	90.06
349.583	83.06
349.81	74.06
350.037	88.06
350.265	93.06
350.492	89.06
350.72	98.06
350.947	96.06
351.174	104.06
351.402	123.06
351.629	99.06
351.856	94.06
352.083	97.06
352.311	81.06
352.538	106.06
352.765	114.06
352.992	108.06
353.22	107.06
353.447	103.06
353.674	88.06
353.901	94.06
354.128	92.06
354.355	100.06
354.583	102.06
354.81	123.06
355.037	96.06
355.264	96.06
355.491	98.06
355.718	92.06
355.945	99.06
356.172	90.06
356.399	107.06
356.626	97.06
356.853	103.06
357.08	82.06
357.307	83.06
357.534	84.06
357.761	88.06
357.988	92.06
358.215	93.06
358.441	93.06
358.668	101.06
358.895	91.06
359.122	70.06
359.349	79.06
359.576	90.06
359.802	102.06
360.029	108.06
360.256	98.06
360.483	90.06
360.709	87.06
360.936	93.06
361.163	105.06
361.39	97.06
361.616	87.06
361.843	97.06
362.07	94.06
362.296	91.06
362.523	92.06
362.749	88.06
362.976	84.06
363.203	102.06
363.429	65.06
363.656	77.06
363.882	88.06
364.109	97.06
364.335	95.06
364.562	97.06
364.788	92.06
365.015	93.06
365.241	95.06
365.468	105.06
365.694	116.06
365.92	96.06
366.147	95.06
366.373	86.06
366.599	76.06
366.826	84.06
367.052	78.06
367.278	97.06
367.505	89.06
367.731	86.06
367.957	101.06
368.184	86.06
368.41	81.06
368.636	103.06
368.862	108.06
369.089	105.06
369.315	90.06
369.541	88.06
369.767	85.06
369.993	85.06
370.219	92.06
370.445	88.06
370.672	90.06
370.898	81.06
371.124	106.06
371.35	92.06
371.576	92.06
371.802	82.06
372.028	95.06
372.254	101.06
372.48	95.06
372.706	84.06
372.932	82.06
373.158	75.06
373.384	93.06
373.61	93.06
373.835	87.06
374.061	73.06
374.287	95.06
374.513	93.06
374.739	86.06
374.965	95.06
375.191	81.06
375.416	93.06
375.642	106.06
375.868	103.06
376.094	82.06
376.319	92.06
376.545	83.06
376.771	82.06
376.997	99.06
377.222	81.06
377.448	81.06
377.674	86.06
377.899	91.06
378.125	90.06
378.35	80.06
378.576	86.06
378.802	84.06
379.027	94.06
379.253	88.06
379.478	107.06
379.704	100.06
379.929	108.06
380.155	91.06
380.38	94.06
380.606	105.06
380.831	95.06
381.057	88.06
381.282	108.06
381.507	90.06
381.733	111.06
381.958	107.06
382.184	96.06
382.409	97.06
382.634	127.06
382.86	99.06
383.085	105.06
383.31	112.06
383.535	93.06
383.761	96.06
383.986	114.06
384.211	87.06
384.436	100.06
384.662	101.06
384.887	104.06
385.112	97.06
385.337	116.06
385.562	116.06
385.787	113.06
386.013	124.06
386.238	134.06
386.463	89.06
386.688	124.06
386.913	107.06
387.138	104.06
387.363	94.06
387.588	103.06
387.813	104.06
388.038	117.06
388.263	107.06
388.488	124.06
388.713	82.06
388.938	97.06
389.163	100.06
389.387	100.06
389.612	104.06
389.837	97.06
390.062	97.06
390.287	99.06
390.512	70.06
390.736	83.06
390.961	98.06
391.186	88.06
391.411	103.06
391.636	107.06
391.86	110.06
392.085	100.06
392.31	90.06
392.534	89.06
392.759	101.06
392.984	80.06
393.208	87.06
393.433	82.06
393.658	86.06
393.882	90.06
394.107	86.06
394.331	86.06
394.556	97.06
394.78	85.06
395.005	85.06
395.229	83.06
395.454	90.06
395.678	80.06
395.903	97.06
396.127	81.06
396.352	80.06
396.576	88.06
396.801	91.06
397.025	102.06
397.249	86.06
397.474	74.06
397.698	83.06
397.922	85.06
398.147	77.06
398.371	80.06
398.595	85.06
398.82	85.06
399.044	88.06
399.268	85.06
399.492	86.06
399.717	88.06
399.941	85.06
400.165	85.06
400.389	81.06
400.613	79.06
400.837	91.06
401.062	89.06
401.286	74.06
401.51	104.06
401.734	95.06
401.958	120.06
402.182	106.06
402.406	126.06
402.63	95.06
402.854	92.06
403.078	85.06
403.302	87.06
403.526	84.06
403.75	75.06
403.974	93.06
404.198	89.06
404.422	89.06
404.645	69.06
404.869	98.06
405.093	98.06
405.317	94.06
405.541	111.06
405.765	105.06
405.988	116.06
406.212	135.06
406.436	176.06
406.66	122.06
406.883	101.06
407.107	93.06
407.331	91.06
407.555	96.06
407.778	104.06
408.002	83.06
408.226	87.06
408.449	77.06
408.673	82.06
408.896	78.06
409.12	106.06
409.344	91.06
409.567	81.06
409.791	81.06
410.014	101.06
410.238	95.06
410.461	86.06
410.685	93.06
410.908	96.06
411.132	103.06
411.355	101.06
411.578	77.06
411.802	80.06
412.025	81.06
412.249	82.06
412.472	95.06
412.695	94.06
412.919	98.06
413.142	93.06
413.365	74.06
413.589	100.06
413.812	105.06
414.035	91.06
414.258	90.06
414.482	92.06
414.705	94.06
414.928	98.06
415.151	95.06
415.374	87.06
415.597	96.06
415.821	88.06
416.044	81.06
416.267	80.06
416.49	95.06
416.713	99.06
416.936	85.06
417.159	87.06
417.382	85.06
417.605	89.06
417.828	88.06
418.051	93.06
418.274	103.06
418.497	84.06
418.72	86.06
418.943	85.06
419.166	79.06
419.389	86.06
419.611	95.06
419.834	83.06
420.057	83.06
420.28	96.06
420.503	96.06
420.726	87.06
420.948	86.06
421.171	88.06
421.394	73.06
421.617	85.06
421.839	81.06
422.062	97.06
422.285	89.06
422.507	104.06
422.73	104.06
422.953	91.06
423.175	90.06
423.398	97.06
423.621	84.06
423.843	81.06
424.066	95.06
424.288	83.06
424.511	97.06
424.733	115.06
424.956	96.06
425.178	86.06
425.401	101.06
425.623	90.06
425.846	80.06
426.068	87.06
426.291	98.06
426.513	94.06
426.735	83.06
426.958	81.06
427.18	106.06
427.402	137.06
427.625	129.06
427.847	110.06
428.069	117.06
428.292	77.06
428.514	89.06
428.736	89.06
428.958	91.06
429.181	103.06
429.403	74.06
429.625	94.06
429.847	95.06
430.069	91.06
430.292	89.06
430.514	92.06
430.736	84.06
430.958	82.06
431.18	93.06
431.402	95.06
431.624	89.06
431.846	78.06
432.068	89.06
432.29	73.06
432.512	90.06
432.734	90.06
432.956	90.06
433.178	110.06
433.4	98.06
433.622	90.06
433.844	85.06
434.066	96.06
434.287	91.06
434.509	82.06
434.731	91.06
434.953	92.06
435.175	83.06
435.397	88.06
435.618	100.06
435.84	105.06
436.062	117.06
436.284	107.06
436.505	105.06
436.727	99.06
436.949	92.06
437.17	85.06
437.392	87.06
437.614	96.06
437.835	82.06
438.057	104.06
438.278	116.06
438.5	105.06
438.721	97.06
438.943	93.06
439.165	66.06
439.386	79.06
439.608	102.06
439.829	102.06
440.05	107.06
440.272	130.06
440.493	89.06
440.715	92.06
440.936	98.06
441.158	97.06
441.379	90.06
441.6	89.06
441.822	88.06
442.043	100.06
442.264	106.06
442.486	78.06
442.707	79.06
442.928	95.06
443.149	121.06
443.371	113.06
443.592	105.06
443.813	103.06
444.034	93.06
444.255	76.06
444.476	84.06
444.698	86.06
444.919	89.06
445.14	142.06
445.361	118.06
445.582	106.06
445.803	109.06
446.024	108.06
446.245	122.06
446.466	94.06
446.687	93.06
446.908	103.06
447.129	105.06
447.35	75.06
447.571	92.06
447.792	97.06
448.013	102.06
448.234	111.06
448.455	100.06
448.675	97.06
448.896	111.06
449.117	90.06
449.338	112.06
449.559	115.06
449.779	118.06
450	85.06
450.221	90.06
450.442	95.06
450.662	87.06
450.883	89.06
451.104	108.06
451.324	89.06
451.545	86.06
451.766	84.06
451.986	77.06
452.207	81.06
452.428	96.06
452.648	85.06
452.869	96.06
453.089	97.06
453.31	105.06
453.53	107.06
453.751	90.06
453.971	86.06
454.192	98.06
454.412	96.06
454.633	82.06
454.853	88.06
455.073	84.06
455.294	89.06
455.514	80.06
455.734	86.06
455.955	96.06
456.175	85.06
456.395	77.06
456.616	93.06
456.836	84.06
457.056	88.06
457.276	84.06
457.497	83.06
457.717	84.06
457.937	89.06
458.157	94.06
458.377	97.06
458.598	92.06
458.818	110.06
459.038	146.06
459.258	97.06
459.478	75.06
459.698	93.06
459.918	92.06
460.138	82.06
460.358	86.06
460.578	81.06
460.798	86.06
461.018	92.06
461.238	95.06
461.458	90.06
461.678	92.06
461.898	84.06
462.118	98.06
462.338	92.06
462.558	85.06
462.777	90.06
462.997	91.06
463.217	89.06
463.437	81.06
463.657	76.06
463.876	85.06
464.096	84.06
464.316	87.06
464.536	95.06
464.755	80.06
464.975	100.06
465.195	134.06
465.414	144.06
465.634	95.06
465.854	81.06
466.073	88.06
466.293	77.06
466.512	80.06
466.732	75.06
466.951	80.06
467.171	88.06
467.391	84.06
467.61	104.06
467.829	91.06
468.049	101.06
468.268	89.06
468.488	80.06
468.707	85.06
468.927	79.06
469.146	92.06
469.365	76.06
469.585	97.06
469.804	88.06
470.023	87.06
470.243	100.06
470.462	98.06
470.681	88.06
470.901	97.06
471.12	90.06
471.339	100.06
471.558	90.06
471.777	83.06
471.997	86.06
472.216	92.06
472.435	136.06
472.654	96.06
472.873	90.06
473.092	79.06
473.311	80.06
473.53	87.06
473.749	97.06
473.968	104.06
474.187	97.06
474.406	99.06
474.625	80.06
474.844	73.06
475.063	80.06
475.282	75.06
475.501	77.06
475.72	79.06
475.939	86.06
476.158	81.06
476.377	90.06
476.596	93.06
476.814	86.06
477.033	89.06
477.252	98.06
477.471	92.06
477.69	90.06
477.908	96.06
478.127	88.06
478.346	81.06
478.564	93.06
478.783	95.06
479.002	85.06
479.22	87.06
479.439	92.06
479.658	91.06
479.876	98.06
480.095	84.06
480.313	87.06
480.532	96.06
480.751	77.06
480.969	92.06
481.188	156.06
481.406	134.06
481.624	98.06
481.843	94.06
482.061	85.06
482.28	72.06
482.498	92.06
482.717	88.06
482.935	82.06
483.153	96.06
483.372	96.06
483.59	90.06
483.808	79.06
484.027	90.06
484.245	88.06
484.463	91.06
484.681	91.06
484.9	102.06
485.118	104.06
485.336	105.06
485.554	86.06
485.772	100.06
485.99	89.06
486.209	111.06
486.427	100.06
486.645	112.06
486.863	109.06
487.081	100.06
487.299	89.06
487.517	88.06
487.735	94.06
487.953	88.06
488.171	100.06
488.389	92.06
488.607	96.06
488.825	94.06
489.043	89.06
489.261	88.06
489.479	98.06
489.696	93.06
489.914	90.06
490.132	88.06
490.35	91.06
490.568	97.06
490.786	86.06
491.003	77.06
491.221	81.06
491.439	97.06
491.657	100.06
491.874	98.06
492.092	84.06
492.31	106.06
492.527	92.06
492.745	90.06
492.963	89.06
493.18	93.06
493.398	80.06
493.615	85.06
493.833	94.06
494.05	88.06
494.268	83.06
494.485	97.06
494.703	93.06
494.92	88.06
495.138	94.06
495.355	95.06
495.573	102.06
495.79	85.06
496.008	102.06
496.225	103.06
496.442	87.06
496.66	84.06
496.877	96.06
497.094	75.06
497.312	82.06
497.529	76.06
497.746	74.06
497.963	90.06
498.181	98.06
498.398	88.06
498.615	85.06
498.832	95.06
499.049	79.06
499.267	85.06
499.484	82.06
499.701	94.06
499.918	86.06
500.135	87.06
500.352	89.06
500.569	90.06
500.786	93.06
501.003	93.06
501.22	87.06
501.437	84.06
501.654	102.06
501.871	92.06
502.088	100.06
502.305	90.06
502.522	85.06
502.739	82.06
502.956	93.06
503.172	72.06
503.389	85.06
503.606	87.06
503.823	93.06
504.04	90.06
504.256	91.06
504.473	93.06
504.69	89.06
504.907	86.06
505.123	93.06
505.34	94.06
505.557	101.06
505.773	90.06
505.99	96.06
506.207	75.06
506.423	69.06
506.64	92.06
506.856	81.06
507.073	81.06
507.289	98.06
507.506	101.06
507.722	103.06
507.939	111.06
508.155	89.06
508.372	107.06
508.588	90.06
508.805	105.06
509.021	93.06
509.238	94.06
509.454	82.06
509.67	100.06
509.887	105.06
510.103	122.06
510.319	189.06
510.536	590.06
510.752	1748.06
510.968	510.06
511.184	137.06
511.401	104.06
511.617	109.06
511.833	86.06
512.049	97.06
512.265	94.06
512.481	97.06
512.698	89.06
512.914	86.06
513.13	81.06
513.346	89.06
513.562	102.06
513.778	94.06
513.994	97.06
514.21	94.06
514.426	107.06
514.642	146.06
514.858	136.06
515.074	156.06
515.29	340.06
515.506	1052.06
515.721	405.06
515.937	127.06
516.153	103.06
