Data from Uncirc_2009_H10_HRD10591_00092.txt Node
Date: Wed Jan 03 10:12:20 EST 2024
User: Yrep
Spectrometer: HR+D1059
Trigger mode: 1
Integration Time (sec): 1.000000E-1
Scans to average: 1
Electric dark correction enabled: true
Nonlinearity correction enabled: false
Boxcar width: 0
XAxis mode: Wavelengths
Number of Pixels in Spectrum: 2048
>>>>>Begin Spectral Data<<<<<
223.165	-34
223.4	-34
223.635	-34
223.869	-18
224.104	-16
224.338	-14
224.573	-2
224.808	-24
225.042	-2
225.277	-1
225.511	-19
225.746	1
225.98	15
226.215	17
226.449	-1
226.683	12
226.918	41
227.152	45
227.387	34
227.621	44
227.856	41
228.09	35
228.324	45
228.559	57
228.793	61
229.027	61
229.262	52
229.496	57
229.73	69
229.964	72
230.199	67
230.433	72
230.667	67
230.901	77
231.136	75
231.37	72
231.604	80
231.838	79
232.072	78
232.306	69
232.541	85
232.775	78
233.009	82
233.243	88
233.477	80
233.711	76
233.945	69
234.179	80
234.413	92
234.647	88
234.881	73
235.115	88
235.349	65
235.583	72
235.817	84
236.051	97
236.285	85
236.519	73
236.753	100
236.987	74
237.221	74
237.455	67
237.689	82
237.922	91
238.156	60
238.39	72
238.624	79
238.858	85
239.091	76
239.325	70
239.559	92
239.793	63
240.027	77
240.26	79
240.494	68
240.728	72
240.961	75
241.195	88
241.429	70
241.662	81
241.896	81
242.13	68
242.363	77
242.597	66
242.83	75
243.064	85
243.298	88
243.531	71
243.765	77
243.998	80
244.232	73
244.465	68
244.699	81
244.932	73
245.166	76
245.399	86
245.633	74
245.866	85
246.099	72
246.333	64
246.566	77
246.8	79
247.033	78
247.266	73
247.5	76
247.733	73
247.966	67
248.2	87
248.433	87
248.666	86
248.899	75
249.133	78
249.366	82
249.599	95
249.832	77
250.066	66
250.299	77
250.532	77
250.765	88
250.998	72
251.231	81
251.465	75
251.698	76
251.931	69
252.164	79
252.397	77
252.63	78
252.863	71
253.096	79
253.329	79
253.562	67
253.795	89
254.028	81
254.261	79
254.494	74
254.727	82
254.96	77
255.193	72
255.426	85
255.659	92
255.892	80
256.124	97
256.357	90
256.59	77
256.823	92
257.056	81
257.289	79
257.521	97
257.754	86
257.987	66
258.22	76
258.452	72
258.685	82
258.918	80
259.151	68
259.383	80
259.616	77
259.849	93
260.081	74
260.314	74
260.547	71
260.779	86
261.012	69
261.244	83
261.477	85
261.71	86
261.942	96
262.175	96
262.407	99
262.64	81
262.872	71
263.105	92
263.337	81
263.57	87
263.802	85
264.035	85
264.267	77
264.499	82
264.732	81
264.964	77
265.197	82
265.429	87
265.661	99
265.894	90
266.126	81
266.358	95
266.591	81
266.823	107
267.055	89
267.287	77
267.52	76
267.752	84
267.984	80
268.216	90
268.448	73
268.681	77
268.913	77
269.145	86
269.377	88
269.609	96
269.841	82
270.073	71
270.306	87
270.538	84
270.77	84
271.002	79
271.234	85
271.466	90
271.698	73
271.93	86
272.162	86
272.394	89
272.626	73
272.858	70
273.09	75
273.322	82
273.553	95
273.785	71
274.017	90
274.249	92
274.481	100
274.713	101
274.945	74
275.176	92
275.408	72
275.64	86
275.872	89
276.104	79
276.335	81
276.567	90
276.799	92
277.031	89
277.262	106
277.494	82
277.726	94
277.957	92
278.189	87
278.421	91
278.652	84
278.884	96
279.115	97
279.347	89
279.579	80
279.81	75
280.042	74
280.273	88
280.505	75
280.736	84
280.968	83
281.199	79
281.431	96
281.662	82
281.894	95
282.125	76
282.356	104
282.588	102
282.819	96
283.051	96
283.282	97
283.513	89
283.745	98
283.976	88
284.207	92
284.439	89
284.67	84
284.901	82
285.132	82
285.364	88
285.595	82
285.826	78
286.057	77
286.288	93
286.52	95
286.751	85
286.982	80
287.213	80
287.444	92
287.675	78
287.906	81
288.138	84
288.369	91
288.6	93
288.831	95
289.062	91
289.293	94
289.524	100
289.755	93
289.986	86
290.217	88
290.448	79
290.679	90
290.91	100
291.141	77
291.371	80
291.602	94
291.833	83
292.064	62
292.295	81
292.526	84
292.757	89
292.987	95
293.218	82
293.449	84
293.68	90
293.91	92
294.141	85
294.372	88
294.603	79
294.833	84
295.064	81
295.295	87
295.525	82
295.756	96
295.987	87
296.217	119
296.448	100
296.679	84
296.909	95
297.14	97
297.37	102
297.601	76
297.831	89
298.062	92
298.292	79
298.523	93
298.753	100
298.984	81
299.214	82
299.445	102
299.675	83
299.905	90
300.136	79
300.366	80
300.597	85
300.827	90
301.057	115
301.288	106
301.518	82
301.748	79
301.979	87
302.209	97
302.439	107
302.669	94
302.9	92
303.13	98
303.36	94
303.59	107
303.82	106
304.051	95
304.281	77
304.511	92
304.741	82
304.971	90
305.201	100
305.431	90
305.661	94
305.891	87
306.121	81
306.352	96
306.582	110
306.812	95
307.042	94
307.272	84
307.502	101
307.731	94
307.961	92
308.191	92
308.421	74
308.651	65
308.881	84
309.111	81
309.341	98
309.571	106
309.8	88
310.03	94
310.26	80
310.49	96
310.72	108
310.949	100
311.179	85
311.409	86
311.639	79
311.868	81
312.098	80
312.328	95
312.557	88
312.787	91
313.017	92
313.246	91
313.476	85
313.706	82
313.935	92
314.165	91
314.394	100
314.624	88
314.853	114
315.083	90
315.312	90
315.542	97
315.771	82
316.001	81
316.23	90
316.46	98
316.689	92
316.919	89
317.148	110
317.377	112
317.607	110
317.836	107
318.065	97
318.295	89
318.524	82
318.753	92
318.983	96
319.212	100
319.441	90
319.67	103
319.9	95
320.129	87
320.358	88
320.587	108
320.816	94
321.046	105
321.275	108
321.504	93
321.733	87
321.962	111
322.191	93
322.42	111
322.649	111
322.878	124
323.108	97
323.337	113
323.566	111
323.795	125
324.024	163
324.253	322
324.482	631
324.71	1272
324.939	1628
325.168	621
325.397	193
325.626	134
325.855	105
326.084	122
326.313	141
326.542	160
326.77	191
326.999	359
327.228	767
327.457	1321
327.686	1073
327.914	290
328.143	150
328.372	134
328.6	108
328.829	100
329.058	94
329.287	118
329.515	100
329.744	103
329.972	116
330.201	106
330.43	122
330.658	110
330.887	129
331.115	117
331.344	91
331.572	81
331.801	103
332.03	92
332.258	99
332.486	93
332.715	85
332.943	97
333.172	101
333.4	96
333.629	106
333.857	102
334.085	119
334.314	108
334.542	109
334.771	106
334.999	79
335.227	94
335.455	103
335.684	95
335.912	86
336.14	87
336.369	86
336.597	84
336.825	96
337.053	85
337.281	77
337.51	83
337.738	98
337.966	108
338.194	85
338.422	85
338.65	73
338.878	97
339.106	88
339.334	94
339.562	96
339.79	83
340.018	87
340.246	96
340.474	99
340.702	97
340.93	96
341.158	91
341.386	69
341.614	96
341.842	88
342.07	82
342.298	87
342.526	84
342.754	91
342.981	89
343.209	97
343.437	94
343.665	90
343.893	83
344.12	108
344.348	94
344.576	93
344.804	84
345.031	96
345.259	89
345.487	85
345.714	93
345.942	100
346.17	84
346.397	97
346.625	83
346.853	84
347.08	87
347.308	95
347.535	102
347.763	112
347.99	92
348.218	105
348.445	96
348.673	98
348.9	89
349.128	97
349.355	89
349.583	97
349.81	97
350.037	92
350.265	82
350.492	93
350.72	108
350.947	99
351.174	80
351.402	82
351.629	89
351.856	91
352.083	97
352.311	99
352.538	98
352.765	94
352.992	105
353.22	85
353.447	98
353.674	90
353.901	104
354.128	99
354.355	103
354.583	102
354.81	89
355.037	93
355.264	95
355.491	86
355.718	85
355.945	108
356.172	87
356.399	113
356.626	105
356.853	83
357.08	87
357.307	82
357.534	88
357.761	92
357.988	101
358.215	95
358.441	83
358.668	92
358.895	82
359.122	88
359.349	93
359.576	90
359.802	95
360.029	85
360.256	100
360.483	91
360.709	90
360.936	73
361.163	86
361.39	92
361.616	98
361.843	84
362.07	90
362.296	89
362.523	87
362.749	98
362.976	79
363.203	93
363.429	85
363.656	88
363.882	77
364.109	94
364.335	76
364.562	89
364.788	96
365.015	86
365.241	98
365.468	89
365.694	99
365.92	96
366.147	90
366.373	79
366.599	85
366.826	84
367.052	91
367.278	85
367.505	95
367.731	94
367.957	86
368.184	89
368.41	104
368.636	99
368.862	116
369.089	100
369.315	94
369.541	92
369.767	103
369.993	96
370.219	70
370.445	87
370.672	74
370.898	79
371.124	85
371.35	96
371.576	98
371.802	87
372.028	78
372.254	94
372.48	74
372.706	92
372.932	79
373.158	83
373.384	86
373.61	102
373.835	91
374.061	83
374.287	101
374.513	85
374.739	93
374.965	94
375.191	87
375.416	90
375.642	106
375.868	89
376.094	85
376.319	95
376.545	84
376.771	100
376.997	87
377.222	85
377.448	90
377.674	85
377.899	84
378.125	75
378.35	95
378.576	90
378.802	97
379.027	80
379.253	87
379.478	101
379.704	93
379.929	102
380.155	102
380.38	106
380.606	81
380.831	76
381.057	92
381.282	98
381.507	109
381.733	94
381.958	100
382.184	83
382.409	88
382.634	98
382.86	104
383.085	96
383.31	96
383.535	97
383.761	98
383.986	101
384.211	87
384.436	93
384.662	94
384.887	100
385.112	102
385.337	112
385.562	95
385.787	105
386.013	94
386.238	102
386.463	93
386.688	105
386.913	105
387.138	97
387.363	97
387.588	103
387.813	98
388.038	104
388.263	106
388.488	103
388.713	112
388.938	106
389.163	93
389.387	94
389.612	90
389.837	88
390.062	91
390.287	91
390.512	84
390.736	89
390.961	92
391.186	98
391.411	91
391.636	83
391.86	85
392.085	81
392.31	98
392.534	89
392.759	86
392.984	90
393.208	88
393.433	82
393.658	90
393.882	82
394.107	71
394.331	89
394.556	81
394.78	89
395.005	100
395.229	94
395.454	82
395.678	74
395.903	94
396.127	83
396.352	84
396.576	102
396.801	97
397.025	83
397.249	84
397.474	94
397.698	94
397.922	92
398.147	83
398.371	94
398.595	90
398.82	94
399.044	98
399.268	100
399.492	84
399.717	96
399.941	72
400.165	87
400.389	89
400.613	88
400.837	110
401.062	85
401.286	74
401.51	90
401.734	91
401.958	86
402.182	94
402.406	133
402.63	106
402.854	101
403.078	95
403.302	87
403.526	79
403.75	88
403.974	89
404.198	73
404.422	81
404.645	80
404.869	83
405.093	86
405.317	89
405.541	98
405.765	79
405.988	105
406.212	136
406.436	183
406.66	121
406.883	93
407.107	87
407.331	73
407.555	110
407.778	94
408.002	94
408.226	96
408.449	91
408.673	94
408.896	96
409.12	84
409.344	86
409.567	86
409.791	97
410.014	84
410.238	82
410.461	88
410.685	89
410.908	80
411.132	104
411.355	108
411.578	99
411.802	84
412.025	86
412.249	91
412.472	92
412.695	96
412.919	83
413.142	88
413.365	74
413.589	91
413.812	92
414.035	105
414.258	81
414.482	91
414.705	89
414.928	94
415.151	102
415.374	97
415.597	79
415.821	77
416.044	79
416.267	93
416.49	90
416.713	84
416.936	88
417.159	81
417.382	82
417.605	91
417.828	90
418.051	93
418.274	92
418.497	98
418.72	81
418.943	94
419.166	87
419.389	94
419.611	90
419.834	95
420.057	94
420.28	95
420.503	86
420.726	83
420.948	94
421.171	94
421.394	89
421.617	77
421.839	89
422.062	79
422.285	85
422.507	77
422.73	93
422.953	92
423.175	90
423.398	88
423.621	88
423.843	92
424.066	88
424.288	71
424.511	84
424.733	100
424.956	84
425.178	95
425.401	90
425.623	100
425.846	77
426.068	89
426.291	81
426.513	96
426.735	95
426.958	90
427.18	90
427.402	112
427.625	147
427.847	119
428.069	102
428.292	86
428.514	80
428.736	88
428.958	89
429.181	100
429.403	82
429.625	88
429.847	93
430.069	100
430.292	78
430.514	88
430.736	82
430.958	90
431.18	82
431.402	75
431.624	96
431.846	82
432.068	91
432.29	84
432.512	88
432.734	92
432.956	93
433.178	85
433.4	81
433.622	86
433.844	92
434.066	79
434.287	92
434.509	89
434.731	79
434.953	87
435.175	88
435.397	84
435.618	100
435.84	95
436.062	99
436.284	101
436.505	96
436.727	100
436.949	91
437.17	74
437.392	76
437.614	81
437.835	106
438.057	107
438.278	95
438.5	104
438.721	113
438.943	96
439.165	82
439.386	91
439.608	79
439.829	98
440.05	116
440.272	132
440.493	94
440.715	80
440.936	87
441.158	92
441.379	82
441.6	90
441.822	103
442.043	97
442.264	97
442.486	81
442.707	90
442.928	100
443.149	97
443.371	113
443.592	103
443.813	104
444.034	97
444.255	87
444.476	82
444.698	80
444.919	84
445.14	132
445.361	112
445.582	103
445.803	116
446.024	101
446.245	116
446.466	98
446.687	90
446.908	87
447.129	86
447.35	86
447.571	87
447.792	88
448.013	85
448.234	98
448.455	103
448.675	101
448.896	106
449.117	101
449.338	102
449.559	118
449.779	112
450	93
450.221	81
450.442	79
450.662	102
450.883	92
451.104	91
451.324	91
451.545	70
451.766	83
451.986	93
452.207	89
452.428	89
452.648	80
452.869	99
453.089	89
453.31	106
453.53	76
453.751	75
453.971	103
454.192	93
454.412	84
454.633	78
454.853	95
455.073	70
455.294	92
455.514	96
455.734	83
455.955	94
456.175	87
456.395	90
456.616	89
456.836	90
457.056	79
457.276	91
457.497	85
457.717	89
457.937	79
458.157	84
458.377	103
458.598	105
458.818	133
459.038	125
459.258	105
459.478	110
459.698	103
459.918	97
460.138	80
460.358	66
460.578	89
460.798	87
461.018	83
461.238	88
461.458	79
461.678	88
461.898	92
462.118	86
462.338	91
462.558	96
462.777	89
462.997	91
463.217	77
463.437	83
463.657	82
463.876	93
464.096	86
464.316	90
464.536	91
464.755	95
464.975	92
465.195	124
465.414	122
465.634	89
465.854	93
466.073	93
466.293	84
466.512	85
466.732	79
466.951	90
467.171	97
467.391	96
467.61	94
467.829	89
468.049	82
468.268	84
468.488	80
468.707	80
468.927	89
469.146	88
469.365	64
469.585	77
469.804	87
470.023	90
470.243	80
470.462	88
470.681	86
470.901	98
471.12	95
471.339	80
471.558	97
471.777	86
471.997	94
472.216	97
472.435	120
472.654	91
472.873	84
473.092	81
473.311	81
473.53	88
473.749	87
473.968	91
474.187	99
474.406	92
474.625	94
474.844	96
475.063	92
475.282	95
475.501	84
475.72	91
475.939	81
476.158	89
476.377	84
476.596	73
476.814	93
477.033	85
477.252	97
477.471	87
477.69	79
477.908	89
478.127	77
478.346	86
478.564	91
478.783	88
479.002	80
479.22	88
479.439	89
479.658	95
479.876	91
480.095	100
480.313	85
480.532	92
480.751	95
480.969	92
481.188	136
481.406	123
481.624	88
481.843	90
482.061	80
482.28	82
482.498	104
482.717	77
482.935	97
483.153	92
483.372	86
483.59	93
483.808	83
484.027	96
484.245	103
484.463	95
484.681	101
484.9	81
485.118	97
485.336	86
485.554	101
485.772	105
485.99	107
486.209	94
486.427	103
486.645	112
486.863	103
487.081	97
487.299	82
487.517	93
487.735	96
487.953	90
488.171	97
488.389	96
488.607	99
488.825	96
489.043	95
489.261	68
489.479	94
489.696	84
489.914	96
490.132	80
490.35	79
490.568	78
490.786	80
491.003	90
491.221	82
491.439	95
491.657	103
491.874	92
492.092	83
492.31	77
492.527	86
492.745	84
492.963	85
493.18	88
493.398	103
493.615	101
493.833	85
494.05	93
494.268	89
494.485	89
494.703	92
494.92	94
495.138	95
495.355	86
495.573	92
495.79	89
496.008	98
496.225	92
496.442	79
496.66	92
496.877	86
497.094	91
497.312	101
497.529	90
497.746	89
497.963	93
498.181	92
498.398	81
498.615	102
498.832	86
499.049	90
499.267	84
499.484	82
499.701	92
499.918	91
500.135	81
500.352	92
500.569	80
500.786	77
501.003	75
501.22	97
501.437	78
501.654	92
501.871	98
502.088	94
502.305	89
502.522	98
502.739	101
502.956	88
503.172	98
503.389	99
503.606	83
503.823	95
504.04	84
504.256	83
504.473	77
504.69	95
504.907	93
505.123	83
505.34	78
505.557	86
505.773	86
505.99	94
506.207	82
506.423	97
506.64	82
506.856	92
507.073	90
507.289	77
507.506	84
507.722	105
507.939	60
508.155	93
508.372	69
508.588	103
508.805	106
509.021	85
509.238	97
509.454	79
509.67	100
509.887	101
510.103	116
510.319	164
510.536	528
510.752	1534
510.968	464
511.184	144
511.401	109
511.617	90
511.833	79
512.049	94
512.265	86
512.481	87
512.698	97
512.914	97
513.13	91
513.346	91
513.562	99
513.778	85
513.994	96
514.21	105
514.426	111
514.642	114
514.858	106
515.074	125
515.29	296
515.506	903
515.721	358
515.937	109
516.153	109
516.369	101
516.585	114
516.801	91
517.016	90
517.232	92
517.448	85
517.664	86
517.879	92
518.095	89
518.311	95
518.527	75
518.742	96
518.958	86
519.173	87
519.389	89
519.605	101
519.82	103
520.036	96
520.251	107
520.467	99
520.682	88
520.898	107
521.113	112
521.329	113
521.544	143
521.76	380
521.975	1437
522.19	895
522.406	230
522.621	105
522.836	99
523.052	91
523.267	89
523.482	76
523.698	91
523.913	86
524.128	99
524.343	91
524.559	83
524.774	95
524.989	95
525.204	97
525.419	96
525.634	93
525.849	100
526.064	86
526.28	97
526.495	79
526.71	97
526.925	95
527.14	95
527.355	87
527.57	85
527.785	71
527.999	97
528.214	90
528.429	88
528.644	100
528.859	85
529.074	101
529.289	105
529.503	134
529.718	116
529.933	80
530.148	93
530.363	81
530.577	89
530.792	85
531.007	95
531.221	88
531.436	90
531.651	77
531.865	87
532.08	94
532.295	90
532.509	96
532.724	100
532.938	98
533.153	98
533.367	102
533.582	102
533.796	83
534.011	85
534.225	91
534.44	88
534.654	90
534.868	81
535.083	104
535.297	87
535.511	93
535.726	97
535.94	94
536.154	93
536.369	94
536.583	82
536.797	102
537.011	99
537.225	82
537.44	92
537.654	87
537.868	79
538.082	93
538.296	87
538.51	86
538.724	93
538.938	90
539.153	90
539.367	90
539.581	93
539.795	95
540.009	92
540.222	105
540.436	109
540.65	90
540.864	99
541.078	91
541.292	89
541.506	93
541.72	80
541.934	96
542.147	93
542.361	86
542.575	93
542.789	89
543.002	90
543.216	102
543.43	104
543.644	116
543.857	98
544.071	84
544.285	97
544.498	94
544.712	88
544.925	82
545.139	82
545.352	85
545.566	82
545.779	82
545.993	82
546.206	96
546.42	93
546.633	85
546.847	88
547.06	88
547.274	96
547.487	96
547.7	84
547.914	76
548.127	88
548.34	98
548.554	91
548.767	91
548.98	87
549.193	90
549.407	90
549.62	99
549.833	91
550.046	71
550.259	86
550.473	90
550.686	88
550.899	87
551.112	81
551.325	102
551.538	81
551.751	100
551.964	86
552.177	71
552.39	82
552.603	95
552.816	87
553.029	91
553.242	98
553.455	94
553.667	97
553.88	89
554.093	85
554.306	100
554.519	83
554.732	91
554.944	89
555.157	79
555.37	93
555.583	95
555.795	85
556.008	88
556.221	90
556.433	78
556.646	103
556.859	91
557.071	94
557.284	95
557.496	89
557.709	68
557.921	86
558.134	87
558.346	93
558.559	85
558.771	96
558.984	106
559.196	98
559.409	84
559.621	110
559.833	89
560.046	86
560.258	88
560.47	90
560.683	74
560.895	84
561.107	90
561.32	75
561.532	95
561.744	93
561.956	92
562.168	97
562.381	93
562.593	94
562.805	107
563.017	87
563.229	99
563.441	88
563.653	84
563.865	93
564.077	92
564.289	89
564.501	76
564.713	86
564.925	92
565.137	82
565.349	98
565.561	82
565.773	74
565.985	93
566.197	75
566.408	100
566.62	93
566.832	84
567.044	88
567.255	82
567.467	94
567.679	97
567.891	81
568.102	88
568.314	77
568.526	77
568.737	93
568.949	83
569.161	84
569.372	92
569.584	82
569.795	90
570.007	103
570.218	198
570.43	136
570.641	96
570.853	90
571.064	86
571.276	88
571.487	85
571.698	86
571.91	94
572.121	85
572.333	87
572.544	91
572.755	90
572.966	90
573.178	93
573.389	96
573.6	102
573.811	96
574.023	92
574.234	92
574.445	75
574.656	86
574.867	88
575.078	82
575.289	93
575.501	105
575.712	78
575.923	77
576.134	85
576.345	93
576.556	81
576.767	85
576.978	85
577.188	98
577.399	82
577.61	74
577.821	86
578.032	97
578.243	201
578.454	524
578.665	180
578.875	98
579.086	87
579.297	90
579.508	89
579.718	85
579.929	65
580.14	100
580.35	81
580.561	92
580.772	94
580.982	89
581.193	90
581.403	84
581.614	89
581.825	78
582.035	95
582.246	94
582.456	104
582.667	93
582.877	80
583.087	101
583.298	89
583.508	84
583.719	90
583.929	89
584.139	89
584.35	77
584.56	89
584.77	91
584.981	85
585.191	82
585.401	91
585.611	86
585.821	89
