Data from Uncirc_2009_H10_HRD10591_00023.txt Node
Date: Wed Jan 03 10:12:06 EST 2024
User: Yrep
Spectrometer: HR+D1059
Trigger mode: 1
Integration Time (sec): 1.000000E-1
Scans to average: 1
Electric dark correction enabled: true
Nonlinearity correction enabled: false
Boxcar width: 0
XAxis mode: Wavelengths
Number of Pixels in Spectrum: 2048
>>>>>Begin Spectral Data<<<<<
223.165	-32.62
223.4	-32.62
223.635	-32.62
223.869	-14.62
224.104	-11.62
224.338	-20.62
224.573	-12.62
224.808	-7.62
225.042	1.38
225.277	-8.62
225.511	-5.62
225.746	12.38
225.98	25.38
226.215	13.38
226.449	11.38
226.683	12.38
226.918	13.38
227.152	24.38
227.387	30.38
227.621	35.38
227.856	42.38
228.09	57.38
228.324	53.38
228.559	43.38
228.793	70.38
229.027	58.38
229.262	55.38
229.496	59.38
229.73	70.38
229.964	67.38
230.199	69.38
230.433	65.38
230.667	64.38
230.901	72.38
231.136	84.38
231.37	76.38
231.604	76.38
231.838	68.38
232.072	77.38
232.306	87.38
232.541	81.38
232.775	85.38
233.009	79.38
233.243	81.38
233.477	90.38
233.711	86.38
233.945	68.38
234.179	88.38
234.413	91.38
234.647	85.38
234.881	80.38
235.115	61.38
235.349	69.38
235.583	72.38
235.817	71.38
236.051	76.38
236.285	72.38
236.519	77.38
236.753	72.38
236.987	72.38
237.221	78.38
237.455	81.38
237.689	70.38
237.922	86.38
238.156	73.38
238.39	88.38
238.624	73.38
238.858	78.38
239.091	85.38
239.325	71.38
239.559	79.38
239.793	67.38
240.027	71.38
240.26	81.38
240.494	87.38
240.728	87.38
240.961	75.38
241.195	68.38
241.429	82.38
241.662	87.38
241.896	73.38
242.13	63.38
242.363	85.38
242.597	79.38
242.83	83.38
243.064	81.38
243.298	71.38
243.531	69.38
243.765	84.38
243.998	64.38
244.232	80.38
244.465	99.38
244.699	80.38
244.932	58.38
245.166	72.38
245.399	72.38
245.633	75.38
245.866	85.38
246.099	70.38
246.333	77.38
246.566	77.38
246.8	73.38
247.033	81.38
247.266	64.38
247.5	68.38
247.733	89.38
247.966	65.38
248.2	81.38
248.433	78.38
248.666	77.38
248.899	84.38
249.133	99.38
249.366	87.38
249.599	75.38
249.832	85.38
250.066	74.38
250.299	63.38
250.532	78.38
250.765	79.38
250.998	80.38
251.231	72.38
251.465	77.38
251.698	80.38
251.931	90.38
252.164	82.38
252.397	83.38
252.63	79.38
252.863	95.38
253.096	78.38
253.329	94.38
253.562	73.38
253.795	97.38
254.028	87.38
254.261	85.38
254.494	84.38
254.727	70.38
254.96	78.38
255.193	81.38
255.426	71.38
255.659	78.38
255.892	64.38
256.124	88.38
256.357	83.38
256.59	84.38
256.823	103.38
257.056	70.38
257.289	73.38
257.521	79.38
257.754	70.38
257.987	78.38
258.22	88.38
258.452	81.38
258.685	86.38
258.918	73.38
259.151	70.38
259.383	72.38
259.616	80.38
259.849	82.38
260.081	79.38
260.314	79.38
260.547	81.38
260.779	95.38
261.012	88.38
261.244	83.38
261.477	81.38
261.71	81.38
261.942	103.38
262.175	79.38
262.407	80.38
262.64	91.38
262.872	93.38
263.105	83.38
263.337	84.38
263.57	79.38
263.802	95.38
264.035	94.38
264.267	89.38
264.499	78.38
264.732	77.38
264.964	68.38
265.197	85.38
265.429	75.38
265.661	79.38
265.894	66.38
266.126	72.38
266.358	89.38
266.591	86.38
266.823	88.38
267.055	94.38
267.287	89.38
267.52	75.38
267.752	83.38
267.984	82.38
268.216	85.38
268.448	86.38
268.681	86.38
268.913	102.38
269.145	77.38
269.377	81.38
269.609	86.38
269.841	80.38
270.073	83.38
270.306	81.38
270.538	82.38
270.77	91.38
271.002	84.38
271.234	70.38
271.466	91.38
271.698	75.38
271.93	82.38
272.162	73.38
272.394	81.38
272.626	88.38
272.858	83.38
273.09	80.38
273.322	87.38
273.553	83.38
273.785	77.38
274.017	79.38
274.249	90.38
274.481	84.38
274.713	77.38
274.945	77.38
275.176	77.38
275.408	84.38
275.64	84.38
275.872	85.38
276.104	82.38
276.335	84.38
276.567	89.38
276.799	95.38
277.031	89.38
277.262	85.38
277.494	88.38
277.726	90.38
277.957	83.38
278.189	77.38
278.421	87.38
278.652	80.38
278.884	81.38
279.115	79.38
279.347	97.38
279.579	75.38
279.81	82.38
280.042	91.38
280.273	71.38
280.505	88.38
280.736	92.38
280.968	67.38
281.199	90.38
281.431	85.38
281.662	98.38
281.894	88.38
282.125	99.38
282.356	93.38
282.588	114.38
282.819	105.38
283.051	91.38
283.282	89.38
283.513	105.38
283.745	73.38
283.976	93.38
284.207	100.38
284.439	110.38
284.67	92.38
284.901	88.38
285.132	69.38
285.364	71.38
285.595	88.38
285.826	86.38
286.057	91.38
286.288	94.38
286.52	100.38
286.751	93.38
286.982	89.38
287.213	77.38
287.444	71.38
287.675	95.38
287.906	93.38
288.138	91.38
288.369	91.38
288.6	88.38
288.831	84.38
289.062	92.38
289.293	77.38
289.524	97.38
289.755	95.38
289.986	83.38
290.217	86.38
290.448	86.38
290.679	80.38
290.91	87.38
291.141	76.38
291.371	78.38
291.602	80.38
291.833	90.38
292.064	90.38
292.295	89.38
292.526	86.38
292.757	97.38
292.987	88.38
293.218	88.38
293.449	83.38
293.68	75.38
293.91	85.38
294.141	92.38
294.372	86.38
294.603	87.38
294.833	91.38
295.064	86.38
295.295	86.38
295.525	90.38
295.756	101.38
295.987	102.38
296.217	112.38
296.448	107.38
296.679	84.38
296.909	88.38
297.14	100.38
297.37	106.38
297.601	86.38
297.831	88.38
298.062	93.38
298.292	99.38
298.523	103.38
298.753	86.38
298.984	76.38
299.214	82.38
299.445	92.38
299.675	111.38
299.905	83.38
300.136	83.38
300.366	97.38
300.597	86.38
300.827	95.38
301.057	106.38
301.288	101.38
301.518	79.38
301.748	87.38
301.979	96.38
302.209	91.38
302.439	99.38
302.669	88.38
302.9	91.38
303.13	92.38
303.36	102.38
303.59	112.38
303.82	103.38
304.051	94.38
304.281	91.38
304.511	102.38
304.741	89.38
304.971	104.38
305.201	96.38
305.431	94.38
305.661	98.38
305.891	91.38
306.121	90.38
306.352	91.38
306.582	83.38
306.812	74.38
307.042	84.38
307.272	83.38
307.502	87.38
307.731	86.38
307.961	87.38
308.191	78.38
308.421	69.38
308.651	93.38
308.881	85.38
309.111	86.38
309.341	94.38
309.571	103.38
309.8	73.38
310.03	88.38
310.26	96.38
310.49	87.38
310.72	96.38
310.949	91.38
311.179	89.38
311.409	94.38
311.639	81.38
311.868	87.38
312.098	102.38
312.328	85.38
312.557	110.38
312.787	110.38
313.017	85.38
313.246	101.38
313.476	92.38
313.706	81.38
313.935	92.38
314.165	88.38
314.394	93.38
314.624	92.38
314.853	96.38
315.083	97.38
315.312	90.38
315.542	87.38
315.771	91.38
316.001	88.38
316.23	101.38
316.46	87.38
316.689	100.38
316.919	86.38
317.148	91.38
317.377	103.38
317.607	115.38
317.836	104.38
318.065	83.38
318.295	89.38
318.524	76.38
318.753	92.38
318.983	91.38
319.212	93.38
319.441	98.38
319.67	97.38
319.9	95.38
320.129	75.38
320.358	93.38
320.587	87.38
320.816	92.38
321.046	88.38
321.275	94.38
321.504	94.38
321.733	86.38
321.962	98.38
322.191	91.38
322.42	98.38
322.649	102.38
322.878	96.38
323.108	116.38
323.337	115.38
323.566	121.38
323.795	140.38
324.024	168.38
324.253	328.38
324.482	632.38
324.71	1251.38
324.939	1667.38
325.168	631.38
325.397	182.38
325.626	129.38
325.855	132.38
326.084	135.38
326.313	135.38
326.542	146.38
326.77	195.38
326.999	375.38
327.228	737.38
327.457	1300.38
327.686	1032.38
327.914	298.38
328.143	167.38
328.372	119.38
328.6	107.38
328.829	111.38
329.058	100.38
329.287	101.38
329.515	100.38
329.744	98.38
329.972	100.38
330.201	110.38
330.43	113.38
330.658	104.38
330.887	111.38
331.115	102.38
331.344	102.38
331.572	108.38
331.801	97.38
332.03	92.38
332.258	99.38
332.486	92.38
332.715	103.38
332.943	85.38
333.172	102.38
333.4	93.38
333.629	99.38
333.857	102.38
334.085	114.38
334.314	104.38
334.542	123.38
334.771	111.38
334.999	106.38
335.227	102.38
335.455	88.38
335.684	98.38
335.912	109.38
336.14	80.38
336.369	83.38
336.597	91.38
336.825	88.38
337.053	83.38
337.281	90.38
337.51	85.38
337.738	96.38
337.966	93.38
338.194	80.38
338.422	99.38
338.65	78.38
338.878	84.38
339.106	79.38
339.334	85.38
339.562	84.38
339.79	94.38
340.018	92.38
340.246	96.38
340.474	93.38
340.702	89.38
340.93	92.38
341.158	96.38
341.386	87.38
341.614	89.38
341.842	93.38
342.07	93.38
342.298	86.38
342.526	92.38
342.754	87.38
342.981	97.38
343.209	95.38
343.437	90.38
343.665	85.38
343.893	91.38
344.12	111.38
344.348	97.38
344.576	92.38
344.804	90.38
345.031	91.38
345.259	93.38
345.487	89.38
345.714	84.38
345.942	79.38
346.17	87.38
346.397	84.38
346.625	77.38
346.853	85.38
347.08	91.38
347.308	101.38
347.535	83.38
347.763	105.38
347.99	86.38
348.218	91.38
348.445	92.38
348.673	81.38
348.9	88.38
349.128	95.38
349.355	86.38
349.583	86.38
349.81	97.38
350.037	92.38
350.265	87.38
350.492	93.38
350.72	93.38
350.947	91.38
351.174	107.38
351.402	104.38
351.629	90.38
351.856	101.38
352.083	104.38
352.311	105.38
352.538	127.38
352.765	108.38
352.992	106.38
353.22	108.38
353.447	96.38
353.674	90.38
353.901	86.38
354.128	102.38
354.355	96.38
354.583	76.38
354.81	109.38
355.037	89.38
355.264	107.38
355.491	83.38
355.718	94.38
355.945	100.38
356.172	93.38
356.399	86.38
356.626	85.38
356.853	100.38
357.08	102.38
357.307	92.38
357.534	107.38
357.761	91.38
357.988	97.38
358.215	87.38
358.441	78.38
358.668	90.38
358.895	89.38
359.122	94.38
359.349	89.38
359.576	101.38
359.802	89.38
360.029	108.38
360.256	108.38
360.483	100.38
360.709	93.38
360.936	92.38
361.163	100.38
361.39	88.38
361.616	99.38
361.843	91.38
362.07	90.38
362.296	84.38
362.523	85.38
362.749	82.38
362.976	92.38
363.203	88.38
363.429	96.38
363.656	96.38
363.882	70.38
364.109	85.38
364.335	85.38
364.562	81.38
364.788	85.38
365.015	87.38
365.241	93.38
365.468	86.38
365.694	89.38
365.92	102.38
366.147	86.38
366.373	89.38
366.599	91.38
366.826	78.38
367.052	79.38
367.278	86.38
367.505	91.38
367.731	99.38
367.957	97.38
368.184	83.38
368.41	84.38
368.636	104.38
368.862	107.38
369.089	106.38
369.315	101.38
369.541	78.38
369.767	83.38
369.993	87.38
370.219	80.38
370.445	86.38
370.672	75.38
370.898	81.38
371.124	102.38
371.35	103.38
371.576	87.38
371.802	91.38
372.028	87.38
372.254	87.38
372.48	90.38
372.706	85.38
372.932	80.38
373.158	107.38
373.384	90.38
373.61	89.38
373.835	89.38
374.061	88.38
374.287	89.38
374.513	92.38
374.739	80.38
374.965	73.38
375.191	74.38
375.416	78.38
375.642	83.38
375.868	81.38
376.094	89.38
376.319	100.38
376.545	103.38
376.771	89.38
376.997	101.38
377.222	94.38
377.448	91.38
377.674	85.38
377.899	81.38
378.125	88.38
378.35	89.38
378.576	100.38
378.802	94.38
379.027	100.38
379.253	91.38
379.478	84.38
379.704	81.38
379.929	96.38
380.155	100.38
380.38	104.38
380.606	95.38
380.831	88.38
381.057	95.38
381.282	93.38
381.507	94.38
381.733	95.38
381.958	96.38
382.184	109.38
382.409	96.38
382.634	106.38
382.86	95.38
383.085	109.38
383.31	96.38
383.535	100.38
383.761	90.38
383.986	93.38
384.211	102.38
384.436	102.38
384.662	88.38
384.887	99.38
385.112	103.38
385.337	105.38
385.562	100.38
385.787	103.38
386.013	106.38
386.238	103.38
386.463	105.38
386.688	116.38
386.913	104.38
387.138	106.38
387.363	96.38
387.588	91.38
387.813	105.38
388.038	114.38
388.263	122.38
388.488	102.38
388.713	111.38
388.938	74.38
389.163	76.38
389.387	99.38
389.612	96.38
389.837	84.38
390.062	95.38
390.287	87.38
390.512	91.38
390.736	97.38
390.961	109.38
391.186	100.38
391.411	95.38
391.636	90.38
391.86	79.38
392.085	87.38
392.31	82.38
392.534	90.38
392.759	90.38
392.984	88.38
393.208	79.38
393.433	79.38
393.658	93.38
393.882	92.38
394.107	92.38
394.331	91.38
394.556	89.38
394.78	96.38
395.005	88.38
395.229	80.38
395.454	91.38
395.678	83.38
395.903	97.38
396.127	92.38
396.352	95.38
396.576	73.38
396.801	83.38
397.025	83.38
397.249	71.38
397.474	82.38
397.698	88.38
397.922	95.38
398.147	81.38
398.371	87.38
398.595	70.38
398.82	91.38
399.044	84.38
399.268	75.38
399.492	88.38
399.717	86.38
399.941	111.38
400.165	95.38
400.389	77.38
400.613	93.38
400.837	91.38
401.062	76.38
401.286	85.38
401.51	86.38
401.734	80.38
401.958	87.38
402.182	112.38
402.406	128.38
402.63	111.38
402.854	80.38
403.078	83.38
403.302	75.38
403.526	80.38
403.75	94.38
403.974	91.38
404.198	83.38
404.422	84.38
404.645	101.38
404.869	88.38
405.093	81.38
405.317	87.38
405.541	84.38
405.765	110.38
405.988	111.38
406.212	126.38
406.436	157.38
406.66	135.38
406.883	83.38
407.107	82.38
407.331	93.38
407.555	96.38
407.778	98.38
408.002	93.38
408.226	86.38
408.449	83.38
408.673	92.38
408.896	96.38
409.12	87.38
409.344	92.38
409.567	86.38
409.791	87.38
410.014	98.38
410.238	93.38
410.461	85.38
410.685	107.38
410.908	92.38
411.132	93.38
411.355	89.38
411.578	97.38
411.802	77.38
412.025	81.38
412.249	75.38
412.472	97.38
412.695	98.38
412.919	96.38
413.142	88.38
413.365	74.38
413.589	81.38
413.812	66.38
414.035	79.38
414.258	90.38
414.482	80.38
414.705	76.38
414.928	84.38
415.151	95.38
415.374	95.38
415.597	76.38
415.821	95.38
416.044	80.38
416.267	87.38
416.49	79.38
416.713	84.38
416.936	87.38
417.159	89.38
417.382	78.38
417.605	77.38
417.828	89.38
418.051	105.38
418.274	94.38
418.497	92.38
418.72	89.38
418.943	83.38
419.166	93.38
419.389	86.38
419.611	84.38
419.834	95.38
420.057	94.38
420.28	83.38
420.503	96.38
420.726	80.38
420.948	96.38
421.171	84.38
421.394	88.38
421.617	95.38
421.839	89.38
422.062	95.38
422.285	90.38
422.507	89.38
422.73	94.38
422.953	97.38
423.175	81.38
423.398	68.38
423.621	90.38
423.843	84.38
424.066	67.38
424.288	72.38
424.511	80.38
424.733	86.38
424.956	107.38
425.178	95.38
425.401	96.38
425.623	84.38
425.846	86.38
426.068	86.38
426.291	79.38
426.513	81.38
426.735	80.38
426.958	83.38
427.18	116.38
427.402	123.38
427.625	126.38
427.847	104.38
428.069	101.38
428.292	91.38
428.514	83.38
428.736	75.38
428.958	89.38
429.181	74.38
429.403	71.38
429.625	70.38
429.847	77.38
430.069	73.38
430.292	93.38
430.514	91.38
430.736	76.38
430.958	76.38
431.18	81.38
431.402	78.38
431.624	65.38
431.846	78.38
432.068	68.38
432.29	90.38
432.512	96.38
432.734	96.38
432.956	83.38
433.178	92.38
433.4	99.38
433.622	85.38
433.844	77.38
434.066	76.38
434.287	84.38
434.509	103.38
434.731	85.38
434.953	86.38
435.175	96.38
435.397	84.38
435.618	83.38
435.84	84.38
436.062	112.38
436.284	102.38
436.505	94.38
436.727	96.38
436.949	99.38
437.17	85.38
437.392	71.38
437.614	82.38
437.835	86.38
438.057	106.38
438.278	92.38
438.5	90.38
438.721	89.38
438.943	93.38
439.165	81.38
439.386	90.38
439.608	70.38
439.829	101.38
440.05	114.38
440.272	117.38
440.493	85.38
440.715	87.38
440.936	86.38
441.158	84.38
441.379	94.38
441.6	94.38
441.822	75.38
442.043	78.38
442.264	85.38
442.486	93.38
442.707	83.38
442.928	101.38
443.149	112.38
443.371	112.38
443.592	101.38
443.813	89.38
444.034	88.38
444.255	84.38
444.476	76.38
444.698	101.38
444.919	95.38
445.14	134.38
445.361	108.38
445.582	98.38
445.803	108.38
446.024	115.38
446.245	103.38
446.466	91.38
446.687	85.38
446.908	81.38
447.129	71.38
447.35	85.38
447.571	83.38
447.792	76.38
448.013	92.38
448.234	90.38
448.455	104.38
448.675	91.38
448.896	99.38
449.117	86.38
449.338	89.38
449.559	99.38
449.779	103.38
450	93.38
450.221	79.38
450.442	81.38
450.662	99.38
450.883	96.38
451.104	91.38
451.324	66.38
451.545	89.38
451.766	73.38
451.986	75.38
452.207	109.38
452.428	93.38
452.648	92.38
452.869	87.38
453.089	93.38
453.31	91.38
453.53	92.38
453.751	84.38
453.971	84.38
454.192	98.38
454.412	87.38
454.633	79.38
454.853	74.38
455.073	78.38
455.294	73.38
455.514	92.38
455.734	88.38
455.955	72.38
456.175	79.38
456.395	83.38
456.616	82.38
456.836	72.38
457.056	90.38
457.276	84.38
457.497	82.38
457.717	90.38
457.937	90.38
458.157	85.38
458.377	75.38
458.598	75.38
458.818	117.38
459.038	107.38
459.258	95.38
459.478	87.38
459.698	92.38
459.918	87.38
460.138	76.38
460.358	81.38
460.578	81.38
460.798	79.38
461.018	87.38
461.238	70.38
461.458	85.38
461.678	95.38
461.898	79.38
462.118	82.38
462.338	80.38
462.558	80.38
462.777	84.38
462.997	80.38
463.217	84.38
463.437	95.38
463.657	90.38
463.876	90.38
464.096	74.38
464.316	79.38
464.536	81.38
464.755	87.38
464.975	91.38
465.195	117.38
465.414	120.38
465.634	85.38
465.854	80.38
466.073	71.38
466.293	88.38
466.512	88.38
466.732	73.38
466.951	91.38
467.171	82.38
467.391	92.38
467.61	83.38
467.829	95.38
468.049	69.38
468.268	93.38
468.488	81.38
468.707	82.38
468.927	80.38
469.146	62.38
469.365	75.38
469.585	78.38
469.804	76.38
470.023	76.38
470.243	91.38
470.462	99.38
470.681	103.38
470.901	82.38
471.12	88.38
471.339	108.38
471.558	77.38
471.777	88.38
471.997	88.38
472.216	114.38
472.435	108.38
472.654	98.38
472.873	78.38
473.092	83.38
473.311	77.38
473.53	78.38
473.749	92.38
473.968	99.38
474.187	91.38
474.406	80.38
474.625	98.38
474.844	85.38
475.063	82.38
475.282	78.38
475.501	92.38
475.72	80.38
475.939	83.38
476.158	73.38
476.377	92.38
476.596	91.38
476.814	88.38
477.033	97.38
477.252	75.38
477.471	76.38
477.69	77.38
477.908	78.38
478.127	93.38
478.346	72.38
478.564	92.38
478.783	92.38
479.002	86.38
479.22	101.38
479.439	79.38
479.658	98.38
479.876	80.38
480.095	90.38
480.313	86.38
480.532	95.38
480.751	92.38
480.969	81.38
481.188	159.38
481.406	109.38
481.624	88.38
481.843	98.38
482.061	80.38
482.28	87.38
482.498	76.38
482.717	89.38
482.935	82.38
483.153	84.38
483.372	65.38
483.59	97.38
483.808	82.38
484.027	88.38
484.245	92.38
484.463	85.38
484.681	93.38
484.9	85.38
485.118	81.38
485.336	104.38
485.554	95.38
485.772	104.38
485.99	102.38
486.209	87.38
486.427	98.38
486.645	100.38
486.863	103.38
487.081	101.38
487.299	87.38
487.517	89.38
487.735	94.38
487.953	87.38
488.171	94.38
488.389	99.38
488.607	101.38
488.825	88.38
489.043	97.38
489.261	100.38
489.479	101.38
489.696	100.38
489.914	89.38
490.132	84.38
490.35	81.38
490.568	95.38
490.786	89.38
491.003	87.38
491.221	80.38
491.439	85.38
491.657	97.38
491.874	104.38
492.092	87.38
492.31	96.38
492.527	77.38
492.745	97.38
492.963	91.38
493.18	99.38
493.398	99.38
493.615	90.38
493.833	89.38
494.05	86.38
494.268	81.38
494.485	87.38
494.703	86.38
494.92	86.38
495.138	106.38
495.355	89.38
495.573	83.38
495.79	89.38
496.008	89.38
496.225	86.38
496.442	91.38
496.66	101.38
496.877	96.38
497.094	98.38
497.312	93.38
497.529	85.38
497.746	101.38
497.963	87.38
498.181	99.38
498.398	100.38
498.615	104.38
498.832	88.38
499.049	95.38
499.267	90.38
499.484	92.38
499.701	92.38
499.918	91.38
500.135	85.38
500.352	81.38
500.569	87.38
500.786	79.38
501.003	89.38
501.22	77.38
501.437	97.38
501.654	93.38
501.871	81.38
502.088	90.38
502.305	84.38
502.522	88.38
502.739	94.38
502.956	104.38
503.172	91.38
503.389	96.38
503.606	80.38
503.823	87.38
504.04	89.38
504.256	83.38
504.473	100.38
504.69	96.38
504.907	99.38
505.123	87.38
505.34	105.38
505.557	73.38
505.773	84.38
505.99	88.38
506.207	92.38
506.423	87.38
506.64	81.38
506.856	87.38
507.073	84.38
507.289	90.38
507.506	91.38
507.722	101.38
507.939	104.38
508.155	92.38
508.372	80.38
508.588	92.38
508.805	87.38
509.021	76.38
509.238	91.38
509.454	100.38
509.67	89.38
509.887	109.38
510.103	127.38
510.319	172.38
510.536	501.38
510.752	1497.38
510.968	470.38
511.184	128.38
511.401	110.38
511.617	86.38
511.833	96.38
512.049	87.38
512.265	96.38
512.481	80.38
512.698	85.38
512.914	95.38
513.13	100.38
513.346	79.38
513.562	96.38
513.778	104.38
513.994	89.38
514.21	105.38
514.426	103.38
514.642	121.38
514.858	112.38
515.074	131.38
515.29	293.38
515.506	853.38
515.721	357.38
515.937	123.38
516.153	98.38
516.369	85.38
516.585	82.38
516.801	87.38
