Data from Uncirc_2009_H10_HRD10591_00033.txt Node
Date: Wed Jan 03 10:12:08 EST 2024
User: Yrep
Spectrometer: HR+D1059
Trigger mode: 1
Integration Time (sec): 1.000000E-1
Scans to average: 1
Electric dark correction enabled: true
Nonlinearity correction enabled: false
Boxcar width: 0
XAxis mode: Wavelengths
Number of Pixels in Spectrum: 2048
>>>>>Begin Spectral Data<<<<<
223.165	-27.69
223.4	-27.69
223.635	-27.69
223.869	-12.69
224.104	-21.69
224.338	-9.69
224.573	-24.69
224.808	-8.69
225.042	-8.69
225.277	-0.69
225.511	-9.69
225.746	-1.69
225.98	23.31
226.215	15.31
226.449	20.31
226.683	31.31
226.918	18.31
227.152	17.31
227.387	14.31
227.621	28.31
227.856	37.31
228.09	47.31
228.324	55.31
228.559	51.31
228.793	43.31
229.027	63.31
229.262	63.31
229.496	61.31
229.73	74.31
229.964	77.31
230.199	54.31
230.433	76.31
230.667	71.31
230.901	68.31
231.136	71.31
231.37	84.31
231.604	79.31
231.838	88.31
232.072	83.31
232.306	77.31
232.541	75.31
232.775	79.31
233.009	85.31
233.243	75.31
233.477	71.31
233.711	78.31
233.945	88.31
234.179	65.31
234.413	75.31
234.647	84.31
234.881	78.31
235.115	67.31
235.349	78.31
235.583	73.31
235.817	71.31
236.051	72.31
236.285	78.31
236.519	81.31
236.753	84.31
236.987	77.31
237.221	77.31
237.455	74.31
237.689	79.31
237.922	82.31
238.156	56.31
238.39	74.31
238.624	77.31
238.858	74.31
239.091	78.31
239.325	79.31
239.559	72.31
239.793	64.31
240.027	70.31
240.26	83.31
240.494	74.31
240.728	91.31
240.961	80.31
241.195	61.31
241.429	61.31
241.662	63.31
241.896	67.31
242.13	64.31
242.363	86.31
242.597	80.31
242.83	72.31
243.064	91.31
243.298	80.31
243.531	80.31
243.765	86.31
243.998	62.31
244.232	70.31
244.465	83.31
244.699	77.31
244.932	91.31
245.166	82.31
245.399	69.31
245.633	89.31
245.866	71.31
246.099	76.31
246.333	78.31
246.566	67.31
246.8	95.31
247.033	77.31
247.266	72.31
247.5	54.31
247.733	87.31
247.966	83.31
248.2	78.31
248.433	76.31
248.666	69.31
248.899	80.31
249.133	75.31
249.366	94.31
249.599	84.31
249.832	79.31
250.066	87.31
250.299	77.31
250.532	84.31
250.765	74.31
250.998	76.31
251.231	85.31
251.465	86.31
251.698	91.31
251.931	92.31
252.164	69.31
252.397	80.31
252.63	71.31
252.863	69.31
253.096	74.31
253.329	76.31
253.562	79.31
253.795	90.31
254.028	92.31
254.261	77.31
254.494	86.31
254.727	75.31
254.96	66.31
255.193	77.31
255.426	67.31
255.659	81.31
255.892	81.31
256.124	83.31
256.357	82.31
256.59	71.31
256.823	79.31
257.056	76.31
257.289	77.31
257.521	77.31
257.754	74.31
257.987	75.31
258.22	90.31
258.452	80.31
258.685	72.31
258.918	82.31
259.151	67.31
259.383	80.31
259.616	74.31
259.849	90.31
260.081	79.31
260.314	70.31
260.547	79.31
260.779	76.31
261.012	79.31
261.244	86.31
261.477	103.31
261.71	83.31
261.942	99.31
262.175	86.31
262.407	83.31
262.64	84.31
262.872	81.31
263.105	80.31
263.337	67.31
263.57	76.31
263.802	77.31
264.035	64.31
264.267	65.31
264.499	67.31
264.732	79.31
264.964	67.31
265.197	82.31
265.429	80.31
265.661	77.31
265.894	77.31
266.126	71.31
266.358	84.31
266.591	77.31
266.823	75.31
267.055	92.31
267.287	80.31
267.52	70.31
267.752	73.31
267.984	71.31
268.216	87.31
268.448	77.31
268.681	83.31
268.913	84.31
269.145	97.31
269.377	81.31
269.609	80.31
269.841	86.31
270.073	87.31
270.306	69.31
270.538	91.31
270.77	76.31
271.002	84.31
271.234	83.31
271.466	82.31
271.698	76.31
271.93	68.31
272.162	98.31
272.394	78.31
272.626	84.31
272.858	91.31
273.09	75.31
273.322	68.31
273.553	76.31
273.785	77.31
274.017	73.31
274.249	83.31
274.481	92.31
274.713	83.31
274.945	87.31
275.176	90.31
275.408	94.31
275.64	90.31
275.872	86.31
276.104	90.31
276.335	96.31
276.567	94.31
276.799	105.31
277.031	96.31
277.262	99.31
277.494	88.31
277.726	86.31
277.957	70.31
278.189	88.31
278.421	74.31
278.652	86.31
278.884	82.31
279.115	85.31
279.347	73.31
279.579	78.31
279.81	87.31
280.042	81.31
280.273	75.31
280.505	82.31
280.736	95.31
280.968	78.31
281.199	81.31
281.431	79.31
281.662	75.31
281.894	82.31
282.125	95.31
282.356	114.31
282.588	103.31
282.819	100.31
283.051	90.31
283.282	92.31
283.513	80.31
283.745	92.31
283.976	93.31
284.207	114.31
284.439	100.31
284.67	89.31
284.901	82.31
285.132	76.31
285.364	88.31
285.595	82.31
285.826	89.31
286.057	85.31
286.288	95.31
286.52	78.31
286.751	95.31
286.982	84.31
287.213	79.31
287.444	95.31
287.675	94.31
287.906	88.31
288.138	87.31
288.369	84.31
288.6	102.31
288.831	79.31
289.062	88.31
289.293	79.31
289.524	90.31
289.755	74.31
289.986	87.31
290.217	98.31
290.448	88.31
290.679	77.31
290.91	88.31
291.141	93.31
291.371	70.31
291.602	82.31
291.833	76.31
292.064	90.31
292.295	82.31
292.526	90.31
292.757	95.31
292.987	84.31
293.218	76.31
293.449	85.31
293.68	86.31
293.91	103.31
294.141	92.31
294.372	74.31
294.603	86.31
294.833	87.31
295.064	92.31
295.295	91.31
295.525	84.31
295.756	81.31
295.987	88.31
296.217	116.31
296.448	110.31
296.679	97.31
296.909	83.31
297.14	96.31
297.37	76.31
297.601	77.31
297.831	86.31
298.062	84.31
298.292	91.31
298.523	103.31
298.753	93.31
298.984	87.31
299.214	80.31
299.445	98.31
299.675	79.31
299.905	97.31
300.136	84.31
300.366	102.31
300.597	96.31
300.827	94.31
301.057	98.31
301.288	93.31
301.518	84.31
301.748	90.31
301.979	92.31
302.209	77.31
302.439	90.31
302.669	86.31
302.9	85.31
303.13	108.31
303.36	100.31
303.59	93.31
303.82	101.31
304.051	91.31
304.281	84.31
304.511	92.31
304.741	88.31
304.971	87.31
305.201	87.31
305.431	88.31
305.661	89.31
305.891	95.31
306.121	85.31
306.352	92.31
306.582	88.31
306.812	94.31
307.042	95.31
307.272	83.31
307.502	94.31
307.731	92.31
307.961	90.31
308.191	85.31
308.421	86.31
308.651	82.31
308.881	89.31
309.111	91.31
309.341	85.31
309.571	89.31
309.8	89.31
310.03	84.31
310.26	100.31
310.49	93.31
310.72	102.31
310.949	96.31
311.179	101.31
311.409	91.31
311.639	97.31
311.868	104.31
312.098	86.31
312.328	101.31
312.557	97.31
312.787	99.31
313.017	103.31
313.246	90.31
313.476	87.31
313.706	79.31
313.935	81.31
314.165	90.31
314.394	82.31
314.624	94.31
314.853	79.31
315.083	95.31
315.312	86.31
315.542	74.31
315.771	92.31
316.001	84.31
316.23	87.31
316.46	86.31
316.689	95.31
316.919	92.31
317.148	80.31
317.377	105.31
317.607	120.31
317.836	92.31
318.065	92.31
318.295	100.31
318.524	100.31
318.753	84.31
318.983	89.31
319.212	103.31
319.441	93.31
319.67	98.31
319.9	90.31
320.129	100.31
320.358	98.31
320.587	93.31
320.816	98.31
321.046	89.31
321.275	76.31
321.504	72.31
321.733	97.31
321.962	94.31
322.191	96.31
322.42	104.31
322.649	100.31
322.878	98.31
323.108	97.31
323.337	114.31
323.566	115.31
323.795	124.31
324.024	166.31
324.253	290.31
324.482	646.31
324.71	1255.31
324.939	1608.31
325.168	600.31
325.397	200.31
325.626	143.31
325.855	126.31
326.084	128.31
326.313	140.31
326.542	152.31
326.77	189.31
326.999	363.31
327.228	726.31
327.457	1258.31
327.686	1043.31
327.914	302.31
328.143	160.31
328.372	126.31
328.6	116.31
328.829	111.31
329.058	116.31
329.287	115.31
329.515	87.31
329.744	95.31
329.972	86.31
330.201	117.31
330.43	119.31
330.658	103.31
330.887	104.31
331.115	100.31
331.344	102.31
331.572	95.31
331.801	84.31
332.03	88.31
332.258	91.31
332.486	83.31
332.715	80.31
332.943	88.31
333.172	90.31
333.4	102.31
333.629	99.31
333.857	94.31
334.085	88.31
334.314	103.31
334.542	129.31
334.771	125.31
334.999	103.31
335.227	92.31
335.455	100.31
335.684	109.31
335.912	90.31
336.14	91.31
336.369	97.31
336.597	98.31
336.825	89.31
337.053	95.31
337.281	94.31
337.51	77.31
337.738	70.31
337.966	101.31
338.194	88.31
338.422	87.31
338.65	88.31
338.878	85.31
339.106	76.31
339.334	98.31
339.562	88.31
339.79	86.31
340.018	98.31
340.246	86.31
340.474	94.31
340.702	84.31
340.93	80.31
341.158	71.31
341.386	92.31
341.614	89.31
341.842	79.31
342.07	91.31
342.298	95.31
342.526	85.31
342.754	95.31
342.981	85.31
343.209	75.31
343.437	91.31
343.665	86.31
343.893	87.31
344.12	84.31
344.348	88.31
344.576	77.31
344.804	84.31
345.031	77.31
345.259	84.31
345.487	78.31
345.714	96.31
345.942	93.31
346.17	97.31
346.397	85.31
346.625	83.31
346.853	87.31
347.08	83.31
347.308	83.31
347.535	94.31
347.763	108.31
347.99	94.31
348.218	91.31
348.445	85.31
348.673	91.31
348.9	92.31
349.128	101.31
349.355	87.31
349.583	85.31
349.81	86.31
350.037	93.31
350.265	96.31
350.492	94.31
350.72	88.31
350.947	102.31
351.174	91.31
351.402	108.31
351.629	90.31
351.856	97.31
352.083	80.31
352.311	94.31
352.538	84.31
352.765	99.31
352.992	90.31
353.22	86.31
353.447	97.31
353.674	93.31
353.901	79.31
354.128	97.31
354.355	80.31
354.583	89.31
354.81	95.31
355.037	82.31
355.264	85.31
355.491	82.31
355.718	81.31
355.945	100.31
356.172	90.31
356.399	84.31
356.626	93.31
356.853	87.31
357.08	87.31
357.307	100.31
357.534	96.31
357.761	79.31
357.988	97.31
358.215	91.31
358.441	87.31
358.668	105.31
358.895	82.31
359.122	80.31
359.349	80.31
359.576	108.31
359.802	99.31
360.029	99.31
360.256	83.31
360.483	80.31
360.709	90.31
360.936	88.31
361.163	90.31
361.39	87.31
361.616	101.31
361.843	95.31
362.07	87.31
362.296	86.31
362.523	94.31
362.749	90.31
362.976	84.31
363.203	85.31
363.429	86.31
363.656	84.31
363.882	78.31
364.109	79.31
364.335	82.31
364.562	72.31
364.788	99.31
365.015	99.31
365.241	104.31
365.468	95.31
365.694	104.31
365.92	86.31
366.147	81.31
366.373	88.31
366.599	87.31
366.826	90.31
367.052	84.31
367.278	83.31
367.505	85.31
367.731	97.31
367.957	84.31
368.184	93.31
368.41	89.31
368.636	106.31
368.862	100.31
369.089	74.31
369.315	98.31
369.541	72.31
369.767	88.31
369.993	89.31
370.219	73.31
370.445	87.31
370.672	94.31
370.898	81.31
371.124	90.31
371.35	88.31
371.576	75.31
371.802	86.31
372.028	98.31
372.254	77.31
372.48	73.31
372.706	83.31
372.932	82.31
373.158	86.31
373.384	93.31
373.61	92.31
373.835	85.31
374.061	79.31
374.287	100.31
374.513	90.31
374.739	93.31
374.965	102.31
375.191	84.31
375.416	88.31
375.642	88.31
375.868	110.31
376.094	85.31
376.319	80.31
376.545	84.31
376.771	85.31
376.997	73.31
377.222	91.31
377.448	80.31
377.674	85.31
377.899	90.31
378.125	85.31
378.35	94.31
378.576	78.31
378.802	96.31
379.027	94.31
379.253	81.31
379.478	86.31
379.704	99.31
379.929	83.31
380.155	94.31
380.38	94.31
380.606	88.31
380.831	100.31
381.057	100.31
381.282	82.31
381.507	95.31
381.733	87.31
381.958	115.31
382.184	99.31
382.409	88.31
382.634	87.31
382.86	104.31
383.085	97.31
383.31	91.31
383.535	101.31
383.761	91.31
383.986	72.31
384.211	82.31
384.436	90.31
384.662	89.31
384.887	104.31
385.112	90.31
385.337	99.31
385.562	104.31
385.787	97.31
386.013	100.31
386.238	94.31
386.463	90.31
386.688	112.31
386.913	109.31
387.138	103.31
387.363	100.31
387.588	95.31
387.813	94.31
388.038	93.31
388.263	108.31
388.488	103.31
388.713	101.31
388.938	99.31
389.163	89.31
389.387	109.31
389.612	91.31
389.837	92.31
390.062	94.31
390.287	77.31
390.512	83.31
390.736	87.31
390.961	89.31
391.186	79.31
391.411	104.31
391.636	92.31
391.86	86.31
392.085	82.31
392.31	83.31
392.534	73.31
392.759	86.31
392.984	79.31
393.208	86.31
393.433	88.31
393.658	76.31
393.882	74.31
394.107	63.31
394.331	76.31
394.556	93.31
394.78	92.31
395.005	90.31
395.229	84.31
395.454	71.31
395.678	84.31
395.903	85.31
396.127	94.31
396.352	88.31
396.576	79.31
396.801	89.31
397.025	86.31
397.249	85.31
397.474	92.31
397.698	87.31
397.922	90.31
398.147	66.31
398.371	96.31
398.595	74.31
398.82	91.31
399.044	75.31
399.268	69.31
399.492	76.31
399.717	102.31
399.941	83.31
400.165	107.31
400.389	92.31
400.613	79.31
400.837	91.31
401.062	95.31
401.286	86.31
401.51	84.31
401.734	84.31
401.958	94.31
402.182	107.31
402.406	130.31
402.63	105.31
402.854	79.31
403.078	86.31
403.302	80.31
403.526	87.31
403.75	105.31
403.974	86.31
404.198	94.31
404.422	84.31
404.645	70.31
404.869	80.31
405.093	96.31
405.317	92.31
405.541	85.31
405.765	99.31
405.988	97.31
406.212	136.31
406.436	164.31
406.66	113.31
406.883	114.31
407.107	92.31
407.331	100.31
407.555	87.31
407.778	80.31
408.002	90.31
408.226	81.31
408.449	83.31
408.673	97.31
408.896	86.31
409.12	85.31
409.344	80.31
409.567	88.31
409.791	95.31
410.014	91.31
410.238	96.31
410.461	84.31
410.685	91.31
410.908	94.31
411.132	98.31
411.355	94.31
411.578	74.31
411.802	78.31
412.025	95.31
412.249	90.31
412.472	83.31
412.695	89.31
412.919	76.31
413.142	88.31
413.365	75.31
413.589	90.31
413.812	90.31
414.035	101.31
414.258	87.31
414.482	83.31
414.705	81.31
414.928	84.31
415.151	94.31
415.374	87.31
415.597	87.31
415.821	73.31
416.044	76.31
416.267	77.31
416.49	84.31
416.713	86.31
416.936	72.31
417.159	100.31
417.382	96.31
417.605	76.31
417.828	89.31
418.051	78.31
418.274	83.31
418.497	69.31
418.72	79.31
418.943	101.31
419.166	88.31
419.389	91.31
419.611	83.31
419.834	75.31
420.057	89.31
420.28	88.31
420.503	84.31
420.726	79.31
420.948	96.31
421.171	101.31
421.394	92.31
421.617	97.31
421.839	87.31
422.062	91.31
422.285	98.31
422.507	104.31
422.73	96.31
422.953	91.31
423.175	91.31
423.398	99.31
423.621	85.31
423.843	93.31
424.066	84.31
424.288	83.31
424.511	81.31
424.733	69.31
424.956	85.31
425.178	80.31
425.401	86.31
425.623	88.31
425.846	98.31
426.068	87.31
426.291	81.31
426.513	78.31
426.735	82.31
426.958	88.31
427.18	76.31
427.402	116.31
427.625	129.31
427.847	114.31
428.069	99.31
428.292	77.31
428.514	81.31
428.736	78.31
428.958	91.31
429.181	85.31
429.403	78.31
429.625	84.31
429.847	79.31
430.069	87.31
430.292	86.31
430.514	67.31
430.736	82.31
430.958	80.31
431.18	78.31
431.402	75.31
431.624	87.31
431.846	76.31
432.068	74.31
432.29	90.31
432.512	97.31
432.734	87.31
432.956	89.31
433.178	95.31
433.4	89.31
433.622	79.31
433.844	88.31
434.066	86.31
434.287	78.31
434.509	91.31
434.731	77.31
434.953	81.31
435.175	87.31
435.397	91.31
435.618	81.31
435.84	102.31
436.062	102.31
436.284	90.31
436.505	97.31
436.727	87.31
436.949	102.31
437.17	95.31
437.392	84.31
437.614	89.31
437.835	98.31
438.057	107.31
438.278	89.31
438.5	95.31
438.721	106.31
438.943	98.31
439.165	78.31
439.386	95.31
439.608	84.31
439.829	98.31
440.05	111.31
440.272	110.31
440.493	92.31
440.715	88.31
440.936	84.31
441.158	76.31
441.379	90.31
441.6	101.31
441.822	96.31
442.043	99.31
442.264	84.31
442.486	79.31
442.707	83.31
442.928	83.31
443.149	97.31
443.371	102.31
443.592	108.31
443.813	100.31
444.034	90.31
444.255	85.31
444.476	83.31
444.698	82.31
444.919	79.31
445.14	128.31
445.361	104.31
445.582	103.31
445.803	108.31
446.024	108.31
446.245	117.31
446.466	103.31
446.687	92.31
446.908	75.31
447.129	102.31
447.35	110.31
447.571	86.31
447.792	96.31
448.013	98.31
448.234	88.31
448.455	105.31
448.675	90.31
448.896	109.31
449.117	84.31
449.338	93.31
449.559	118.31
449.779	120.31
450	85.31
450.221	75.31
450.442	81.31
450.662	87.31
450.883	81.31
451.104	81.31
451.324	83.31
451.545	72.31
451.766	93.31
451.986	95.31
452.207	92.31
452.428	83.31
452.648	92.31
452.869	89.31
453.089	97.31
453.31	101.31
453.53	88.31
453.751	87.31
453.971	93.31
454.192	88.31
454.412	86.31
454.633	87.31
454.853	97.31
455.073	86.31
455.294	91.31
455.514	70.31
455.734	84.31
455.955	82.31
456.175	92.31
456.395	85.31
456.616	79.31
456.836	95.31
457.056	72.31
457.276	81.31
457.497	76.31
457.717	78.31
457.937	72.31
458.157	84.31
458.377	93.31
458.598	100.31
458.818	122.31
459.038	128.31
459.258	97.31
459.478	84.31
459.698	80.31
459.918	92.31
460.138	95.31
460.358	85.31
460.578	90.31
460.798	89.31
461.018	73.31
461.238	68.31
461.458	86.31
461.678	81.31
461.898	87.31
462.118	87.31
462.338	88.31
462.558	76.31
462.777	79.31
462.997	90.31
463.217	95.31
463.437	78.31
463.657	91.31
463.876	79.31
464.096	77.31
464.316	86.31
464.536	91.31
464.755	90.31
464.975	108.31
465.195	107.31
465.414	133.31
465.634	87.31
465.854	79.31
466.073	82.31
466.293	70.31
466.512	80.31
466.732	84.31
466.951	75.31
467.171	89.31
467.391	83.31
467.61	91.31
467.829	84.31
468.049	95.31
468.268	98.31
468.488	87.31
468.707	70.31
468.927	86.31
469.146	74.31
469.365	91.31
469.585	81.31
469.804	100.31
470.023	75.31
470.243	92.31
470.462	98.31
470.681	92.31
470.901	98.31
471.12	81.31
471.339	86.31
471.558	83.31
471.777	81.31
471.997	80.31
472.216	88.31
472.435	124.31
472.654	80.31
472.873	84.31
473.092	92.31
473.311	85.31
473.53	83.31
473.749	77.31
473.968	71.31
474.187	95.31
474.406	100.31
474.625	92.31
474.844	84.31
475.063	81.31
475.282	80.31
475.501	86.31
475.72	91.31
475.939	90.31
476.158	89.31
476.377	70.31
476.596	76.31
476.814	83.31
477.033	91.31
477.252	83.31
477.471	92.31
477.69	91.31
477.908	93.31
478.127	88.31
478.346	85.31
478.564	87.31
478.783	84.31
479.002	79.31
479.22	87.31
479.439	83.31
479.658	90.31
479.876	81.31
480.095	71.31
480.313	102.31
480.532	91.31
480.751	84.31
480.969	99.31
481.188	151.31
481.406	132.31
481.624	101.31
481.843	93.31
482.061	84.31
482.28	86.31
482.498	96.31
482.717	75.31
482.935	81.31
483.153	93.31
483.372	78.31
483.59	90.31
483.808	94.31
484.027	80.31
484.245	85.31
484.463	77.31
484.681	75.31
484.9	80.31
485.118	86.31
485.336	80.31
485.554	83.31
485.772	93.31
485.99	94.31
486.209	86.31
486.427	103.31
486.645	97.31
486.863	101.31
487.081	98.31
487.299	103.31
487.517	94.31
487.735	94.31
487.953	92.31
488.171	100.31
488.389	84.31
488.607	89.31
488.825	66.31
489.043	93.31
489.261	84.31
489.479	82.31
489.696	91.31
489.914	80.31
490.132	76.31
490.35	101.31
490.568	90.31
490.786	93.31
491.003	92.31
491.221	97.31
491.439	91.31
491.657	87.31
491.874	90.31
492.092	87.31
492.31	88.31
492.527	85.31
492.745	78.31
492.963	71.31
493.18	92.31
493.398	103.31
493.615	93.31
493.833	84.31
494.05	83.31
494.268	100.31
494.485	96.31
494.703	94.31
494.92	95.31
495.138	86.31
495.355	93.31
495.573	91.31
495.79	87.31
496.008	101.31
496.225	82.31
496.442	78.31
496.66	98.31
496.877	88.31
497.094	81.31
497.312	89.31
497.529	80.31
497.746	79.31
497.963	90.31
498.181	75.31
498.398	84.31
498.615	103.31
498.832	87.31
499.049	76.31
499.267	92.31
499.484	99.31
499.701	88.31
499.918	78.31
500.135	92.31
500.352	84.31
500.569	89.31
500.786	88.31
501.003	85.31
501.22	90.31
501.437	85.31
501.654	85.31
501.871	86.31
502.088	69.31
502.305	80.31
502.522	80.31
502.739	80.31
502.956	86.31
503.172	86.31
503.389	105.31
503.606	103.31
503.823	100.31
504.04	74.31
504.256	101.31
504.473	80.31
504.69	84.31
504.907	88.31
505.123	96.31
505.34	82.31
505.557	78.31
505.773	87.31
505.99	85.31
506.207	94.31
506.423	91.31
506.64	90.31
506.856	91.31
507.073	86.31
507.289	91.31
507.506	86.31
507.722	99.31
507.939	100.31
508.155	88.31
508.372	96.31
508.588	90.31
508.805	92.31
509.021	96.31
509.238	95.31
509.454	90.31
509.67	94.31
509.887	91.31
510.103	96.31
510.319	168.31
510.536	526.31
510.752	1576.31
510.968	469.31
511.184	140.31
511.401	96.31
511.617	72.31
511.833	82.31
512.049	90.31
512.265	98.31
512.481	94.31
512.698	106.31
512.914	94.31
513.13	107.31
513.346	88.31
513.562	107.31
513.778	98.31
513.994	101.31
514.21	105.31
514.426	105.31
514.642	109.31
514.858	111.31
515.074	123.31
515.29	306.31
515.506	919.31
515.721	366.31
515.937	132.31
516.153	101.31
516.369	93.31
516.585	79.31
516.801	88.31
517.016	80.31
517.232	86.31
