Data from Uncirc_2009_H10_HRD10591_00069.txt Node
Date: Wed Jan 03 10:12:15 EST 2024
User: Yrep
Spectrometer: HR+D1059
Trigger mode: 1
Integration Time (sec): 1.000000E-1
Scans to average: 1
Electric dark correction enabled: true
Nonlinearity correction enabled: false
Boxcar width: 0
XAxis mode: Wavelengths
Number of Pixels in Spectrum: 2048
>>>>>Begin Spectral Data<<<<<
223.165	-21.88
223.4	-21.88
223.635	-21.88
223.869	-18.88
224.104	-11.88
224.338	-6.88
224.573	-26.88
224.808	-7.88
225.042	10.12
225.277	-4.88
225.511	-3.88
225.746	11.12
225.98	-1.88
226.215	-2.88
226.449	6.12
226.683	23.12
226.918	30.12
227.152	27.12
227.387	43.12
227.621	33.12
227.856	35.12
228.09	52.12
228.324	56.12
228.559	51.12
228.793	44.12
229.027	55.12
229.262	66.12
229.496	68.12
229.73	89.12
229.964	83.12
230.199	85.12
230.433	70.12
230.667	69.12
230.901	75.12
231.136	88.12
231.37	84.12
231.604	73.12
231.838	80.12
232.072	87.12
232.306	70.12
232.541	80.12
232.775	74.12
233.009	84.12
233.243	78.12
233.477	77.12
233.711	68.12
233.945	82.12
234.179	79.12
234.413	77.12
234.647	86.12
234.881	69.12
235.115	73.12
235.349	59.12
235.583	83.12
235.817	68.12
236.051	72.12
236.285	77.12
236.519	76.12
236.753	70.12
236.987	73.12
237.221	69.12
237.455	56.12
237.689	73.12
237.922	62.12
238.156	70.12
238.39	68.12
238.624	66.12
238.858	69.12
239.091	71.12
239.325	77.12
239.559	81.12
239.793	71.12
240.027	81.12
240.26	82.12
240.494	74.12
240.728	81.12
240.961	82.12
241.195	78.12
241.429	92.12
241.662	69.12
241.896	89.12
242.13	73.12
242.363	81.12
242.597	78.12
242.83	73.12
243.064	79.12
243.298	75.12
243.531	66.12
243.765	84.12
243.998	76.12
244.232	89.12
244.465	77.12
244.699	77.12
244.932	65.12
245.166	67.12
245.399	74.12
245.633	72.12
245.866	78.12
246.099	76.12
246.333	83.12
246.566	78.12
246.8	68.12
247.033	80.12
247.266	76.12
247.5	75.12
247.733	61.12
247.966	82.12
248.2	73.12
248.433	85.12
248.666	72.12
248.899	77.12
249.133	84.12
249.366	93.12
249.599	87.12
249.832	76.12
250.066	81.12
250.299	77.12
250.532	74.12
250.765	70.12
250.998	80.12
251.231	73.12
251.465	61.12
251.698	86.12
251.931	84.12
252.164	79.12
252.397	78.12
252.63	94.12
252.863	76.12
253.096	74.12
253.329	76.12
253.562	64.12
253.795	72.12
254.028	85.12
254.261	83.12
254.494	87.12
254.727	81.12
254.96	68.12
255.193	90.12
255.426	73.12
255.659	87.12
255.892	76.12
256.124	74.12
256.357	95.12
256.59	77.12
256.823	94.12
257.056	79.12
257.289	85.12
257.521	79.12
257.754	77.12
257.987	73.12
258.22	76.12
258.452	70.12
258.685	75.12
258.918	84.12
259.151	78.12
259.383	87.12
259.616	73.12
259.849	96.12
260.081	76.12
260.314	78.12
260.547	63.12
260.779	62.12
261.012	72.12
261.244	79.12
261.477	79.12
261.71	75.12
261.942	105.12
262.175	90.12
262.407	80.12
262.64	77.12
262.872	73.12
263.105	79.12
263.337	69.12
263.57	78.12
263.802	84.12
264.035	76.12
264.267	91.12
264.499	95.12
264.732	86.12
264.964	65.12
265.197	67.12
265.429	83.12
265.661	88.12
265.894	69.12
266.126	74.12
266.358	76.12
266.591	74.12
266.823	68.12
267.055	83.12
267.287	70.12
267.52	83.12
267.752	82.12
267.984	70.12
268.216	83.12
268.448	88.12
268.681	74.12
268.913	85.12
269.145	71.12
269.377	76.12
269.609	80.12
269.841	76.12
270.073	87.12
270.306	81.12
270.538	85.12
270.77	84.12
271.002	90.12
271.234	80.12
271.466	87.12
271.698	81.12
271.93	72.12
272.162	77.12
272.394	88.12
272.626	94.12
272.858	84.12
273.09	89.12
273.322	83.12
273.553	85.12
273.785	86.12
274.017	74.12
274.249	77.12
274.481	87.12
274.713	79.12
274.945	78.12
275.176	77.12
275.408	71.12
275.64	99.12
275.872	71.12
276.104	73.12
276.335	77.12
276.567	94.12
276.799	91.12
277.031	79.12
277.262	89.12
277.494	94.12
277.726	92.12
277.957	83.12
278.189	74.12
278.421	73.12
278.652	89.12
278.884	82.12
279.115	89.12
279.347	73.12
279.579	92.12
279.81	91.12
280.042	97.12
280.273	83.12
280.505	60.12
280.736	72.12
280.968	84.12
281.199	93.12
281.431	94.12
281.662	66.12
281.894	87.12
282.125	79.12
282.356	101.12
282.588	105.12
282.819	102.12
283.051	92.12
283.282	79.12
283.513	98.12
283.745	66.12
283.976	82.12
284.207	90.12
284.439	78.12
284.67	87.12
284.901	87.12
285.132	89.12
285.364	77.12
285.595	87.12
285.826	97.12
286.057	89.12
286.288	98.12
286.52	109.12
286.751	80.12
286.982	83.12
287.213	86.12
287.444	82.12
287.675	83.12
287.906	84.12
288.138	78.12
288.369	76.12
288.6	97.12
288.831	99.12
289.062	88.12
289.293	97.12
289.524	79.12
289.755	91.12
289.986	88.12
290.217	92.12
290.448	87.12
290.679	86.12
290.91	91.12
291.141	95.12
291.371	86.12
291.602	87.12
291.833	76.12
292.064	65.12
292.295	90.12
292.526	89.12
292.757	82.12
292.987	89.12
293.218	80.12
293.449	78.12
293.68	82.12
293.91	80.12
294.141	79.12
294.372	87.12
294.603	75.12
294.833	91.12
295.064	93.12
295.295	102.12
295.525	83.12
295.756	86.12
295.987	112.12
296.217	114.12
296.448	105.12
296.679	89.12
296.909	83.12
297.14	80.12
297.37	78.12
297.601	74.12
297.831	98.12
298.062	85.12
298.292	86.12
298.523	90.12
298.753	98.12
298.984	85.12
299.214	86.12
299.445	78.12
299.675	96.12
299.905	92.12
300.136	92.12
300.366	78.12
300.597	77.12
300.827	95.12
301.057	95.12
301.288	109.12
301.518	97.12
301.748	97.12
301.979	103.12
302.209	84.12
302.439	96.12
302.669	83.12
302.9	88.12
303.13	90.12
303.36	112.12
303.59	122.12
303.82	95.12
304.051	82.12
304.281	85.12
304.511	80.12
304.741	88.12
304.971	89.12
305.201	79.12
305.431	87.12
305.661	79.12
305.891	89.12
306.121	83.12
306.352	93.12
306.582	88.12
306.812	103.12
307.042	102.12
307.272	98.12
307.502	78.12
307.731	83.12
307.961	94.12
308.191	92.12
308.421	70.12
308.651	88.12
308.881	94.12
309.111	85.12
309.341	80.12
309.571	86.12
309.8	75.12
310.03	86.12
310.26	84.12
310.49	92.12
310.72	85.12
310.949	96.12
311.179	88.12
311.409	91.12
311.639	89.12
311.868	87.12
312.098	94.12
312.328	99.12
312.557	86.12
312.787	99.12
313.017	99.12
313.246	93.12
313.476	89.12
313.706	90.12
313.935	77.12
314.165	100.12
314.394	104.12
314.624	68.12
314.853	84.12
315.083	91.12
315.312	85.12
315.542	90.12
315.771	91.12
316.001	93.12
316.23	87.12
316.46	89.12
316.689	84.12
316.919	85.12
317.148	93.12
317.377	108.12
317.607	108.12
317.836	107.12
318.065	86.12
318.295	78.12
318.524	92.12
318.753	85.12
318.983	90.12
319.212	98.12
319.441	97.12
319.67	96.12
319.9	91.12
320.129	96.12
320.358	82.12
320.587	89.12
320.816	92.12
321.046	102.12
321.275	96.12
321.504	82.12
321.733	96.12
321.962	99.12
322.191	102.12
322.42	102.12
322.649	89.12
322.878	107.12
323.108	93.12
323.337	106.12
323.566	120.12
323.795	131.12
324.024	200.12
324.253	331.12
324.482	736.12
324.71	1425.12
324.939	1920.12
325.168	696.12
325.397	212.12
325.626	132.12
325.855	134.12
326.084	130.12
326.313	150.12
326.542	148.12
326.77	223.12
326.999	422.12
327.228	826.12
327.457	1442.12
327.686	1169.12
327.914	330.12
328.143	159.12
328.372	128.12
328.6	109.12
328.829	103.12
329.058	124.12
329.287	120.12
329.515	105.12
329.744	115.12
329.972	85.12
330.201	100.12
330.43	104.12
330.658	117.12
330.887	126.12
331.115	109.12
331.344	98.12
331.572	85.12
331.801	92.12
332.03	100.12
332.258	90.12
332.486	96.12
332.715	87.12
332.943	84.12
333.172	98.12
333.4	90.12
333.629	98.12
333.857	117.12
334.085	104.12
334.314	101.12
334.542	114.12
334.771	118.12
334.999	94.12
335.227	82.12
335.455	69.12
335.684	88.12
335.912	87.12
336.14	97.12
336.369	96.12
336.597	97.12
336.825	86.12
337.053	84.12
337.281	82.12
337.51	74.12
337.738	82.12
337.966	90.12
338.194	77.12
338.422	85.12
338.65	86.12
338.878	93.12
339.106	96.12
339.334	90.12
339.562	86.12
339.79	83.12
340.018	78.12
340.246	102.12
340.474	86.12
340.702	82.12
340.93	94.12
341.158	93.12
341.386	90.12
341.614	97.12
341.842	85.12
342.07	75.12
342.298	102.12
342.526	78.12
342.754	83.12
342.981	94.12
343.209	100.12
343.437	92.12
343.665	80.12
343.893	85.12
344.12	89.12
344.348	100.12
344.576	88.12
344.804	82.12
345.031	92.12
345.259	102.12
345.487	75.12
345.714	91.12
345.942	92.12
346.17	99.12
346.397	90.12
346.625	88.12
346.853	87.12
347.08	78.12
347.308	93.12
347.535	113.12
347.763	96.12
347.99	95.12
348.218	75.12
348.445	86.12
348.673	78.12
348.9	94.12
349.128	84.12
349.355	89.12
349.583	93.12
349.81	81.12
350.037	81.12
350.265	84.12
350.492	81.12
350.72	86.12
350.947	96.12
351.174	103.12
351.402	97.12
351.629	100.12
351.856	89.12
352.083	81.12
352.311	95.12
352.538	106.12
352.765	101.12
352.992	97.12
353.22	96.12
353.447	102.12
353.674	82.12
353.901	91.12
354.128	84.12
354.355	81.12
354.583	98.12
354.81	83.12
355.037	100.12
355.264	75.12
355.491	82.12
355.718	84.12
355.945	81.12
356.172	91.12
356.399	97.12
356.626	86.12
356.853	88.12
357.08	76.12
357.307	78.12
357.534	88.12
357.761	73.12
357.988	66.12
358.215	86.12
358.441	93.12
358.668	108.12
358.895	97.12
359.122	94.12
359.349	83.12
359.576	89.12
359.802	98.12
360.029	98.12
360.256	97.12
360.483	93.12
360.709	76.12
360.936	84.12
361.163	82.12
361.39	76.12
361.616	86.12
361.843	87.12
362.07	99.12
362.296	90.12
362.523	93.12
362.749	81.12
362.976	85.12
363.203	86.12
363.429	82.12
363.656	92.12
363.882	91.12
364.109	75.12
364.335	84.12
364.562	80.12
364.788	84.12
365.015	89.12
365.241	90.12
365.468	90.12
365.694	88.12
365.92	98.12
366.147	94.12
366.373	67.12
366.599	86.12
366.826	74.12
367.052	87.12
367.278	71.12
367.505	81.12
367.731	86.12
367.957	87.12
368.184	80.12
368.41	84.12
368.636	109.12
368.862	108.12
369.089	86.12
369.315	77.12
369.541	94.12
369.767	86.12
369.993	95.12
370.219	82.12
370.445	91.12
370.672	81.12
370.898	72.12
371.124	80.12
371.35	78.12
371.576	58.12
371.802	89.12
372.028	82.12
372.254	77.12
372.48	85.12
372.706	77.12
372.932	80.12
373.158	72.12
373.384	82.12
373.61	89.12
373.835	81.12
374.061	86.12
374.287	81.12
374.513	102.12
374.739	88.12
374.965	89.12
375.191	83.12
375.416	73.12
375.642	86.12
375.868	88.12
376.094	88.12
376.319	81.12
376.545	85.12
376.771	96.12
376.997	84.12
377.222	85.12
377.448	92.12
377.674	84.12
377.899	74.12
378.125	82.12
378.35	107.12
378.576	93.12
378.802	77.12
379.027	93.12
379.253	82.12
379.478	93.12
379.704	85.12
379.929	91.12
380.155	96.12
380.38	89.12
380.606	89.12
380.831	82.12
381.057	94.12
381.282	97.12
381.507	89.12
381.733	76.12
381.958	68.12
382.184	81.12
382.409	99.12
382.634	90.12
382.86	86.12
383.085	100.12
383.31	94.12
383.535	93.12
383.761	96.12
383.986	110.12
384.211	103.12
384.436	84.12
384.662	105.12
384.887	98.12
385.112	89.12
385.337	91.12
385.562	99.12
385.787	94.12
386.013	109.12
386.238	88.12
386.463	100.12
386.688	109.12
386.913	86.12
387.138	94.12
387.363	99.12
387.588	92.12
387.813	81.12
388.038	101.12
388.263	96.12
388.488	101.12
388.713	101.12
388.938	93.12
389.163	89.12
389.387	93.12
389.612	86.12
389.837	88.12
390.062	92.12
390.287	96.12
390.512	82.12
390.736	85.12
390.961	87.12
391.186	87.12
391.411	84.12
391.636	83.12
391.86	88.12
392.085	98.12
392.31	77.12
392.534	88.12
392.759	89.12
392.984	84.12
393.208	87.12
393.433	86.12
393.658	68.12
393.882	80.12
394.107	71.12
394.331	90.12
394.556	74.12
394.78	80.12
395.005	85.12
395.229	83.12
395.454	85.12
395.678	81.12
395.903	76.12
396.127	98.12
396.352	85.12
396.576	80.12
396.801	61.12
397.025	78.12
397.249	85.12
397.474	82.12
397.698	85.12
397.922	82.12
398.147	75.12
398.371	85.12
398.595	78.12
398.82	84.12
399.044	89.12
399.268	85.12
399.492	86.12
399.717	83.12
399.941	82.12
400.165	76.12
400.389	76.12
400.613	78.12
400.837	92.12
401.062	89.12
401.286	83.12
401.51	81.12
401.734	87.12
401.958	98.12
402.182	110.12
402.406	118.12
402.63	93.12
402.854	72.12
403.078	98.12
403.302	90.12
403.526	83.12
403.75	96.12
403.974	84.12
404.198	91.12
404.422	81.12
404.645	85.12
404.869	82.12
405.093	84.12
405.317	100.12
405.541	89.12
405.765	88.12
405.988	97.12
406.212	140.12
406.436	149.12
406.66	112.12
406.883	85.12
407.107	93.12
407.331	96.12
407.555	99.12
407.778	96.12
408.002	92.12
408.226	93.12
408.449	90.12
408.673	87.12
408.896	97.12
409.12	92.12
409.344	92.12
409.567	82.12
409.791	86.12
410.014	104.12
410.238	91.12
410.461	88.12
410.685	83.12
410.908	97.12
411.132	100.12
411.355	85.12
411.578	88.12
411.802	87.12
412.025	72.12
412.249	82.12
412.472	89.12
412.695	89.12
412.919	90.12
413.142	89.12
413.365	81.12
413.589	73.12
413.812	77.12
414.035	83.12
414.258	101.12
414.482	89.12
414.705	89.12
414.928	85.12
415.151	78.12
415.374	85.12
415.597	78.12
415.821	84.12
416.044	72.12
416.267	80.12
416.49	96.12
416.713	77.12
416.936	89.12
417.159	72.12
417.382	95.12
417.605	84.12
417.828	92.12
418.051	89.12
418.274	97.12
418.497	84.12
418.72	82.12
418.943	80.12
419.166	93.12
419.389	89.12
419.611	82.12
419.834	100.12
420.057	69.12
420.28	84.12
420.503	88.12
420.726	78.12
420.948	97.12
421.171	79.12
421.394	92.12
421.617	74.12
421.839	82.12
422.062	78.12
422.285	94.12
422.507	88.12
422.73	88.12
422.953	88.12
423.175	83.12
423.398	87.12
423.621	86.12
423.843	89.12
424.066	85.12
424.288	94.12
424.511	86.12
424.733	84.12
424.956	74.12
425.178	86.12
425.401	101.12
425.623	83.12
425.846	71.12
426.068	87.12
426.291	81.12
426.513	87.12
426.735	79.12
426.958	78.12
427.18	84.12
427.402	117.12
427.625	147.12
427.847	111.12
428.069	102.12
428.292	73.12
428.514	82.12
428.736	107.12
428.958	82.12
429.181	83.12
429.403	83.12
429.625	83.12
429.847	77.12
430.069	88.12
430.292	85.12
430.514	84.12
430.736	76.12
430.958	90.12
431.18	88.12
431.402	89.12
431.624	97.12
431.846	88.12
432.068	74.12
432.29	82.12
432.512	78.12
432.734	98.12
432.956	90.12
433.178	81.12
433.4	106.12
433.622	81.12
433.844	80.12
434.066	83.12
434.287	61.12
434.509	83.12
434.731	87.12
434.953	84.12
435.175	69.12
435.397	76.12
435.618	85.12
435.84	93.12
436.062	118.12
436.284	107.12
436.505	90.12
436.727	90.12
436.949	85.12
437.17	88.12
437.392	88.12
437.614	75.12
437.835	112.12
438.057	93.12
438.278	90.12
438.5	88.12
438.721	108.12
438.943	101.12
439.165	87.12
439.386	83.12
439.608	96.12
439.829	88.12
440.05	109.12
440.272	115.12
440.493	92.12
440.715	81.12
440.936	86.12
441.158	88.12
441.379	87.12
441.6	71.12
441.822	93.12
442.043	81.12
442.264	89.12
442.486	87.12
442.707	78.12
442.928	97.12
443.149	115.12
443.371	101.12
443.592	97.12
443.813	85.12
444.034	100.12
444.255	89.12
444.476	75.12
444.698	69.12
444.919	91.12
445.14	124.12
445.361	109.12
445.582	96.12
445.803	119.12
446.024	109.12
446.245	109.12
446.466	104.12
446.687	90.12
446.908	75.12
447.129	84.12
447.35	87.12
447.571	93.12
447.792	92.12
448.013	93.12
448.234	80.12
448.455	84.12
448.675	97.12
448.896	109.12
449.117	100.12
449.338	108.12
449.559	114.12
449.779	118.12
450	93.12
450.221	80.12
450.442	73.12
450.662	81.12
450.883	89.12
451.104	87.12
451.324	69.12
451.545	84.12
451.766	90.12
451.986	83.12
452.207	83.12
452.428	93.12
452.648	96.12
452.869	90.12
453.089	89.12
453.31	102.12
453.53	93.12
453.751	89.12
453.971	96.12
454.192	86.12
454.412	77.12
454.633	73.12
454.853	84.12
455.073	84.12
455.294	90.12
455.514	85.12
455.734	85.12
455.955	81.12
456.175	83.12
456.395	81.12
456.616	86.12
456.836	96.12
457.056	91.12
457.276	86.12
457.497	90.12
457.717	88.12
457.937	82.12
458.157	88.12
458.377	80.12
458.598	78.12
458.818	100.12
459.038	112.12
459.258	90.12
459.478	90.12
459.698	81.12
459.918	101.12
460.138	71.12
460.358	88.12
460.578	86.12
460.798	82.12
461.018	67.12
461.238	83.12
461.458	78.12
461.678	82.12
461.898	81.12
462.118	89.12
462.338	81.12
462.558	80.12
462.777	90.12
462.997	84.12
463.217	88.12
463.437	89.12
463.657	75.12
463.876	86.12
464.096	81.12
464.316	80.12
464.536	91.12
464.755	97.12
464.975	89.12
465.195	142.12
465.414	139.12
465.634	85.12
465.854	85.12
466.073	75.12
466.293	82.12
466.512	80.12
466.732	78.12
466.951	76.12
467.171	65.12
467.391	97.12
467.61	95.12
467.829	100.12
468.049	86.12
468.268	80.12
468.488	96.12
468.707	80.12
468.927	87.12
469.146	68.12
469.365	69.12
469.585	91.12
469.804	88.12
470.023	90.12
470.243	84.12
470.462	90.12
470.681	89.12
470.901	87.12
471.12	88.12
471.339	81.12
471.558	86.12
471.777	88.12
471.997	92.12
472.216	101.12
472.435	116.12
472.654	93.12
472.873	77.12
473.092	72.12
473.311	86.12
473.53	87.12
473.749	97.12
473.968	92.12
474.187	91.12
474.406	86.12
474.625	84.12
474.844	91.12
475.063	72.12
475.282	76.12
475.501	88.12
475.72	86.12
475.939	93.12
476.158	85.12
476.377	79.12
476.596	81.12
476.814	77.12
477.033	75.12
477.252	76.12
477.471	73.12
477.69	83.12
477.908	70.12
478.127	90.12
478.346	75.12
478.564	89.12
478.783	95.12
479.002	84.12
479.22	78.12
479.439	98.12
479.658	96.12
479.876	75.12
480.095	84.12
480.313	89.12
480.532	76.12
480.751	89.12
480.969	95.12
481.188	149.12
481.406	130.12
481.624	105.12
481.843	86.12
482.061	84.12
482.28	88.12
482.498	80.12
482.717	100.12
482.935	83.12
483.153	76.12
483.372	82.12
483.59	83.12
483.808	91.12
484.027	85.12
484.245	94.12
484.463	87.12
484.681	91.12
484.9	90.12
485.118	90.12
485.336	79.12
485.554	88.12
485.772	82.12
485.99	98.12
486.209	93.12
486.427	92.12
486.645	103.12
486.863	88.12
487.081	95.12
487.299	81.12
487.517	100.12
487.735	94.12
487.953	77.12
488.171	84.12
488.389	104.12
488.607	106.12
488.825	69.12
489.043	86.12
489.261	82.12
489.479	77.12
489.696	85.12
489.914	97.12
490.132	88.12
490.35	101.12
490.568	85.12
490.786	93.12
491.003	96.12
491.221	76.12
491.439	96.12
491.657	89.12
491.874	73.12
492.092	89.12
492.31	88.12
492.527	86.12
492.745	89.12
492.963	82.12
493.18	76.12
493.398	89.12
493.615	103.12
493.833	98.12
494.05	86.12
494.268	82.12
494.485	107.12
494.703	84.12
494.92	93.12
495.138	91.12
495.355	85.12
495.573	85.12
495.79	78.12
496.008	87.12
496.225	88.12
496.442	72.12
496.66	97.12
496.877	90.12
497.094	82.12
497.312	96.12
497.529	88.12
497.746	85.12
497.963	96.12
498.181	89.12
498.398	72.12
498.615	81.12
498.832	92.12
499.049	82.12
499.267	86.12
499.484	90.12
499.701	92.12
499.918	82.12
500.135	82.12
500.352	81.12
500.569	89.12
500.786	78.12
501.003	78.12
501.22	83.12
501.437	103.12
501.654	89.12
501.871	93.12
502.088	85.12
502.305	72.12
502.522	81.12
502.739	86.12
502.956	87.12
503.172	98.12
503.389	89.12
503.606	92.12
503.823	86.12
504.04	90.12
504.256	92.12
504.473	83.12
504.69	90.12
504.907	80.12
505.123	78.12
505.34	90.12
505.557	85.12
505.773	89.12
505.99	89.12
506.207	88.12
506.423	92.12
506.64	90.12
506.856	96.12
507.073	88.12
507.289	86.12
507.506	82.12
507.722	98.12
507.939	104.12
508.155	84.12
508.372	88.12
508.588	93.12
508.805	94.12
509.021	89.12
509.238	107.12
509.454	100.12
509.67	106.12
509.887	90.12
510.103	126.12
510.319	180.12
510.536	579.12
510.752	1677.12
510.968	504.12
511.184	128.12
511.401	92.12
511.617	88.12
511.833	77.12
512.049	84.12
512.265	84.12
512.481	86.12
512.698	67.12
512.914	103.12
513.13	89.12
513.346	80.12
513.562	77.12
513.778	79.12
513.994	97.12
514.21	93.12
514.426	91.12
514.642	104.12
514.858	103.12
515.074	144.12
515.29	341.12
515.506	991.12
515.721	395.12
515.937	129.12
516.153	96.12
516.369	91.12
516.585	92.12
516.801	76.12
517.016	82.12
517.232	66.12
517.448	98.12
517.664	75.12
