Data from Uncirc_2009_H10_HRD10591_00084.txt Node
Date: Wed Jan 03 10:12:18 EST 2024
User: Yrep
Spectrometer: HR+D1059
Trigger mode: 1
Integration Time (sec): 1.000000E-1
Scans to average: 1
Electric dark correction enabled: true
Nonlinearity correction enabled: false
Boxcar width: 0
XAxis mode: Wavelengths
Number of Pixels in Spectrum: 2048
>>>>>Begin Spectral Data<<<<<
223.165	-22.69
223.4	-22.69
223.635	-22.69
223.869	-15.69
224.104	-12.69
224.338	-12.69
224.573	-14.69
224.808	0.31
225.042	-18.69
225.277	-19.69
225.511	0.31
225.746	20.31
225.98	5.31
226.215	12.31
226.449	25.31
226.683	18.31
226.918	11.31
227.152	23.31
227.387	38.31
227.621	42.31
227.856	47.31
228.09	44.31
228.324	45.31
228.559	49.31
228.793	56.31
229.027	57.31
229.262	64.31
229.496	76.31
229.73	80.31
229.964	77.31
230.199	78.31
230.433	72.31
230.667	76.31
230.901	64.31
231.136	79.31
231.37	70.31
231.604	77.31
231.838	72.31
232.072	80.31
232.306	85.31
232.541	69.31
232.775	77.31
233.009	76.31
233.243	66.31
233.477	72.31
233.711	77.31
233.945	80.31
234.179	85.31
234.413	81.31
234.647	84.31
234.881	69.31
235.115	81.31
235.349	62.31
235.583	80.31
235.817	75.31
236.051	70.31
236.285	79.31
236.519	88.31
236.753	92.31
236.987	72.31
237.221	79.31
237.455	74.31
237.689	75.31
237.922	72.31
238.156	73.31
238.39	64.31
238.624	72.31
238.858	80.31
239.091	76.31
239.325	88.31
239.559	71.31
239.793	77.31
240.027	73.31
240.26	81.31
240.494	79.31
240.728	83.31
240.961	82.31
241.195	75.31
241.429	74.31
241.662	70.31
241.896	66.31
242.13	60.31
242.363	72.31
242.597	80.31
242.83	79.31
243.064	77.31
243.298	69.31
243.531	82.31
243.765	73.31
243.998	69.31
244.232	89.31
244.465	70.31
244.699	78.31
244.932	77.31
245.166	80.31
245.399	68.31
245.633	87.31
245.866	75.31
246.099	79.31
246.333	69.31
246.566	73.31
246.8	93.31
247.033	81.31
247.266	88.31
247.5	80.31
247.733	76.31
247.966	75.31
248.2	83.31
248.433	82.31
248.666	89.31
248.899	61.31
249.133	92.31
249.366	94.31
249.599	95.31
249.832	87.31
250.066	87.31
250.299	80.31
250.532	85.31
250.765	80.31
250.998	84.31
251.231	72.31
251.465	87.31
251.698	85.31
251.931	77.31
252.164	84.31
252.397	85.31
252.63	85.31
252.863	78.31
253.096	74.31
253.329	78.31
253.562	73.31
253.795	80.31
254.028	82.31
254.261	84.31
254.494	76.31
254.727	89.31
254.96	83.31
255.193	94.31
255.426	73.31
255.659	85.31
255.892	81.31
256.124	88.31
256.357	93.31
256.59	89.31
256.823	91.31
257.056	78.31
257.289	84.31
257.521	86.31
257.754	75.31
257.987	85.31
258.22	79.31
258.452	75.31
258.685	83.31
258.918	76.31
259.151	70.31
259.383	80.31
259.616	89.31
259.849	71.31
260.081	80.31
260.314	98.31
260.547	88.31
260.779	84.31
261.012	73.31
261.244	90.31
261.477	94.31
261.71	85.31
261.942	97.31
262.175	114.31
262.407	93.31
262.64	87.31
262.872	73.31
263.105	93.31
263.337	71.31
263.57	82.31
263.802	89.31
264.035	87.31
264.267	75.31
264.499	88.31
264.732	74.31
264.964	72.31
265.197	72.31
265.429	65.31
265.661	85.31
265.894	75.31
266.126	77.31
266.358	86.31
266.591	93.31
266.823	76.31
267.055	85.31
267.287	91.31
267.52	69.31
267.752	87.31
267.984	88.31
268.216	84.31
268.448	89.31
268.681	86.31
268.913	96.31
269.145	84.31
269.377	73.31
269.609	85.31
269.841	81.31
270.073	78.31
270.306	92.31
270.538	73.31
270.77	81.31
271.002	91.31
271.234	92.31
271.466	88.31
271.698	87.31
271.93	95.31
272.162	78.31
272.394	86.31
272.626	99.31
272.858	98.31
273.09	81.31
273.322	87.31
273.553	93.31
273.785	83.31
274.017	79.31
274.249	80.31
274.481	87.31
274.713	94.31
274.945	102.31
275.176	81.31
275.408	80.31
275.64	94.31
275.872	89.31
276.104	80.31
276.335	84.31
276.567	94.31
276.799	87.31
277.031	82.31
277.262	84.31
277.494	79.31
277.726	87.31
277.957	81.31
278.189	97.31
278.421	80.31
278.652	101.31
278.884	85.31
279.115	89.31
279.347	92.31
279.579	85.31
279.81	80.31
280.042	91.31
280.273	83.31
280.505	79.31
280.736	83.31
280.968	80.31
281.199	86.31
281.431	90.31
281.662	88.31
281.894	85.31
282.125	101.31
282.356	104.31
282.588	117.31
282.819	107.31
283.051	85.31
283.282	87.31
283.513	99.31
283.745	90.31
283.976	99.31
284.207	91.31
284.439	79.31
284.67	88.31
284.901	80.31
285.132	86.31
285.364	96.31
285.595	81.31
285.826	82.31
286.057	88.31
286.288	99.31
286.52	84.31
286.751	81.31
286.982	85.31
287.213	102.31
287.444	71.31
287.675	82.31
287.906	93.31
288.138	83.31
288.369	92.31
288.6	93.31
288.831	91.31
289.062	81.31
289.293	81.31
289.524	89.31
289.755	78.31
289.986	89.31
290.217	91.31
290.448	83.31
290.679	78.31
290.91	90.31
291.141	84.31
291.371	81.31
291.602	84.31
291.833	100.31
292.064	87.31
292.295	93.31
292.526	76.31
292.757	82.31
292.987	79.31
293.218	76.31
293.449	89.31
293.68	93.31
293.91	68.31
294.141	83.31
294.372	85.31
294.603	80.31
294.833	88.31
295.064	79.31
295.295	71.31
295.525	87.31
295.756	96.31
295.987	102.31
296.217	117.31
296.448	103.31
296.679	95.31
296.909	106.31
297.14	96.31
297.37	80.31
297.601	73.31
297.831	86.31
298.062	92.31
298.292	86.31
298.523	83.31
298.753	88.31
298.984	88.31
299.214	80.31
299.445	93.31
299.675	88.31
299.905	93.31
300.136	87.31
300.366	91.31
300.597	84.31
300.827	92.31
301.057	85.31
301.288	89.31
301.518	76.31
301.748	80.31
301.979	94.31
302.209	88.31
302.439	81.31
302.669	97.31
302.9	105.31
303.13	89.31
303.36	101.31
303.59	106.31
303.82	107.31
304.051	94.31
304.281	87.31
304.511	84.31
304.741	88.31
304.971	69.31
305.201	94.31
305.431	89.31
305.661	99.31
305.891	102.31
306.121	92.31
306.352	80.31
306.582	92.31
306.812	78.31
307.042	85.31
307.272	78.31
307.502	92.31
307.731	105.31
307.961	94.31
308.191	83.31
308.421	81.31
308.651	100.31
308.881	88.31
309.111	88.31
309.341	86.31
309.571	89.31
309.8	84.31
310.03	91.31
310.26	77.31
310.49	92.31
310.72	84.31
310.949	94.31
311.179	89.31
311.409	100.31
311.639	92.31
311.868	99.31
312.098	102.31
312.328	92.31
312.557	95.31
312.787	95.31
313.017	87.31
313.246	91.31
313.476	81.31
313.706	87.31
313.935	88.31
314.165	93.31
314.394	87.31
314.624	96.31
314.853	88.31
315.083	84.31
315.312	87.31
315.542	93.31
315.771	103.31
316.001	84.31
316.23	78.31
316.46	80.31
316.689	96.31
316.919	87.31
317.148	92.31
317.377	108.31
317.607	115.31
317.836	108.31
318.065	94.31
318.295	96.31
318.524	82.31
318.753	97.31
318.983	88.31
319.212	91.31
319.441	90.31
319.67	99.31
319.9	95.31
320.129	90.31
320.358	93.31
320.587	88.31
320.816	105.31
321.046	96.31
321.275	93.31
321.504	98.31
321.733	77.31
321.962	98.31
322.191	93.31
322.42	110.31
322.649	96.31
322.878	97.31
323.108	101.31
323.337	105.31
323.566	106.31
323.795	128.31
324.024	170.31
324.253	299.31
324.482	620.31
324.71	1257.31
324.939	1690.31
325.168	638.31
325.397	208.31
325.626	140.31
325.855	143.31
326.084	121.31
326.313	136.31
326.542	140.31
326.77	201.31
326.999	372.31
327.228	733.31
327.457	1316.31
327.686	1056.31
327.914	294.31
328.143	137.31
328.372	112.31
328.6	113.31
328.829	93.31
329.058	120.31
329.287	123.31
329.515	107.31
329.744	106.31
329.972	87.31
330.201	101.31
330.43	108.31
330.658	109.31
330.887	127.31
331.115	113.31
331.344	90.31
331.572	96.31
331.801	112.31
332.03	96.31
332.258	89.31
332.486	101.31
332.715	86.31
332.943	96.31
333.172	93.31
333.4	102.31
333.629	101.31
333.857	110.31
334.085	112.31
334.314	108.31
334.542	116.31
334.771	104.31
334.999	98.31
335.227	82.31
335.455	81.31
335.684	78.31
335.912	98.31
336.14	87.31
336.369	96.31
336.597	93.31
336.825	79.31
337.053	84.31
337.281	89.31
337.51	95.31
337.738	84.31
337.966	95.31
338.194	99.31
338.422	87.31
338.65	85.31
338.878	81.31
339.106	88.31
339.334	77.31
339.562	79.31
339.79	85.31
340.018	96.31
340.246	96.31
340.474	85.31
340.702	93.31
340.93	77.31
341.158	83.31
341.386	90.31
341.614	79.31
341.842	90.31
342.07	92.31
342.298	75.31
342.526	87.31
342.754	91.31
342.981	77.31
343.209	95.31
343.437	95.31
343.665	69.31
343.893	80.31
344.12	97.31
344.348	83.31
344.576	89.31
344.804	97.31
345.031	82.31
345.259	82.31
345.487	93.31
345.714	98.31
345.942	82.31
346.17	78.31
346.397	86.31
346.625	81.31
346.853	109.31
347.08	86.31
347.308	91.31
347.535	93.31
347.763	87.31
347.99	80.31
348.218	87.31
348.445	99.31
348.673	89.31
348.9	97.31
349.128	94.31
349.355	86.31
349.583	76.31
349.81	96.31
350.037	87.31
350.265	92.31
350.492	88.31
350.72	92.31
350.947	87.31
351.174	105.31
351.402	107.31
351.629	89.31
351.856	100.31
352.083	87.31
352.311	93.31
352.538	106.31
352.765	102.31
352.992	95.31
353.22	100.31
353.447	95.31
353.674	106.31
353.901	105.31
354.128	101.31
354.355	106.31
354.583	92.31
354.81	97.31
355.037	111.31
355.264	93.31
355.491	101.31
355.718	97.31
355.945	92.31
356.172	117.31
356.399	80.31
356.626	103.31
356.853	92.31
357.08	94.31
357.307	95.31
357.534	85.31
357.761	91.31
357.988	95.31
358.215	107.31
358.441	92.31
358.668	93.31
358.895	90.31
359.122	84.31
359.349	69.31
359.576	93.31
359.802	94.31
360.029	89.31
360.256	92.31
360.483	92.31
360.709	99.31
360.936	74.31
361.163	80.31
361.39	91.31
361.616	96.31
361.843	91.31
362.07	78.31
362.296	75.31
362.523	94.31
362.749	80.31
362.976	88.31
363.203	97.31
363.429	90.31
363.656	84.31
363.882	69.31
364.109	84.31
364.335	89.31
364.562	104.31
364.788	86.31
365.015	86.31
365.241	97.31
365.468	104.31
365.694	99.31
365.92	96.31
366.147	75.31
366.373	96.31
366.599	83.31
366.826	94.31
367.052	85.31
367.278	101.31
367.505	84.31
367.731	81.31
367.957	92.31
368.184	102.31
368.41	102.31
368.636	117.31
368.862	98.31
369.089	85.31
369.315	81.31
369.541	86.31
369.767	77.31
369.993	88.31
370.219	96.31
370.445	79.31
370.672	87.31
370.898	88.31
371.124	93.31
371.35	92.31
371.576	97.31
371.802	77.31
372.028	96.31
372.254	95.31
372.48	94.31
372.706	80.31
372.932	96.31
373.158	83.31
373.384	110.31
373.61	85.31
373.835	90.31
374.061	79.31
374.287	90.31
374.513	96.31
374.739	77.31
374.965	91.31
375.191	96.31
375.416	94.31
375.642	99.31
375.868	84.31
376.094	87.31
376.319	88.31
376.545	97.31
376.771	90.31
376.997	86.31
377.222	91.31
377.448	86.31
377.674	91.31
377.899	81.31
378.125	101.31
378.35	89.31
378.576	88.31
378.802	99.31
379.027	93.31
379.253	80.31
379.478	87.31
379.704	83.31
379.929	87.31
380.155	91.31
380.38	90.31
380.606	86.31
380.831	100.31
381.057	92.31
381.282	92.31
381.507	103.31
381.733	95.31
381.958	97.31
382.184	93.31
382.409	95.31
382.634	90.31
382.86	92.31
383.085	100.31
383.31	86.31
383.535	94.31
383.761	99.31
383.986	105.31
384.211	94.31
384.436	100.31
384.662	103.31
384.887	98.31
385.112	98.31
385.337	92.31
385.562	93.31
385.787	103.31
386.013	94.31
386.238	126.31
386.463	99.31
386.688	95.31
386.913	102.31
387.138	109.31
387.363	102.31
387.588	91.31
387.813	92.31
388.038	96.31
388.263	114.31
388.488	112.31
388.713	99.31
388.938	95.31
389.163	100.31
389.387	90.31
389.612	97.31
389.837	100.31
390.062	92.31
390.287	88.31
390.512	105.31
390.736	89.31
390.961	95.31
391.186	99.31
391.411	81.31
391.636	109.31
391.86	87.31
392.085	85.31
392.31	80.31
392.534	96.31
392.759	83.31
392.984	77.31
393.208	73.31
393.433	94.31
393.658	78.31
393.882	76.31
394.107	100.31
394.331	85.31
394.556	90.31
394.78	93.31
395.005	73.31
395.229	92.31
395.454	92.31
395.678	91.31
395.903	101.31
396.127	89.31
396.352	94.31
396.576	94.31
396.801	88.31
397.025	95.31
397.249	87.31
397.474	90.31
397.698	93.31
397.922	93.31
398.147	73.31
398.371	81.31
398.595	80.31
398.82	81.31
399.044	83.31
399.268	104.31
399.492	86.31
399.717	89.31
399.941	100.31
400.165	98.31
400.389	80.31
400.613	85.31
400.837	91.31
401.062	79.31
401.286	80.31
401.51	75.31
401.734	85.31
401.958	90.31
402.182	99.31
402.406	113.31
402.63	96.31
402.854	82.31
403.078	76.31
403.302	79.31
403.526	91.31
403.75	97.31
403.974	77.31
404.198	69.31
404.422	93.31
404.645	76.31
404.869	77.31
405.093	101.31
405.317	86.31
405.541	101.31
405.765	100.31
405.988	108.31
406.212	139.31
406.436	165.31
406.66	110.31
406.883	95.31
407.107	102.31
407.331	97.31
407.555	102.31
407.778	86.31
408.002	101.31
408.226	86.31
408.449	83.31
408.673	93.31
408.896	78.31
409.12	107.31
409.344	91.31
409.567	94.31
409.791	107.31
410.014	93.31
410.238	91.31
410.461	94.31
410.685	95.31
410.908	100.31
411.132	88.31
411.355	99.31
411.578	83.31
411.802	80.31
412.025	104.31
412.249	75.31
412.472	90.31
412.695	89.31
412.919	87.31
413.142	78.31
413.365	84.31
413.589	103.31
413.812	96.31
414.035	86.31
414.258	87.31
414.482	91.31
414.705	76.31
414.928	83.31
415.151	80.31
415.374	102.31
415.597	87.31
415.821	90.31
416.044	91.31
416.267	78.31
416.49	76.31
416.713	87.31
416.936	91.31
417.159	78.31
417.382	81.31
417.605	79.31
417.828	76.31
418.051	96.31
418.274	74.31
418.497	84.31
418.72	90.31
418.943	75.31
419.166	86.31
419.389	100.31
419.611	98.31
419.834	80.31
420.057	95.31
420.28	93.31
420.503	92.31
420.726	86.31
420.948	94.31
421.171	73.31
421.394	89.31
421.617	92.31
421.839	105.31
422.062	96.31
422.285	81.31
422.507	101.31
422.73	91.31
422.953	86.31
423.175	93.31
423.398	97.31
423.621	94.31
423.843	78.31
424.066	81.31
424.288	104.31
424.511	89.31
424.733	83.31
424.956	109.31
425.178	101.31
425.401	86.31
425.623	90.31
425.846	76.31
426.068	86.31
426.291	87.31
426.513	92.31
426.735	88.31
426.958	92.31
427.18	90.31
427.402	111.31
427.625	123.31
427.847	112.31
428.069	76.31
428.292	76.31
428.514	86.31
428.736	76.31
428.958	92.31
429.181	86.31
429.403	91.31
429.625	70.31
429.847	92.31
430.069	81.31
430.292	79.31
430.514	93.31
430.736	97.31
430.958	84.31
431.18	87.31
431.402	91.31
431.624	72.31
431.846	83.31
432.068	89.31
432.29	78.31
432.512	84.31
432.734	75.31
432.956	93.31
433.178	88.31
433.4	94.31
433.622	100.31
433.844	90.31
434.066	91.31
434.287	103.31
434.509	90.31
434.731	85.31
434.953	89.31
435.175	96.31
435.397	83.31
435.618	81.31
435.84	94.31
436.062	120.31
436.284	108.31
436.505	95.31
436.727	78.31
436.949	80.31
437.17	92.31
437.392	90.31
437.614	79.31
437.835	86.31
438.057	111.31
438.278	95.31
438.5	105.31
438.721	108.31
438.943	90.31
439.165	84.31
439.386	78.31
439.608	94.31
439.829	96.31
440.05	105.31
440.272	108.31
440.493	84.31
440.715	93.31
440.936	101.31
441.158	89.31
441.379	86.31
441.6	96.31
441.822	80.31
442.043	88.31
442.264	85.31
442.486	89.31
442.707	105.31
442.928	101.31
443.149	111.31
443.371	108.31
443.592	102.31
443.813	100.31
444.034	110.31
444.255	85.31
444.476	73.31
444.698	77.31
444.919	94.31
445.14	135.31
445.361	113.31
445.582	106.31
445.803	102.31
446.024	116.31
446.245	110.31
446.466	93.31
446.687	100.31
446.908	83.31
447.129	69.31
447.35	84.31
447.571	81.31
447.792	102.31
448.013	90.31
448.234	84.31
448.455	96.31
448.675	105.31
448.896	111.31
449.117	91.31
449.338	103.31
449.559	124.31
449.779	101.31
450	99.31
450.221	87.31
450.442	107.31
450.662	85.31
450.883	83.31
451.104	82.31
451.324	89.31
451.545	89.31
451.766	95.31
451.986	97.31
452.207	91.31
452.428	89.31
452.648	97.31
452.869	111.31
453.089	93.31
453.31	107.31
453.53	93.31
453.751	85.31
453.971	84.31
454.192	97.31
454.412	96.31
454.633	85.31
454.853	94.31
455.073	87.31
455.294	96.31
455.514	106.31
455.734	89.31
455.955	88.31
456.175	74.31
456.395	95.31
456.616	61.31
456.836	84.31
457.056	78.31
457.276	88.31
457.497	91.31
457.717	83.31
457.937	83.31
458.157	80.31
458.377	88.31
458.598	82.31
458.818	118.31
459.038	108.31
459.258	115.31
459.478	86.31
459.698	90.31
459.918	76.31
460.138	94.31
460.358	79.31
460.578	73.31
460.798	86.31
461.018	85.31
461.238	87.31
461.458	111.31
461.678	81.31
461.898	83.31
462.118	61.31
462.338	82.31
462.558	85.31
462.777	78.31
462.997	91.31
463.217	79.31
463.437	77.31
463.657	90.31
463.876	79.31
464.096	104.31
464.316	91.31
464.536	78.31
464.755	103.31
464.975	98.31
465.195	118.31
465.414	114.31
465.634	91.31
465.854	90.31
466.073	77.31
466.293	83.31
466.512	84.31
466.732	83.31
466.951	89.31
467.171	95.31
467.391	96.31
467.61	87.31
467.829	85.31
468.049	91.31
468.268	104.31
468.488	81.31
468.707	85.31
468.927	84.31
469.146	81.31
469.365	99.31
469.585	89.31
469.804	94.31
470.023	92.31
470.243	92.31
470.462	89.31
470.681	96.31
470.901	90.31
471.12	88.31
471.339	103.31
471.558	81.31
471.777	82.31
471.997	83.31
472.216	95.31
472.435	123.31
472.654	83.31
472.873	89.31
473.092	75.31
473.311	89.31
473.53	70.31
473.749	79.31
473.968	92.31
474.187	91.31
474.406	95.31
474.625	82.31
474.844	80.31
475.063	86.31
475.282	86.31
475.501	75.31
475.72	91.31
475.939	93.31
476.158	75.31
476.377	95.31
476.596	87.31
476.814	99.31
477.033	103.31
477.252	90.31
477.471	94.31
477.69	96.31
477.908	87.31
478.127	79.31
478.346	100.31
478.564	89.31
478.783	92.31
479.002	90.31
479.22	92.31
479.439	84.31
479.658	95.31
479.876	81.31
480.095	87.31
480.313	80.31
480.532	101.31
480.751	89.31
480.969	96.31
481.188	124.31
481.406	128.31
481.624	117.31
481.843	92.31
482.061	90.31
482.28	95.31
482.498	101.31
482.717	94.31
482.935	95.31
483.153	95.31
483.372	83.31
483.59	87.31
483.808	81.31
484.027	88.31
484.245	82.31
484.463	81.31
484.681	101.31
484.9	79.31
485.118	86.31
485.336	78.31
485.554	85.31
485.772	92.31
485.99	87.31
486.209	87.31
486.427	95.31
486.645	113.31
486.863	86.31
487.081	105.31
487.299	111.31
487.517	85.31
487.735	88.31
487.953	84.31
488.171	91.31
488.389	86.31
488.607	82.31
488.825	85.31
489.043	91.31
489.261	93.31
489.479	80.31
489.696	89.31
489.914	88.31
490.132	83.31
490.35	75.31
490.568	87.31
490.786	90.31
491.003	85.31
491.221	76.31
491.439	79.31
491.657	100.31
491.874	99.31
492.092	100.31
492.31	97.31
492.527	77.31
492.745	86.31
492.963	75.31
493.18	91.31
493.398	88.31
493.615	94.31
493.833	91.31
494.05	80.31
494.268	77.31
494.485	81.31
494.703	94.31
494.92	84.31
495.138	90.31
495.355	84.31
495.573	89.31
495.79	97.31
496.008	89.31
496.225	88.31
496.442	88.31
496.66	96.31
496.877	81.31
497.094	92.31
497.312	98.31
497.529	89.31
497.746	92.31
497.963	95.31
498.181	94.31
498.398	83.31
498.615	105.31
498.832	100.31
499.049	91.31
499.267	84.31
499.484	88.31
499.701	94.31
499.918	86.31
500.135	94.31
500.352	89.31
500.569	90.31
500.786	88.31
501.003	88.31
501.22	88.31
501.437	100.31
501.654	78.31
501.871	99.31
502.088	99.31
502.305	81.31
502.522	81.31
502.739	85.31
502.956	86.31
503.172	86.31
503.389	92.31
503.606	88.31
503.823	86.31
504.04	82.31
504.256	91.31
504.473	91.31
504.69	83.31
504.907	81.31
505.123	87.31
505.34	96.31
505.557	75.31
505.773	99.31
505.99	101.31
506.207	91.31
506.423	93.31
506.64	97.31
506.856	93.31
507.073	96.31
507.289	104.31
507.506	93.31
507.722	90.31
507.939	99.31
508.155	84.31
508.372	92.31
508.588	97.31
508.805	101.31
509.021	92.31
509.238	98.31
509.454	86.31
509.67	84.31
509.887	88.31
510.103	118.31
510.319	173.31
510.536	484.31
510.752	1428.31
510.968	430.31
511.184	124.31
511.401	109.31
511.617	77.31
511.833	93.31
512.049	95.31
512.265	88.31
512.481	90.31
512.698	80.31
512.914	64.31
513.13	85.31
513.346	104.31
513.562	88.31
513.778	100.31
513.994	96.31
514.21	85.31
514.426	104.31
514.642	110.31
514.858	87.31
515.074	126.31
515.29	291.31
515.506	833.31
515.721	349.31
515.937	135.31
516.153	96.31
516.369	96.31
516.585	86.31
516.801	90.31
517.016	99.31
