Data from Uncirc_2009_H10_HRD10591_00066.txt Node
Date: Wed Jan 03 10:12:15 EST 2024
User: Yrep
Spectrometer: HR+D1059
Trigger mode: 1
Integration Time (sec): 1.000000E-1
Scans to average: 1
Electric dark correction enabled: true
Nonlinearity correction enabled: false
Boxcar width: 0
XAxis mode: Wavelengths
Number of Pixels in Spectrum: 2048
>>>>>Begin Spectral Data<<<<<
223.165	-21.31
223.4	-21.31
223.635	-21.31
223.869	-13.31
224.104	-31.31
224.338	-22.31
224.573	-13.31
224.808	-4.31
225.042	-1.31
225.277	-3.31
225.511	-0.31
225.746	0.69
225.98	1.69
226.215	9.69
226.449	20.69
226.683	18.69
226.918	30.69
227.152	28.69
227.387	33.69
227.621	45.69
227.856	44.69
228.09	48.69
228.324	49.69
228.559	59.69
228.793	66.69
229.027	72.69
229.262	84.69
229.496	79.69
229.73	86.69
229.964	65.69
230.199	75.69
230.433	53.69
230.667	85.69
230.901	93.69
231.136	81.69
231.37	78.69
231.604	87.69
231.838	84.69
232.072	78.69
232.306	98.69
232.541	89.69
232.775	84.69
233.009	91.69
233.243	81.69
233.477	102.69
233.711	81.69
233.945	79.69
234.179	93.69
234.413	96.69
234.647	71.69
234.881	90.69
235.115	97.69
235.349	75.69
235.583	81.69
235.817	69.69
236.051	89.69
236.285	78.69
236.519	78.69
236.753	75.69
236.987	84.69
237.221	88.69
237.455	85.69
237.689	76.69
237.922	78.69
238.156	89.69
238.39	84.69
238.624	80.69
238.858	80.69
239.091	92.69
239.325	84.69
239.559	78.69
239.793	70.69
240.027	77.69
240.26	85.69
240.494	67.69
240.728	92.69
240.961	80.69
241.195	72.69
241.429	72.69
241.662	73.69
241.896	85.69
242.13	81.69
242.363	89.69
242.597	70.69
242.83	82.69
243.064	74.69
243.298	77.69
243.531	83.69
243.765	78.69
243.998	80.69
244.232	89.69
244.465	87.69
244.699	86.69
244.932	75.69
245.166	82.69
245.399	81.69
245.633	69.69
245.866	85.69
246.099	84.69
246.333	76.69
246.566	85.69
246.8	98.69
247.033	72.69
247.266	67.69
247.5	84.69
247.733	93.69
247.966	80.69
248.2	88.69
248.433	85.69
248.666	77.69
248.899	96.69
249.133	84.69
249.366	88.69
249.599	103.69
249.832	87.69
250.066	66.69
250.299	93.69
250.532	83.69
250.765	86.69
250.998	89.69
251.231	90.69
251.465	92.69
251.698	89.69
251.931	82.69
252.164	84.69
252.397	90.69
252.63	93.69
252.863	100.69
253.096	77.69
253.329	91.69
253.562	81.69
253.795	92.69
254.028	78.69
254.261	98.69
254.494	86.69
254.727	84.69
254.96	90.69
255.193	78.69
255.426	83.69
255.659	86.69
255.892	81.69
256.124	89.69
256.357	84.69
256.59	89.69
256.823	94.69
257.056	81.69
257.289	86.69
257.521	75.69
257.754	94.69
257.987	84.69
258.22	92.69
258.452	94.69
258.685	75.69
258.918	96.69
259.151	89.69
259.383	91.69
259.616	98.69
259.849	93.69
260.081	82.69
260.314	83.69
260.547	90.69
260.779	92.69
261.012	89.69
261.244	83.69
261.477	88.69
261.71	76.69
261.942	92.69
262.175	119.69
262.407	84.69
262.64	86.69
262.872	84.69
263.105	84.69
263.337	101.69
263.57	90.69
263.802	94.69
264.035	94.69
264.267	103.69
264.499	92.69
264.732	86.69
264.964	79.69
265.197	86.69
265.429	93.69
265.661	77.69
265.894	70.69
266.126	88.69
266.358	93.69
266.591	86.69
266.823	98.69
267.055	80.69
267.287	78.69
267.52	96.69
267.752	80.69
267.984	101.69
268.216	91.69
268.448	105.69
268.681	97.69
268.913	93.69
269.145	97.69
269.377	67.69
269.609	84.69
269.841	101.69
270.073	96.69
270.306	85.69
270.538	89.69
270.77	96.69
271.002	102.69
271.234	99.69
271.466	94.69
271.698	86.69
271.93	97.69
272.162	104.69
272.394	93.69
272.626	97.69
272.858	75.69
273.09	86.69
273.322	97.69
273.553	88.69
273.785	86.69
274.017	89.69
274.249	72.69
274.481	84.69
274.713	78.69
274.945	82.69
275.176	96.69
275.408	87.69
275.64	92.69
275.872	83.69
276.104	79.69
276.335	97.69
276.567	96.69
276.799	102.69
277.031	94.69
277.262	98.69
277.494	81.69
277.726	90.69
277.957	89.69
278.189	88.69
278.421	92.69
278.652	86.69
278.884	80.69
279.115	92.69
279.347	85.69
279.579	93.69
279.81	87.69
280.042	98.69
280.273	89.69
280.505	96.69
280.736	92.69
280.968	77.69
281.199	89.69
281.431	84.69
281.662	84.69
281.894	78.69
282.125	88.69
282.356	121.69
282.588	117.69
282.819	97.69
283.051	70.69
283.282	95.69
283.513	106.69
283.745	79.69
283.976	112.69
284.207	101.69
284.439	80.69
284.67	81.69
284.901	93.69
285.132	100.69
285.364	94.69
285.595	107.69
285.826	81.69
286.057	95.69
286.288	92.69
286.52	106.69
286.751	96.69
286.982	90.69
287.213	75.69
287.444	92.69
287.675	95.69
287.906	90.69
288.138	88.69
288.369	82.69
288.6	77.69
288.831	97.69
289.062	90.69
289.293	100.69
289.524	85.69
289.755	92.69
289.986	94.69
290.217	93.69
290.448	96.69
290.679	99.69
290.91	87.69
291.141	89.69
291.371	90.69
291.602	89.69
291.833	89.69
292.064	81.69
292.295	92.69
292.526	81.69
292.757	92.69
292.987	97.69
293.218	94.69
293.449	82.69
293.68	93.69
293.91	90.69
294.141	97.69
294.372	95.69
294.603	91.69
294.833	93.69
295.064	100.69
295.295	98.69
295.525	93.69
295.756	98.69
295.987	109.69
296.217	112.69
296.448	104.69
296.679	91.69
296.909	101.69
297.14	81.69
297.37	81.69
297.601	95.69
297.831	105.69
298.062	87.69
298.292	100.69
298.523	83.69
298.753	85.69
298.984	94.69
299.214	91.69
299.445	83.69
299.675	77.69
299.905	97.69
300.136	106.69
300.366	88.69
300.597	94.69
300.827	99.69
301.057	106.69
301.288	108.69
301.518	89.69
301.748	88.69
301.979	106.69
302.209	100.69
302.439	94.69
302.669	92.69
302.9	85.69
303.13	89.69
303.36	102.69
303.59	108.69
303.82	117.69
304.051	96.69
304.281	90.69
304.511	97.69
304.741	92.69
304.971	97.69
305.201	96.69
305.431	96.69
305.661	94.69
305.891	107.69
306.121	100.69
306.352	95.69
306.582	107.69
306.812	98.69
307.042	98.69
307.272	94.69
307.502	88.69
307.731	98.69
307.961	92.69
308.191	98.69
308.421	84.69
308.651	104.69
308.881	104.69
309.111	98.69
309.341	86.69
309.571	92.69
309.8	107.69
310.03	103.69
310.26	90.69
310.49	102.69
310.72	103.69
310.949	113.69
311.179	89.69
311.409	77.69
311.639	99.69
311.868	90.69
312.098	97.69
312.328	97.69
312.557	101.69
312.787	96.69
313.017	114.69
313.246	97.69
313.476	86.69
313.706	94.69
313.935	110.69
314.165	104.69
314.394	106.69
314.624	103.69
314.853	101.69
315.083	100.69
315.312	101.69
315.542	60.69
315.771	96.69
316.001	107.69
316.23	109.69
316.46	101.69
316.689	104.69
316.919	88.69
317.148	106.69
317.377	122.69
317.607	121.69
317.836	116.69
318.065	95.69
318.295	99.69
318.524	75.69
318.753	91.69
318.983	107.69
319.212	104.69
319.441	105.69
319.67	101.69
319.9	90.69
320.129	85.69
320.358	105.69
320.587	92.69
320.816	105.69
321.046	96.69
321.275	91.69
321.504	90.69
321.733	100.69
321.962	97.69
322.191	113.69
322.42	110.69
322.649	98.69
322.878	89.69
323.108	115.69
323.337	113.69
323.566	130.69
323.795	156.69
324.024	184.69
324.253	330.69
324.482	695.69
324.71	1390.69
324.939	1824.69
325.168	677.69
325.397	220.69
325.626	154.69
325.855	144.69
326.084	141.69
326.313	156.69
326.542	161.69
326.77	200.69
326.999	406.69
327.228	778.69
327.457	1429.69
327.686	1107.69
327.914	310.69
328.143	175.69
328.372	130.69
328.6	106.69
328.829	127.69
329.058	110.69
329.287	112.69
329.515	103.69
329.744	104.69
329.972	112.69
330.201	99.69
330.43	113.69
330.658	114.69
330.887	121.69
331.115	106.69
331.344	101.69
331.572	105.69
331.801	107.69
332.03	108.69
332.258	105.69
332.486	92.69
332.715	92.69
332.943	93.69
333.172	99.69
333.4	103.69
333.629	116.69
333.857	98.69
334.085	103.69
334.314	121.69
334.542	124.69
334.771	124.69
334.999	102.69
335.227	88.69
335.455	89.69
335.684	92.69
335.912	107.69
336.14	107.69
336.369	104.69
336.597	89.69
336.825	106.69
337.053	85.69
337.281	98.69
337.51	93.69
337.738	99.69
337.966	86.69
338.194	90.69
338.422	101.69
338.65	95.69
338.878	88.69
339.106	95.69
339.334	89.69
339.562	107.69
339.79	96.69
340.018	95.69
340.246	100.69
340.474	103.69
340.702	113.69
340.93	103.69
341.158	86.69
341.386	97.69
341.614	88.69
341.842	93.69
342.07	95.69
342.298	94.69
342.526	92.69
342.754	95.69
342.981	100.69
343.209	95.69
343.437	91.69
343.665	97.69
343.893	92.69
344.12	105.69
344.348	98.69
344.576	109.69
344.804	114.69
345.031	86.69
345.259	97.69
345.487	105.69
345.714	92.69
345.942	91.69
346.17	89.69
346.397	94.69
346.625	88.69
346.853	80.69
347.08	85.69
347.308	97.69
347.535	97.69
347.763	92.69
347.99	107.69
348.218	93.69
348.445	107.69
348.673	100.69
348.9	86.69
349.128	96.69
349.355	113.69
349.583	93.69
349.81	93.69
350.037	101.69
350.265	107.69
350.492	98.69
350.72	88.69
350.947	104.69
351.174	105.69
351.402	101.69
351.629	110.69
351.856	107.69
352.083	108.69
352.311	114.69
352.538	94.69
352.765	89.69
352.992	103.69
353.22	113.69
353.447	107.69
353.674	99.69
353.901	112.69
354.128	98.69
354.355	96.69
354.583	117.69
354.81	95.69
355.037	104.69
355.264	110.69
355.491	89.69
355.718	94.69
355.945	97.69
356.172	94.69
356.399	106.69
356.626	105.69
356.853	109.69
357.08	104.69
357.307	103.69
357.534	103.69
357.761	83.69
357.988	99.69
358.215	105.69
358.441	96.69
358.668	94.69
358.895	90.69
359.122	99.69
359.349	84.69
359.576	87.69
359.802	98.69
360.029	101.69
360.256	89.69
360.483	97.69
360.709	88.69
360.936	94.69
361.163	94.69
361.39	77.69
361.616	102.69
361.843	95.69
362.07	91.69
362.296	115.69
362.523	105.69
362.749	96.69
362.976	99.69
363.203	100.69
363.429	99.69
363.656	102.69
363.882	82.69
364.109	90.69
364.335	96.69
364.562	96.69
364.788	93.69
365.015	87.69
365.241	93.69
365.468	102.69
365.694	110.69
365.92	97.69
366.147	90.69
366.373	83.69
366.599	95.69
366.826	98.69
367.052	89.69
367.278	86.69
367.505	90.69
367.731	103.69
367.957	95.69
368.184	102.69
368.41	92.69
368.636	98.69
368.862	109.69
369.089	112.69
369.315	89.69
369.541	105.69
369.767	89.69
369.993	84.69
370.219	84.69
370.445	104.69
370.672	99.69
370.898	109.69
371.124	87.69
371.35	103.69
371.576	92.69
371.802	83.69
372.028	98.69
372.254	109.69
372.48	94.69
372.706	94.69
372.932	101.69
373.158	102.69
373.384	81.69
373.61	103.69
373.835	83.69
374.061	106.69
374.287	86.69
374.513	104.69
374.739	82.69
374.965	79.69
375.191	102.69
375.416	107.69
375.642	86.69
375.868	99.69
376.094	103.69
376.319	83.69
376.545	85.69
376.771	101.69
376.997	95.69
377.222	87.69
377.448	91.69
377.674	97.69
377.899	98.69
378.125	97.69
378.35	94.69
378.576	98.69
378.802	94.69
379.027	98.69
379.253	89.69
379.478	88.69
379.704	96.69
379.929	89.69
380.155	90.69
380.38	105.69
380.606	94.69
380.831	87.69
381.057	101.69
381.282	101.69
381.507	94.69
381.733	103.69
381.958	99.69
382.184	107.69
382.409	91.69
382.634	107.69
382.86	104.69
383.085	112.69
383.31	124.69
383.535	110.69
383.761	86.69
383.986	89.69
384.211	94.69
384.436	92.69
384.662	98.69
384.887	109.69
385.112	122.69
385.337	106.69
385.562	102.69
385.787	108.69
386.013	115.69
386.238	114.69
386.463	114.69
386.688	127.69
386.913	103.69
387.138	104.69
387.363	103.69
387.588	101.69
387.813	98.69
388.038	109.69
388.263	118.69
388.488	120.69
388.713	110.69
388.938	91.69
389.163	104.69
389.387	102.69
389.612	105.69
389.837	99.69
390.062	89.69
390.287	100.69
390.512	98.69
390.736	98.69
390.961	89.69
391.186	93.69
391.411	101.69
391.636	94.69
391.86	104.69
392.085	101.69
392.31	94.69
392.534	96.69
392.759	91.69
392.984	87.69
393.208	86.69
393.433	93.69
393.658	97.69
393.882	87.69
394.107	85.69
394.331	86.69
394.556	103.69
394.78	103.69
395.005	102.69
395.229	88.69
395.454	96.69
395.678	84.69
395.903	83.69
396.127	89.69
396.352	113.69
396.576	91.69
396.801	90.69
397.025	92.69
397.249	103.69
397.474	86.69
397.698	99.69
397.922	89.69
398.147	90.69
398.371	85.69
398.595	93.69
398.82	81.69
399.044	92.69
399.268	93.69
399.492	92.69
399.717	81.69
399.941	107.69
400.165	106.69
400.389	95.69
400.613	94.69
400.837	85.69
401.062	88.69
401.286	78.69
401.51	80.69
401.734	88.69
401.958	93.69
402.182	112.69
402.406	132.69
402.63	114.69
402.854	81.69
403.078	94.69
403.302	86.69
403.526	88.69
403.75	96.69
403.974	97.69
404.198	89.69
404.422	89.69
404.645	89.69
404.869	96.69
405.093	97.69
405.317	94.69
405.541	99.69
405.765	107.69
405.988	105.69
406.212	132.69
406.436	171.69
406.66	138.69
406.883	100.69
407.107	105.69
407.331	100.69
407.555	96.69
407.778	97.69
408.002	103.69
408.226	90.69
408.449	91.69
408.673	87.69
408.896	78.69
409.12	84.69
409.344	100.69
409.567	86.69
409.791	109.69
410.014	108.69
410.238	96.69
410.461	92.69
410.685	96.69
410.908	104.69
411.132	105.69
411.355	89.69
411.578	89.69
411.802	104.69
412.025	92.69
412.249	104.69
412.472	86.69
412.695	114.69
412.919	76.69
413.142	96.69
413.365	77.69
413.589	98.69
413.812	90.69
414.035	100.69
414.258	86.69
414.482	98.69
414.705	94.69
414.928	90.69
415.151	98.69
415.374	93.69
415.597	91.69
415.821	98.69
416.044	81.69
416.267	87.69
416.49	88.69
416.713	98.69
416.936	84.69
417.159	103.69
417.382	92.69
417.605	75.69
417.828	93.69
418.051	97.69
418.274	89.69
418.497	98.69
418.72	92.69
418.943	92.69
419.166	88.69
419.389	83.69
419.611	105.69
419.834	97.69
420.057	88.69
420.28	81.69
420.503	96.69
420.726	98.69
420.948	88.69
421.171	89.69
421.394	86.69
421.617	83.69
421.839	92.69
422.062	92.69
422.285	93.69
422.507	100.69
422.73	102.69
422.953	98.69
423.175	94.69
423.398	90.69
423.621	95.69
423.843	70.69
424.066	94.69
424.288	93.69
424.511	86.69
424.733	97.69
424.956	104.69
425.178	104.69
425.401	95.69
425.623	82.69
425.846	97.69
426.068	92.69
426.291	93.69
426.513	92.69
426.735	105.69
426.958	96.69
427.18	111.69
427.402	130.69
427.625	140.69
427.847	122.69
428.069	112.69
428.292	83.69
428.514	76.69
428.736	98.69
428.958	83.69
429.181	89.69
429.403	80.69
429.625	104.69
429.847	76.69
430.069	82.69
430.292	81.69
430.514	98.69
430.736	90.69
430.958	85.69
431.18	88.69
431.402	74.69
431.624	95.69
431.846	90.69
432.068	79.69
432.29	86.69
432.512	96.69
432.734	90.69
432.956	96.69
433.178	108.69
433.4	99.69
433.622	89.69
433.844	94.69
434.066	96.69
434.287	90.69
434.509	84.69
434.731	108.69
434.953	96.69
435.175	107.69
435.397	94.69
435.618	94.69
435.84	98.69
436.062	129.69
436.284	108.69
436.505	86.69
436.727	97.69
436.949	88.69
437.17	105.69
437.392	84.69
437.614	91.69
437.835	98.69
438.057	108.69
438.278	105.69
438.5	102.69
438.721	107.69
438.943	105.69
439.165	99.69
439.386	113.69
439.608	101.69
439.829	98.69
440.05	115.69
440.272	125.69
440.493	101.69
440.715	91.69
440.936	101.69
441.158	88.69
441.379	83.69
441.6	75.69
441.822	86.69
442.043	102.69
442.264	96.69
442.486	110.69
442.707	72.69
442.928	114.69
443.149	112.69
443.371	115.69
443.592	110.69
443.813	115.69
444.034	108.69
444.255	81.69
444.476	90.69
444.698	94.69
444.919	94.69
445.14	146.69
445.361	137.69
445.582	114.69
445.803	108.69
446.024	116.69
446.245	121.69
446.466	115.69
446.687	99.69
446.908	94.69
447.129	96.69
447.35	109.69
447.571	100.69
447.792	90.69
448.013	112.69
448.234	99.69
448.455	99.69
448.675	120.69
448.896	113.69
449.117	99.69
449.338	96.69
449.559	105.69
449.779	132.69
450	112.69
450.221	85.69
450.442	75.69
450.662	89.69
450.883	100.69
451.104	89.69
451.324	90.69
451.545	84.69
451.766	92.69
451.986	97.69
452.207	87.69
452.428	87.69
452.648	106.69
452.869	109.69
453.089	97.69
453.31	106.69
453.53	93.69
453.751	85.69
453.971	108.69
454.192	111.69
454.412	106.69
454.633	96.69
454.853	97.69
455.073	73.69
455.294	81.69
455.514	90.69
455.734	101.69
455.955	85.69
456.175	86.69
456.395	93.69
456.616	94.69
456.836	74.69
457.056	73.69
457.276	76.69
457.497	82.69
457.717	87.69
457.937	78.69
458.157	96.69
458.377	92.69
458.598	105.69
458.818	115.69
459.038	141.69
459.258	105.69
459.478	83.69
459.698	99.69
459.918	95.69
460.138	96.69
460.358	104.69
460.578	86.69
460.798	78.69
461.018	93.69
461.238	87.69
461.458	85.69
461.678	91.69
461.898	90.69
462.118	88.69
462.338	94.69
462.558	93.69
462.777	89.69
462.997	85.69
463.217	88.69
463.437	90.69
463.657	107.69
463.876	92.69
464.096	88.69
464.316	94.69
464.536	95.69
464.755	102.69
464.975	98.69
465.195	127.69
465.414	117.69
465.634	100.69
465.854	91.69
466.073	100.69
466.293	92.69
466.512	104.69
466.732	80.69
466.951	95.69
467.171	91.69
467.391	88.69
467.61	109.69
467.829	100.69
468.049	89.69
468.268	92.69
468.488	95.69
468.707	78.69
468.927	94.69
469.146	83.69
469.365	67.69
469.585	91.69
469.804	97.69
470.023	81.69
470.243	91.69
470.462	94.69
470.681	91.69
470.901	94.69
471.12	92.69
471.339	94.69
471.558	91.69
471.777	86.69
471.997	95.69
472.216	105.69
472.435	127.69
472.654	109.69
472.873	90.69
473.092	80.69
473.311	82.69
473.53	84.69
473.749	96.69
473.968	96.69
474.187	113.69
474.406	91.69
474.625	103.69
474.844	97.69
475.063	84.69
475.282	92.69
475.501	80.69
475.72	84.69
475.939	94.69
476.158	85.69
476.377	85.69
476.596	93.69
476.814	91.69
477.033	97.69
477.252	102.69
477.471	91.69
477.69	98.69
477.908	93.69
478.127	86.69
478.346	93.69
478.564	84.69
478.783	93.69
479.002	94.69
479.22	85.69
479.439	84.69
479.658	96.69
479.876	84.69
480.095	109.69
480.313	103.69
480.532	97.69
480.751	100.69
480.969	114.69
481.188	176.69
481.406	126.69
481.624	98.69
481.843	98.69
482.061	97.69
482.28	97.69
482.498	97.69
482.717	95.69
482.935	78.69
483.153	85.69
483.372	86.69
483.59	101.69
483.808	105.69
484.027	87.69
484.245	90.69
484.463	92.69
484.681	105.69
484.9	93.69
485.118	86.69
485.336	89.69
485.554	105.69
485.772	110.69
485.99	112.69
486.209	98.69
486.427	103.69
486.645	101.69
486.863	125.69
487.081	102.69
487.299	112.69
487.517	109.69
487.735	104.69
487.953	98.69
488.171	103.69
488.389	96.69
488.607	95.69
488.825	90.69
489.043	93.69
489.261	94.69
489.479	95.69
489.696	92.69
489.914	91.69
490.132	86.69
490.35	96.69
490.568	93.69
490.786	97.69
491.003	98.69
491.221	94.69
491.439	90.69
491.657	101.69
491.874	95.69
492.092	103.69
492.31	84.69
492.527	97.69
492.745	105.69
492.963	89.69
493.18	97.69
493.398	88.69
493.615	102.69
493.833	99.69
494.05	83.69
494.268	98.69
494.485	83.69
494.703	89.69
494.92	83.69
495.138	85.69
495.355	105.69
495.573	108.69
495.79	96.69
496.008	98.69
496.225	107.69
496.442	86.69
496.66	93.69
496.877	95.69
497.094	95.69
497.312	91.69
497.529	92.69
497.746	93.69
497.963	91.69
498.181	86.69
498.398	95.69
498.615	111.69
498.832	98.69
499.049	100.69
499.267	78.69
499.484	95.69
499.701	88.69
499.918	118.69
500.135	105.69
500.352	85.69
500.569	90.69
500.786	88.69
501.003	95.69
501.22	95.69
501.437	102.69
501.654	110.69
501.871	118.69
502.088	104.69
502.305	92.69
502.522	94.69
502.739	97.69
502.956	101.69
503.172	103.69
503.389	102.69
503.606	107.69
503.823	103.69
504.04	79.69
504.256	112.69
504.473	105.69
504.69	86.69
504.907	101.69
505.123	90.69
505.34	94.69
505.557	89.69
505.773	96.69
505.99	88.69
506.207	104.69
506.423	100.69
506.64	99.69
506.856	86.69
507.073	86.69
507.289	91.69
507.506	89.69
507.722	97.69
507.939	99.69
508.155	98.69
508.372	89.69
508.588	103.69
508.805	89.69
509.021	101.69
509.238	76.69
509.454	97.69
509.67	103.69
509.887	123.69
510.103	117.69
510.319	192.69
510.536	520.69
510.752	1555.69
510.968	465.69
511.184	130.69
511.401	101.69
511.617	74.69
511.833	85.69
512.049	89.69
512.265	90.69
512.481	109.69
512.698	104.69
512.914	93.69
513.13	114.69
513.346	87.69
513.562	96.69
513.778	99.69
513.994	108.69
514.21	106.69
514.426	122.69
