Data from Uncirc_2009_H10_HRD10591_00097.txt Node
Date: Wed Jan 03 10:12:21 EST 2024
User: Yrep
Spectrometer: HR+D1059
Trigger mode: 1
Integration Time (sec): 1.000000E-1
Scans to average: 1
Electric dark correction enabled: true
Nonlinearity correction enabled: false
Boxcar width: 0
XAxis mode: Wavelengths
Number of Pixels in Spectrum: 2048
>>>>>Begin Spectral Data<<<<<
223.165	-17.81
223.4	-17.81
223.635	-17.81
223.869	-7.81
224.104	-24.81
224.338	-23.81
224.573	-1.81
224.808	-13.81
225.042	-13.81
225.277	-0.81
225.511	5.19
225.746	4.19
225.98	17.19
226.215	4.19
226.449	23.19
226.683	14.19
226.918	22.19
227.152	14.19
227.387	42.19
227.621	23.19
227.856	39.19
228.09	57.19
228.324	54.19
228.559	56.19
228.793	148.19
229.027	399.19
229.262	448.19
229.496	544.19
229.73	712.19
229.964	725.19
230.199	484.19
230.433	421.19
230.667	422.19
230.901	407.19
231.136	399.19
231.37	433.19
231.604	408.19
231.838	420.19
232.072	432.19
232.306	422.19
232.541	452.19
232.775	422.19
233.009	446.19
233.243	440.19
233.477	446.19
233.711	451.19
233.945	448.19
234.179	475.19
234.413	480.19
234.647	482.19
234.881	498.19
235.115	482.19
235.349	499.19
235.583	528.19
235.817	542.19
236.051	598.19
236.285	559.19
236.519	550.19
236.753	646.19
236.987	819.19
237.221	1223.19
237.455	1314.19
237.689	821.19
237.922	664.19
238.156	636.19
238.39	631.19
238.624	600.19
238.858	598.19
239.091	606.19
239.325	616.19
239.559	617.19
239.793	654.19
240.027	692.19
240.26	832.19
240.494	878.19
240.728	840.19
240.961	830.19
241.195	769.19
241.429	725.19
241.662	714.19
241.896	718.19
242.13	713.19
242.363	720.19
242.597	749.19
242.83	755.19
243.064	782.19
243.298	771.19
243.531	768.19
243.765	768.19
243.998	793.19
244.232	809.19
244.465	825.19
244.699	836.19
244.932	827.19
245.166	853.19
245.399	822.19
245.633	860.19
245.866	826.19
246.099	857.19
246.333	866.19
246.566	883.19
246.8	911.19
247.033	932.19
247.266	996.19
247.5	1012.19
247.733	1066.19
247.966	1065.19
248.2	1043.19
248.433	1083.19
248.666	1150.19
248.899	1229.19
249.133	1306.19
249.366	1317.19
249.599	1135.19
249.832	1125.19
250.066	1094.19
250.299	1169.19
250.532	1249.19
250.765	1409.19
250.998	1561.19
251.231	1544.19
251.465	1363.19
251.698	1294.19
251.931	1279.19
252.164	1288.19
252.397	1299.19
252.63	1358.19
252.863	1414.19
253.096	1512.19
253.329	1593.19
253.562	1538.19
253.795	1427.19
254.028	1458.19
254.261	1490.19
254.494	1705.19
254.727	1956.19
254.96	1982.19
255.193	1795.19
255.426	1591.19
255.659	1542.19
255.892	1579.19
256.124	1581.19
256.357	1542.19
256.59	1445.19
256.823	1426.19
257.056	1409.19
257.289	1423.19
257.521	1450.19
257.754	1428.19
257.987	1400.19
258.22	1408.19
258.452	1433.19
258.685	1428.19
258.918	1461.19
259.151	1538.19
259.383	1531.19
259.616	1622.19
259.849	1669.19
260.081	1774.19
260.314	1935.19
260.547	1842.19
260.779	1694.19
261.012	1640.19
261.244	1606.19
261.477	1565.19
261.71	1570.19
261.942	1583.19
262.175	1641.19
262.407	1582.19
262.64	1546.19
262.872	1519.19
263.105	1554.19
263.337	1559.19
263.57	1543.19
263.802	1522.19
264.035	1604.19
264.267	1582.19
264.499	1590.19
264.732	1567.19
264.964	1599.19
265.197	1597.19
265.429	1606.19
265.661	1612.19
265.894	1625.19
266.126	1646.19
266.358	1691.19
266.591	1700.19
266.823	1717.19
267.055	1737.19
267.287	1738.19
267.52	1721.19
267.752	1698.19
267.984	1738.19
268.216	1754.19
268.448	1832.19
268.681	1867.19
268.913	1948.19
269.145	2129.19
269.377	2210.19
269.609	2091.19
269.841	2096.19
270.073	2245.19
270.306	2425.19
270.538	2607.19
270.77	2432.19
271.002	2342.19
271.234	2298.19
271.466	2361.19
271.698	2537.19
271.93	2483.19
272.162	2513.19
272.394	2452.19
272.626	2326.19
272.858	2210.19
273.09	2140.19
273.322	2108.19
273.553	2066.19
273.785	2059.19
274.017	2080.19
274.249	2083.19
274.481	2122.19
274.713	2100.19
274.945	2162.19
275.176	2136.19
275.408	2107.19
275.64	2091.19
275.872	2115.19
276.104	2142.19
276.335	2126.19
276.567	2244.19
276.799	2391.19
277.031	2554.19
277.262	2742.19
277.494	2560.19
277.726	2392.19
277.957	2327.19
278.189	2234.19
278.421	2242.19
278.652	2194.19
278.884	2244.19
279.115	2185.19
279.347	2196.19
279.579	2213.19
279.81	2237.19
280.042	2226.19
280.273	2238.19
280.505	2260.19
280.736	2226.19
280.968	2288.19
281.199	2308.19
281.431	2293.19
281.662	2292.19
281.894	2347.19
282.125	2335.19
282.356	2424.19
282.588	2625.19
282.819	2475.19
283.051	2354.19
283.282	2349.19
283.513	2439.19
283.745	2486.19
283.976	2526.19
284.207	2573.19
284.439	2479.19
284.67	2479.19
284.901	2491.19
285.132	2469.19
285.364	2434.19
285.595	2492.19
285.826	2460.19
286.057	2495.19
286.288	2509.19
286.52	2573.19
286.751	2524.19
286.982	2566.19
287.213	2557.19
287.444	2566.19
287.675	2687.19
287.906	2681.19
288.138	2777.19
288.369	2751.19
288.6	2722.19
288.831	2664.19
289.062	2698.19
289.293	2654.19
289.524	2654.19
289.755	2646.19
289.986	2658.19
290.217	2617.19
290.448	2607.19
290.679	2651.19
290.91	2643.19
291.141	2617.19
291.371	2702.19
291.602	2694.19
291.833	2622.19
292.064	2659.19
292.295	2719.19
292.526	2674.19
292.757	2661.19
292.987	2633.19
293.218	2620.19
293.449	2689.19
293.68	2679.19
293.91	2684.19
294.141	2654.19
294.372	2677.19
294.603	2646.19
294.833	2793.19
295.064	2720.19
295.295	2731.19
295.525	2750.19
295.756	2807.19
295.987	2840.19
296.217	3016.19
296.448	2943.19
296.679	2787.19
296.909	2744.19
297.14	2831.19
297.37	2807.19
297.601	2926.19
297.831	2889.19
298.062	2894.19
298.292	2890.19
298.523	2954.19
298.753	2942.19
298.984	2853.19
299.214	2906.19
299.445	2949.19
299.675	2916.19
299.905	2954.19
300.136	2946.19
300.366	3002.19
300.597	3021.19
300.827	3120.19
301.057	3209.19
301.288	3228.19
301.518	3115.19
301.748	3131.19
301.979	3240.19
302.209	3185.19
302.439	3188.19
302.669	3133.19
302.9	3133.19
303.13	3118.19
303.36	3206.19
303.59	3254.19
303.82	3218.19
304.051	3194.19
304.281	3142.19
304.511	3087.19
304.741	3080.19
304.971	3106.19
305.201	3062.19
305.431	3045.19
305.661	3119.19
305.891	3069.19
306.121	3108.19
306.352	3170.19
306.582	3112.19
306.812	3099.19
307.042	3092.19
307.272	3098.19
307.502	3110.19
307.731	3110.19
307.961	3063.19
308.191	3069.19
308.421	3116.19
308.651	3114.19
308.881	3120.19
309.111	3091.19
309.341	3119.19
309.571	3219.19
309.8	3303.19
310.03	3387.19
310.26	3309.19
310.49	3348.19
310.72	3458.19
310.949	3528.19
311.179	3498.19
311.409	3361.19
311.639	3383.19
311.868	3410.19
312.098	3415.19
312.328	3532.19
312.557	3621.19
312.787	3668.19
313.017	3599.19
313.246	3602.19
313.476	3527.19
313.706	3526.19
313.935	3683.19
314.165	3704.19
314.394	3712.19
314.624	3648.19
314.853	3525.19
315.083	3532.19
315.312	3511.19
315.542	3524.19
315.771	3501.19
316.001	3439.19
316.23	3417.19
316.46	3392.19
316.689	3509.19
316.919	3555.19
317.148	3618.19
317.377	3570.19
317.607	3567.19
317.836	3540.19
318.065	3431.19
318.295	3482.19
318.524	3499.19
318.753	3458.19
318.983	3460.19
319.212	3508.19
319.441	3498.19
319.67	3515.19
319.9	3499.19
320.129	3431.19
320.358	3462.19
320.587	3557.19
320.816	3636.19
321.046	3542.19
321.275	3565.19
321.504	3600.19
321.733	3615.19
321.962	3611.19
322.191	3752.19
322.42	3807.19
322.649	3917.19
322.878	3960.19
323.108	3969.19
323.337	4163.19
323.566	4349.19
323.795	4581.19
324.024	5076.19
324.253	6455.19
324.482	9592.19
324.71	14174.19
324.939	15600.19
325.168	10579.19
325.397	5794.19
325.626	4794.19
325.855	4534.19
326.084	4450.19
326.313	4536.19
326.542	4610.19
326.77	5088.19
326.999	6378.19
327.228	9167.19
327.457	13129.19
327.686	12292.19
327.914	6540.19
328.143	5338.19
328.372	5086.19
328.6	4886.19
328.829	4848.19
329.058	4966.19
329.287	4864.19
329.515	4666.19
329.744	4475.19
329.972	4615.19
330.201	4707.19
330.43	4948.19
330.658	5126.19
330.887	5270.19
331.115	4895.19
331.344	4696.19
331.572	4663.19
331.801	4682.19
332.03	4750.19
332.258	4674.19
332.486	4720.19
332.715	4799.19
332.943	4966.19
333.172	5097.19
333.4	5233.19
333.629	5355.19
333.857	5421.19
334.085	5410.19
334.314	5516.19
334.542	5537.19
334.771	5459.19
334.999	5139.19
335.227	5109.19
335.455	4996.19
335.684	4857.19
335.912	4889.19
336.14	4746.19
336.369	4735.19
336.597	4816.19
336.825	4744.19
337.053	4623.19
337.281	4569.19
337.51	4536.19
337.738	4507.19
337.966	4490.19
338.194	4456.19
338.422	4400.19
338.65	4339.19
338.878	4309.19
339.106	4286.19
339.334	4260.19
339.562	4240.19
339.79	4223.19
340.018	4184.19
340.246	4129.19
340.474	4177.19
340.702	4229.19
340.93	4158.19
341.158	4140.19
341.386	4137.19
341.614	4169.19
341.842	4127.19
342.07	4101.19
342.298	4096.19
342.526	4076.19
342.754	4057.19
342.981	4118.19
343.209	4222.19
343.437	4438.19
343.665	4734.19
343.893	4853.19
344.12	4884.19
344.348	4670.19
344.576	4487.19
344.804	4429.19
345.031	4355.19
345.259	4368.19
345.487	4212.19
345.714	4148.19
345.942	4020.19
346.17	4012.19
346.397	3983.19
346.625	3959.19
346.853	3957.19
347.08	3952.19
347.308	4020.19
347.535	4025.19
347.763	4088.19
347.99	4089.19
348.218	3995.19
348.445	4067.19
348.673	3988.19
348.9	3976.19
349.128	3891.19
349.355	3849.19
349.583	3834.19
349.81	3854.19
350.037	3843.19
350.265	3784.19
350.492	3917.19
350.72	3847.19
350.947	3920.19
351.174	3926.19
351.402	3974.19
351.629	3939.19
351.856	3876.19
352.083	4034.19
352.311	3945.19
352.538	3955.19
352.765	3974.19
352.992	3912.19
353.22	3836.19
353.447	3817.19
353.674	3812.19
353.901	3786.19
354.128	3740.19
354.355	3781.19
354.583	3812.19
354.81	3746.19
355.037	3789.19
355.264	3774.19
355.491	3713.19
355.718	3747.19
355.945	3740.19
356.172	3791.19
356.399	3768.19
356.626	3783.19
356.853	3811.19
357.08	3787.19
357.307	3729.19
357.534	3820.19
357.761	3780.19
357.988	3838.19
358.215	3852.19
358.441	3786.19
358.668	3787.19
358.895	3890.19
359.122	3922.19
359.349	3950.19
359.576	4046.19
359.802	4224.19
360.029	4326.19
360.256	4281.19
360.483	4200.19
360.709	4044.19
360.936	3966.19
361.163	3965.19
361.39	3976.19
361.616	4008.19
361.843	3971.19
362.07	3938.19
362.296	3980.19
362.523	3926.19
362.749	3978.19
362.976	3938.19
363.203	3880.19
363.429	3887.19
363.656	3893.19
363.882	3868.19
364.109	3858.19
364.335	3886.19
364.562	3808.19
364.788	3828.19
365.015	3836.19
365.241	3864.19
365.468	3917.19
365.694	3910.19
365.92	3895.19
366.147	3865.19
366.373	3806.19
366.599	3826.19
366.826	3814.19
367.052	3812.19
367.278	3837.19
367.505	3860.19
367.731	3846.19
367.957	3870.19
368.184	3943.19
368.41	3976.19
368.636	4042.19
368.862	4023.19
369.089	3982.19
369.315	3958.19
369.541	3960.19
369.767	4025.19
369.993	3993.19
370.219	4014.19
370.445	4062.19
370.672	4043.19
370.898	4083.19
371.124	4094.19
371.35	4158.19
371.576	4135.19
371.802	4074.19
372.028	4095.19
372.254	4079.19
372.48	4152.19
372.706	4276.19
372.932	4255.19
373.158	4223.19
373.384	4190.19
373.61	4146.19
373.835	4197.19
374.061	4159.19
374.287	4225.19
374.513	4257.19
374.739	4443.19
374.965	4535.19
375.191	4563.19
375.416	4427.19
375.642	4386.19
375.868	4350.19
376.094	4285.19
376.319	4165.19
376.545	4237.19
376.771	4222.19
376.997	4190.19
377.222	4201.19
377.448	4114.19
377.674	4148.19
377.899	4134.19
378.125	4122.19
378.35	4164.19
378.576	4118.19
378.802	4098.19
379.027	4108.19
379.253	4076.19
379.478	4081.19
379.704	4106.19
379.929	4151.19
380.155	4139.19
380.38	4210.19
380.606	4164.19
380.831	4129.19
381.057	4175.19
381.282	4122.19
381.507	4142.19
381.733	4235.19
381.958	4238.19
382.184	4254.19
382.409	4350.19
382.634	4406.19
382.86	4401.19
383.085	4473.19
383.31	4524.19
383.535	4552.19
383.761	4638.19
383.986	4746.19
384.211	4686.19
384.436	4769.19
384.662	4869.19
384.887	4923.19
385.112	4984.19
385.337	5027.19
385.562	4974.19
385.787	4966.19
386.013	5040.19
386.238	5074.19
386.463	5010.19
386.688	5092.19
386.913	4970.19
387.138	4988.19
387.363	4910.19
387.588	4882.19
387.813	4971.19
388.038	4951.19
388.263	4925.19
388.488	4923.19
388.713	4932.19
388.938	4973.19
389.163	4887.19
389.387	4948.19
389.612	4858.19
389.837	4855.19
390.062	4814.19
390.287	4933.19
390.512	4984.19
390.736	4982.19
390.961	4981.19
391.186	5107.19
391.411	5276.19
391.636	5339.19
391.86	5521.19
392.085	5630.19
392.31	5482.19
392.534	5374.19
392.759	5285.19
392.984	5209.19
393.208	5123.19
393.433	5131.19
393.658	5175.19
393.882	5119.19
394.107	5190.19
394.331	5158.19
394.556	5207.19
394.78	5290.19
395.005	5334.19
395.229	5286.19
395.454	5501.19
395.678	5582.19
395.903	5584.19
396.127	5590.19
396.352	5405.19
396.576	5302.19
396.801	5197.19
397.025	5350.19
397.249	5392.19
397.474	5587.19
397.698	5567.19
397.922	5727.19
398.147	5821.19
398.371	5840.19
398.595	6035.19
398.82	6298.19
399.044	6870.19
399.268	7578.19
399.492	8642.19
399.717	9248.19
399.941	9045.19
400.165	8363.19
400.389	7726.19
400.613	6936.19
400.837	6552.19
401.062	6342.19
401.286	6390.19
401.51	6203.19
401.734	6263.19
401.958	6341.19
402.182	6401.19
402.406	6570.19
402.63	6592.19
402.854	6637.19
403.078	6791.19
403.302	6845.19
403.526	7022.19
403.75	7120.19
403.974	7144.19
404.198	7105.19
404.422	7197.19
404.645	7169.19
404.869	7077.19
405.093	7224.19
405.317	7434.19
405.541	7488.19
405.765	7050.19
405.988	7012.19
406.212	7113.19
406.436	7211.19
406.66	7355.19
406.883	7375.19
407.107	8018.19
407.331	8425.19
407.555	8938.19
407.778	8540.19
408.002	7849.19
408.226	7530.19
408.449	7466.19
408.673	7316.19
408.896	7538.19
409.12	7633.19
409.344	7218.19
409.567	6864.19
409.791	6821.19
410.014	6709.19
410.238	6703.19
410.461	6719.19
410.685	6758.19
410.908	6832.19
411.132	7010.19
411.355	7050.19
411.578	6611.19
411.802	6525.19
412.025	6499.19
412.249	6661.19
412.472	6798.19
412.695	6853.19
412.919	6551.19
413.142	6306.19
413.365	6244.19
413.589	6207.19
413.812	6042.19
414.035	6006.19
414.258	6047.19
414.482	6111.19
414.705	6226.19
414.928	6170.19
415.151	6138.19
415.374	6088.19
415.597	6144.19
415.821	6045.19
416.044	6062.19
416.267	5973.19
416.49	5953.19
416.713	5999.19
416.936	6087.19
417.159	6074.19
417.382	6200.19
417.605	6109.19
417.828	6274.19
418.051	6359.19
418.274	6280.19
418.497	6181.19
418.72	6287.19
418.943	6157.19
419.166	6678.19
419.389	6990.19
419.611	6819.19
419.834	6647.19
420.057	6594.19
420.28	6430.19
420.503	6198.19
420.726	6237.19
420.948	6338.19
421.171	6594.19
421.394	6699.19
421.617	6230.19
421.839	6178.19
422.062	6377.19
422.285	6495.19
422.507	7153.19
422.73	7616.19
422.953	7018.19
423.175	6649.19
423.398	6721.19
423.621	6695.19
423.843	6989.19
424.066	6745.19
424.288	6742.19
424.511	6965.19
424.733	7368.19
424.956	7762.19
425.178	7342.19
425.401	7484.19
425.623	7268.19
425.846	6547.19
426.068	6370.19
426.291	6299.19
426.513	6199.19
426.735	6333.19
426.958	6789.19
427.18	7402.19
427.402	8415.19
427.625	8602.19
427.847	7231.19
428.069	6603.19
428.292	6184.19
428.514	5764.19
428.736	5726.19
428.958	5642.19
429.181	5528.19
429.403	5571.19
429.625	5686.19
429.847	5971.19
430.069	6447.19
430.292	6107.19
430.514	5565.19
430.736	5562.19
430.958	5498.19
431.18	5493.19
431.402	5405.19
431.624	5401.19
431.846	5535.19
432.068	5540.19
432.29	5595.19
432.512	5507.19
432.734	5554.19
432.956	5461.19
433.178	5588.19
433.4	5599.19
433.622	5447.19
433.844	5439.19
434.066	5488.19
434.287	5618.19
434.509	5830.19
434.731	6118.19
434.953	6202.19
435.175	6319.19
435.397	6428.19
435.618	6348.19
435.84	6653.19
436.062	7429.19
436.284	7274.19
436.505	6239.19
436.727	5911.19
436.949	5650.19
437.17	5596.19
437.392	5511.19
437.614	5733.19
437.835	6075.19
438.057	6928.19
438.278	7469.19
438.5	7412.19
438.721	8194.19
438.943	7191.19
439.165	6054.19
439.386	5908.19
439.608	5976.19
439.829	5981.19
440.05	6361.19
440.272	6602.19
440.493	6183.19
440.715	5821.19
440.936	5766.19
441.158	5894.19
441.379	5963.19
441.6	6371.19
441.822	6545.19
442.043	6921.19
442.264	7610.19
442.486	7308.19
442.707	6537.19
442.928	6388.19
443.149	6506.19
443.371	6818.19
443.592	7337.19
443.813	8098.19
444.034	8202.19
444.255	7132.19
444.476	7043.19
444.698	7246.19
444.919	7239.19
445.14	7142.19
445.361	6877.19
445.582	7099.19
445.803	7490.19
446.024	8113.19
446.245	7727.19
446.466	7025.19
446.687	6203.19
446.908	5825.19
447.129	5543.19
447.35	5446.19
447.571	5413.19
447.792	5263.19
448.013	5332.19
448.234	5549.19
448.455	6174.19
448.675	7346.19
448.896	7626.19
449.117	6381.19
449.338	6477.19
449.559	7684.19
449.779	7930.19
450	6142.19
450.221	5451.19
450.442	5258.19
450.662	5226.19
450.883	5282.19
451.104	5296.19
451.324	5246.19
451.545	5101.19
451.766	5045.19
451.986	4895.19
452.207	4864.19
452.428	4863.19
452.648	4888.19
452.869	4857.19
453.089	4930.19
453.31	5030.19
453.53	4834.19
453.751	4817.19
453.971	4803.19
454.192	4920.19
454.412	4754.19
454.633	4660.19
454.853	4705.19
455.073	4654.19
455.294	5024.19
455.514	5509.19
455.734	5084.19
455.955	4672.19
456.175	4516.19
456.395	4460.19
456.616	4424.19
456.836	4462.19
457.056	4425.19
457.276	4419.19
457.497	4596.19
457.717	4485.19
457.937	4607.19
458.157	4720.19
458.377	4739.19
458.598	5048.19
458.818	5600.19
459.038	6283.19
459.258	6278.19
459.478	5672.19
459.698	5535.19
459.918	5638.19
460.138	5863.19
460.358	5978.19
460.578	6098.19
460.798	6111.19
461.018	6107.19
461.238	5967.19
461.458	5997.19
461.678	5943.19
461.898	6107.19
462.118	6143.19
462.338	6461.19
462.558	6651.19
462.777	6903.19
462.997	7468.19
463.217	7890.19
463.437	7673.19
463.657	7094.19
463.876	6910.19
464.096	6914.19
464.316	6880.19
464.536	6918.19
464.755	6740.19
464.975	6578.19
465.195	6656.19
465.414	6677.19
465.634	5953.19
465.854	5618.19
466.073	5378.19
466.293	5156.19
466.512	5040.19
466.732	5047.19
466.951	5135.19
467.171	5046.19
467.391	5088.19
467.61	5122.19
467.829	5137.19
468.049	4986.19
468.268	4904.19
468.488	4834.19
468.707	4805.19
468.927	4779.19
469.146	4821.19
469.365	4922.19
469.585	4888.19
469.804	5064.19
470.023	5190.19
470.243	5174.19
470.462	5206.19
470.681	5299.19
470.901	5330.19
471.12	5151.19
471.339	5150.19
471.558	5102.19
471.777	4982.19
471.997	4891.19
472.216	4926.19
472.435	5068.19
472.654	4951.19
472.873	4847.19
473.092	4830.19
473.311	4754.19
473.53	4827.19
473.749	4924.19
473.968	5326.19
474.187	6218.19
474.406	5925.19
474.625	5046.19
474.844	4800.19
475.063	4815.19
475.282	4836.19
475.501	4906.19
475.72	4891.19
475.939	5001.19
476.158	4978.19
476.377	4971.19
476.596	5000.19
476.814	5110.19
477.033	5188.19
477.252	5215.19
477.471	5309.19
477.69	5442.19
477.908	5568.19
478.127	5696.19
478.346	5743.19
478.564	5920.19
478.783	5948.19
479.002	6048.19
479.22	6087.19
479.439	6138.19
479.658	6288.19
479.876	6282.19
480.095	6441.19
480.313	6804.19
480.532	6729.19
480.751	6685.19
480.969	6641.19
481.188	6794.19
481.406	6580.19
481.624	6131.19
481.843	5883.19
482.061	5851.19
482.28	5752.19
482.498	5653.19
482.717	5594.19
482.935	5660.19
483.153	5698.19
483.372	5670.19
483.59	5636.19
483.808	5663.19
484.027	5634.19
484.245	5648.19
484.463	5766.19
484.681	5826.19
484.9	5857.19
485.118	5908.19
485.336	5896.19
485.554	5976.19
485.772	6021.19
485.99	5989.19
486.209	5980.19
486.427	6109.19
486.645	6132.19
486.863	6218.19
487.081	6148.19
487.299	6047.19
487.517	6058.19
487.735	6007.19
487.953	5990.19
