Data from Uncirc_2009_H10_HRD10591_00021.txt Node
Date: Wed Jan 03 10:12:06 EST 2024
User: Yrep
Spectrometer: HR+D1059
Trigger mode: 1
Integration Time (sec): 1.000000E-1
Scans to average: 1
Electric dark correction enabled: true
Nonlinearity correction enabled: false
Boxcar width: 0
XAxis mode: Wavelengths
Number of Pixels in Spectrum: 2048
>>>>>Begin Spectral Data<<<<<
223.165	-6.5
223.4	-6.5
223.635	-6.5
223.869	-23.5
224.104	-16.5
224.338	-18.5
224.573	-16.5
224.808	-25.5
225.042	9.5
225.277	-3.5
225.511	-4.5
225.746	8.5
225.98	25.5
226.215	4.5
226.449	17.5
226.683	-1.5
226.918	24.5
227.152	26.5
227.387	49.5
227.621	35.5
227.856	32.5
228.09	43.5
228.324	63.5
228.559	49.5
228.793	60.5
229.027	70.5
229.262	62.5
229.496	73.5
229.73	77.5
229.964	77.5
230.199	72.5
230.433	78.5
230.667	78.5
230.901	73.5
231.136	82.5
231.37	80.5
231.604	89.5
231.838	89.5
232.072	78.5
232.306	94.5
232.541	82.5
232.775	71.5
233.009	77.5
233.243	89.5
233.477	78.5
233.711	94.5
233.945	85.5
234.179	101.5
234.413	92.5
234.647	86.5
234.881	92.5
235.115	79.5
235.349	78.5
235.583	90.5
235.817	89.5
236.051	92.5
236.285	98.5
236.519	82.5
236.753	75.5
236.987	87.5
237.221	82.5
237.455	89.5
237.689	79.5
237.922	67.5
238.156	88.5
238.39	70.5
238.624	75.5
238.858	74.5
239.091	73.5
239.325	82.5
239.559	71.5
239.793	85.5
240.027	75.5
240.26	64.5
240.494	86.5
240.728	78.5
240.961	70.5
241.195	79.5
241.429	93.5
241.662	72.5
241.896	57.5
242.13	73.5
242.363	77.5
242.597	83.5
242.83	91.5
243.064	88.5
243.298	80.5
243.531	74.5
243.765	62.5
243.998	85.5
244.232	89.5
244.465	86.5
244.699	76.5
244.932	69.5
245.166	73.5
245.399	74.5
245.633	70.5
245.866	80.5
246.099	87.5
246.333	77.5
246.566	77.5
246.8	86.5
247.033	80.5
247.266	88.5
247.5	71.5
247.733	96.5
247.966	82.5
248.2	80.5
248.433	78.5
248.666	68.5
248.899	82.5
249.133	79.5
249.366	95.5
249.599	90.5
249.832	76.5
250.066	87.5
250.299	73.5
250.532	76.5
250.765	84.5
250.998	83.5
251.231	70.5
251.465	67.5
251.698	80.5
251.931	69.5
252.164	83.5
252.397	84.5
252.63	86.5
252.863	78.5
253.096	79.5
253.329	87.5
253.562	92.5
253.795	80.5
254.028	62.5
254.261	79.5
254.494	75.5
254.727	74.5
254.96	85.5
255.193	82.5
255.426	83.5
255.659	82.5
255.892	82.5
256.124	83.5
256.357	94.5
256.59	100.5
256.823	84.5
257.056	86.5
257.289	81.5
257.521	81.5
257.754	94.5
257.987	89.5
258.22	99.5
258.452	82.5
258.685	84.5
258.918	94.5
259.151	81.5
259.383	85.5
259.616	80.5
259.849	88.5
260.081	84.5
260.314	88.5
260.547	78.5
260.779	84.5
261.012	78.5
261.244	84.5
261.477	88.5
261.71	80.5
261.942	105.5
262.175	89.5
262.407	87.5
262.64	76.5
262.872	79.5
263.105	72.5
263.337	78.5
263.57	83.5
263.802	74.5
264.035	78.5
264.267	95.5
264.499	77.5
264.732	93.5
264.964	84.5
265.197	81.5
265.429	67.5
265.661	71.5
265.894	95.5
266.126	73.5
266.358	93.5
266.591	91.5
266.823	95.5
267.055	95.5
267.287	86.5
267.52	87.5
267.752	79.5
267.984	90.5
268.216	80.5
268.448	95.5
268.681	79.5
268.913	92.5
269.145	73.5
269.377	75.5
269.609	83.5
269.841	77.5
270.073	82.5
270.306	81.5
270.538	92.5
270.77	97.5
271.002	82.5
271.234	73.5
271.466	87.5
271.698	73.5
271.93	112.5
272.162	69.5
272.394	98.5
272.626	92.5
272.858	96.5
273.09	81.5
273.322	90.5
273.553	79.5
273.785	84.5
274.017	71.5
274.249	90.5
274.481	80.5
274.713	88.5
274.945	84.5
275.176	103.5
275.408	66.5
275.64	88.5
275.872	93.5
276.104	91.5
276.335	82.5
276.567	92.5
276.799	98.5
277.031	82.5
277.262	94.5
277.494	89.5
277.726	92.5
277.957	93.5
278.189	88.5
278.421	81.5
278.652	80.5
278.884	87.5
279.115	87.5
279.347	95.5
279.579	88.5
279.81	93.5
280.042	83.5
280.273	93.5
280.505	97.5
280.736	84.5
280.968	80.5
281.199	96.5
281.431	86.5
281.662	74.5
281.894	71.5
282.125	84.5
282.356	102.5
282.588	97.5
282.819	96.5
283.051	92.5
283.282	91.5
283.513	90.5
283.745	97.5
283.976	115.5
284.207	107.5
284.439	91.5
284.67	91.5
284.901	87.5
285.132	100.5
285.364	85.5
285.595	77.5
285.826	79.5
286.057	95.5
286.288	99.5
286.52	94.5
286.751	95.5
286.982	91.5
287.213	95.5
287.444	94.5
287.675	90.5
287.906	89.5
288.138	89.5
288.369	95.5
288.6	92.5
288.831	95.5
289.062	97.5
289.293	90.5
289.524	91.5
289.755	83.5
289.986	93.5
290.217	76.5
290.448	85.5
290.679	87.5
290.91	100.5
291.141	83.5
291.371	89.5
291.602	90.5
291.833	81.5
292.064	90.5
292.295	98.5
292.526	88.5
292.757	109.5
292.987	90.5
293.218	89.5
293.449	83.5
293.68	95.5
293.91	97.5
294.141	88.5
294.372	95.5
294.603	82.5
294.833	93.5
295.064	79.5
295.295	72.5
295.525	90.5
295.756	106.5
295.987	104.5
296.217	113.5
296.448	111.5
296.679	87.5
296.909	95.5
297.14	89.5
297.37	75.5
297.601	84.5
297.831	100.5
298.062	93.5
298.292	96.5
298.523	81.5
298.753	90.5
298.984	91.5
299.214	88.5
299.445	89.5
299.675	105.5
299.905	95.5
300.136	85.5
300.366	88.5
300.597	80.5
300.827	96.5
301.057	110.5
301.288	84.5
301.518	87.5
301.748	94.5
301.979	100.5
302.209	102.5
302.439	84.5
302.669	92.5
302.9	87.5
303.13	103.5
303.36	108.5
303.59	112.5
303.82	112.5
304.051	98.5
304.281	105.5
304.511	113.5
304.741	103.5
304.971	96.5
305.201	66.5
305.431	83.5
305.661	96.5
305.891	88.5
306.121	94.5
306.352	113.5
306.582	112.5
306.812	100.5
307.042	90.5
307.272	80.5
307.502	87.5
307.731	115.5
307.961	95.5
308.191	89.5
308.421	91.5
308.651	81.5
308.881	90.5
309.111	104.5
309.341	111.5
309.571	112.5
309.8	79.5
310.03	77.5
310.26	77.5
310.49	100.5
310.72	109.5
310.949	105.5
311.179	111.5
311.409	81.5
311.639	89.5
311.868	91.5
312.098	95.5
312.328	93.5
312.557	105.5
312.787	92.5
313.017	110.5
313.246	91.5
313.476	88.5
313.706	91.5
313.935	100.5
314.165	102.5
314.394	84.5
314.624	88.5
314.853	92.5
315.083	96.5
315.312	97.5
315.542	71.5
315.771	84.5
316.001	106.5
316.23	86.5
316.46	76.5
316.689	76.5
316.919	88.5
317.148	96.5
317.377	94.5
317.607	113.5
317.836	120.5
318.065	96.5
318.295	95.5
318.524	89.5
318.753	97.5
318.983	99.5
319.212	107.5
319.441	102.5
319.67	88.5
319.9	87.5
320.129	107.5
320.358	96.5
320.587	94.5
320.816	87.5
321.046	89.5
321.275	103.5
321.504	93.5
321.733	112.5
321.962	101.5
322.191	94.5
322.42	90.5
322.649	99.5
322.878	112.5
323.108	106.5
323.337	108.5
323.566	115.5
323.795	140.5
324.024	166.5
324.253	300.5
324.482	589.5
324.71	1245.5
324.939	1594.5
325.168	604.5
325.397	209.5
325.626	145.5
325.855	121.5
326.084	137.5
326.313	141.5
326.542	163.5
326.77	198.5
326.999	374.5
327.228	753.5
327.457	1298.5
327.686	1020.5
327.914	306.5
328.143	155.5
328.372	127.5
328.6	111.5
328.829	101.5
329.058	102.5
329.287	124.5
329.515	90.5
329.744	104.5
329.972	101.5
330.201	119.5
330.43	103.5
330.658	112.5
330.887	108.5
331.115	97.5
331.344	90.5
331.572	87.5
331.801	96.5
332.03	85.5
332.258	92.5
332.486	96.5
332.715	94.5
332.943	104.5
333.172	106.5
333.4	90.5
333.629	96.5
333.857	111.5
334.085	110.5
334.314	99.5
334.542	132.5
334.771	111.5
334.999	98.5
335.227	89.5
335.455	94.5
335.684	89.5
335.912	106.5
336.14	98.5
336.369	96.5
336.597	78.5
336.825	91.5
337.053	81.5
337.281	95.5
337.51	93.5
337.738	105.5
337.966	87.5
338.194	102.5
338.422	103.5
338.65	95.5
338.878	82.5
339.106	78.5
339.334	94.5
339.562	91.5
339.79	80.5
340.018	95.5
340.246	82.5
340.474	90.5
340.702	85.5
340.93	83.5
341.158	96.5
341.386	98.5
341.614	92.5
341.842	75.5
342.07	91.5
342.298	105.5
342.526	89.5
342.754	88.5
342.981	89.5
343.209	102.5
343.437	102.5
343.665	87.5
343.893	86.5
344.12	96.5
344.348	75.5
344.576	79.5
344.804	94.5
345.031	88.5
345.259	107.5
345.487	109.5
345.714	92.5
345.942	91.5
346.17	83.5
346.397	90.5
346.625	86.5
346.853	95.5
347.08	89.5
347.308	82.5
347.535	95.5
347.763	106.5
347.99	96.5
348.218	98.5
348.445	110.5
348.673	87.5
348.9	90.5
349.128	90.5
349.355	95.5
349.583	108.5
349.81	81.5
350.037	90.5
350.265	88.5
350.492	104.5
350.72	97.5
350.947	97.5
351.174	105.5
351.402	105.5
351.629	99.5
351.856	91.5
352.083	98.5
352.311	94.5
352.538	108.5
352.765	88.5
352.992	110.5
353.22	105.5
353.447	96.5
353.674	94.5
353.901	85.5
354.128	93.5
354.355	81.5
354.583	103.5
354.81	86.5
355.037	96.5
355.264	96.5
355.491	99.5
355.718	91.5
355.945	103.5
356.172	103.5
356.399	92.5
356.626	90.5
356.853	86.5
357.08	82.5
357.307	99.5
357.534	97.5
357.761	89.5
357.988	93.5
358.215	103.5
358.441	100.5
358.668	89.5
358.895	93.5
359.122	102.5
359.349	87.5
359.576	92.5
359.802	79.5
360.029	94.5
360.256	99.5
360.483	83.5
360.709	76.5
360.936	92.5
361.163	84.5
361.39	91.5
361.616	94.5
361.843	90.5
362.07	93.5
362.296	94.5
362.523	87.5
362.749	96.5
362.976	85.5
363.203	99.5
363.429	84.5
363.656	91.5
363.882	79.5
364.109	95.5
364.335	97.5
364.562	90.5
364.788	96.5
365.015	82.5
365.241	95.5
365.468	102.5
365.694	86.5
365.92	96.5
366.147	91.5
366.373	84.5
366.599	90.5
366.826	96.5
367.052	83.5
367.278	74.5
367.505	90.5
367.731	99.5
367.957	89.5
368.184	92.5
368.41	106.5
368.636	107.5
368.862	110.5
369.089	118.5
369.315	95.5
369.541	76.5
369.767	94.5
369.993	88.5
370.219	82.5
370.445	99.5
370.672	93.5
370.898	86.5
371.124	90.5
371.35	92.5
371.576	81.5
371.802	101.5
372.028	88.5
372.254	88.5
372.48	86.5
372.706	93.5
372.932	89.5
373.158	90.5
373.384	100.5
373.61	100.5
373.835	65.5
374.061	81.5
374.287	95.5
374.513	113.5
374.739	94.5
374.965	97.5
375.191	87.5
375.416	91.5
375.642	83.5
375.868	90.5
376.094	91.5
376.319	97.5
376.545	101.5
376.771	95.5
376.997	79.5
377.222	84.5
377.448	87.5
377.674	93.5
377.899	79.5
378.125	89.5
378.35	96.5
378.576	91.5
378.802	84.5
379.027	95.5
379.253	89.5
379.478	89.5
379.704	91.5
379.929	102.5
380.155	107.5
380.38	101.5
380.606	96.5
380.831	92.5
381.057	106.5
381.282	118.5
381.507	105.5
381.733	95.5
381.958	92.5
382.184	99.5
382.409	97.5
382.634	100.5
382.86	99.5
383.085	114.5
383.31	96.5
383.535	97.5
383.761	100.5
383.986	91.5
384.211	92.5
384.436	104.5
384.662	112.5
384.887	82.5
385.112	110.5
385.337	112.5
385.562	111.5
385.787	98.5
386.013	96.5
386.238	112.5
386.463	98.5
386.688	110.5
386.913	113.5
387.138	101.5
387.363	108.5
387.588	106.5
387.813	109.5
388.038	105.5
388.263	113.5
388.488	116.5
388.713	92.5
388.938	107.5
389.163	83.5
389.387	75.5
389.612	89.5
389.837	93.5
390.062	99.5
390.287	93.5
390.512	96.5
390.736	85.5
390.961	93.5
391.186	101.5
391.411	108.5
391.636	97.5
391.86	84.5
392.085	82.5
392.31	82.5
392.534	94.5
392.759	90.5
392.984	89.5
393.208	78.5
393.433	88.5
393.658	86.5
393.882	97.5
394.107	93.5
394.331	74.5
394.556	77.5
394.78	84.5
395.005	91.5
395.229	75.5
395.454	93.5
395.678	94.5
395.903	85.5
396.127	89.5
396.352	78.5
396.576	85.5
396.801	80.5
397.025	91.5
397.249	98.5
397.474	103.5
397.698	90.5
397.922	94.5
398.147	95.5
398.371	80.5
398.595	83.5
398.82	80.5
399.044	89.5
399.268	99.5
399.492	80.5
399.717	86.5
399.941	87.5
400.165	74.5
400.389	100.5
400.613	84.5
400.837	81.5
401.062	88.5
401.286	88.5
401.51	91.5
401.734	101.5
401.958	102.5
402.182	120.5
402.406	111.5
402.63	93.5
402.854	88.5
403.078	83.5
403.302	87.5
403.526	90.5
403.75	86.5
403.974	101.5
404.198	87.5
404.422	92.5
404.645	87.5
404.869	80.5
405.093	95.5
405.317	107.5
405.541	67.5
405.765	93.5
405.988	118.5
406.212	137.5
406.436	169.5
406.66	115.5
406.883	98.5
407.107	90.5
407.331	85.5
407.555	89.5
407.778	90.5
408.002	98.5
408.226	95.5
408.449	75.5
408.673	82.5
408.896	90.5
409.12	90.5
409.344	95.5
409.567	99.5
409.791	85.5
410.014	94.5
410.238	104.5
410.461	90.5
410.685	90.5
410.908	82.5
411.132	96.5
411.355	103.5
411.578	98.5
411.802	107.5
412.025	92.5
412.249	103.5
412.472	105.5
412.695	98.5
412.919	96.5
413.142	83.5
413.365	96.5
413.589	92.5
413.812	88.5
414.035	83.5
414.258	96.5
414.482	97.5
414.705	93.5
414.928	108.5
415.151	91.5
415.374	91.5
415.597	74.5
415.821	94.5
416.044	92.5
416.267	84.5
416.49	81.5
416.713	86.5
416.936	86.5
417.159	88.5
417.382	80.5
417.605	74.5
417.828	82.5
418.051	78.5
418.274	94.5
418.497	89.5
418.72	90.5
418.943	92.5
419.166	83.5
419.389	82.5
419.611	91.5
419.834	107.5
420.057	86.5
420.28	109.5
420.503	95.5
420.726	104.5
420.948	85.5
421.171	82.5
421.394	88.5
421.617	94.5
421.839	95.5
422.062	87.5
422.285	94.5
422.507	95.5
422.73	104.5
422.953	102.5
423.175	85.5
423.398	86.5
423.621	92.5
423.843	83.5
424.066	86.5
424.288	81.5
424.511	81.5
424.733	94.5
424.956	98.5
425.178	106.5
425.401	99.5
425.623	81.5
425.846	83.5
426.068	86.5
426.291	99.5
426.513	87.5
426.735	94.5
426.958	93.5
427.18	102.5
427.402	130.5
427.625	120.5
427.847	110.5
428.069	91.5
428.292	82.5
428.514	86.5
428.736	86.5
428.958	93.5
429.181	98.5
429.403	94.5
429.625	96.5
429.847	98.5
430.069	90.5
430.292	94.5
430.514	82.5
430.736	88.5
430.958	96.5
431.18	87.5
431.402	89.5
431.624	73.5
431.846	74.5
432.068	83.5
432.29	92.5
432.512	96.5
432.734	75.5
432.956	86.5
433.178	105.5
433.4	84.5
433.622	83.5
433.844	81.5
434.066	103.5
434.287	79.5
434.509	101.5
434.731	79.5
434.953	84.5
435.175	71.5
435.397	83.5
435.618	100.5
435.84	103.5
436.062	98.5
436.284	100.5
436.505	103.5
436.727	90.5
436.949	102.5
437.17	91.5
437.392	83.5
437.614	89.5
437.835	85.5
438.057	113.5
438.278	98.5
438.5	100.5
438.721	106.5
438.943	92.5
439.165	92.5
439.386	84.5
439.608	83.5
439.829	97.5
440.05	108.5
440.272	123.5
440.493	103.5
440.715	89.5
440.936	79.5
441.158	74.5
441.379	89.5
441.6	84.5
441.822	77.5
442.043	81.5
442.264	102.5
442.486	102.5
442.707	89.5
442.928	91.5
443.149	112.5
443.371	120.5
443.592	90.5
443.813	84.5
444.034	98.5
444.255	86.5
444.476	90.5
444.698	93.5
444.919	90.5
445.14	107.5
445.361	127.5
445.582	111.5
445.803	130.5
446.024	118.5
446.245	109.5
446.466	102.5
446.687	87.5
446.908	81.5
447.129	89.5
447.35	89.5
447.571	91.5
447.792	89.5
448.013	94.5
448.234	109.5
448.455	92.5
448.675	96.5
448.896	107.5
449.117	92.5
449.338	104.5
449.559	100.5
449.779	107.5
450	94.5
450.221	80.5
450.442	80.5
450.662	62.5
450.883	93.5
451.104	97.5
451.324	101.5
451.545	100.5
451.766	96.5
451.986	90.5
452.207	91.5
452.428	91.5
452.648	93.5
452.869	105.5
453.089	101.5
453.31	92.5
453.53	95.5
453.751	96.5
453.971	104.5
454.192	92.5
454.412	104.5
454.633	68.5
454.853	71.5
455.073	82.5
455.294	88.5
455.514	103.5
455.734	83.5
455.955	88.5
456.175	82.5
456.395	90.5
456.616	89.5
456.836	73.5
457.056	95.5
457.276	91.5
457.497	83.5
457.717	78.5
457.937	91.5
458.157	81.5
458.377	93.5
458.598	102.5
458.818	121.5
459.038	132.5
459.258	114.5
459.478	86.5
459.698	84.5
459.918	97.5
460.138	71.5
460.358	75.5
460.578	82.5
460.798	86.5
461.018	98.5
461.238	87.5
461.458	60.5
461.678	78.5
461.898	95.5
462.118	90.5
462.338	111.5
462.558	95.5
462.777	88.5
462.997	83.5
463.217	83.5
463.437	90.5
463.657	84.5
463.876	84.5
464.096	84.5
464.316	90.5
464.536	90.5
464.755	90.5
464.975	100.5
465.195	122.5
465.414	123.5
465.634	102.5
465.854	84.5
466.073	94.5
466.293	74.5
466.512	82.5
466.732	84.5
466.951	90.5
467.171	92.5
467.391	101.5
467.61	98.5
467.829	84.5
468.049	92.5
468.268	84.5
468.488	83.5
468.707	98.5
468.927	81.5
469.146	89.5
469.365	106.5
469.585	88.5
469.804	89.5
470.023	77.5
470.243	89.5
470.462	98.5
470.681	114.5
470.901	82.5
471.12	66.5
471.339	84.5
471.558	88.5
471.777	94.5
471.997	86.5
472.216	115.5
472.435	120.5
472.654	110.5
472.873	93.5
473.092	79.5
473.311	96.5
473.53	83.5
473.749	92.5
473.968	100.5
474.187	97.5
474.406	85.5
474.625	93.5
474.844	81.5
475.063	89.5
475.282	75.5
475.501	109.5
475.72	106.5
475.939	89.5
476.158	92.5
476.377	81.5
476.596	99.5
476.814	106.5
477.033	90.5
477.252	81.5
477.471	104.5
477.69	88.5
477.908	100.5
478.127	105.5
478.346	93.5
478.564	91.5
478.783	96.5
479.002	90.5
479.22	94.5
479.439	99.5
479.658	90.5
479.876	85.5
480.095	100.5
480.313	94.5
480.532	89.5
480.751	92.5
480.969	107.5
481.188	170.5
481.406	132.5
481.624	103.5
481.843	96.5
482.061	88.5
482.28	81.5
482.498	91.5
482.717	103.5
482.935	94.5
483.153	89.5
483.372	87.5
483.59	98.5
483.808	93.5
484.027	107.5
484.245	106.5
484.463	102.5
484.681	91.5
484.9	96.5
485.118	90.5
485.336	102.5
485.554	89.5
485.772	83.5
485.99	90.5
486.209	94.5
486.427	110.5
486.645	111.5
486.863	96.5
487.081	91.5
487.299	92.5
487.517	98.5
487.735	90.5
487.953	86.5
488.171	83.5
488.389	95.5
488.607	90.5
488.825	92.5
489.043	94.5
489.261	82.5
489.479	90.5
489.696	83.5
489.914	89.5
490.132	90.5
490.35	91.5
490.568	95.5
490.786	102.5
491.003	88.5
491.221	84.5
491.439	88.5
491.657	99.5
491.874	99.5
492.092	100.5
492.31	100.5
492.527	97.5
492.745	93.5
492.963	87.5
493.18	92.5
493.398	88.5
493.615	97.5
493.833	97.5
494.05	97.5
494.268	87.5
494.485	89.5
494.703	85.5
494.92	83.5
495.138	95.5
495.355	95.5
495.573	100.5
495.79	90.5
496.008	94.5
496.225	93.5
496.442	84.5
496.66	102.5
496.877	95.5
497.094	91.5
497.312	83.5
497.529	98.5
497.746	88.5
497.963	86.5
498.181	88.5
498.398	98.5
498.615	104.5
498.832	107.5
499.049	104.5
499.267	83.5
499.484	85.5
499.701	83.5
499.918	83.5
500.135	98.5
500.352	100.5
500.569	89.5
500.786	97.5
501.003	95.5
501.22	88.5
501.437	94.5
501.654	88.5
501.871	110.5
502.088	99.5
502.305	94.5
502.522	95.5
502.739	104.5
502.956	102.5
503.172	86.5
503.389	100.5
503.606	94.5
503.823	98.5
504.04	85.5
504.256	95.5
504.473	100.5
504.69	84.5
504.907	93.5
505.123	87.5
505.34	95.5
505.557	98.5
505.773	96.5
505.99	100.5
506.207	92.5
506.423	91.5
506.64	84.5
506.856	87.5
507.073	80.5
507.289	104.5
507.506	85.5
507.722	110.5
507.939	118.5
508.155	119.5
508.372	97.5
508.588	94.5
508.805	79.5
509.021	87.5
509.238	104.5
509.454	86.5
509.67	93.5
509.887	97.5
510.103	128.5
510.319	172.5
510.536	539.5
510.752	1537.5
510.968	476.5
511.184	138.5
511.401	101.5
511.617	94.5
511.833	111.5
512.049	96.5
512.265	99.5
512.481	88.5
512.698	95.5
512.914	97.5
513.13	88.5
513.346	96.5
513.562	98.5
513.778	100.5
513.994	109.5
514.21	98.5
514.426	115.5
514.642	111.5
514.858	111.5
515.074	133.5
515.29	316.5
515.506	890.5
515.721	350.5
515.937	134.5
516.153	94.5
516.369	76.5
516.585	90.5
516.801	104.5
517.016	96.5
517.232	91.5
517.448	91.5
517.664	94.5
517.879	97.5
518.095	95.5
518.311	75.5
518.527	104.5
518.742	102.5
518.958	94.5
519.173	85.5
519.389	82.5
519.605	100.5
519.82	90.5
520.036	85.5
520.251	111.5
520.467	105.5
520.682	105.5
520.898	99.5
521.113	105.5
521.329	112.5
521.544	161.5
521.76	353.5
521.975	1387.5
522.19	880.5
522.406	215.5
522.621	107.5
522.836	89.5
523.052	100.5
523.267	95.5
523.482	92.5
523.698	99.5
523.913	88.5
524.128	99.5
524.343	89.5
524.559	93.5
524.774	105.5
524.989	96.5
525.204	100.5
525.419	83.5
525.634	78.5
525.849	91.5
526.064	88.5
526.28	92.5
526.495	90.5
526.71	87.5
526.925	89.5
527.14	89.5
527.355	81.5
527.57	85.5
527.785	89.5
527.999	95.5
528.214	94.5
528.429	99.5
528.644	87.5
528.859	96.5
529.074	111.5
529.289	97.5
529.503	135.5
529.718	98.5
529.933	92.5
530.148	101.5
530.363	92.5
530.577	64.5
530.792	89.5
531.007	91.5
531.221	100.5
531.436	96.5
531.651	87.5
531.865	84.5
532.08	87.5
532.295	103.5
532.509	85.5
532.724	98.5
532.938	107.5
533.153	97.5
533.367	92.5
533.582	98.5
533.796	95.5
534.011	90.5
534.225	100.5
534.44	100.5
534.654	81.5
534.868	94.5
535.083	91.5
535.297	91.5
535.511	101.5
535.726	99.5
