Data from Uncirc_2009_H10_HRD10591_00100.txt Node
Date: Wed Jan 03 10:12:21 EST 2024
User: Yrep
Spectrometer: HR+D1059
Trigger mode: 1
Integration Time (sec): 1.000000E-1
Scans to average: 1
Electric dark correction enabled: true
Nonlinearity correction enabled: false
Boxcar width: 0
XAxis mode: Wavelengths
Number of Pixels in Spectrum: 2048
>>>>>Begin Spectral Data<<<<<
223.165	-9.69
223.4	-9.69
223.635	-9.69
223.869	-22.69
224.104	-12.69
224.338	-16.69
224.573	-15.69
224.808	-14.69
225.042	-7.69
225.277	-0.69
225.511	1.31
225.746	-10.69
225.98	6.31
226.215	10.31
226.449	13.31
226.683	30.31
226.918	29.31
227.152	20.31
227.387	43.31
227.621	39.31
227.856	44.31
228.09	53.31
228.324	45.31
228.559	64.31
228.793	147.31
229.027	395.31
229.262	454.31
229.496	542.31
229.73	691.31
229.964	694.31
230.199	468.31
230.433	405.31
230.667	447.31
230.901	435.31
231.136	404.31
231.37	415.31
231.604	395.31
231.838	419.31
232.072	423.31
232.306	436.31
232.541	428.31
232.775	453.31
233.009	439.31
233.243	428.31
233.477	437.31
233.711	441.31
233.945	472.31
234.179	459.31
234.413	467.31
234.647	476.31
234.881	480.31
235.115	474.31
235.349	503.31
235.583	500.31
235.817	532.31
236.051	557.31
236.285	536.31
236.519	560.31
236.753	609.31
236.987	802.31
237.221	1179.31
237.455	1261.31
237.689	767.31
237.922	661.31
238.156	657.31
238.39	606.31
238.624	576.31
238.858	576.31
239.091	601.31
239.325	614.31
239.559	627.31
239.793	631.31
240.027	661.31
240.26	782.31
240.494	853.31
240.728	847.31
240.961	810.31
241.195	749.31
241.429	726.31
241.662	693.31
241.896	707.31
242.13	711.31
242.363	703.31
242.597	730.31
242.83	757.31
243.064	758.31
243.298	770.31
243.531	800.31
243.765	763.31
243.998	781.31
244.232	771.31
244.465	799.31
244.699	791.31
244.932	812.31
245.166	807.31
245.399	845.31
245.633	852.31
245.866	847.31
246.099	859.31
246.333	864.31
246.566	864.31
246.8	891.31
247.033	913.31
247.266	935.31
247.5	1003.31
247.733	1045.31
247.966	1045.31
248.2	1062.31
248.433	1059.31
248.666	1112.31
248.899	1217.31
249.133	1269.31
249.366	1276.31
249.599	1183.31
249.832	1118.31
250.066	1103.31
250.299	1172.31
250.532	1238.31
250.765	1411.31
250.998	1525.31
251.231	1450.31
251.465	1357.31
251.698	1287.31
251.931	1276.31
252.164	1262.31
252.397	1303.31
252.63	1327.31
252.863	1401.31
253.096	1487.31
253.329	1542.31
253.562	1462.31
253.795	1397.31
254.028	1430.31
254.261	1449.31
254.494	1608.31
254.727	1926.31
254.96	1953.31
255.193	1775.31
255.426	1584.31
255.659	1475.31
255.892	1507.31
256.124	1537.31
256.357	1512.31
256.59	1443.31
256.823	1397.31
257.056	1393.31
257.289	1408.31
257.521	1418.31
257.754	1411.31
257.987	1407.31
258.22	1407.31
258.452	1422.31
258.685	1449.31
258.918	1435.31
259.151	1443.31
259.383	1481.31
259.616	1560.31
259.849	1600.31
260.081	1705.31
260.314	1877.31
260.547	1764.31
260.779	1645.31
261.012	1578.31
261.244	1547.31
261.477	1533.31
261.71	1559.31
261.942	1608.31
262.175	1593.31
262.407	1539.31
262.64	1513.31
262.872	1508.31
263.105	1519.31
263.337	1509.31
263.57	1531.31
263.802	1548.31
264.035	1529.31
264.267	1546.31
264.499	1519.31
264.732	1547.31
264.964	1564.31
265.197	1561.31
265.429	1583.31
265.661	1563.31
265.894	1580.31
266.126	1603.31
266.358	1645.31
266.591	1644.31
266.823	1732.31
267.055	1721.31
267.287	1732.31
267.52	1684.31
267.752	1716.31
267.984	1720.31
268.216	1740.31
268.448	1794.31
268.681	1836.31
268.913	1963.31
269.145	2099.31
269.377	2143.31
269.609	2080.31
269.841	2052.31
270.073	2124.31
270.306	2338.31
270.538	2499.31
270.77	2385.31
271.002	2243.31
271.234	2194.31
271.466	2335.31
271.698	2444.31
271.93	2464.31
272.162	2405.31
272.394	2358.31
272.626	2263.31
272.858	2096.31
273.09	2060.31
273.322	2041.31
273.553	1989.31
273.785	2005.31
274.017	2035.31
274.249	2067.31
274.481	2099.31
274.713	2074.31
274.945	2099.31
275.176	2104.31
275.408	2107.31
275.64	2042.31
275.872	2067.31
276.104	2075.31
276.335	2089.31
276.567	2209.31
276.799	2353.31
277.031	2498.31
277.262	2613.31
277.494	2524.31
277.726	2343.31
277.957	2250.31
278.189	2222.31
278.421	2186.31
278.652	2200.31
278.884	2201.31
279.115	2190.31
279.347	2175.31
279.579	2180.31
279.81	2175.31
280.042	2142.31
280.273	2202.31
280.505	2204.31
280.736	2218.31
280.968	2183.31
281.199	2244.31
281.431	2272.31
281.662	2292.31
281.894	2265.31
282.125	2315.31
282.356	2429.31
282.588	2525.31
282.819	2488.31
283.051	2356.31
283.282	2336.31
283.513	2397.31
283.745	2447.31
283.976	2512.31
284.207	2538.31
284.439	2478.31
284.67	2438.31
284.901	2437.31
285.132	2418.31
285.364	2408.31
285.595	2392.31
285.826	2440.31
286.057	2476.31
286.288	2464.31
286.52	2526.31
286.751	2487.31
286.982	2513.31
287.213	2532.31
287.444	2552.31
287.675	2621.31
287.906	2696.31
288.138	2699.31
288.369	2679.31
288.6	2707.31
288.831	2680.31
289.062	2611.31
289.293	2601.31
289.524	2580.31
289.755	2612.31
289.986	2586.31
290.217	2582.31
290.448	2563.31
290.679	2592.31
290.91	2612.31
291.141	2604.31
291.371	2587.31
291.602	2605.31
291.833	2621.31
292.064	2649.31
292.295	2607.31
292.526	2636.31
292.757	2596.31
292.987	2643.31
293.218	2579.31
293.449	2650.31
293.68	2638.31
293.91	2650.31
294.141	2668.31
294.372	2641.31
294.603	2627.31
294.833	2651.31
295.064	2635.31
295.295	2644.31
295.525	2698.31
295.756	2732.31
295.987	2765.31
296.217	2956.31
296.448	2881.31
296.679	2743.31
296.909	2730.31
297.14	2736.31
297.37	2829.31
297.601	2827.31
297.831	2815.31
298.062	2837.31
298.292	2875.31
298.523	2927.31
298.753	2941.31
298.984	2866.31
299.214	2885.31
299.445	2863.31
299.675	2901.31
299.905	2953.31
300.136	2924.31
300.366	2911.31
300.597	2970.31
300.827	3020.31
301.057	3167.31
301.288	3116.31
301.518	3115.31
301.748	3102.31
301.979	3124.31
302.209	3123.31
302.439	3112.31
302.669	3136.31
302.9	3110.31
303.13	3028.31
303.36	3125.31
303.59	3176.31
303.82	3134.31
304.051	3156.31
304.281	3123.31
304.511	3072.31
304.741	3061.31
304.971	3078.31
305.201	3084.31
305.431	3051.31
305.661	3097.31
305.891	3020.31
306.121	3039.31
306.352	3133.31
306.582	3039.31
306.812	2990.31
307.042	3055.31
307.272	3052.31
307.502	3087.31
307.731	2997.31
307.961	3075.31
308.191	3040.31
308.421	3060.31
308.651	3142.31
308.881	3036.31
309.111	3114.31
309.341	3123.31
309.571	3182.31
309.8	3252.31
310.03	3321.31
310.26	3323.31
310.49	3318.31
310.72	3383.31
310.949	3489.31
311.179	3499.31
311.409	3318.31
311.639	3313.31
311.868	3383.31
312.098	3373.31
312.328	3439.31
312.557	3542.31
312.787	3629.31
313.017	3566.31
313.246	3431.31
313.476	3427.31
313.706	3534.31
313.935	3569.31
314.165	3550.31
314.394	3585.31
314.624	3598.31
314.853	3541.31
315.083	3500.31
315.312	3494.31
315.542	3427.31
315.771	3376.31
316.001	3453.31
316.23	3443.31
316.46	3434.31
316.689	3466.31
316.919	3499.31
317.148	3537.31
317.377	3592.31
317.607	3597.31
317.836	3520.31
318.065	3418.31
318.295	3411.31
318.524	3424.31
318.753	3361.31
318.983	3406.31
319.212	3393.31
319.441	3472.31
319.67	3425.31
319.9	3425.31
320.129	3462.31
320.358	3457.31
320.587	3513.31
320.816	3521.31
321.046	3555.31
321.275	3500.31
321.504	3589.31
321.733	3547.31
321.962	3576.31
322.191	3716.31
322.42	3773.31
322.649	3815.31
322.878	3812.31
323.108	3947.31
323.337	4103.31
323.566	4215.31
323.795	4483.31
324.024	4926.31
324.253	6253.31
324.482	9237.31
324.71	13792.31
324.939	15565.31
325.168	10281.31
325.397	5724.31
325.626	4721.31
325.855	4420.31
326.084	4385.31
326.313	4471.31
326.542	4554.31
326.77	5007.31
326.999	6158.31
327.228	8821.31
327.457	12807.31
327.686	11967.31
327.914	6373.31
328.143	5267.31
328.372	4965.31
328.6	4778.31
328.829	4666.31
329.058	4780.31
329.287	4816.31
329.515	4544.31
329.744	4393.31
329.972	4436.31
330.201	4647.31
330.43	4917.31
330.658	4962.31
330.887	5114.31
331.115	4837.31
331.344	4564.31
331.572	4520.31
331.801	4632.31
332.03	4637.31
332.258	4608.31
332.486	4653.31
332.715	4716.31
332.943	4908.31
333.172	5024.31
333.4	5169.31
333.629	5237.31
333.857	5367.31
334.085	5305.31
334.314	5382.31
334.542	5461.31
334.771	5391.31
334.999	5067.31
335.227	5051.31
335.455	4910.31
335.684	4815.31
335.912	4788.31
336.14	4688.31
336.369	4728.31
336.597	4715.31
336.825	4614.31
337.053	4542.31
337.281	4445.31
337.51	4472.31
337.738	4456.31
337.966	4415.31
338.194	4375.31
338.422	4328.31
338.65	4291.31
338.878	4236.31
339.106	4196.31
339.334	4193.31
339.562	4180.31
339.79	4070.31
340.018	4102.31
340.246	4126.31
340.474	4123.31
340.702	4081.31
340.93	4107.31
341.158	4060.31
341.386	4112.31
341.614	4136.31
341.842	4071.31
342.07	4031.31
342.298	4040.31
342.526	4017.31
342.754	4025.31
342.981	4124.31
343.209	4188.31
343.437	4385.31
343.665	4628.31
343.893	4906.31
344.12	4824.31
344.348	4620.31
344.576	4485.31
344.804	4355.31
345.031	4324.31
345.259	4281.31
345.487	4190.31
345.714	4135.31
345.942	3943.31
346.17	3950.31
346.397	3877.31
346.625	3891.31
346.853	3878.31
347.08	3905.31
347.308	3940.31
347.535	3981.31
347.763	3993.31
347.99	3951.31
348.218	4003.31
348.445	4031.31
348.673	3950.31
348.9	3900.31
349.128	3850.31
349.355	3812.31
349.583	3831.31
349.81	3827.31
350.037	3770.31
350.265	3793.31
350.492	3797.31
350.72	3776.31
350.947	3791.31
351.174	3926.31
351.402	3931.31
351.629	3827.31
351.856	3932.31
352.083	3891.31
352.311	3853.31
352.538	3926.31
352.765	3902.31
352.992	3806.31
353.22	3811.31
353.447	3812.31
353.674	3771.31
353.901	3700.31
354.128	3737.31
354.355	3673.31
354.583	3697.31
354.81	3719.31
355.037	3699.31
355.264	3717.31
355.491	3708.31
355.718	3727.31
355.945	3740.31
356.172	3740.31
356.399	3722.31
356.626	3715.31
356.853	3714.31
357.08	3699.31
357.307	3712.31
357.534	3681.31
357.761	3782.31
357.988	3798.31
358.215	3740.31
358.441	3704.31
358.668	3735.31
358.895	3817.31
359.122	3828.31
359.349	3913.31
359.576	3935.31
359.802	4087.31
360.029	4143.31
360.256	4173.31
360.483	4062.31
360.709	3923.31
360.936	3885.31
361.163	3896.31
361.39	3957.31
361.616	3920.31
361.843	3921.31
362.07	3898.31
362.296	3924.31
362.523	3918.31
362.749	3890.31
362.976	3856.31
363.203	3796.31
363.429	3776.31
363.656	3842.31
363.882	3874.31
364.109	3762.31
364.335	3750.31
364.562	3773.31
364.788	3780.31
365.015	3789.31
365.241	3777.31
365.468	3812.31
365.694	3877.31
365.92	3839.31
366.147	3776.31
366.373	3781.31
366.599	3781.31
366.826	3793.31
367.052	3757.31
367.278	3791.31
367.505	3870.31
367.731	3847.31
367.957	3847.31
368.184	3911.31
368.41	3920.31
368.636	3984.31
368.862	4026.31
369.089	3898.31
369.315	3902.31
369.541	3895.31
369.767	3963.31
369.993	3941.31
370.219	3893.31
370.445	3926.31
370.672	3987.31
370.898	4057.31
371.124	4013.31
371.35	4089.31
371.576	4032.31
371.802	4060.31
372.028	4046.31
372.254	4099.31
372.48	4079.31
372.706	4238.31
372.932	4246.31
373.158	4146.31
373.384	4148.31
373.61	4071.31
373.835	4095.31
374.061	4100.31
374.287	4230.31
374.513	4237.31
374.739	4459.31
374.965	4516.31
375.191	4440.31
375.416	4434.31
375.642	4233.31
375.868	4285.31
376.094	4210.31
376.319	4148.31
376.545	4163.31
376.771	4136.31
376.997	4127.31
377.222	4124.31
377.448	4111.31
377.674	4072.31
377.899	4067.31
378.125	4010.31
378.35	4033.31
378.576	4046.31
378.802	4046.31
379.027	4046.31
379.253	4116.31
379.478	4055.31
379.704	4033.31
379.929	4088.31
380.155	4151.31
380.38	4114.31
380.606	4134.31
380.831	4088.31
381.057	4164.31
381.282	4099.31
381.507	4140.31
381.733	4173.31
381.958	4151.31
382.184	4238.31
382.409	4281.31
382.634	4311.31
382.86	4322.31
383.085	4373.31
383.31	4389.31
383.535	4506.31
383.761	4579.31
383.986	4615.31
384.211	4726.31
384.436	4753.31
384.662	4822.31
384.887	4911.31
385.112	4871.31
385.337	4939.31
385.562	4984.31
385.787	4901.31
386.013	5037.31
386.238	5082.31
386.463	4995.31
386.688	4999.31
386.913	4877.31
387.138	4946.31
387.363	4859.31
387.588	4793.31
387.813	4889.31
388.038	4917.31
388.263	4941.31
388.488	4941.31
388.713	4972.31
388.938	4924.31
389.163	4897.31
389.387	4828.31
389.612	4799.31
389.837	4835.31
390.062	4843.31
390.287	4818.31
390.512	4831.31
390.736	4894.31
390.961	4940.31
391.186	5044.31
391.411	5224.31
391.636	5317.31
391.86	5507.31
392.085	5533.31
392.31	5415.31
392.534	5296.31
392.759	5162.31
392.984	5117.31
393.208	5091.31
393.433	5086.31
393.658	5080.31
393.882	5037.31
394.107	5175.31
394.331	5168.31
394.556	5121.31
394.78	5229.31
395.005	5235.31
395.229	5239.31
395.454	5395.31
395.678	5507.31
395.903	5536.31
396.127	5515.31
396.352	5280.31
396.576	5166.31
396.801	5150.31
397.025	5256.31
397.249	5386.31
397.474	5461.31
397.698	5559.31
397.922	5632.31
398.147	5664.31
398.371	5844.31
398.595	5904.31
398.82	6212.31
399.044	6754.31
399.268	7569.31
399.492	8532.31
399.717	9177.31
399.941	8928.31
400.165	8233.31
400.389	7562.31
400.613	6944.31
400.837	6518.31
401.062	6256.31
401.286	6247.31
401.51	6135.31
401.734	6168.31
401.958	6271.31
402.182	6313.31
402.406	6527.31
402.63	6520.31
402.854	6631.31
403.078	6727.31
403.302	6838.31
403.526	6973.31
403.75	7003.31
403.974	7082.31
404.198	7057.31
404.422	7109.31
404.645	7114.31
404.869	6980.31
405.093	7198.31
405.317	7399.31
405.541	7421.31
405.765	7072.31
405.988	6815.31
406.212	7011.31
406.436	7160.31
406.66	7276.31
406.883	7292.31
407.107	7822.31
407.331	8421.31
407.555	8901.31
407.778	8529.31
408.002	7799.31
408.226	7384.31
408.449	7360.31
408.673	7169.31
408.896	7408.31
409.12	7417.31
409.344	7045.31
409.567	6775.31
409.791	6793.31
410.014	6714.31
410.238	6583.31
410.461	6657.31
410.685	6676.31
410.908	6744.31
411.132	7005.31
411.355	7027.31
411.578	6613.31
411.802	6398.31
412.025	6416.31
412.249	6589.31
412.472	6709.31
412.695	6719.31
412.919	6421.31
413.142	6282.31
413.365	6204.31
413.589	6178.31
413.812	6090.31
414.035	5962.31
414.258	6063.31
414.482	6089.31
414.705	6156.31
414.928	6051.31
415.151	6073.31
415.374	6099.31
415.597	5996.31
415.821	5895.31
416.044	5921.31
416.267	5928.31
416.49	5852.31
416.713	5924.31
416.936	6058.31
417.159	6019.31
417.382	6050.31
417.605	6138.31
417.828	6173.31
418.051	6268.31
418.274	6199.31
418.497	6084.31
418.72	6193.31
418.943	6094.31
419.166	6549.31
419.389	6928.31
419.611	6765.31
419.834	6541.31
420.057	6440.31
420.28	6325.31
420.503	6173.31
420.726	6189.31
420.948	6313.31
421.171	6557.31
421.394	6659.31
421.617	6141.31
421.839	6118.31
422.062	6253.31
422.285	6353.31
422.507	6971.31
422.73	7559.31
422.953	6904.31
423.175	6640.31
423.398	6633.31
423.621	6661.31
423.843	6817.31
424.066	6801.31
424.288	6667.31
424.511	6959.31
424.733	7236.31
424.956	7702.31
425.178	7223.31
425.401	7336.31
425.623	7149.31
425.846	6335.31
426.068	6236.31
426.291	6140.31
426.513	6160.31
426.735	6159.31
426.958	6588.31
427.18	7251.31
427.402	8295.31
427.625	8336.31
427.847	7063.31
428.069	6494.31
428.292	6046.31
428.514	5631.31
428.736	5612.31
428.958	5618.31
429.181	5413.31
429.403	5465.31
429.625	5599.31
429.847	5913.31
430.069	6346.31
430.292	5964.31
430.514	5465.31
430.736	5454.31
430.958	5374.31
431.18	5364.31
431.402	5344.31
431.624	5374.31
431.846	5388.31
432.068	5425.31
432.29	5575.31
432.512	5413.31
432.734	5541.31
432.956	5444.31
433.178	5522.31
433.4	5507.31
433.622	5443.31
433.844	5432.31
434.066	5430.31
434.287	5551.31
434.509	5827.31
434.731	5992.31
434.953	6101.31
435.175	6202.31
435.397	6231.31
435.618	6286.31
435.84	6559.31
436.062	7184.31
436.284	7266.31
436.505	6078.31
436.727	5867.31
436.949	5613.31
437.17	5463.31
437.392	5468.31
437.614	5625.31
437.835	5880.31
438.057	6740.31
438.278	7379.31
438.5	7299.31
438.721	8021.31
438.943	6975.31
439.165	5927.31
439.386	5895.31
439.608	5802.31
439.829	5877.31
440.05	6123.31
440.272	6489.31
440.493	5955.31
440.715	5703.31
440.936	5749.31
441.158	5864.31
441.379	5888.31
441.6	6177.31
441.822	6431.31
442.043	6800.31
442.264	7480.31
442.486	7208.31
442.707	6373.31
442.928	6259.31
443.149	6428.31
443.371	6612.31
443.592	7146.31
443.813	8034.31
444.034	8054.31
444.255	7011.31
444.476	7029.31
444.698	7148.31
444.919	7201.31
445.14	6990.31
445.361	6795.31
445.582	6832.31
445.803	7342.31
446.024	7849.31
446.245	7719.31
446.466	6892.31
446.687	6054.31
446.908	5768.31
447.129	5444.31
447.35	5347.31
447.571	5240.31
447.792	5123.31
448.013	5274.31
448.234	5506.31
448.455	6007.31
448.675	7025.31
448.896	7509.31
449.117	6189.31
449.338	6414.31
449.559	7471.31
449.779	7783.31
450	6052.31
450.221	5361.31
450.442	5151.31
450.662	5143.31
450.883	5179.31
451.104	5192.31
451.324	5168.31
451.545	5048.31
451.766	4915.31
451.986	4815.31
452.207	4772.31
452.428	4781.31
452.648	4812.31
452.869	4825.31
453.089	4893.31
453.31	4915.31
453.53	4791.31
453.751	4799.31
453.971	4723.31
454.192	4867.31
454.412	4605.31
454.633	4536.31
454.853	4622.31
455.073	4692.31
455.294	5030.31
455.514	5491.31
455.734	4976.31
455.955	4459.31
456.175	4448.31
456.395	4461.31
456.616	4406.31
456.836	4361.31
457.056	4367.31
457.276	4309.31
457.497	4456.31
457.717	4424.31
457.937	4513.31
458.157	4609.31
458.377	4702.31
458.598	4942.31
458.818	5525.31
459.038	6126.31
459.258	6164.31
459.478	5576.31
459.698	5536.31
459.918	5537.31
460.138	5746.31
460.358	5952.31
460.578	5996.31
460.798	6132.31
461.018	6084.31
461.238	5936.31
461.458	5997.31
461.678	5829.31
461.898	6018.31
462.118	6101.31
462.338	6393.31
462.558	6463.31
462.777	6876.31
462.997	7409.31
463.217	7832.31
463.437	7559.31
463.657	7076.31
463.876	6815.31
464.096	6957.31
464.316	6865.31
464.536	6916.31
464.755	6581.31
464.975	6468.31
465.195	6524.31
465.414	6519.31
465.634	5793.31
465.854	5514.31
466.073	5340.31
466.293	5189.31
466.512	5027.31
466.732	4952.31
466.951	5000.31
467.171	4928.31
467.391	5047.31
467.61	5058.31
467.829	5011.31
468.049	4949.31
468.268	4842.31
468.488	4729.31
468.707	4691.31
468.927	4742.31
469.146	4715.31
469.365	4795.31
469.585	4817.31
469.804	4948.31
470.023	5123.31
470.243	5139.31
470.462	5223.31
470.681	5302.31
470.901	5232.31
471.12	5081.31
471.339	5015.31
471.558	5053.31
471.777	4964.31
471.997	4846.31
472.216	4918.31
472.435	4985.31
472.654	4829.31
472.873	4712.31
473.092	4717.31
473.311	4703.31
473.53	4771.31
473.749	4872.31
473.968	5232.31
474.187	6157.31
474.406	5769.31
474.625	4980.31
474.844	4757.31
475.063	4779.31
475.282	4717.31
475.501	4817.31
475.72	4799.31
475.939	4855.31
476.158	4875.31
476.377	4914.31
476.596	4926.31
476.814	5114.31
477.033	5094.31
477.252	5147.31
477.471	5255.31
477.69	5356.31
477.908	5474.31
478.127	5607.31
478.346	5621.31
478.564	5747.31
478.783	5835.31
479.002	6000.31
479.22	5986.31
479.439	6077.31
479.658	6189.31
479.876	6215.31
480.095	6368.31
480.313	6724.31
480.532	6709.31
480.751	6533.31
480.969	6564.31
481.188	6715.31
481.406	6437.31
481.624	6074.31
481.843	5808.31
482.061	5757.31
482.28	5642.31
482.498	5592.31
482.717	5636.31
482.935	5521.31
483.153	5574.31
483.372	5544.31
483.59	5578.31
483.808	5566.31
484.027	5557.31
484.245	5581.31
484.463	5627.31
484.681	5718.31
484.9	5798.31
485.118	5826.31
485.336	5791.31
485.554	5828.31
485.772	5913.31
485.99	5943.31
486.209	5993.31
486.427	5925.31
486.645	5965.31
486.863	6052.31
487.081	6052.31
487.299	5889.31
487.517	5957.31
487.735	6011.31
487.953	5908.31
