Data from Uncirc_2009_H10_HRD10591_00016.txt Node
Date: Wed Jan 03 10:12:05 EST 2024
User: Yrep
Spectrometer: HR+D1059
Trigger mode: 1
Integration Time (sec): 1.000000E-1
Scans to average: 1
Electric dark correction enabled: true
Nonlinearity correction enabled: false
Boxcar width: 0
XAxis mode: Wavelengths
Number of Pixels in Spectrum: 2048
>>>>>Begin Spectral Data<<<<<
223.165	-15.75
223.4	-15.75
223.635	-15.75
223.869	-16.75
224.104	-6.75
224.338	-11.75
224.573	-5.75
224.808	-10.75
225.042	-8.75
225.277	-3.75
225.511	-4.75
225.746	2.25
225.98	14.25
226.215	13.25
226.449	0.25
226.683	16.25
226.918	18.25
227.152	20.25
227.387	22.25
227.621	36.25
227.856	36.25
228.09	52.25
228.324	47.25
228.559	53.25
228.793	64.25
229.027	70.25
229.262	65.25
229.496	69.25
229.73	69.25
229.964	75.25
230.199	68.25
230.433	77.25
230.667	68.25
230.901	74.25
231.136	78.25
231.37	59.25
231.604	73.25
231.838	70.25
232.072	71.25
232.306	73.25
232.541	76.25
232.775	77.25
233.009	65.25
233.243	77.25
233.477	76.25
233.711	79.25
233.945	85.25
234.179	89.25
234.413	80.25
234.647	77.25
234.881	89.25
235.115	84.25
235.349	80.25
235.583	77.25
235.817	79.25
236.051	68.25
236.285	69.25
236.519	72.25
236.753	80.25
236.987	79.25
237.221	93.25
237.455	81.25
237.689	69.25
237.922	81.25
238.156	74.25
238.39	74.25
238.624	70.25
238.858	81.25
239.091	68.25
239.325	87.25
239.559	83.25
239.793	78.25
240.027	78.25
240.26	87.25
240.494	66.25
240.728	74.25
240.961	70.25
241.195	72.25
241.429	77.25
241.662	70.25
241.896	84.25
242.13	72.25
242.363	67.25
242.597	75.25
242.83	61.25
243.064	80.25
243.298	84.25
243.531	75.25
243.765	85.25
243.998	80.25
244.232	76.25
244.465	77.25
244.699	70.25
244.932	80.25
245.166	72.25
245.399	74.25
245.633	80.25
245.866	80.25
246.099	76.25
246.333	74.25
246.566	72.25
246.8	66.25
247.033	87.25
247.266	78.25
247.5	70.25
247.733	72.25
247.966	70.25
248.2	75.25
248.433	76.25
248.666	88.25
248.899	90.25
249.133	91.25
249.366	77.25
249.599	91.25
249.832	73.25
250.066	88.25
250.299	78.25
250.532	93.25
250.765	77.25
250.998	73.25
251.231	79.25
251.465	75.25
251.698	76.25
251.931	68.25
252.164	79.25
252.397	63.25
252.63	72.25
252.863	80.25
253.096	74.25
253.329	62.25
253.562	79.25
253.795	89.25
254.028	81.25
254.261	87.25
254.494	76.25
254.727	69.25
254.96	75.25
255.193	85.25
255.426	82.25
255.659	74.25
255.892	74.25
256.124	89.25
256.357	87.25
256.59	81.25
256.823	73.25
257.056	86.25
257.289	85.25
257.521	93.25
257.754	82.25
257.987	67.25
258.22	91.25
258.452	82.25
258.685	76.25
258.918	99.25
259.151	67.25
259.383	92.25
259.616	64.25
259.849	77.25
260.081	74.25
260.314	85.25
260.547	82.25
260.779	77.25
261.012	70.25
261.244	92.25
261.477	87.25
261.71	90.25
261.942	117.25
262.175	98.25
262.407	79.25
262.64	69.25
262.872	70.25
263.105	88.25
263.337	63.25
263.57	84.25
263.802	75.25
264.035	84.25
264.267	80.25
264.499	67.25
264.732	81.25
264.964	72.25
265.197	72.25
265.429	87.25
265.661	87.25
265.894	80.25
266.126	89.25
266.358	77.25
266.591	77.25
266.823	82.25
267.055	79.25
267.287	85.25
267.52	88.25
267.752	87.25
267.984	81.25
268.216	75.25
268.448	66.25
268.681	80.25
268.913	83.25
269.145	86.25
269.377	69.25
269.609	81.25
269.841	80.25
270.073	70.25
270.306	75.25
270.538	79.25
270.77	72.25
271.002	95.25
271.234	82.25
271.466	77.25
271.698	91.25
271.93	71.25
272.162	88.25
272.394	87.25
272.626	81.25
272.858	69.25
273.09	88.25
273.322	84.25
273.553	78.25
273.785	97.25
274.017	87.25
274.249	98.25
274.481	82.25
274.713	89.25
274.945	70.25
275.176	78.25
275.408	81.25
275.64	76.25
275.872	101.25
276.104	95.25
276.335	91.25
276.567	80.25
276.799	93.25
277.031	90.25
277.262	80.25
277.494	94.25
277.726	91.25
277.957	105.25
278.189	90.25
278.421	80.25
278.652	94.25
278.884	79.25
279.115	92.25
279.347	96.25
279.579	82.25
279.81	74.25
280.042	79.25
280.273	106.25
280.505	76.25
280.736	92.25
280.968	85.25
281.199	88.25
281.431	72.25
281.662	79.25
281.894	87.25
282.125	91.25
282.356	102.25
282.588	107.25
282.819	98.25
283.051	98.25
283.282	91.25
283.513	84.25
283.745	94.25
283.976	90.25
284.207	83.25
284.439	94.25
284.67	85.25
284.901	83.25
285.132	79.25
285.364	96.25
285.595	94.25
285.826	77.25
286.057	87.25
286.288	86.25
286.52	90.25
286.751	88.25
286.982	98.25
287.213	84.25
287.444	83.25
287.675	104.25
287.906	83.25
288.138	87.25
288.369	96.25
288.6	84.25
288.831	75.25
289.062	82.25
289.293	80.25
289.524	91.25
289.755	88.25
289.986	87.25
290.217	91.25
290.448	74.25
290.679	73.25
290.91	93.25
291.141	85.25
291.371	80.25
291.602	96.25
291.833	89.25
292.064	85.25
292.295	83.25
292.526	94.25
292.757	85.25
292.987	81.25
293.218	76.25
293.449	82.25
293.68	89.25
293.91	95.25
294.141	84.25
294.372	106.25
294.603	84.25
294.833	82.25
295.064	85.25
295.295	70.25
295.525	88.25
295.756	91.25
295.987	104.25
296.217	102.25
296.448	114.25
296.679	81.25
296.909	80.25
297.14	84.25
297.37	79.25
297.601	82.25
297.831	103.25
298.062	92.25
298.292	84.25
298.523	94.25
298.753	83.25
298.984	88.25
299.214	86.25
299.445	95.25
299.675	85.25
299.905	94.25
300.136	89.25
300.366	95.25
300.597	85.25
300.827	96.25
301.057	94.25
301.288	102.25
301.518	89.25
301.748	93.25
301.979	98.25
302.209	75.25
302.439	83.25
302.669	85.25
302.9	94.25
303.13	87.25
303.36	93.25
303.59	101.25
303.82	100.25
304.051	79.25
304.281	98.25
304.511	76.25
304.741	79.25
304.971	75.25
305.201	79.25
305.431	87.25
305.661	87.25
305.891	82.25
306.121	95.25
306.352	91.25
306.582	94.25
306.812	74.25
307.042	93.25
307.272	89.25
307.502	80.25
307.731	95.25
307.961	92.25
308.191	87.25
308.421	85.25
308.651	86.25
308.881	84.25
309.111	91.25
309.341	88.25
309.571	91.25
309.8	88.25
310.03	88.25
310.26	85.25
310.49	86.25
310.72	90.25
310.949	90.25
311.179	91.25
311.409	106.25
311.639	88.25
311.868	84.25
312.098	81.25
312.328	100.25
312.557	86.25
312.787	96.25
313.017	94.25
313.246	92.25
313.476	95.25
313.706	90.25
313.935	83.25
314.165	86.25
314.394	78.25
314.624	85.25
314.853	88.25
315.083	83.25
315.312	85.25
315.542	90.25
315.771	84.25
316.001	91.25
316.23	95.25
316.46	98.25
316.689	91.25
316.919	92.25
317.148	93.25
317.377	95.25
317.607	114.25
317.836	103.25
318.065	93.25
318.295	84.25
318.524	85.25
318.753	87.25
318.983	90.25
319.212	87.25
319.441	107.25
319.67	91.25
319.9	103.25
320.129	82.25
320.358	85.25
320.587	79.25
320.816	86.25
321.046	96.25
321.275	83.25
321.504	90.25
321.733	105.25
321.962	81.25
322.191	94.25
322.42	90.25
322.649	95.25
322.878	90.25
323.108	110.25
323.337	113.25
323.566	108.25
323.795	131.25
324.024	173.25
324.253	295.25
324.482	639.25
324.71	1247.25
324.939	1631.25
325.168	618.25
325.397	201.25
325.626	127.25
325.855	104.25
326.084	135.25
326.313	153.25
326.542	150.25
326.77	195.25
326.999	350.25
327.228	728.25
327.457	1302.25
327.686	1052.25
327.914	302.25
328.143	151.25
328.372	126.25
328.6	102.25
328.829	102.25
329.058	100.25
329.287	117.25
329.515	110.25
329.744	84.25
329.972	116.25
330.201	94.25
330.43	122.25
330.658	90.25
330.887	132.25
331.115	105.25
331.344	91.25
331.572	106.25
331.801	96.25
332.03	87.25
332.258	81.25
332.486	78.25
332.715	68.25
332.943	92.25
333.172	114.25
333.4	92.25
333.629	95.25
333.857	100.25
334.085	96.25
334.314	107.25
334.542	92.25
334.771	126.25
334.999	90.25
335.227	93.25
335.455	82.25
335.684	95.25
335.912	99.25
336.14	114.25
336.369	86.25
336.597	80.25
336.825	94.25
337.053	93.25
337.281	97.25
337.51	93.25
337.738	86.25
337.966	82.25
338.194	96.25
338.422	75.25
338.65	94.25
338.878	85.25
339.106	76.25
339.334	79.25
339.562	90.25
339.79	93.25
340.018	88.25
340.246	74.25
340.474	97.25
340.702	92.25
340.93	99.25
341.158	96.25
341.386	79.25
341.614	99.25
341.842	78.25
342.07	77.25
342.298	94.25
342.526	91.25
342.754	77.25
342.981	90.25
343.209	89.25
343.437	106.25
343.665	86.25
343.893	91.25
344.12	68.25
344.348	106.25
344.576	75.25
344.804	89.25
345.031	102.25
345.259	104.25
345.487	88.25
345.714	74.25
345.942	95.25
346.17	79.25
346.397	67.25
346.625	98.25
346.853	98.25
347.08	99.25
347.308	91.25
347.535	84.25
347.763	82.25
347.99	102.25
348.218	96.25
348.445	100.25
348.673	102.25
348.9	103.25
349.128	84.25
349.355	85.25
349.583	92.25
349.81	81.25
350.037	86.25
350.265	90.25
350.492	84.25
350.72	97.25
350.947	91.25
351.174	98.25
351.402	105.25
351.629	92.25
351.856	80.25
352.083	100.25
352.311	89.25
352.538	105.25
352.765	90.25
352.992	92.25
353.22	93.25
353.447	86.25
353.674	87.25
353.901	93.25
354.128	97.25
354.355	107.25
354.583	94.25
354.81	90.25
355.037	86.25
355.264	97.25
355.491	98.25
355.718	90.25
355.945	81.25
356.172	89.25
356.399	93.25
356.626	96.25
356.853	102.25
357.08	86.25
357.307	91.25
357.534	86.25
357.761	96.25
357.988	89.25
358.215	95.25
358.441	99.25
358.668	81.25
358.895	91.25
359.122	88.25
359.349	85.25
359.576	79.25
359.802	92.25
360.029	103.25
360.256	85.25
360.483	91.25
360.709	90.25
360.936	100.25
361.163	88.25
361.39	80.25
361.616	89.25
361.843	81.25
362.07	85.25
362.296	93.25
362.523	89.25
362.749	89.25
362.976	77.25
363.203	85.25
363.429	77.25
363.656	80.25
363.882	90.25
364.109	90.25
364.335	82.25
364.562	93.25
364.788	102.25
365.015	95.25
365.241	89.25
365.468	80.25
365.694	99.25
365.92	92.25
366.147	82.25
366.373	92.25
366.599	99.25
366.826	79.25
367.052	75.25
367.278	89.25
367.505	90.25
367.731	96.25
367.957	92.25
368.184	71.25
368.41	84.25
368.636	78.25
368.862	116.25
369.089	94.25
369.315	91.25
369.541	75.25
369.767	72.25
369.993	80.25
370.219	97.25
370.445	92.25
370.672	81.25
370.898	100.25
371.124	82.25
371.35	73.25
371.576	83.25
371.802	74.25
372.028	88.25
372.254	76.25
372.48	82.25
372.706	84.25
372.932	82.25
373.158	84.25
373.384	76.25
373.61	89.25
373.835	90.25
374.061	97.25
374.287	82.25
374.513	83.25
374.739	81.25
374.965	99.25
375.191	95.25
375.416	94.25
375.642	87.25
375.868	81.25
376.094	64.25
376.319	103.25
376.545	90.25
376.771	86.25
376.997	80.25
377.222	86.25
377.448	72.25
377.674	96.25
377.899	92.25
378.125	78.25
378.35	95.25
378.576	86.25
378.802	96.25
379.027	104.25
379.253	84.25
379.478	86.25
379.704	97.25
379.929	104.25
380.155	105.25
380.38	98.25
380.606	91.25
380.831	90.25
381.057	103.25
381.282	97.25
381.507	103.25
381.733	95.25
381.958	83.25
382.184	105.25
382.409	91.25
382.634	95.25
382.86	93.25
383.085	89.25
383.31	94.25
383.535	97.25
383.761	98.25
383.986	92.25
384.211	99.25
384.436	106.25
384.662	106.25
384.887	91.25
385.112	96.25
385.337	106.25
385.562	107.25
385.787	107.25
386.013	107.25
386.238	110.25
386.463	106.25
386.688	94.25
386.913	95.25
387.138	97.25
387.363	106.25
387.588	94.25
387.813	84.25
388.038	104.25
388.263	111.25
388.488	118.25
388.713	76.25
388.938	93.25
389.163	82.25
389.387	106.25
389.612	83.25
389.837	87.25
390.062	89.25
390.287	96.25
390.512	94.25
390.736	80.25
390.961	93.25
391.186	83.25
391.411	84.25
391.636	80.25
391.86	85.25
392.085	77.25
392.31	78.25
392.534	92.25
392.759	80.25
392.984	81.25
393.208	81.25
393.433	93.25
393.658	76.25
393.882	88.25
394.107	76.25
394.331	78.25
394.556	86.25
394.78	80.25
395.005	80.25
395.229	85.25
395.454	72.25
395.678	92.25
395.903	89.25
396.127	76.25
396.352	100.25
396.576	76.25
396.801	94.25
397.025	93.25
397.249	85.25
397.474	85.25
397.698	82.25
397.922	90.25
398.147	94.25
398.371	77.25
398.595	85.25
398.82	85.25
399.044	95.25
399.268	84.25
399.492	76.25
399.717	91.25
399.941	90.25
400.165	94.25
400.389	84.25
400.613	85.25
400.837	96.25
401.062	76.25
401.286	84.25
401.51	83.25
401.734	103.25
401.958	80.25
402.182	99.25
402.406	126.25
402.63	116.25
402.854	89.25
403.078	90.25
403.302	94.25
403.526	89.25
403.75	87.25
403.974	83.25
404.198	86.25
404.422	74.25
404.645	75.25
404.869	96.25
405.093	87.25
405.317	77.25
405.541	80.25
405.765	84.25
405.988	95.25
406.212	132.25
406.436	163.25
406.66	120.25
406.883	94.25
407.107	79.25
407.331	84.25
407.555	101.25
407.778	92.25
408.002	85.25
408.226	81.25
408.449	79.25
408.673	85.25
408.896	79.25
409.12	105.25
409.344	91.25
409.567	93.25
409.791	88.25
410.014	78.25
410.238	84.25
410.461	82.25
410.685	80.25
410.908	92.25
411.132	99.25
411.355	92.25
411.578	87.25
411.802	83.25
412.025	85.25
412.249	101.25
412.472	96.25
412.695	87.25
412.919	92.25
413.142	89.25
413.365	93.25
413.589	90.25
413.812	80.25
414.035	92.25
414.258	85.25
414.482	88.25
414.705	85.25
414.928	84.25
415.151	75.25
415.374	94.25
415.597	85.25
415.821	79.25
416.044	77.25
416.267	80.25
416.49	86.25
416.713	80.25
416.936	84.25
417.159	99.25
417.382	84.25
417.605	79.25
417.828	87.25
418.051	102.25
418.274	92.25
418.497	84.25
418.72	83.25
418.943	86.25
419.166	102.25
419.389	76.25
419.611	78.25
419.834	96.25
420.057	94.25
420.28	79.25
420.503	81.25
420.726	84.25
420.948	89.25
421.171	82.25
421.394	103.25
421.617	87.25
421.839	94.25
422.062	103.25
422.285	92.25
422.507	91.25
422.73	79.25
422.953	98.25
423.175	85.25
423.398	82.25
423.621	75.25
423.843	76.25
424.066	74.25
424.288	88.25
424.511	90.25
424.733	85.25
424.956	98.25
425.178	85.25
425.401	80.25
425.623	76.25
425.846	78.25
426.068	97.25
426.291	88.25
426.513	93.25
426.735	101.25
426.958	101.25
427.18	86.25
427.402	109.25
427.625	119.25
427.847	98.25
428.069	96.25
428.292	87.25
428.514	77.25
428.736	83.25
428.958	91.25
429.181	93.25
429.403	93.25
429.625	90.25
429.847	87.25
430.069	91.25
430.292	78.25
430.514	77.25
430.736	80.25
430.958	80.25
431.18	86.25
431.402	82.25
431.624	92.25
431.846	88.25
432.068	82.25
432.29	76.25
432.512	84.25
432.734	92.25
432.956	84.25
433.178	63.25
433.4	79.25
433.622	91.25
433.844	85.25
434.066	87.25
434.287	96.25
434.509	91.25
434.731	79.25
434.953	90.25
435.175	72.25
435.397	79.25
435.618	79.25
435.84	92.25
436.062	86.25
436.284	107.25
436.505	94.25
436.727	89.25
436.949	101.25
437.17	60.25
437.392	80.25
437.614	80.25
437.835	98.25
438.057	98.25
438.278	97.25
438.5	92.25
438.721	104.25
438.943	88.25
439.165	85.25
439.386	95.25
439.608	88.25
439.829	77.25
440.05	82.25
440.272	113.25
440.493	85.25
440.715	89.25
440.936	87.25
441.158	84.25
441.379	74.25
441.6	98.25
441.822	92.25
442.043	88.25
442.264	82.25
442.486	101.25
442.707	92.25
442.928	99.25
443.149	100.25
443.371	92.25
443.592	105.25
443.813	98.25
444.034	101.25
444.255	87.25
444.476	89.25
444.698	82.25
444.919	74.25
445.14	131.25
445.361	116.25
445.582	86.25
445.803	111.25
446.024	116.25
446.245	85.25
446.466	92.25
446.687	83.25
446.908	78.25
447.129	79.25
447.35	84.25
447.571	86.25
447.792	79.25
448.013	95.25
448.234	102.25
448.455	89.25
448.675	84.25
448.896	95.25
449.117	92.25
449.338	98.25
449.559	99.25
449.779	110.25
450	90.25
450.221	92.25
450.442	91.25
450.662	70.25
450.883	96.25
451.104	93.25
451.324	97.25
451.545	88.25
451.766	78.25
451.986	83.25
452.207	80.25
452.428	81.25
452.648	78.25
452.869	94.25
453.089	95.25
453.31	100.25
453.53	86.25
453.751	84.25
453.971	80.25
454.192	96.25
454.412	80.25
454.633	83.25
454.853	77.25
455.073	89.25
455.294	87.25
455.514	85.25
455.734	80.25
455.955	87.25
456.175	75.25
456.395	86.25
456.616	82.25
456.836	77.25
457.056	75.25
457.276	78.25
457.497	86.25
457.717	77.25
457.937	90.25
458.157	86.25
458.377	78.25
458.598	103.25
458.818	121.25
459.038	117.25
459.258	94.25
459.478	78.25
459.698	84.25
459.918	67.25
460.138	81.25
460.358	82.25
460.578	90.25
460.798	87.25
461.018	96.25
461.238	81.25
461.458	73.25
461.678	71.25
461.898	82.25
462.118	78.25
462.338	87.25
462.558	84.25
462.777	85.25
462.997	68.25
463.217	70.25
463.437	79.25
463.657	76.25
463.876	92.25
464.096	87.25
464.316	85.25
464.536	89.25
464.755	82.25
464.975	90.25
465.195	109.25
465.414	122.25
465.634	81.25
465.854	77.25
466.073	80.25
466.293	87.25
466.512	77.25
466.732	87.25
466.951	83.25
467.171	75.25
467.391	83.25
467.61	92.25
467.829	75.25
468.049	96.25
468.268	90.25
468.488	114.25
468.707	84.25
468.927	65.25
469.146	95.25
469.365	86.25
469.585	76.25
469.804	80.25
470.023	86.25
470.243	76.25
470.462	95.25
470.681	64.25
470.901	89.25
471.12	79.25
471.339	87.25
471.558	92.25
471.777	95.25
471.997	98.25
472.216	102.25
472.435	115.25
472.654	86.25
472.873	75.25
473.092	72.25
473.311	83.25
473.53	80.25
473.749	82.25
473.968	75.25
474.187	71.25
474.406	77.25
474.625	80.25
474.844	78.25
475.063	95.25
475.282	86.25
475.501	90.25
475.72	106.25
475.939	81.25
476.158	87.25
476.377	78.25
476.596	70.25
476.814	70.25
477.033	90.25
477.252	80.25
477.471	87.25
477.69	92.25
477.908	68.25
478.127	81.25
478.346	83.25
478.564	72.25
478.783	83.25
479.002	90.25
479.22	90.25
479.439	91.25
479.658	90.25
479.876	75.25
480.095	80.25
480.313	77.25
480.532	85.25
480.751	77.25
480.969	100.25
481.188	153.25
481.406	118.25
481.624	100.25
481.843	77.25
482.061	93.25
482.28	94.25
482.498	102.25
482.717	83.25
482.935	77.25
483.153	85.25
483.372	79.25
483.59	77.25
483.808	83.25
484.027	93.25
484.245	89.25
484.463	83.25
484.681	95.25
484.9	77.25
485.118	86.25
485.336	103.25
485.554	92.25
485.772	95.25
485.99	83.25
486.209	98.25
486.427	90.25
486.645	79.25
486.863	106.25
487.081	82.25
487.299	94.25
487.517	90.25
487.735	93.25
487.953	89.25
488.171	93.25
488.389	108.25
488.607	92.25
488.825	74.25
489.043	101.25
489.261	87.25
489.479	102.25
489.696	90.25
489.914	86.25
490.132	80.25
490.35	86.25
490.568	68.25
490.786	80.25
491.003	99.25
491.221	100.25
491.439	94.25
491.657	87.25
491.874	100.25
492.092	104.25
492.31	98.25
492.527	71.25
492.745	79.25
492.963	95.25
493.18	97.25
493.398	93.25
493.615	89.25
493.833	105.25
494.05	72.25
494.268	100.25
494.485	92.25
494.703	91.25
494.92	95.25
495.138	84.25
495.355	87.25
495.573	86.25
495.79	80.25
496.008	89.25
496.225	99.25
496.442	88.25
496.66	80.25
496.877	98.25
497.094	97.25
497.312	80.25
497.529	111.25
497.746	94.25
497.963	87.25
498.181	76.25
498.398	81.25
498.615	102.25
498.832	99.25
499.049	79.25
499.267	73.25
499.484	91.25
499.701	80.25
499.918	78.25
500.135	88.25
500.352	92.25
500.569	86.25
500.786	84.25
501.003	90.25
501.22	83.25
501.437	82.25
501.654	77.25
501.871	99.25
502.088	88.25
502.305	88.25
502.522	79.25
502.739	72.25
502.956	91.25
503.172	81.25
503.389	99.25
503.606	99.25
503.823	91.25
504.04	92.25
504.256	93.25
504.473	74.25
504.69	83.25
504.907	108.25
505.123	99.25
505.34	86.25
505.557	80.25
505.773	84.25
505.99	79.25
506.207	89.25
506.423	95.25
506.64	89.25
506.856	95.25
507.073	97.25
507.289	81.25
507.506	87.25
507.722	98.25
507.939	107.25
508.155	91.25
508.372	91.25
508.588	96.25
508.805	90.25
509.021	90.25
509.238	100.25
509.454	92.25
509.67	108.25
509.887	105.25
510.103	108.25
510.319	181.25
510.536	523.25
510.752	1503.25
510.968	466.25
511.184	120.25
511.401	92.25
511.617	94.25
511.833	87.25
512.049	82.25
512.265	79.25
512.481	94.25
512.698	91.25
512.914	90.25
513.13	94.25
513.346	94.25
513.562	83.25
513.778	89.25
513.994	82.25
514.21	87.25
514.426	89.25
514.642	111.25
514.858	102.25
515.074	134.25
515.29	285.25
515.506	849.25
515.721	364.25
515.937	136.25
516.153	100.25
516.369	106.25
516.585	87.25
516.801	78.25
517.016	91.25
517.232	97.25
517.448	94.25
517.664	78.25
