Data from Uncirc_2009_H10_HRD10591_00024.txt Node
Date: Wed Jan 03 10:12:06 EST 2024
User: Yrep
Spectrometer: HR+D1059
Trigger mode: 1
Integration Time (sec): 1.000000E-1
Scans to average: 1
Electric dark correction enabled: true
Nonlinearity correction enabled: false
Boxcar width: 0
XAxis mode: Wavelengths
Number of Pixels in Spectrum: 2048
>>>>>Begin Spectral Data<<<<<
223.165	-15.69
223.4	-15.69
223.635	-15.69
223.869	-9.69
224.104	-22.69
224.338	-6.69
224.573	-17.69
224.808	-8.69
225.042	-29.69
225.277	1.31
225.511	6.31
225.746	-6.69
225.98	9.31
226.215	21.31
226.449	7.31
226.683	23.31
226.918	19.31
227.152	29.31
227.387	33.31
227.621	33.31
227.856	58.31
228.09	38.31
228.324	31.31
228.559	57.31
228.793	59.31
229.027	64.31
229.262	63.31
229.496	65.31
229.73	80.31
229.964	82.31
230.199	74.31
230.433	61.31
230.667	75.31
230.901	72.31
231.136	79.31
231.37	85.31
231.604	61.31
231.838	76.31
232.072	66.31
232.306	80.31
232.541	77.31
232.775	77.31
233.009	71.31
233.243	74.31
233.477	71.31
233.711	72.31
233.945	78.31
234.179	73.31
234.413	92.31
234.647	75.31
234.881	91.31
235.115	84.31
235.349	76.31
235.583	75.31
235.817	66.31
236.051	65.31
236.285	75.31
236.519	73.31
236.753	69.31
236.987	79.31
237.221	83.31
237.455	64.31
237.689	73.31
237.922	80.31
238.156	75.31
238.39	70.31
238.624	69.31
238.858	84.31
239.091	67.31
239.325	72.31
239.559	84.31
239.793	73.31
240.027	75.31
240.26	74.31
240.494	85.31
240.728	68.31
240.961	85.31
241.195	84.31
241.429	79.31
241.662	95.31
241.896	68.31
242.13	67.31
242.363	70.31
242.597	70.31
242.83	71.31
243.064	69.31
243.298	78.31
243.531	77.31
243.765	63.31
243.998	76.31
244.232	73.31
244.465	65.31
244.699	74.31
244.932	70.31
245.166	74.31
245.399	71.31
245.633	82.31
245.866	73.31
246.099	77.31
246.333	68.31
246.566	71.31
246.8	82.31
247.033	67.31
247.266	75.31
247.5	79.31
247.733	82.31
247.966	71.31
248.2	83.31
248.433	79.31
248.666	85.31
248.899	80.31
249.133	80.31
249.366	90.31
249.599	89.31
249.832	85.31
250.066	76.31
250.299	76.31
250.532	76.31
250.765	83.31
250.998	86.31
251.231	77.31
251.465	86.31
251.698	76.31
251.931	75.31
252.164	89.31
252.397	84.31
252.63	74.31
252.863	75.31
253.096	70.31
253.329	76.31
253.562	75.31
253.795	86.31
254.028	82.31
254.261	77.31
254.494	76.31
254.727	78.31
254.96	82.31
255.193	69.31
255.426	70.31
255.659	77.31
255.892	73.31
256.124	79.31
256.357	83.31
256.59	72.31
256.823	82.31
257.056	82.31
257.289	73.31
257.521	74.31
257.754	82.31
257.987	63.31
258.22	75.31
258.452	78.31
258.685	89.31
258.918	83.31
259.151	79.31
259.383	79.31
259.616	81.31
259.849	87.31
260.081	73.31
260.314	65.31
260.547	87.31
260.779	66.31
261.012	77.31
261.244	72.31
261.477	89.31
261.71	68.31
261.942	93.31
262.175	79.31
262.407	85.31
262.64	75.31
262.872	82.31
263.105	82.31
263.337	84.31
263.57	86.31
263.802	81.31
264.035	75.31
264.267	67.31
264.499	87.31
264.732	73.31
264.964	93.31
265.197	89.31
265.429	78.31
265.661	77.31
265.894	67.31
266.126	77.31
266.358	81.31
266.591	85.31
266.823	87.31
267.055	79.31
267.287	77.31
267.52	79.31
267.752	73.31
267.984	63.31
268.216	75.31
268.448	75.31
268.681	83.31
268.913	87.31
269.145	87.31
269.377	87.31
269.609	74.31
269.841	83.31
270.073	68.31
270.306	77.31
270.538	94.31
270.77	80.31
271.002	82.31
271.234	81.31
271.466	80.31
271.698	76.31
271.93	81.31
272.162	77.31
272.394	78.31
272.626	89.31
272.858	90.31
273.09	75.31
273.322	85.31
273.553	93.31
273.785	76.31
274.017	83.31
274.249	75.31
274.481	71.31
274.713	73.31
274.945	87.31
275.176	86.31
275.408	85.31
275.64	81.31
275.872	86.31
276.104	76.31
276.335	75.31
276.567	92.31
276.799	90.31
277.031	78.31
277.262	93.31
277.494	87.31
277.726	77.31
277.957	81.31
278.189	82.31
278.421	64.31
278.652	76.31
278.884	71.31
279.115	69.31
279.347	89.31
279.579	74.31
279.81	69.31
280.042	80.31
280.273	91.31
280.505	86.31
280.736	84.31
280.968	74.31
281.199	78.31
281.431	84.31
281.662	82.31
281.894	88.31
282.125	83.31
282.356	97.31
282.588	100.31
282.819	97.31
283.051	82.31
283.282	94.31
283.513	86.31
283.745	87.31
283.976	100.31
284.207	89.31
284.439	74.31
284.67	78.31
284.901	89.31
285.132	64.31
285.364	89.31
285.595	100.31
285.826	79.31
286.057	80.31
286.288	106.31
286.52	79.31
286.751	79.31
286.982	86.31
287.213	84.31
287.444	91.31
287.675	70.31
287.906	86.31
288.138	87.31
288.369	73.31
288.6	92.31
288.831	81.31
289.062	80.31
289.293	88.31
289.524	91.31
289.755	85.31
289.986	80.31
290.217	80.31
290.448	78.31
290.679	80.31
290.91	78.31
291.141	85.31
291.371	80.31
291.602	84.31
291.833	89.31
292.064	75.31
292.295	78.31
292.526	81.31
292.757	76.31
292.987	74.31
293.218	87.31
293.449	89.31
293.68	95.31
293.91	82.31
294.141	74.31
294.372	93.31
294.603	90.31
294.833	87.31
295.064	90.31
295.295	79.31
295.525	80.31
295.756	99.31
295.987	109.31
296.217	118.31
296.448	107.31
296.679	109.31
296.909	101.31
297.14	86.31
297.37	94.31
297.601	86.31
297.831	73.31
298.062	86.31
298.292	78.31
298.523	78.31
298.753	89.31
298.984	91.31
299.214	82.31
299.445	81.31
299.675	86.31
299.905	76.31
300.136	86.31
300.366	84.31
300.597	72.31
300.827	85.31
301.057	108.31
301.288	104.31
301.518	81.31
301.748	93.31
301.979	107.31
302.209	93.31
302.439	91.31
302.669	91.31
302.9	85.31
303.13	92.31
303.36	102.31
303.59	97.31
303.82	95.31
304.051	91.31
304.281	83.31
304.511	82.31
304.741	85.31
304.971	89.31
305.201	98.31
305.431	87.31
305.661	85.31
305.891	96.31
306.121	93.31
306.352	95.31
306.582	91.31
306.812	87.31
307.042	84.31
307.272	90.31
307.502	87.31
307.731	82.31
307.961	84.31
308.191	88.31
308.421	83.31
308.651	87.31
308.881	81.31
309.111	93.31
309.341	102.31
309.571	83.31
309.8	93.31
310.03	101.31
310.26	83.31
310.49	90.31
310.72	87.31
310.949	92.31
311.179	83.31
311.409	83.31
311.639	85.31
311.868	86.31
312.098	91.31
312.328	92.31
312.557	100.31
312.787	102.31
313.017	107.31
313.246	93.31
313.476	78.31
313.706	91.31
313.935	90.31
314.165	100.31
314.394	91.31
314.624	89.31
314.853	93.31
315.083	86.31
315.312	100.31
315.542	91.31
315.771	85.31
316.001	59.31
316.23	80.31
316.46	87.31
316.689	82.31
316.919	89.31
317.148	106.31
317.377	121.31
317.607	96.31
317.836	112.31
318.065	89.31
318.295	77.31
318.524	76.31
318.753	86.31
318.983	89.31
319.212	93.31
319.441	105.31
319.67	104.31
319.9	88.31
320.129	86.31
320.358	90.31
320.587	93.31
320.816	99.31
321.046	94.31
321.275	89.31
321.504	87.31
321.733	95.31
321.962	84.31
322.191	101.31
322.42	90.31
322.649	99.31
322.878	98.31
323.108	94.31
323.337	112.31
323.566	126.31
323.795	134.31
324.024	179.31
324.253	327.31
324.482	663.31
324.71	1327.31
324.939	1755.31
325.168	652.31
325.397	202.31
325.626	124.31
325.855	140.31
326.084	120.31
326.313	154.31
326.542	150.31
326.77	206.31
326.999	386.31
327.228	771.31
327.457	1369.31
327.686	1080.31
327.914	301.31
328.143	149.31
328.372	122.31
328.6	104.31
328.829	106.31
329.058	105.31
329.287	89.31
329.515	97.31
329.744	99.31
329.972	113.31
330.201	102.31
330.43	126.31
330.658	101.31
330.887	114.31
331.115	89.31
331.344	89.31
331.572	103.31
331.801	91.31
332.03	89.31
332.258	94.31
332.486	95.31
332.715	91.31
332.943	90.31
333.172	97.31
333.4	91.31
333.629	90.31
333.857	81.31
334.085	97.31
334.314	101.31
334.542	116.31
334.771	111.31
334.999	93.31
335.227	89.31
335.455	92.31
335.684	93.31
335.912	95.31
336.14	101.31
336.369	89.31
336.597	95.31
336.825	104.31
337.053	86.31
337.281	79.31
337.51	81.31
337.738	97.31
337.966	83.31
338.194	91.31
338.422	87.31
338.65	88.31
338.878	90.31
339.106	71.31
339.334	82.31
339.562	79.31
339.79	86.31
340.018	77.31
340.246	98.31
340.474	78.31
340.702	105.31
340.93	78.31
341.158	97.31
341.386	77.31
341.614	84.31
341.842	92.31
342.07	85.31
342.298	93.31
342.526	80.31
342.754	75.31
342.981	94.31
343.209	85.31
343.437	75.31
343.665	88.31
343.893	80.31
344.12	91.31
344.348	87.31
344.576	82.31
344.804	94.31
345.031	81.31
345.259	99.31
345.487	94.31
345.714	93.31
345.942	90.31
346.17	88.31
346.397	88.31
346.625	89.31
346.853	94.31
347.08	93.31
347.308	82.31
347.535	81.31
347.763	91.31
347.99	103.31
348.218	95.31
348.445	88.31
348.673	104.31
348.9	80.31
349.128	90.31
349.355	76.31
349.583	83.31
349.81	82.31
350.037	93.31
350.265	87.31
350.492	89.31
350.72	86.31
350.947	90.31
351.174	98.31
351.402	102.31
351.629	92.31
351.856	85.31
352.083	91.31
352.311	103.31
352.538	92.31
352.765	89.31
352.992	86.31
353.22	102.31
353.447	93.31
353.674	102.31
353.901	83.31
354.128	85.31
354.355	88.31
354.583	102.31
354.81	85.31
355.037	89.31
355.264	96.31
355.491	102.31
355.718	103.31
355.945	104.31
356.172	81.31
356.399	98.31
356.626	81.31
356.853	87.31
357.08	84.31
357.307	91.31
357.534	91.31
357.761	107.31
357.988	92.31
358.215	84.31
358.441	88.31
358.668	90.31
358.895	87.31
359.122	83.31
359.349	87.31
359.576	80.31
359.802	99.31
360.029	95.31
360.256	71.31
360.483	92.31
360.709	76.31
360.936	85.31
361.163	83.31
361.39	83.31
361.616	79.31
361.843	76.31
362.07	93.31
362.296	81.31
362.523	83.31
362.749	99.31
362.976	90.31
363.203	97.31
363.429	93.31
363.656	88.31
363.882	91.31
364.109	93.31
364.335	77.31
364.562	84.31
364.788	86.31
365.015	77.31
365.241	95.31
365.468	90.31
365.694	91.31
365.92	90.31
366.147	80.31
366.373	85.31
366.599	72.31
366.826	88.31
367.052	86.31
367.278	93.31
367.505	88.31
367.731	82.31
367.957	86.31
368.184	87.31
368.41	97.31
368.636	100.31
368.862	109.31
369.089	104.31
369.315	90.31
369.541	80.31
369.767	75.31
369.993	92.31
370.219	86.31
370.445	86.31
370.672	82.31
370.898	83.31
371.124	78.31
371.35	87.31
371.576	82.31
371.802	88.31
372.028	84.31
372.254	101.31
372.48	86.31
372.706	84.31
372.932	99.31
373.158	88.31
373.384	85.31
373.61	78.31
373.835	81.31
374.061	90.31
374.287	89.31
374.513	88.31
374.739	82.31
374.965	99.31
375.191	104.31
375.416	83.31
375.642	81.31
375.868	86.31
376.094	79.31
376.319	84.31
376.545	90.31
376.771	69.31
376.997	92.31
377.222	98.31
377.448	91.31
377.674	80.31
377.899	70.31
378.125	98.31
378.35	78.31
378.576	77.31
378.802	85.31
379.027	87.31
379.253	99.31
379.478	105.31
379.704	82.31
379.929	86.31
380.155	108.31
380.38	97.31
380.606	88.31
380.831	100.31
381.057	99.31
381.282	118.31
381.507	92.31
381.733	98.31
381.958	97.31
382.184	102.31
382.409	107.31
382.634	94.31
382.86	94.31
383.085	92.31
383.31	94.31
383.535	97.31
383.761	103.31
383.986	92.31
384.211	91.31
384.436	85.31
384.662	96.31
384.887	110.31
385.112	93.31
385.337	98.31
385.562	110.31
385.787	105.31
386.013	108.31
386.238	115.31
386.463	93.31
386.688	113.31
386.913	104.31
387.138	105.31
387.363	81.31
387.588	86.31
387.813	91.31
388.038	102.31
388.263	117.31
388.488	112.31
388.713	98.31
388.938	95.31
389.163	103.31
389.387	84.31
389.612	85.31
389.837	92.31
390.062	81.31
390.287	92.31
390.512	86.31
390.736	95.31
390.961	86.31
391.186	101.31
391.411	86.31
391.636	90.31
391.86	84.31
392.085	83.31
392.31	85.31
392.534	85.31
392.759	76.31
392.984	82.31
393.208	80.31
393.433	91.31
393.658	81.31
393.882	94.31
394.107	90.31
394.331	87.31
394.556	92.31
394.78	95.31
395.005	83.31
395.229	96.31
395.454	86.31
395.678	79.31
395.903	79.31
396.127	86.31
396.352	86.31
396.576	98.31
396.801	90.31
397.025	91.31
397.249	81.31
397.474	83.31
397.698	85.31
397.922	85.31
398.147	93.31
398.371	83.31
398.595	84.31
398.82	84.31
399.044	88.31
399.268	89.31
399.492	84.31
399.717	77.31
399.941	73.31
400.165	92.31
400.389	79.31
400.613	79.31
400.837	84.31
401.062	86.31
401.286	86.31
401.51	92.31
401.734	95.31
401.958	77.31
402.182	113.31
402.406	111.31
402.63	100.31
402.854	83.31
403.078	83.31
403.302	86.31
403.526	86.31
403.75	78.31
403.974	91.31
404.198	97.31
404.422	87.31
404.645	71.31
404.869	99.31
405.093	92.31
405.317	85.31
405.541	84.31
405.765	95.31
405.988	92.31
406.212	134.31
406.436	157.31
406.66	106.31
406.883	95.31
407.107	95.31
407.331	82.31
407.555	83.31
407.778	93.31
408.002	90.31
408.226	85.31
408.449	93.31
408.673	87.31
408.896	87.31
409.12	104.31
409.344	84.31
409.567	77.31
409.791	88.31
410.014	90.31
410.238	90.31
410.461	84.31
410.685	86.31
410.908	91.31
411.132	93.31
411.355	80.31
411.578	97.31
411.802	84.31
412.025	86.31
412.249	89.31
412.472	95.31
412.695	99.31
412.919	96.31
413.142	86.31
413.365	90.31
413.589	82.31
413.812	81.31
414.035	94.31
414.258	89.31
414.482	85.31
414.705	77.31
414.928	77.31
415.151	101.31
415.374	95.31
415.597	87.31
415.821	78.31
416.044	83.31
416.267	83.31
416.49	77.31
416.713	83.31
416.936	77.31
417.159	75.31
417.382	73.31
417.605	77.31
417.828	86.31
418.051	94.31
418.274	85.31
418.497	86.31
418.72	92.31
418.943	89.31
419.166	75.31
419.389	91.31
419.611	96.31
419.834	86.31
420.057	94.31
420.28	98.31
420.503	96.31
420.726	90.31
420.948	80.31
421.171	82.31
421.394	75.31
421.617	98.31
421.839	91.31
422.062	86.31
422.285	77.31
422.507	90.31
422.73	93.31
422.953	79.31
423.175	88.31
423.398	99.31
423.621	76.31
423.843	81.31
424.066	84.31
424.288	91.31
424.511	73.31
424.733	89.31
424.956	99.31
425.178	85.31
425.401	102.31
425.623	90.31
425.846	93.31
426.068	90.31
426.291	84.31
426.513	85.31
426.735	90.31
426.958	93.31
427.18	80.31
427.402	110.31
427.625	131.31
427.847	106.31
428.069	102.31
428.292	88.31
428.514	78.31
428.736	85.31
428.958	69.31
429.181	84.31
429.403	89.31
429.625	82.31
429.847	75.31
430.069	92.31
430.292	107.31
430.514	90.31
430.736	81.31
430.958	81.31
431.18	81.31
431.402	75.31
431.624	92.31
431.846	97.31
432.068	81.31
432.29	90.31
432.512	83.31
432.734	90.31
432.956	89.31
433.178	81.31
433.4	94.31
433.622	77.31
433.844	81.31
434.066	91.31
434.287	106.31
434.509	73.31
434.731	96.31
434.953	84.31
435.175	88.31
435.397	83.31
435.618	75.31
435.84	93.31
436.062	107.31
436.284	109.31
436.505	83.31
436.727	90.31
436.949	85.31
437.17	95.31
437.392	84.31
437.614	86.31
437.835	87.31
438.057	101.31
438.278	93.31
438.5	97.31
438.721	100.31
438.943	101.31
439.165	92.31
439.386	92.31
439.608	93.31
439.829	93.31
440.05	100.31
440.272	123.31
440.493	98.31
440.715	91.31
440.936	91.31
441.158	94.31
441.379	82.31
441.6	84.31
441.822	99.31
442.043	79.31
442.264	92.31
442.486	86.31
442.707	82.31
442.928	81.31
443.149	111.31
443.371	112.31
443.592	91.31
443.813	97.31
444.034	78.31
444.255	83.31
444.476	73.31
444.698	86.31
444.919	79.31
445.14	126.31
445.361	118.31
445.582	100.31
445.803	115.31
446.024	98.31
446.245	102.31
446.466	102.31
446.687	84.31
446.908	81.31
447.129	87.31
447.35	78.31
447.571	93.31
447.792	76.31
448.013	100.31
448.234	98.31
448.455	94.31
448.675	101.31
448.896	97.31
449.117	93.31
449.338	92.31
449.559	116.31
449.779	103.31
450	77.31
450.221	89.31
450.442	77.31
450.662	88.31
450.883	96.31
451.104	86.31
451.324	82.31
451.545	74.31
451.766	84.31
451.986	82.31
452.207	68.31
452.428	89.31
452.648	97.31
452.869	90.31
453.089	92.31
453.31	92.31
453.53	92.31
453.751	91.31
453.971	107.31
454.192	86.31
454.412	82.31
454.633	97.31
454.853	80.31
455.073	84.31
455.294	93.31
455.514	82.31
455.734	74.31
455.955	84.31
456.175	95.31
456.395	90.31
456.616	83.31
456.836	84.31
457.056	77.31
457.276	73.31
457.497	71.31
457.717	83.31
457.937	85.31
458.157	88.31
458.377	78.31
458.598	73.31
458.818	123.31
459.038	100.31
459.258	101.31
459.478	95.31
459.698	83.31
459.918	76.31
460.138	85.31
460.358	77.31
460.578	98.31
460.798	91.31
461.018	93.31
461.238	83.31
461.458	83.31
461.678	83.31
461.898	87.31
462.118	94.31
462.338	87.31
462.558	85.31
462.777	78.31
462.997	88.31
463.217	89.31
463.437	83.31
463.657	83.31
463.876	70.31
464.096	106.31
464.316	80.31
464.536	87.31
464.755	94.31
464.975	89.31
465.195	129.31
465.414	123.31
465.634	94.31
465.854	85.31
466.073	92.31
466.293	88.31
466.512	74.31
466.732	87.31
466.951	76.31
467.171	89.31
467.391	99.31
467.61	96.31
467.829	77.31
468.049	78.31
468.268	108.31
468.488	92.31
468.707	89.31
468.927	75.31
469.146	77.31
469.365	81.31
469.585	89.31
469.804	91.31
470.023	75.31
470.243	87.31
470.462	89.31
470.681	100.31
470.901	84.31
471.12	79.31
471.339	96.31
471.558	85.31
471.777	90.31
471.997	82.31
472.216	104.31
472.435	112.31
472.654	87.31
472.873	89.31
473.092	71.31
473.311	86.31
473.53	88.31
473.749	70.31
473.968	74.31
474.187	90.31
474.406	97.31
474.625	83.31
474.844	72.31
475.063	78.31
475.282	82.31
475.501	101.31
475.72	83.31
475.939	88.31
476.158	62.31
476.377	86.31
476.596	85.31
476.814	98.31
477.033	101.31
477.252	94.31
477.471	78.31
477.69	83.31
477.908	88.31
478.127	88.31
478.346	74.31
478.564	86.31
478.783	93.31
479.002	104.31
479.22	85.31
479.439	87.31
479.658	88.31
479.876	72.31
480.095	85.31
480.313	81.31
480.532	91.31
480.751	90.31
480.969	100.31
481.188	149.31
481.406	104.31
481.624	86.31
481.843	99.31
482.061	86.31
482.28	83.31
482.498	74.31
482.717	83.31
482.935	72.31
483.153	92.31
483.372	77.31
483.59	85.31
483.808	77.31
484.027	85.31
484.245	93.31
484.463	82.31
484.681	97.31
484.9	83.31
485.118	85.31
485.336	79.31
485.554	93.31
485.772	87.31
485.99	95.31
486.209	100.31
486.427	100.31
486.645	92.31
486.863	107.31
487.081	98.31
487.299	110.31
487.517	100.31
487.735	81.31
487.953	98.31
488.171	100.31
488.389	95.31
488.607	109.31
488.825	73.31
489.043	77.31
489.261	92.31
489.479	77.31
489.696	90.31
489.914	86.31
490.132	93.31
490.35	83.31
490.568	75.31
490.786	97.31
491.003	106.31
491.221	97.31
491.439	94.31
491.657	87.31
491.874	79.31
492.092	68.31
492.31	98.31
492.527	79.31
492.745	75.31
492.963	78.31
493.18	91.31
493.398	102.31
493.615	102.31
493.833	100.31
494.05	69.31
494.268	84.31
494.485	86.31
494.703	84.31
494.92	75.31
495.138	92.31
495.355	86.31
495.573	98.31
495.79	91.31
496.008	93.31
496.225	86.31
496.442	87.31
496.66	84.31
496.877	97.31
497.094	85.31
497.312	94.31
497.529	74.31
497.746	85.31
497.963	84.31
498.181	91.31
498.398	88.31
498.615	96.31
498.832	103.31
499.049	77.31
499.267	80.31
499.484	98.31
499.701	86.31
499.918	113.31
500.135	85.31
500.352	76.31
500.569	72.31
500.786	83.31
501.003	93.31
501.22	97.31
501.437	95.31
501.654	90.31
501.871	88.31
502.088	79.31
502.305	81.31
502.522	77.31
502.739	75.31
502.956	76.31
503.172	90.31
503.389	87.31
503.606	90.31
503.823	94.31
504.04	88.31
504.256	101.31
504.473	94.31
504.69	75.31
504.907	93.31
505.123	97.31
505.34	84.31
505.557	89.31
505.773	95.31
505.99	72.31
506.207	76.31
506.423	86.31
506.64	80.31
506.856	94.31
507.073	91.31
507.289	107.31
507.506	74.31
507.722	93.31
507.939	102.31
508.155	96.31
508.372	101.31
508.588	89.31
508.805	85.31
509.021	100.31
509.238	92.31
509.454	97.31
509.67	96.31
509.887	126.31
510.103	107.31
510.319	163.31
510.536	536.31
510.752	1597.31
510.968	466.31
511.184	142.31
511.401	85.31
511.617	92.31
511.833	87.31
512.049	86.31
512.265	91.31
512.481	79.31
512.698	87.31
512.914	93.31
513.13	104.31
513.346	74.31
513.562	87.31
513.778	100.31
513.994	82.31
514.21	101.31
514.426	104.31
514.642	110.31
514.858	97.31
515.074	111.31
515.29	309.31
515.506	880.31
515.721	364.31
515.937	147.31
516.153	93.31
516.369	85.31
516.585	74.31
516.801	82.31
517.016	99.31
517.232	89.31
517.448	79.31
