Data from Uncirc_2009_H10_HRD10591_00075.txt Node
Date: Wed Jan 03 10:12:16 EST 2024
User: Yrep
Spectrometer: HR+D1059
Trigger mode: 1
Integration Time (sec): 1.000000E-1
Scans to average: 1
Electric dark correction enabled: true
Nonlinearity correction enabled: false
Boxcar width: 0
XAxis mode: Wavelengths
Number of Pixels in Spectrum: 2048
>>>>>Begin Spectral Data<<<<<
223.165	-14.25
223.4	-14.25
223.635	-14.25
223.869	-3.25
224.104	-25.25
224.338	-17.25
224.573	-19.25
224.808	-6.25
225.042	-1.25
225.277	-10.25
225.511	-3.25
225.746	-4.25
225.98	-3.25
226.215	20.75
226.449	13.75
226.683	17.75
226.918	30.75
227.152	24.75
227.387	28.75
227.621	38.75
227.856	43.75
228.09	47.75
228.324	53.75
228.559	52.75
228.793	57.75
229.027	57.75
229.262	57.75
229.496	68.75
229.73	82.75
229.964	86.75
230.199	67.75
230.433	79.75
230.667	72.75
230.901	75.75
231.136	73.75
231.37	86.75
231.604	79.75
231.838	71.75
232.072	88.75
232.306	75.75
232.541	67.75
232.775	67.75
233.009	76.75
233.243	79.75
233.477	88.75
233.711	79.75
233.945	83.75
234.179	65.75
234.413	85.75
234.647	78.75
234.881	78.75
235.115	74.75
235.349	73.75
235.583	80.75
235.817	83.75
236.051	83.75
236.285	74.75
236.519	84.75
236.753	75.75
236.987	70.75
237.221	83.75
237.455	75.75
237.689	68.75
237.922	71.75
238.156	83.75
238.39	69.75
238.624	82.75
238.858	84.75
239.091	70.75
239.325	75.75
239.559	73.75
239.793	72.75
240.027	85.75
240.26	69.75
240.494	71.75
240.728	79.75
240.961	73.75
241.195	70.75
241.429	79.75
241.662	62.75
241.896	63.75
242.13	73.75
242.363	71.75
242.597	76.75
242.83	72.75
243.064	61.75
243.298	80.75
243.531	76.75
243.765	68.75
243.998	73.75
244.232	79.75
244.465	83.75
244.699	67.75
244.932	59.75
245.166	75.75
245.399	73.75
245.633	73.75
245.866	74.75
246.099	74.75
246.333	60.75
246.566	64.75
246.8	64.75
247.033	72.75
247.266	77.75
247.5	74.75
247.733	84.75
247.966	67.75
248.2	69.75
248.433	79.75
248.666	75.75
248.899	68.75
249.133	82.75
249.366	87.75
249.599	92.75
249.832	87.75
250.066	89.75
250.299	76.75
250.532	83.75
250.765	89.75
250.998	76.75
251.231	70.75
251.465	69.75
251.698	85.75
251.931	67.75
252.164	81.75
252.397	84.75
252.63	85.75
252.863	85.75
253.096	79.75
253.329	74.75
253.562	73.75
253.795	80.75
254.028	74.75
254.261	77.75
254.494	79.75
254.727	82.75
254.96	79.75
255.193	69.75
255.426	76.75
255.659	76.75
255.892	78.75
256.124	80.75
256.357	84.75
256.59	86.75
256.823	92.75
257.056	78.75
257.289	87.75
257.521	87.75
257.754	81.75
257.987	79.75
258.22	78.75
258.452	70.75
258.685	88.75
258.918	68.75
259.151	74.75
259.383	93.75
259.616	86.75
259.849	83.75
260.081	71.75
260.314	96.75
260.547	81.75
260.779	95.75
261.012	75.75
261.244	89.75
261.477	85.75
261.71	76.75
261.942	76.75
262.175	98.75
262.407	92.75
262.64	94.75
262.872	93.75
263.105	75.75
263.337	81.75
263.57	85.75
263.802	86.75
264.035	89.75
264.267	75.75
264.499	84.75
264.732	77.75
264.964	77.75
265.197	90.75
265.429	76.75
265.661	66.75
265.894	86.75
266.126	93.75
266.358	77.75
266.591	88.75
266.823	91.75
267.055	77.75
267.287	78.75
267.52	76.75
267.752	82.75
267.984	74.75
268.216	77.75
268.448	95.75
268.681	81.75
268.913	74.75
269.145	87.75
269.377	72.75
269.609	73.75
269.841	85.75
270.073	71.75
270.306	82.75
270.538	76.75
270.77	89.75
271.002	86.75
271.234	80.75
271.466	72.75
271.698	102.75
271.93	73.75
272.162	65.75
272.394	83.75
272.626	84.75
272.858	79.75
273.09	72.75
273.322	83.75
273.553	86.75
273.785	76.75
274.017	86.75
274.249	88.75
274.481	87.75
274.713	94.75
274.945	81.75
275.176	88.75
275.408	79.75
275.64	73.75
275.872	84.75
276.104	88.75
276.335	90.75
276.567	96.75
276.799	92.75
277.031	95.75
277.262	83.75
277.494	102.75
277.726	92.75
277.957	79.75
278.189	81.75
278.421	79.75
278.652	83.75
278.884	69.75
279.115	76.75
279.347	79.75
279.579	72.75
279.81	78.75
280.042	78.75
280.273	94.75
280.505	74.75
280.736	88.75
280.968	91.75
281.199	94.75
281.431	82.75
281.662	87.75
281.894	89.75
282.125	85.75
282.356	90.75
282.588	111.75
282.819	100.75
283.051	102.75
283.282	84.75
283.513	97.75
283.745	86.75
283.976	94.75
284.207	89.75
284.439	88.75
284.67	75.75
284.901	84.75
285.132	86.75
285.364	75.75
285.595	92.75
285.826	87.75
286.057	79.75
286.288	93.75
286.52	95.75
286.751	97.75
286.982	93.75
287.213	92.75
287.444	88.75
287.675	87.75
287.906	77.75
288.138	76.75
288.369	89.75
288.6	85.75
288.831	80.75
289.062	82.75
289.293	91.75
289.524	82.75
289.755	81.75
289.986	89.75
290.217	88.75
290.448	87.75
290.679	106.75
290.91	76.75
291.141	88.75
291.371	82.75
291.602	83.75
291.833	81.75
292.064	81.75
292.295	92.75
292.526	79.75
292.757	100.75
292.987	88.75
293.218	87.75
293.449	85.75
293.68	87.75
293.91	92.75
294.141	74.75
294.372	81.75
294.603	102.75
294.833	93.75
295.064	88.75
295.295	85.75
295.525	77.75
295.756	99.75
295.987	86.75
296.217	125.75
296.448	123.75
296.679	88.75
296.909	87.75
297.14	86.75
297.37	86.75
297.601	87.75
297.831	74.75
298.062	95.75
298.292	80.75
298.523	76.75
298.753	99.75
298.984	88.75
299.214	86.75
299.445	89.75
299.675	88.75
299.905	92.75
300.136	93.75
300.366	83.75
300.597	95.75
300.827	106.75
301.057	90.75
301.288	98.75
301.518	87.75
301.748	82.75
301.979	98.75
302.209	83.75
302.439	96.75
302.669	88.75
302.9	79.75
303.13	100.75
303.36	107.75
303.59	99.75
303.82	92.75
304.051	78.75
304.281	104.75
304.511	80.75
304.741	76.75
304.971	71.75
305.201	77.75
305.431	84.75
305.661	82.75
305.891	94.75
306.121	90.75
306.352	95.75
306.582	110.75
306.812	84.75
307.042	79.75
307.272	84.75
307.502	86.75
307.731	87.75
307.961	100.75
308.191	93.75
308.421	82.75
308.651	85.75
308.881	76.75
309.111	97.75
309.341	84.75
309.571	97.75
309.8	110.75
310.03	94.75
310.26	99.75
310.49	88.75
310.72	95.75
310.949	95.75
311.179	105.75
311.409	102.75
311.639	87.75
311.868	87.75
312.098	85.75
312.328	99.75
312.557	93.75
312.787	96.75
313.017	88.75
313.246	88.75
313.476	88.75
313.706	79.75
313.935	72.75
314.165	106.75
314.394	100.75
314.624	99.75
314.853	97.75
315.083	98.75
315.312	87.75
315.542	91.75
315.771	88.75
316.001	85.75
316.23	85.75
316.46	84.75
316.689	90.75
316.919	104.75
317.148	97.75
317.377	120.75
317.607	102.75
317.836	105.75
318.065	85.75
318.295	91.75
318.524	79.75
318.753	76.75
318.983	101.75
319.212	96.75
319.441	104.75
319.67	102.75
319.9	89.75
320.129	88.75
320.358	84.75
320.587	101.75
320.816	104.75
321.046	96.75
321.275	102.75
321.504	97.75
321.733	95.75
321.962	89.75
322.191	96.75
322.42	103.75
322.649	109.75
322.878	112.75
323.108	105.75
323.337	120.75
323.566	119.75
323.795	137.75
324.024	200.75
324.253	351.75
324.482	721.75
324.71	1503.75
324.939	1957.75
325.168	718.75
325.397	220.75
325.626	147.75
325.855	126.75
326.084	150.75
326.313	138.75
326.542	157.75
326.77	220.75
326.999	403.75
327.228	828.75
327.457	1499.75
327.686	1207.75
327.914	322.75
328.143	162.75
328.372	139.75
328.6	131.75
328.829	104.75
329.058	113.75
329.287	122.75
329.515	92.75
329.744	95.75
329.972	99.75
330.201	108.75
330.43	119.75
330.658	121.75
330.887	126.75
331.115	117.75
331.344	86.75
331.572	83.75
331.801	90.75
332.03	102.75
332.258	87.75
332.486	84.75
332.715	95.75
332.943	85.75
333.172	87.75
333.4	95.75
333.629	91.75
333.857	91.75
334.085	94.75
334.314	87.75
334.542	113.75
334.771	115.75
334.999	94.75
335.227	86.75
335.455	80.75
335.684	94.75
335.912	96.75
336.14	110.75
336.369	96.75
336.597	96.75
336.825	89.75
337.053	83.75
337.281	92.75
337.51	95.75
337.738	96.75
337.966	100.75
338.194	90.75
338.422	81.75
338.65	85.75
338.878	84.75
339.106	80.75
339.334	95.75
339.562	89.75
339.79	90.75
340.018	89.75
340.246	94.75
340.474	94.75
340.702	85.75
340.93	81.75
341.158	77.75
341.386	78.75
341.614	77.75
341.842	103.75
342.07	97.75
342.298	85.75
342.526	80.75
342.754	92.75
342.981	79.75
343.209	95.75
343.437	96.75
343.665	96.75
343.893	101.75
344.12	79.75
344.348	95.75
344.576	75.75
344.804	87.75
345.031	97.75
345.259	101.75
345.487	89.75
345.714	93.75
345.942	86.75
346.17	96.75
346.397	88.75
346.625	99.75
346.853	93.75
347.08	101.75
347.308	91.75
347.535	92.75
347.763	100.75
347.99	97.75
348.218	88.75
348.445	88.75
348.673	102.75
348.9	83.75
349.128	92.75
349.355	82.75
349.583	94.75
349.81	90.75
350.037	95.75
350.265	97.75
350.492	92.75
350.72	102.75
350.947	90.75
351.174	104.75
351.402	93.75
351.629	92.75
351.856	85.75
352.083	102.75
352.311	90.75
352.538	100.75
352.765	108.75
352.992	112.75
353.22	109.75
353.447	94.75
353.674	95.75
353.901	83.75
354.128	87.75
354.355	101.75
354.583	96.75
354.81	104.75
355.037	83.75
355.264	92.75
355.491	89.75
355.718	77.75
355.945	86.75
356.172	94.75
356.399	99.75
356.626	93.75
356.853	96.75
357.08	93.75
357.307	85.75
357.534	84.75
357.761	93.75
357.988	83.75
358.215	95.75
358.441	76.75
358.668	88.75
358.895	88.75
359.122	76.75
359.349	88.75
359.576	98.75
359.802	92.75
360.029	97.75
360.256	108.75
360.483	96.75
360.709	64.75
360.936	94.75
361.163	91.75
361.39	99.75
361.616	95.75
361.843	92.75
362.07	94.75
362.296	86.75
362.523	91.75
362.749	83.75
362.976	81.75
363.203	99.75
363.429	101.75
363.656	83.75
363.882	77.75
364.109	95.75
364.335	81.75
364.562	85.75
364.788	94.75
365.015	88.75
365.241	85.75
365.468	101.75
365.694	105.75
365.92	95.75
366.147	75.75
366.373	91.75
366.599	97.75
366.826	73.75
367.052	80.75
367.278	87.75
367.505	80.75
367.731	90.75
367.957	96.75
368.184	88.75
368.41	100.75
368.636	115.75
368.862	97.75
369.089	97.75
369.315	96.75
369.541	96.75
369.767	100.75
369.993	85.75
370.219	94.75
370.445	78.75
370.672	84.75
370.898	85.75
371.124	79.75
371.35	91.75
371.576	74.75
371.802	86.75
372.028	88.75
372.254	87.75
372.48	85.75
372.706	98.75
372.932	92.75
373.158	87.75
373.384	88.75
373.61	93.75
373.835	88.75
374.061	92.75
374.287	93.75
374.513	104.75
374.739	87.75
374.965	88.75
375.191	94.75
375.416	93.75
375.642	74.75
375.868	104.75
376.094	97.75
376.319	94.75
376.545	81.75
376.771	86.75
376.997	87.75
377.222	81.75
377.448	96.75
377.674	83.75
377.899	68.75
378.125	86.75
378.35	88.75
378.576	81.75
378.802	83.75
379.027	92.75
379.253	94.75
379.478	97.75
379.704	85.75
379.929	117.75
380.155	92.75
380.38	99.75
380.606	81.75
380.831	102.75
381.057	108.75
381.282	94.75
381.507	95.75
381.733	95.75
381.958	95.75
382.184	89.75
382.409	91.75
382.634	92.75
382.86	89.75
383.085	94.75
383.31	96.75
383.535	101.75
383.761	79.75
383.986	95.75
384.211	88.75
384.436	98.75
384.662	104.75
384.887	104.75
385.112	96.75
385.337	94.75
385.562	101.75
385.787	95.75
386.013	107.75
386.238	119.75
386.463	93.75
386.688	111.75
386.913	85.75
387.138	101.75
387.363	91.75
387.588	96.75
387.813	115.75
388.038	99.75
388.263	101.75
388.488	97.75
388.713	89.75
388.938	93.75
389.163	91.75
389.387	91.75
389.612	95.75
389.837	86.75
390.062	87.75
390.287	86.75
390.512	81.75
390.736	89.75
390.961	97.75
391.186	80.75
391.411	82.75
391.636	95.75
391.86	75.75
392.085	79.75
392.31	85.75
392.534	72.75
392.759	86.75
392.984	79.75
393.208	91.75
393.433	92.75
393.658	86.75
393.882	92.75
394.107	94.75
394.331	85.75
394.556	80.75
394.78	85.75
395.005	95.75
395.229	91.75
395.454	80.75
395.678	72.75
395.903	79.75
396.127	90.75
396.352	78.75
396.576	75.75
396.801	88.75
397.025	88.75
397.249	100.75
397.474	82.75
397.698	91.75
397.922	90.75
398.147	66.75
398.371	72.75
398.595	87.75
398.82	87.75
399.044	96.75
399.268	77.75
399.492	64.75
399.717	86.75
399.941	76.75
400.165	92.75
400.389	101.75
400.613	92.75
400.837	88.75
401.062	83.75
401.286	91.75
401.51	77.75
401.734	86.75
401.958	96.75
402.182	122.75
402.406	126.75
402.63	112.75
402.854	95.75
403.078	82.75
403.302	76.75
403.526	77.75
403.75	83.75
403.974	81.75
404.198	76.75
404.422	84.75
404.645	86.75
404.869	89.75
405.093	99.75
405.317	92.75
405.541	98.75
405.765	101.75
405.988	107.75
406.212	142.75
406.436	169.75
406.66	120.75
406.883	92.75
407.107	82.75
407.331	87.75
407.555	84.75
407.778	73.75
408.002	102.75
408.226	96.75
408.449	85.75
408.673	94.75
408.896	78.75
409.12	81.75
409.344	95.75
409.567	84.75
409.791	78.75
410.014	83.75
410.238	88.75
410.461	90.75
410.685	105.75
410.908	96.75
411.132	97.75
411.355	98.75
411.578	86.75
411.802	79.75
412.025	75.75
412.249	87.75
412.472	92.75
412.695	89.75
412.919	86.75
413.142	81.75
413.365	90.75
413.589	84.75
413.812	99.75
414.035	85.75
414.258	100.75
414.482	97.75
414.705	85.75
414.928	101.75
415.151	85.75
415.374	92.75
415.597	79.75
415.821	85.75
416.044	82.75
416.267	94.75
416.49	76.75
416.713	78.75
416.936	85.75
417.159	79.75
417.382	82.75
417.605	85.75
417.828	77.75
418.051	84.75
418.274	81.75
418.497	82.75
418.72	89.75
418.943	83.75
419.166	89.75
419.389	80.75
419.611	84.75
419.834	79.75
420.057	81.75
420.28	81.75
420.503	78.75
420.726	89.75
420.948	79.75
421.171	90.75
421.394	82.75
421.617	97.75
421.839	96.75
422.062	76.75
422.285	91.75
422.507	94.75
422.73	89.75
422.953	97.75
423.175	89.75
423.398	100.75
423.621	96.75
423.843	71.75
424.066	76.75
424.288	87.75
424.511	94.75
424.733	85.75
424.956	99.75
425.178	95.75
425.401	87.75
425.623	96.75
425.846	77.75
426.068	85.75
426.291	82.75
426.513	81.75
426.735	95.75
426.958	76.75
427.18	93.75
427.402	119.75
427.625	162.75
427.847	124.75
428.069	101.75
428.292	97.75
428.514	79.75
428.736	94.75
428.958	71.75
429.181	84.75
429.403	84.75
429.625	94.75
429.847	86.75
430.069	104.75
430.292	85.75
430.514	76.75
430.736	78.75
430.958	77.75
431.18	90.75
431.402	90.75
431.624	81.75
431.846	83.75
432.068	92.75
432.29	78.75
432.512	78.75
432.734	84.75
432.956	88.75
433.178	105.75
433.4	99.75
433.622	92.75
433.844	93.75
434.066	100.75
434.287	91.75
434.509	92.75
434.731	75.75
434.953	97.75
435.175	76.75
435.397	90.75
435.618	86.75
435.84	80.75
436.062	102.75
436.284	94.75
436.505	96.75
436.727	95.75
436.949	76.75
437.17	96.75
437.392	76.75
437.614	75.75
437.835	93.75
438.057	91.75
438.278	102.75
438.5	98.75
438.721	120.75
438.943	97.75
439.165	69.75
439.386	78.75
439.608	92.75
439.829	89.75
440.05	109.75
440.272	122.75
440.493	93.75
440.715	84.75
440.936	84.75
441.158	90.75
441.379	83.75
441.6	91.75
441.822	89.75
442.043	75.75
442.264	95.75
442.486	92.75
442.707	89.75
442.928	119.75
443.149	127.75
443.371	126.75
443.592	91.75
443.813	92.75
444.034	75.75
444.255	86.75
444.476	97.75
444.698	92.75
444.919	104.75
445.14	132.75
445.361	111.75
445.582	131.75
445.803	126.75
446.024	110.75
446.245	115.75
446.466	88.75
446.687	90.75
446.908	99.75
447.129	95.75
447.35	65.75
447.571	91.75
447.792	94.75
448.013	83.75
448.234	92.75
448.455	94.75
448.675	103.75
448.896	105.75
449.117	91.75
449.338	96.75
449.559	116.75
449.779	128.75
450	88.75
450.221	86.75
450.442	71.75
450.662	82.75
450.883	105.75
451.104	91.75
451.324	83.75
451.545	79.75
451.766	94.75
451.986	79.75
452.207	88.75
452.428	77.75
452.648	92.75
452.869	101.75
453.089	100.75
453.31	100.75
453.53	92.75
453.751	89.75
453.971	96.75
454.192	77.75
454.412	99.75
454.633	95.75
454.853	82.75
455.073	89.75
455.294	91.75
455.514	95.75
455.734	87.75
455.955	81.75
456.175	81.75
456.395	73.75
456.616	74.75
456.836	81.75
457.056	83.75
457.276	73.75
457.497	82.75
457.717	92.75
457.937	76.75
458.157	81.75
458.377	69.75
458.598	95.75
458.818	111.75
459.038	117.75
459.258	98.75
459.478	96.75
459.698	78.75
459.918	75.75
460.138	80.75
460.358	77.75
460.578	75.75
460.798	85.75
461.018	86.75
461.238	93.75
461.458	95.75
461.678	84.75
461.898	76.75
462.118	79.75
462.338	79.75
462.558	77.75
462.777	77.75
462.997	87.75
463.217	84.75
463.437	78.75
463.657	97.75
463.876	90.75
464.096	79.75
464.316	88.75
464.536	92.75
464.755	83.75
464.975	97.75
465.195	137.75
465.414	133.75
465.634	95.75
465.854	92.75
466.073	72.75
466.293	83.75
466.512	82.75
466.732	88.75
466.951	85.75
467.171	88.75
467.391	92.75
467.61	99.75
467.829	100.75
468.049	96.75
468.268	84.75
468.488	71.75
468.707	65.75
468.927	81.75
469.146	78.75
469.365	88.75
469.585	90.75
469.804	79.75
470.023	104.75
470.243	88.75
470.462	88.75
470.681	98.75
470.901	81.75
471.12	99.75
471.339	83.75
471.558	88.75
471.777	77.75
471.997	83.75
472.216	97.75
472.435	116.75
472.654	94.75
472.873	88.75
473.092	91.75
473.311	79.75
473.53	93.75
473.749	89.75
473.968	88.75
474.187	83.75
474.406	81.75
474.625	91.75
474.844	88.75
475.063	93.75
475.282	85.75
475.501	87.75
475.72	70.75
475.939	78.75
476.158	86.75
476.377	79.75
476.596	78.75
476.814	85.75
477.033	80.75
477.252	81.75
477.471	96.75
477.69	91.75
477.908	94.75
478.127	95.75
478.346	79.75
478.564	101.75
478.783	91.75
479.002	104.75
479.22	65.75
479.439	91.75
479.658	85.75
479.876	77.75
480.095	86.75
480.313	89.75
480.532	95.75
480.751	91.75
480.969	108.75
481.188	159.75
481.406	139.75
481.624	88.75
481.843	83.75
482.061	85.75
482.28	98.75
482.498	80.75
482.717	103.75
482.935	89.75
483.153	93.75
483.372	92.75
483.59	86.75
483.808	83.75
484.027	98.75
484.245	95.75
484.463	93.75
484.681	95.75
484.9	91.75
485.118	99.75
485.336	104.75
485.554	93.75
485.772	97.75
485.99	81.75
486.209	109.75
486.427	99.75
486.645	109.75
486.863	95.75
487.081	84.75
487.299	83.75
487.517	96.75
487.735	96.75
487.953	97.75
488.171	107.75
488.389	106.75
488.607	100.75
488.825	86.75
489.043	76.75
489.261	93.75
489.479	91.75
489.696	90.75
489.914	84.75
490.132	81.75
490.35	95.75
490.568	84.75
490.786	84.75
491.003	71.75
491.221	71.75
491.439	78.75
491.657	81.75
491.874	80.75
492.092	82.75
492.31	93.75
492.527	90.75
492.745	92.75
492.963	80.75
493.18	83.75
493.398	90.75
493.615	93.75
493.833	99.75
494.05	112.75
494.268	87.75
494.485	83.75
494.703	81.75
494.92	82.75
495.138	91.75
495.355	88.75
495.573	89.75
495.79	78.75
496.008	108.75
496.225	95.75
496.442	105.75
496.66	96.75
496.877	85.75
497.094	76.75
497.312	81.75
497.529	89.75
497.746	91.75
497.963	89.75
498.181	71.75
498.398	75.75
498.615	95.75
498.832	92.75
499.049	69.75
499.267	95.75
499.484	87.75
499.701	79.75
499.918	71.75
500.135	97.75
500.352	89.75
500.569	93.75
500.786	92.75
501.003	92.75
501.22	70.75
501.437	77.75
501.654	96.75
501.871	89.75
502.088	85.75
502.305	91.75
502.522	87.75
502.739	84.75
502.956	93.75
503.172	90.75
503.389	92.75
503.606	91.75
503.823	89.75
504.04	89.75
504.256	95.75
504.473	80.75
504.69	87.75
504.907	107.75
505.123	92.75
505.34	86.75
505.557	76.75
505.773	73.75
505.99	85.75
506.207	83.75
506.423	79.75
506.64	87.75
506.856	99.75
507.073	87.75
507.289	95.75
507.506	92.75
507.722	103.75
507.939	95.75
508.155	96.75
508.372	86.75
508.588	93.75
508.805	88.75
509.021	93.75
509.238	104.75
509.454	92.75
509.67	99.75
509.887	103.75
510.103	131.75
510.319	175.75
510.536	584.75
510.752	1711.75
510.968	484.75
511.184	137.75
511.401	96.75
511.617	98.75
511.833	87.75
512.049	95.75
512.265	87.75
512.481	100.75
512.698	101.75
512.914	87.75
513.13	88.75
513.346	98.75
513.562	96.75
513.778	99.75
513.994	94.75
514.21	90.75
514.426	107.75
514.642	116.75
514.858	103.75
515.074	136.75
515.29	343.75
515.506	1022.75
515.721	400.75
515.937	125.75
516.153	113.75
516.369	86.75
516.585	76.75
516.801	107.75
517.016	90.75
517.232	95.75
