Data from Uncirc_2009_H10_HRD10591_00068.txt Node
Date: Wed Jan 03 10:12:15 EST 2024
User: Yrep
Spectrometer: HR+D1059
Trigger mode: 1
Integration Time (sec): 1.000000E-1
Scans to average: 1
Electric dark correction enabled: true
Nonlinearity correction enabled: false
Boxcar width: 0
XAxis mode: Wavelengths
Number of Pixels in Spectrum: 2048
>>>>>Begin Spectral Data<<<<<
223.165	-20.62
223.4	-20.62
223.635	-20.62
223.869	-29.62
224.104	-14.62
224.338	-20.62
224.573	-13.62
224.808	-12.62
225.042	-9.62
225.277	-7.62
225.511	-2.62
225.746	1.38
225.98	1.38
226.215	1.38
226.449	19.38
226.683	26.38
226.918	33.38
227.152	48.38
227.387	36.38
227.621	38.38
227.856	34.38
228.09	47.38
228.324	59.38
228.559	42.38
228.793	48.38
229.027	71.38
229.262	65.38
229.496	74.38
229.73	92.38
229.964	75.38
230.199	73.38
230.433	86.38
230.667	71.38
230.901	68.38
231.136	82.38
231.37	74.38
231.604	74.38
231.838	79.38
232.072	81.38
232.306	94.38
232.541	80.38
232.775	84.38
233.009	94.38
233.243	85.38
233.477	89.38
233.711	94.38
233.945	82.38
234.179	87.38
234.413	69.38
234.647	79.38
234.881	74.38
235.115	74.38
235.349	64.38
235.583	91.38
235.817	85.38
236.051	92.38
236.285	80.38
236.519	86.38
236.753	90.38
236.987	72.38
237.221	79.38
237.455	85.38
237.689	66.38
237.922	72.38
238.156	84.38
238.39	69.38
238.624	81.38
238.858	81.38
239.091	75.38
239.325	88.38
239.559	77.38
239.793	69.38
240.027	92.38
240.26	90.38
240.494	82.38
240.728	78.38
240.961	74.38
241.195	73.38
241.429	79.38
241.662	88.38
241.896	79.38
242.13	88.38
242.363	84.38
242.597	79.38
242.83	78.38
243.064	75.38
243.298	70.38
243.531	83.38
243.765	68.38
243.998	80.38
244.232	87.38
244.465	75.38
244.699	83.38
244.932	71.38
245.166	74.38
245.399	75.38
245.633	90.38
245.866	89.38
246.099	88.38
246.333	80.38
246.566	79.38
246.8	84.38
247.033	69.38
247.266	93.38
247.5	68.38
247.733	74.38
247.966	96.38
248.2	82.38
248.433	75.38
248.666	80.38
248.899	78.38
249.133	76.38
249.366	96.38
249.599	92.38
249.832	78.38
250.066	89.38
250.299	81.38
250.532	71.38
250.765	73.38
250.998	82.38
251.231	96.38
251.465	86.38
251.698	75.38
251.931	75.38
252.164	85.38
252.397	81.38
252.63	78.38
252.863	73.38
253.096	87.38
253.329	80.38
253.562	90.38
253.795	87.38
254.028	77.38
254.261	87.38
254.494	79.38
254.727	80.38
254.96	83.38
255.193	84.38
255.426	74.38
255.659	86.38
255.892	83.38
256.124	88.38
256.357	78.38
256.59	77.38
256.823	82.38
257.056	80.38
257.289	88.38
257.521	82.38
257.754	83.38
257.987	78.38
258.22	79.38
258.452	89.38
258.685	87.38
258.918	86.38
259.151	90.38
259.383	89.38
259.616	91.38
259.849	88.38
260.081	84.38
260.314	87.38
260.547	93.38
260.779	82.38
261.012	78.38
261.244	74.38
261.477	98.38
261.71	94.38
261.942	98.38
262.175	101.38
262.407	90.38
262.64	88.38
262.872	87.38
263.105	80.38
263.337	81.38
263.57	81.38
263.802	94.38
264.035	90.38
264.267	89.38
264.499	82.38
264.732	73.38
264.964	87.38
265.197	96.38
265.429	78.38
265.661	86.38
265.894	98.38
266.126	97.38
266.358	80.38
266.591	83.38
266.823	85.38
267.055	77.38
267.287	90.38
267.52	93.38
267.752	87.38
267.984	99.38
268.216	87.38
268.448	75.38
268.681	80.38
268.913	84.38
269.145	72.38
269.377	84.38
269.609	93.38
269.841	101.38
270.073	85.38
270.306	83.38
270.538	79.38
270.77	90.38
271.002	95.38
271.234	81.38
271.466	89.38
271.698	98.38
271.93	82.38
272.162	91.38
272.394	93.38
272.626	86.38
272.858	77.38
273.09	96.38
273.322	93.38
273.553	93.38
273.785	89.38
274.017	86.38
274.249	95.38
274.481	79.38
274.713	83.38
274.945	88.38
275.176	85.38
275.408	86.38
275.64	73.38
275.872	98.38
276.104	87.38
276.335	72.38
276.567	91.38
276.799	94.38
277.031	81.38
277.262	95.38
277.494	98.38
277.726	83.38
277.957	95.38
278.189	74.38
278.421	85.38
278.652	91.38
278.884	89.38
279.115	69.38
279.347	88.38
279.579	93.38
279.81	93.38
280.042	77.38
280.273	82.38
280.505	86.38
280.736	99.38
280.968	101.38
281.199	99.38
281.431	78.38
281.662	78.38
281.894	96.38
282.125	94.38
282.356	111.38
282.588	107.38
282.819	90.38
283.051	89.38
283.282	94.38
283.513	92.38
283.745	80.38
283.976	95.38
284.207	111.38
284.439	90.38
284.67	88.38
284.901	93.38
285.132	86.38
285.364	85.38
285.595	94.38
285.826	97.38
286.057	95.38
286.288	98.38
286.52	94.38
286.751	95.38
286.982	77.38
287.213	88.38
287.444	95.38
287.675	90.38
287.906	82.38
288.138	89.38
288.369	98.38
288.6	92.38
288.831	84.38
289.062	84.38
289.293	82.38
289.524	89.38
289.755	94.38
289.986	101.38
290.217	85.38
290.448	88.38
290.679	88.38
290.91	92.38
291.141	97.38
291.371	90.38
291.602	84.38
291.833	83.38
292.064	94.38
292.295	101.38
292.526	86.38
292.757	90.38
292.987	98.38
293.218	92.38
293.449	93.38
293.68	95.38
293.91	71.38
294.141	99.38
294.372	109.38
294.603	96.38
294.833	74.38
295.064	76.38
295.295	85.38
295.525	98.38
295.756	94.38
295.987	108.38
296.217	117.38
296.448	101.38
296.679	98.38
296.909	96.38
297.14	94.38
297.37	94.38
297.601	91.38
297.831	100.38
298.062	77.38
298.292	106.38
298.523	93.38
298.753	87.38
298.984	79.38
299.214	80.38
299.445	94.38
299.675	91.38
299.905	84.38
300.136	92.38
300.366	97.38
300.597	90.38
300.827	88.38
301.057	100.38
301.288	87.38
301.518	91.38
301.748	94.38
301.979	98.38
302.209	80.38
302.439	98.38
302.669	97.38
302.9	105.38
303.13	90.38
303.36	95.38
303.59	106.38
303.82	101.38
304.051	99.38
304.281	98.38
304.511	86.38
304.741	66.38
304.971	79.38
305.201	76.38
305.431	94.38
305.661	78.38
305.891	94.38
306.121	105.38
306.352	110.38
306.582	86.38
306.812	100.38
307.042	89.38
307.272	88.38
307.502	91.38
307.731	105.38
307.961	93.38
308.191	75.38
308.421	100.38
308.651	88.38
308.881	83.38
309.111	102.38
309.341	97.38
309.571	98.38
309.8	104.38
310.03	91.38
310.26	87.38
310.49	86.38
310.72	90.38
310.949	99.38
311.179	95.38
311.409	82.38
311.639	86.38
311.868	80.38
312.098	87.38
312.328	84.38
312.557	91.38
312.787	101.38
313.017	108.38
313.246	90.38
313.476	85.38
313.706	98.38
313.935	101.38
314.165	100.38
314.394	78.38
314.624	84.38
314.853	93.38
315.083	86.38
315.312	100.38
315.542	91.38
315.771	82.38
316.001	91.38
316.23	96.38
316.46	92.38
316.689	89.38
316.919	78.38
317.148	100.38
317.377	108.38
317.607	116.38
317.836	117.38
318.065	96.38
318.295	79.38
318.524	81.38
318.753	87.38
318.983	90.38
319.212	96.38
319.441	103.38
319.67	92.38
319.9	99.38
320.129	82.38
320.358	79.38
320.587	105.38
320.816	98.38
321.046	93.38
321.275	98.38
321.504	87.38
321.733	90.38
321.962	113.38
322.191	97.38
322.42	87.38
322.649	109.38
322.878	79.38
323.108	101.38
323.337	108.38
323.566	108.38
323.795	126.38
324.024	201.38
324.253	335.38
324.482	683.38
324.71	1423.38
324.939	1838.38
325.168	689.38
325.397	223.38
325.626	155.38
325.855	127.38
326.084	142.38
326.313	143.38
326.542	146.38
326.77	195.38
326.999	395.38
327.228	815.38
327.457	1453.38
327.686	1181.38
327.914	309.38
328.143	162.38
328.372	129.38
328.6	120.38
328.829	112.38
329.058	111.38
329.287	106.38
329.515	107.38
329.744	97.38
329.972	105.38
330.201	99.38
330.43	122.38
330.658	112.38
330.887	127.38
331.115	120.38
331.344	87.38
331.572	93.38
331.801	97.38
332.03	89.38
332.258	112.38
332.486	97.38
332.715	94.38
332.943	103.38
333.172	97.38
333.4	100.38
333.629	104.38
333.857	109.38
334.085	101.38
334.314	102.38
334.542	114.38
334.771	103.38
334.999	106.38
335.227	104.38
335.455	93.38
335.684	93.38
335.912	103.38
336.14	95.38
336.369	89.38
336.597	110.38
336.825	91.38
337.053	91.38
337.281	91.38
337.51	96.38
337.738	87.38
337.966	102.38
338.194	91.38
338.422	78.38
338.65	75.38
338.878	93.38
339.106	86.38
339.334	93.38
339.562	89.38
339.79	93.38
340.018	102.38
340.246	91.38
340.474	82.38
340.702	89.38
340.93	87.38
341.158	86.38
341.386	94.38
341.614	81.38
341.842	92.38
342.07	90.38
342.298	79.38
342.526	80.38
342.754	90.38
342.981	89.38
343.209	87.38
343.437	107.38
343.665	86.38
343.893	90.38
344.12	90.38
344.348	87.38
344.576	86.38
344.804	78.38
345.031	81.38
345.259	86.38
345.487	82.38
345.714	88.38
345.942	102.38
346.17	85.38
346.397	83.38
346.625	83.38
346.853	87.38
347.08	91.38
347.308	97.38
347.535	98.38
347.763	100.38
347.99	106.38
348.218	93.38
348.445	102.38
348.673	91.38
348.9	89.38
349.128	73.38
349.355	94.38
349.583	87.38
349.81	89.38
350.037	99.38
350.265	100.38
350.492	95.38
350.72	89.38
350.947	83.38
351.174	87.38
351.402	100.38
351.629	104.38
351.856	95.38
352.083	99.38
352.311	111.38
352.538	98.38
352.765	105.38
352.992	93.38
353.22	121.38
353.447	102.38
353.674	95.38
353.901	105.38
354.128	90.38
354.355	97.38
354.583	90.38
354.81	106.38
355.037	96.38
355.264	110.38
355.491	77.38
355.718	89.38
355.945	89.38
356.172	94.38
356.399	86.38
356.626	98.38
356.853	89.38
357.08	88.38
357.307	91.38
357.534	98.38
357.761	82.38
357.988	98.38
358.215	93.38
358.441	94.38
358.668	83.38
358.895	87.38
359.122	102.38
359.349	90.38
359.576	87.38
359.802	86.38
360.029	92.38
360.256	90.38
360.483	93.38
360.709	77.38
360.936	83.38
361.163	93.38
361.39	94.38
361.616	83.38
361.843	94.38
362.07	98.38
362.296	81.38
362.523	74.38
362.749	81.38
362.976	81.38
363.203	85.38
363.429	82.38
363.656	83.38
363.882	75.38
364.109	94.38
364.335	87.38
364.562	101.38
364.788	85.38
365.015	72.38
365.241	91.38
365.468	104.38
365.694	85.38
365.92	97.38
366.147	90.38
366.373	84.38
366.599	83.38
366.826	88.38
367.052	79.38
367.278	86.38
367.505	90.38
367.731	79.38
367.957	83.38
368.184	94.38
368.41	93.38
368.636	108.38
368.862	101.38
369.089	87.38
369.315	90.38
369.541	83.38
369.767	99.38
369.993	94.38
370.219	86.38
370.445	93.38
370.672	82.38
370.898	83.38
371.124	95.38
371.35	81.38
371.576	90.38
371.802	70.38
372.028	88.38
372.254	93.38
372.48	81.38
372.706	70.38
372.932	92.38
373.158	87.38
373.384	95.38
373.61	92.38
373.835	101.38
374.061	93.38
374.287	83.38
374.513	95.38
374.739	100.38
374.965	97.38
375.191	91.38
375.416	96.38
375.642	88.38
375.868	101.38
376.094	76.38
376.319	100.38
376.545	89.38
376.771	94.38
376.997	92.38
377.222	75.38
377.448	91.38
377.674	86.38
377.899	80.38
378.125	79.38
378.35	81.38
378.576	90.38
378.802	105.38
379.027	99.38
379.253	83.38
379.478	89.38
379.704	92.38
379.929	91.38
380.155	94.38
380.38	91.38
380.606	101.38
380.831	94.38
381.057	91.38
381.282	97.38
381.507	88.38
381.733	83.38
381.958	101.38
382.184	98.38
382.409	99.38
382.634	113.38
382.86	101.38
383.085	102.38
383.31	104.38
383.535	95.38
383.761	103.38
383.986	98.38
384.211	90.38
384.436	96.38
384.662	106.38
384.887	111.38
385.112	94.38
385.337	94.38
385.562	99.38
385.787	119.38
386.013	110.38
386.238	108.38
386.463	124.38
386.688	91.38
386.913	92.38
387.138	103.38
387.363	101.38
387.588	92.38
387.813	86.38
388.038	104.38
388.263	97.38
388.488	102.38
388.713	103.38
388.938	96.38
389.163	82.38
389.387	84.38
389.612	89.38
389.837	92.38
390.062	89.38
390.287	85.38
390.512	96.38
390.736	91.38
390.961	96.38
391.186	90.38
391.411	78.38
391.636	94.38
391.86	79.38
392.085	85.38
392.31	93.38
392.534	80.38
392.759	87.38
392.984	91.38
393.208	90.38
393.433	107.38
393.658	90.38
393.882	76.38
394.107	93.38
394.331	82.38
394.556	80.38
394.78	82.38
395.005	97.38
395.229	79.38
395.454	98.38
395.678	89.38
395.903	85.38
396.127	86.38
396.352	90.38
396.576	85.38
396.801	81.38
397.025	72.38
397.249	68.38
397.474	82.38
397.698	86.38
397.922	81.38
398.147	76.38
398.371	93.38
398.595	80.38
398.82	80.38
399.044	75.38
399.268	84.38
399.492	91.38
399.717	89.38
399.941	86.38
400.165	88.38
400.389	83.38
400.613	87.38
400.837	79.38
401.062	77.38
401.286	87.38
401.51	81.38
401.734	101.38
401.958	98.38
402.182	109.38
402.406	118.38
402.63	98.38
402.854	95.38
403.078	85.38
403.302	97.38
403.526	83.38
403.75	82.38
403.974	92.38
404.198	92.38
404.422	85.38
404.645	94.38
404.869	93.38
405.093	89.38
405.317	103.38
405.541	101.38
405.765	102.38
405.988	95.38
406.212	135.38
406.436	176.38
406.66	125.38
406.883	96.38
407.107	95.38
407.331	84.38
407.555	105.38
407.778	82.38
408.002	89.38
408.226	86.38
408.449	89.38
408.673	80.38
408.896	96.38
409.12	93.38
409.344	85.38
409.567	95.38
409.791	94.38
410.014	102.38
410.238	102.38
410.461	94.38
410.685	88.38
410.908	82.38
411.132	100.38
411.355	104.38
411.578	98.38
411.802	82.38
412.025	92.38
412.249	79.38
412.472	86.38
412.695	116.38
412.919	88.38
413.142	93.38
413.365	94.38
413.589	94.38
413.812	90.38
414.035	106.38
414.258	89.38
414.482	101.38
414.705	71.38
414.928	92.38
415.151	86.38
415.374	88.38
415.597	85.38
415.821	88.38
416.044	89.38
416.267	97.38
416.49	91.38
416.713	100.38
416.936	88.38
417.159	102.38
417.382	81.38
417.605	90.38
417.828	102.38
418.051	87.38
418.274	101.38
418.497	94.38
418.72	90.38
418.943	96.38
419.166	83.38
419.389	96.38
419.611	86.38
419.834	98.38
420.057	85.38
420.28	86.38
420.503	81.38
420.726	97.38
420.948	91.38
421.171	74.38
421.394	85.38
421.617	93.38
421.839	78.38
422.062	90.38
422.285	89.38
422.507	107.38
422.73	102.38
422.953	82.38
423.175	97.38
423.398	79.38
423.621	85.38
423.843	95.38
424.066	83.38
424.288	83.38
424.511	78.38
424.733	104.38
424.956	96.38
425.178	93.38
425.401	101.38
425.623	102.38
425.846	99.38
426.068	72.38
426.291	82.38
426.513	107.38
426.735	88.38
426.958	97.38
427.18	97.38
427.402	108.38
427.625	136.38
427.847	110.38
428.069	108.38
428.292	87.38
428.514	87.38
428.736	86.38
428.958	111.38
429.181	92.38
429.403	65.38
429.625	79.38
429.847	94.38
430.069	96.38
430.292	83.38
430.514	88.38
430.736	78.38
430.958	84.38
431.18	87.38
431.402	89.38
431.624	93.38
431.846	77.38
432.068	75.38
432.29	78.38
432.512	101.38
432.734	103.38
432.956	96.38
433.178	94.38
433.4	98.38
433.622	91.38
433.844	78.38
434.066	85.38
434.287	96.38
434.509	105.38
434.731	87.38
434.953	83.38
435.175	83.38
435.397	107.38
435.618	82.38
435.84	91.38
436.062	113.38
436.284	126.38
436.505	102.38
436.727	105.38
436.949	90.38
437.17	82.38
437.392	99.38
437.614	85.38
437.835	104.38
438.057	92.38
438.278	96.38
438.5	106.38
438.721	107.38
438.943	96.38
439.165	87.38
439.386	80.38
439.608	93.38
439.829	91.38
440.05	95.38
440.272	124.38
440.493	83.38
440.715	97.38
440.936	94.38
441.158	83.38
441.379	77.38
441.6	90.38
441.822	83.38
442.043	86.38
442.264	94.38
442.486	95.38
442.707	80.38
442.928	107.38
443.149	111.38
443.371	106.38
443.592	94.38
443.813	110.38
444.034	106.38
444.255	90.38
444.476	87.38
444.698	96.38
444.919	79.38
445.14	137.38
445.361	120.38
445.582	113.38
445.803	135.38
446.024	108.38
446.245	123.38
446.466	110.38
446.687	103.38
446.908	103.38
447.129	89.38
447.35	81.38
447.571	96.38
447.792	94.38
448.013	95.38
448.234	89.38
448.455	95.38
448.675	83.38
448.896	96.38
449.117	99.38
449.338	92.38
449.559	120.38
449.779	112.38
450	95.38
450.221	95.38
450.442	80.38
450.662	99.38
450.883	89.38
451.104	103.38
451.324	89.38
451.545	90.38
451.766	97.38
451.986	95.38
452.207	103.38
452.428	97.38
452.648	102.38
452.869	118.38
453.089	106.38
453.31	119.38
453.53	80.38
453.751	93.38
453.971	97.38
454.192	99.38
454.412	101.38
454.633	85.38
454.853	90.38
455.073	83.38
455.294	88.38
455.514	96.38
455.734	94.38
455.955	91.38
456.175	81.38
456.395	96.38
456.616	91.38
456.836	94.38
457.056	93.38
457.276	97.38
457.497	93.38
457.717	88.38
457.937	80.38
458.157	76.38
458.377	92.38
458.598	96.38
458.818	100.38
459.038	131.38
459.258	102.38
459.478	95.38
459.698	103.38
459.918	87.38
460.138	89.38
460.358	88.38
460.578	80.38
460.798	93.38
461.018	93.38
461.238	83.38
461.458	79.38
461.678	98.38
461.898	88.38
462.118	93.38
462.338	103.38
462.558	83.38
462.777	84.38
462.997	79.38
463.217	89.38
463.437	87.38
463.657	77.38
463.876	98.38
464.096	92.38
464.316	87.38
464.536	91.38
464.755	83.38
464.975	100.38
465.195	122.38
465.414	133.38
465.634	105.38
465.854	99.38
466.073	76.38
466.293	91.38
466.512	96.38
466.732	102.38
466.951	103.38
467.171	90.38
467.391	92.38
467.61	92.38
467.829	92.38
468.049	104.38
468.268	119.38
468.488	104.38
468.707	83.38
468.927	90.38
469.146	89.38
469.365	81.38
469.585	86.38
469.804	89.38
470.023	99.38
470.243	93.38
470.462	102.38
470.681	88.38
470.901	92.38
471.12	106.38
471.339	94.38
471.558	83.38
471.777	90.38
471.997	94.38
472.216	117.38
472.435	123.38
472.654	97.38
472.873	99.38
473.092	79.38
473.311	90.38
473.53	87.38
473.749	83.38
473.968	90.38
474.187	99.38
474.406	88.38
474.625	87.38
474.844	90.38
475.063	90.38
475.282	86.38
475.501	85.38
475.72	101.38
475.939	91.38
476.158	71.38
476.377	101.38
476.596	87.38
476.814	97.38
477.033	83.38
477.252	101.38
477.471	85.38
477.69	81.38
477.908	90.38
478.127	107.38
478.346	107.38
478.564	77.38
478.783	98.38
479.002	87.38
479.22	89.38
479.439	83.38
479.658	104.38
479.876	95.38
480.095	89.38
480.313	89.38
480.532	93.38
480.751	102.38
480.969	92.38
481.188	165.38
481.406	110.38
481.624	104.38
481.843	99.38
482.061	107.38
482.28	82.38
482.498	82.38
482.717	81.38
482.935	97.38
483.153	90.38
483.372	110.38
483.59	101.38
483.808	86.38
484.027	86.38
484.245	104.38
484.463	95.38
484.681	99.38
484.9	95.38
485.118	83.38
485.336	87.38
485.554	95.38
485.772	99.38
485.99	105.38
486.209	101.38
486.427	99.38
486.645	106.38
486.863	102.38
487.081	114.38
487.299	103.38
487.517	97.38
487.735	85.38
487.953	98.38
488.171	85.38
488.389	85.38
488.607	97.38
488.825	96.38
489.043	81.38
489.261	91.38
489.479	91.38
489.696	95.38
489.914	96.38
490.132	92.38
490.35	98.38
490.568	101.38
490.786	88.38
491.003	85.38
491.221	98.38
491.439	96.38
491.657	102.38
491.874	101.38
492.092	109.38
492.31	94.38
492.527	100.38
492.745	96.38
492.963	97.38
493.18	97.38
493.398	95.38
493.615	85.38
493.833	105.38
494.05	90.38
494.268	87.38
494.485	91.38
494.703	99.38
494.92	79.38
495.138	90.38
495.355	96.38
495.573	85.38
495.79	94.38
496.008	94.38
496.225	83.38
496.442	99.38
496.66	87.38
496.877	102.38
497.094	98.38
497.312	91.38
497.529	88.38
497.746	101.38
497.963	107.38
498.181	92.38
498.398	96.38
498.615	97.38
498.832	92.38
499.049	82.38
499.267	90.38
499.484	93.38
499.701	100.38
499.918	81.38
500.135	102.38
500.352	92.38
500.569	84.38
500.786	95.38
501.003	98.38
501.22	95.38
501.437	91.38
501.654	84.38
501.871	104.38
502.088	94.38
502.305	85.38
502.522	86.38
502.739	91.38
502.956	91.38
503.172	87.38
503.389	95.38
503.606	114.38
503.823	82.38
504.04	99.38
504.256	97.38
504.473	80.38
504.69	87.38
504.907	78.38
505.123	96.38
505.34	96.38
505.557	77.38
505.773	92.38
505.99	102.38
506.207	115.38
506.423	93.38
506.64	106.38
506.856	96.38
507.073	79.38
507.289	84.38
507.506	93.38
507.722	109.38
507.939	98.38
508.155	88.38
508.372	94.38
508.588	79.38
508.805	99.38
509.021	102.38
509.238	95.38
509.454	90.38
509.67	100.38
509.887	98.38
510.103	122.38
510.319	170.38
510.536	535.38
510.752	1536.38
510.968	462.38
511.184	143.38
511.401	102.38
511.617	105.38
511.833	92.38
512.049	89.38
512.265	86.38
512.481	86.38
512.698	89.38
512.914	94.38
513.13	103.38
513.346	85.38
513.562	100.38
513.778	90.38
513.994	98.38
514.21	91.38
514.426	96.38
514.642	129.38
514.858	134.38
515.074	131.38
515.29	295.38
515.506	903.38
515.721	374.38
515.937	123.38
516.153	94.38
