Data from Uncirc_2009_H10_HRD10591_00015.txt Node
Date: Wed Jan 03 10:12:04 EST 2024
User: Yrep
Spectrometer: HR+D1059
Trigger mode: 1
Integration Time (sec): 1.000000E-1
Scans to average: 1
Electric dark correction enabled: true
Nonlinearity correction enabled: false
Boxcar width: 0
XAxis mode: Wavelengths
Number of Pixels in Spectrum: 2048
>>>>>Begin Spectral Data<<<<<
223.165	-15.31
223.4	-15.31
223.635	-15.31
223.869	-21.31
224.104	-20.31
224.338	-13.31
224.573	4.69
224.808	-8.31
225.042	-11.31
225.277	-12.31
225.511	-26.31
225.746	0.69
225.98	21.69
226.215	10.69
226.449	12.69
226.683	14.69
226.918	38.69
227.152	24.69
227.387	29.69
227.621	40.69
227.856	50.69
228.09	41.69
228.324	46.69
228.559	54.69
228.793	63.69
229.027	67.69
229.262	62.69
229.496	70.69
229.73	76.69
229.964	63.69
230.199	72.69
230.433	68.69
230.667	85.69
230.901	85.69
231.136	79.69
231.37	82.69
231.604	79.69
231.838	87.69
232.072	79.69
232.306	74.69
232.541	77.69
232.775	76.69
233.009	72.69
233.243	74.69
233.477	83.69
233.711	86.69
233.945	80.69
234.179	85.69
234.413	74.69
234.647	84.69
234.881	89.69
235.115	67.69
235.349	77.69
235.583	62.69
235.817	70.69
236.051	64.69
236.285	81.69
236.519	82.69
236.753	77.69
236.987	76.69
237.221	85.69
237.455	75.69
237.689	86.69
237.922	84.69
238.156	78.69
238.39	71.69
238.624	75.69
238.858	81.69
239.091	67.69
239.325	77.69
239.559	57.69
239.793	79.69
240.027	70.69
240.26	72.69
240.494	73.69
240.728	68.69
240.961	77.69
241.195	80.69
241.429	69.69
241.662	53.69
241.896	79.69
242.13	80.69
242.363	87.69
242.597	81.69
242.83	61.69
243.064	82.69
243.298	72.69
243.531	75.69
243.765	90.69
243.998	78.69
244.232	86.69
244.465	94.69
244.699	79.69
244.932	78.69
245.166	91.69
245.399	79.69
245.633	68.69
245.866	79.69
246.099	72.69
246.333	82.69
246.566	73.69
246.8	84.69
247.033	82.69
247.266	78.69
247.5	75.69
247.733	62.69
247.966	84.69
248.2	78.69
248.433	77.69
248.666	58.69
248.899	98.69
249.133	91.69
249.366	91.69
249.599	86.69
249.832	83.69
250.066	83.69
250.299	69.69
250.532	68.69
250.765	74.69
250.998	80.69
251.231	75.69
251.465	79.69
251.698	78.69
251.931	72.69
252.164	80.69
252.397	74.69
252.63	67.69
252.863	81.69
253.096	78.69
253.329	67.69
253.562	74.69
253.795	72.69
254.028	83.69
254.261	68.69
254.494	77.69
254.727	80.69
254.96	61.69
255.193	62.69
255.426	88.69
255.659	62.69
255.892	73.69
256.124	69.69
256.357	77.69
256.59	84.69
256.823	75.69
257.056	77.69
257.289	84.69
257.521	87.69
257.754	83.69
257.987	86.69
258.22	95.69
258.452	80.69
258.685	71.69
258.918	73.69
259.151	77.69
259.383	62.69
259.616	95.69
259.849	72.69
260.081	76.69
260.314	72.69
260.547	70.69
260.779	74.69
261.012	82.69
261.244	75.69
261.477	57.69
261.71	71.69
261.942	95.69
262.175	109.69
262.407	99.69
262.64	86.69
262.872	85.69
263.105	92.69
263.337	100.69
263.57	75.69
263.802	76.69
264.035	85.69
264.267	76.69
264.499	84.69
264.732	93.69
264.964	76.69
265.197	88.69
265.429	82.69
265.661	71.69
265.894	92.69
266.126	86.69
266.358	82.69
266.591	76.69
266.823	79.69
267.055	78.69
267.287	80.69
267.52	80.69
267.752	77.69
267.984	71.69
268.216	75.69
268.448	78.69
268.681	65.69
268.913	86.69
269.145	86.69
269.377	83.69
269.609	93.69
269.841	83.69
270.073	84.69
270.306	85.69
270.538	92.69
270.77	88.69
271.002	90.69
271.234	86.69
271.466	86.69
271.698	80.69
271.93	76.69
272.162	72.69
272.394	79.69
272.626	80.69
272.858	72.69
273.09	87.69
273.322	87.69
273.553	79.69
273.785	86.69
274.017	73.69
274.249	77.69
274.481	85.69
274.713	70.69
274.945	74.69
275.176	80.69
275.408	82.69
275.64	86.69
275.872	84.69
276.104	76.69
276.335	72.69
276.567	100.69
276.799	90.69
277.031	91.69
277.262	84.69
277.494	68.69
277.726	78.69
277.957	86.69
278.189	78.69
278.421	89.69
278.652	74.69
278.884	79.69
279.115	89.69
279.347	77.69
279.579	79.69
279.81	73.69
280.042	78.69
280.273	85.69
280.505	71.69
280.736	96.69
280.968	92.69
281.199	84.69
281.431	76.69
281.662	81.69
281.894	80.69
282.125	98.69
282.356	103.69
282.588	128.69
282.819	107.69
283.051	84.69
283.282	78.69
283.513	85.69
283.745	91.69
283.976	94.69
284.207	93.69
284.439	104.69
284.67	102.69
284.901	91.69
285.132	97.69
285.364	92.69
285.595	69.69
285.826	77.69
286.057	78.69
286.288	89.69
286.52	95.69
286.751	101.69
286.982	76.69
287.213	88.69
287.444	80.69
287.675	80.69
287.906	93.69
288.138	74.69
288.369	84.69
288.6	97.69
288.831	98.69
289.062	89.69
289.293	88.69
289.524	93.69
289.755	76.69
289.986	86.69
290.217	81.69
290.448	91.69
290.679	83.69
290.91	95.69
291.141	102.69
291.371	76.69
291.602	84.69
291.833	82.69
292.064	74.69
292.295	80.69
292.526	90.69
292.757	99.69
292.987	97.69
293.218	66.69
293.449	77.69
293.68	93.69
293.91	89.69
294.141	81.69
294.372	86.69
294.603	85.69
294.833	84.69
295.064	86.69
295.295	81.69
295.525	94.69
295.756	95.69
295.987	102.69
296.217	116.69
296.448	105.69
296.679	87.69
296.909	87.69
297.14	85.69
297.37	78.69
297.601	87.69
297.831	94.69
298.062	100.69
298.292	82.69
298.523	86.69
298.753	85.69
298.984	93.69
299.214	85.69
299.445	91.69
299.675	90.69
299.905	98.69
300.136	100.69
300.366	82.69
300.597	99.69
300.827	103.69
301.057	92.69
301.288	92.69
301.518	78.69
301.748	84.69
301.979	81.69
302.209	93.69
302.439	93.69
302.669	84.69
302.9	99.69
303.13	100.69
303.36	94.69
303.59	96.69
303.82	104.69
304.051	89.69
304.281	89.69
304.511	93.69
304.741	82.69
304.971	74.69
305.201	91.69
305.431	79.69
305.661	93.69
305.891	88.69
306.121	97.69
306.352	108.69
306.582	101.69
306.812	101.69
307.042	86.69
307.272	90.69
307.502	91.69
307.731	86.69
307.961	79.69
308.191	79.69
308.421	87.69
308.651	78.69
308.881	85.69
309.111	82.69
309.341	91.69
309.571	87.69
309.8	102.69
310.03	86.69
310.26	86.69
310.49	91.69
310.72	94.69
310.949	96.69
311.179	96.69
311.409	80.69
311.639	88.69
311.868	93.69
312.098	93.69
312.328	78.69
312.557	90.69
312.787	105.69
313.017	101.69
313.246	85.69
313.476	89.69
313.706	95.69
313.935	90.69
314.165	104.69
314.394	92.69
314.624	96.69
314.853	112.69
315.083	93.69
315.312	93.69
315.542	94.69
315.771	87.69
316.001	84.69
316.23	101.69
316.46	92.69
316.689	91.69
316.919	86.69
317.148	82.69
317.377	102.69
317.607	127.69
317.836	102.69
318.065	99.69
318.295	84.69
318.524	100.69
318.753	89.69
318.983	96.69
319.212	75.69
319.441	90.69
319.67	107.69
319.9	88.69
320.129	83.69
320.358	89.69
320.587	98.69
320.816	101.69
321.046	107.69
321.275	87.69
321.504	92.69
321.733	92.69
321.962	104.69
322.191	97.69
322.42	90.69
322.649	90.69
322.878	123.69
323.108	121.69
323.337	111.69
323.566	123.69
323.795	138.69
324.024	190.69
324.253	370.69
324.482	751.69
324.71	1538.69
324.939	1999.69
325.168	742.69
325.397	222.69
325.626	127.69
325.855	134.69
326.084	129.69
326.313	150.69
326.542	153.69
326.77	214.69
326.999	425.69
327.228	844.69
327.457	1530.69
327.686	1199.69
327.914	308.69
328.143	181.69
328.372	143.69
328.6	114.69
328.829	110.69
329.058	108.69
329.287	92.69
329.515	103.69
329.744	107.69
329.972	101.69
330.201	106.69
330.43	128.69
330.658	131.69
330.887	106.69
331.115	117.69
331.344	91.69
331.572	95.69
331.801	96.69
332.03	101.69
332.258	102.69
332.486	94.69
332.715	96.69
332.943	88.69
333.172	91.69
333.4	96.69
333.629	105.69
333.857	99.69
334.085	101.69
334.314	92.69
334.542	111.69
334.771	105.69
334.999	96.69
335.227	96.69
335.455	88.69
335.684	89.69
335.912	102.69
336.14	99.69
336.369	96.69
336.597	84.69
336.825	109.69
337.053	83.69
337.281	101.69
337.51	102.69
337.738	96.69
337.966	74.69
338.194	92.69
338.422	88.69
338.65	80.69
338.878	86.69
339.106	71.69
339.334	86.69
339.562	91.69
339.79	93.69
340.018	87.69
340.246	91.69
340.474	80.69
340.702	103.69
340.93	85.69
341.158	89.69
341.386	92.69
341.614	88.69
341.842	88.69
342.07	91.69
342.298	87.69
342.526	90.69
342.754	83.69
342.981	92.69
343.209	85.69
343.437	91.69
343.665	80.69
343.893	77.69
344.12	95.69
344.348	94.69
344.576	79.69
344.804	79.69
345.031	89.69
345.259	96.69
345.487	88.69
345.714	87.69
345.942	92.69
346.17	88.69
346.397	90.69
346.625	102.69
346.853	82.69
347.08	98.69
347.308	83.69
347.535	107.69
347.763	93.69
347.99	106.69
348.218	94.69
348.445	84.69
348.673	93.69
348.9	89.69
349.128	93.69
349.355	99.69
349.583	92.69
349.81	91.69
350.037	94.69
350.265	85.69
350.492	101.69
350.72	87.69
350.947	91.69
351.174	95.69
351.402	104.69
351.629	101.69
351.856	105.69
352.083	93.69
352.311	108.69
352.538	96.69
352.765	91.69
352.992	110.69
353.22	97.69
353.447	108.69
353.674	105.69
353.901	94.69
354.128	102.69
354.355	89.69
354.583	95.69
354.81	101.69
355.037	104.69
355.264	88.69
355.491	96.69
355.718	96.69
355.945	101.69
356.172	86.69
356.399	99.69
356.626	91.69
356.853	87.69
357.08	102.69
357.307	87.69
357.534	84.69
357.761	76.69
357.988	85.69
358.215	96.69
358.441	101.69
358.668	91.69
358.895	78.69
359.122	82.69
359.349	99.69
359.576	98.69
359.802	92.69
360.029	105.69
360.256	105.69
360.483	81.69
360.709	86.69
360.936	87.69
361.163	86.69
361.39	92.69
361.616	82.69
361.843	93.69
362.07	92.69
362.296	95.69
362.523	89.69
362.749	83.69
362.976	99.69
363.203	91.69
363.429	84.69
363.656	99.69
363.882	83.69
364.109	83.69
364.335	85.69
364.562	86.69
364.788	89.69
365.015	107.69
365.241	90.69
365.468	106.69
365.694	91.69
365.92	88.69
366.147	97.69
366.373	92.69
366.599	76.69
366.826	94.69
367.052	76.69
367.278	79.69
367.505	75.69
367.731	84.69
367.957	98.69
368.184	93.69
368.41	86.69
368.636	98.69
368.862	112.69
369.089	95.69
369.315	90.69
369.541	98.69
369.767	73.69
369.993	78.69
370.219	79.69
370.445	92.69
370.672	96.69
370.898	99.69
371.124	90.69
371.35	96.69
371.576	91.69
371.802	82.69
372.028	80.69
372.254	86.69
372.48	87.69
372.706	75.69
372.932	80.69
373.158	88.69
373.384	78.69
373.61	99.69
373.835	87.69
374.061	89.69
374.287	95.69
374.513	90.69
374.739	89.69
374.965	90.69
375.191	75.69
375.416	107.69
375.642	96.69
375.868	86.69
376.094	94.69
376.319	91.69
376.545	82.69
376.771	90.69
376.997	86.69
377.222	79.69
377.448	90.69
377.674	81.69
377.899	85.69
378.125	70.69
378.35	100.69
378.576	91.69
378.802	80.69
379.027	98.69
379.253	88.69
379.478	95.69
379.704	84.69
379.929	89.69
380.155	99.69
380.38	98.69
380.606	101.69
380.831	89.69
381.057	97.69
381.282	91.69
381.507	91.69
381.733	89.69
381.958	104.69
382.184	91.69
382.409	106.69
382.634	78.69
382.86	95.69
383.085	105.69
383.31	103.69
383.535	96.69
383.761	110.69
383.986	103.69
384.211	98.69
384.436	92.69
384.662	95.69
384.887	87.69
385.112	102.69
385.337	110.69
385.562	120.69
385.787	108.69
386.013	121.69
386.238	104.69
386.463	99.69
386.688	107.69
386.913	100.69
387.138	99.69
387.363	106.69
387.588	108.69
387.813	103.69
388.038	90.69
388.263	106.69
388.488	117.69
388.713	104.69
388.938	93.69
389.163	86.69
389.387	103.69
389.612	96.69
389.837	78.69
390.062	87.69
390.287	84.69
390.512	93.69
390.736	93.69
390.961	96.69
391.186	77.69
391.411	87.69
391.636	85.69
391.86	93.69
392.085	68.69
392.31	92.69
392.534	69.69
392.759	87.69
392.984	89.69
393.208	84.69
393.433	79.69
393.658	81.69
393.882	73.69
394.107	92.69
394.331	87.69
394.556	90.69
394.78	86.69
395.005	85.69
395.229	87.69
395.454	78.69
395.678	85.69
395.903	92.69
396.127	100.69
396.352	80.69
396.576	85.69
396.801	83.69
397.025	89.69
397.249	96.69
397.474	73.69
397.698	72.69
397.922	77.69
398.147	75.69
398.371	93.69
398.595	85.69
398.82	80.69
399.044	78.69
399.268	87.69
399.492	77.69
399.717	81.69
399.941	84.69
400.165	91.69
400.389	72.69
400.613	77.69
400.837	84.69
401.062	83.69
401.286	88.69
401.51	81.69
401.734	94.69
401.958	100.69
402.182	113.69
402.406	122.69
402.63	110.69
402.854	87.69
403.078	82.69
403.302	75.69
403.526	84.69
403.75	69.69
403.974	83.69
404.198	84.69
404.422	88.69
404.645	99.69
404.869	89.69
405.093	79.69
405.317	95.69
405.541	106.69
405.765	104.69
405.988	107.69
406.212	150.69
406.436	169.69
406.66	123.69
406.883	83.69
407.107	91.69
407.331	74.69
407.555	89.69
407.778	77.69
408.002	94.69
408.226	86.69
408.449	87.69
408.673	85.69
408.896	96.69
409.12	87.69
409.344	72.69
409.567	81.69
409.791	87.69
410.014	85.69
410.238	87.69
410.461	92.69
410.685	83.69
410.908	92.69
411.132	98.69
411.355	110.69
411.578	85.69
411.802	76.69
412.025	90.69
412.249	82.69
412.472	86.69
412.695	82.69
412.919	72.69
413.142	91.69
413.365	87.69
413.589	81.69
413.812	90.69
414.035	86.69
414.258	94.69
414.482	90.69
414.705	84.69
414.928	77.69
415.151	76.69
415.374	98.69
415.597	79.69
415.821	72.69
416.044	82.69
416.267	77.69
416.49	68.69
416.713	81.69
416.936	79.69
417.159	79.69
417.382	84.69
417.605	93.69
417.828	98.69
418.051	86.69
418.274	85.69
418.497	82.69
418.72	88.69
418.943	85.69
419.166	77.69
419.389	87.69
419.611	88.69
419.834	86.69
420.057	95.69
420.28	86.69
420.503	72.69
420.726	80.69
420.948	83.69
421.171	92.69
421.394	99.69
421.617	87.69
421.839	87.69
422.062	92.69
422.285	104.69
422.507	92.69
422.73	105.69
422.953	91.69
423.175	90.69
423.398	77.69
423.621	92.69
423.843	97.69
424.066	86.69
424.288	82.69
424.511	93.69
424.733	93.69
424.956	92.69
425.178	94.69
425.401	88.69
425.623	89.69
425.846	89.69
426.068	91.69
426.291	82.69
426.513	77.69
426.735	98.69
426.958	87.69
427.18	96.69
427.402	130.69
427.625	143.69
427.847	104.69
428.069	94.69
428.292	85.69
428.514	82.69
428.736	90.69
428.958	87.69
429.181	79.69
429.403	76.69
429.625	71.69
429.847	98.69
430.069	82.69
430.292	60.69
430.514	84.69
430.736	81.69
430.958	85.69
431.18	74.69
431.402	76.69
431.624	84.69
431.846	71.69
432.068	80.69
432.29	77.69
432.512	91.69
432.734	71.69
432.956	91.69
433.178	93.69
433.4	102.69
433.622	81.69
433.844	84.69
434.066	99.69
434.287	91.69
434.509	79.69
434.731	72.69
434.953	100.69
435.175	84.69
435.397	82.69
435.618	80.69
435.84	79.69
436.062	114.69
436.284	94.69
436.505	90.69
436.727	109.69
436.949	101.69
437.17	100.69
437.392	97.69
437.614	93.69
437.835	101.69
438.057	84.69
438.278	100.69
438.5	92.69
438.721	114.69
438.943	91.69
439.165	80.69
439.386	90.69
439.608	86.69
439.829	86.69
440.05	107.69
440.272	127.69
440.493	99.69
440.715	96.69
440.936	86.69
441.158	76.69
441.379	78.69
441.6	108.69
441.822	81.69
442.043	94.69
442.264	92.69
442.486	105.69
442.707	96.69
442.928	103.69
443.149	125.69
443.371	105.69
443.592	112.69
443.813	114.69
444.034	111.69
444.255	86.69
444.476	84.69
444.698	74.69
444.919	89.69
445.14	134.69
445.361	92.69
445.582	104.69
445.803	118.69
446.024	124.69
446.245	122.69
446.466	116.69
446.687	90.69
446.908	91.69
447.129	74.69
447.35	76.69
447.571	102.69
447.792	85.69
448.013	91.69
448.234	102.69
448.455	84.69
448.675	89.69
448.896	93.69
449.117	97.69
449.338	94.69
449.559	125.69
449.779	120.69
450	95.69
450.221	85.69
450.442	89.69
450.662	72.69
450.883	86.69
451.104	111.69
451.324	88.69
451.545	90.69
451.766	80.69
451.986	88.69
452.207	86.69
452.428	93.69
452.648	104.69
452.869	99.69
453.089	95.69
453.31	106.69
453.53	97.69
453.751	85.69
453.971	84.69
454.192	101.69
454.412	90.69
454.633	84.69
454.853	84.69
455.073	84.69
455.294	84.69
455.514	91.69
455.734	86.69
455.955	89.69
456.175	96.69
456.395	90.69
456.616	77.69
456.836	71.69
457.056	75.69
457.276	98.69
457.497	77.69
457.717	82.69
457.937	87.69
458.157	87.69
458.377	79.69
458.598	106.69
458.818	127.69
459.038	132.69
459.258	101.69
459.478	80.69
459.698	92.69
459.918	79.69
460.138	80.69
460.358	79.69
460.578	88.69
460.798	82.69
461.018	78.69
461.238	87.69
461.458	84.69
461.678	83.69
461.898	78.69
462.118	88.69
462.338	72.69
462.558	69.69
462.777	78.69
462.997	72.69
463.217	86.69
463.437	85.69
463.657	88.69
463.876	88.69
464.096	96.69
464.316	79.69
464.536	87.69
464.755	88.69
464.975	90.69
465.195	130.69
465.414	139.69
465.634	87.69
465.854	79.69
466.073	75.69
466.293	83.69
466.512	95.69
466.732	75.69
466.951	81.69
467.171	100.69
467.391	100.69
467.61	95.69
467.829	83.69
468.049	72.69
468.268	84.69
468.488	75.69
468.707	66.69
468.927	83.69
469.146	72.69
469.365	79.69
469.585	68.69
469.804	92.69
470.023	93.69
470.243	88.69
470.462	100.69
470.681	96.69
470.901	89.69
471.12	85.69
471.339	77.69
471.558	91.69
471.777	74.69
471.997	87.69
472.216	103.69
472.435	123.69
472.654	95.69
472.873	84.69
473.092	82.69
473.311	80.69
473.53	83.69
473.749	74.69
473.968	94.69
474.187	95.69
474.406	80.69
474.625	79.69
474.844	79.69
475.063	74.69
475.282	84.69
475.501	82.69
475.72	99.69
475.939	79.69
476.158	87.69
476.377	107.69
476.596	80.69
476.814	100.69
477.033	90.69
477.252	92.69
477.471	84.69
477.69	97.69
477.908	95.69
478.127	87.69
478.346	92.69
478.564	76.69
478.783	87.69
479.002	100.69
479.22	90.69
479.439	92.69
479.658	92.69
479.876	103.69
480.095	82.69
480.313	80.69
480.532	87.69
480.751	92.69
480.969	113.69
481.188	165.69
481.406	144.69
481.624	93.69
481.843	92.69
482.061	85.69
482.28	87.69
482.498	83.69
482.717	85.69
482.935	104.69
483.153	90.69
483.372	86.69
483.59	79.69
483.808	84.69
484.027	94.69
484.245	80.69
484.463	96.69
484.681	95.69
484.9	82.69
485.118	87.69
485.336	89.69
485.554	95.69
485.772	114.69
485.99	112.69
486.209	100.69
486.427	102.69
486.645	81.69
486.863	98.69
487.081	76.69
487.299	85.69
487.517	91.69
487.735	104.69
487.953	80.69
488.171	87.69
488.389	91.69
488.607	84.69
488.825	85.69
489.043	77.69
489.261	90.69
489.479	79.69
489.696	86.69
489.914	79.69
490.132	88.69
490.35	84.69
490.568	86.69
490.786	79.69
491.003	73.69
491.221	83.69
491.439	96.69
491.657	87.69
491.874	96.69
492.092	106.69
492.31	92.69
492.527	82.69
492.745	86.69
492.963	95.69
493.18	86.69
493.398	90.69
493.615	96.69
493.833	94.69
494.05	87.69
494.268	86.69
494.485	78.69
494.703	87.69
494.92	91.69
495.138	83.69
495.355	100.69
495.573	77.69
495.79	105.69
496.008	80.69
496.225	89.69
496.442	80.69
496.66	89.69
496.877	87.69
497.094	102.69
497.312	81.69
497.529	86.69
497.746	85.69
497.963	79.69
498.181	93.69
498.398	91.69
498.615	103.69
498.832	100.69
499.049	81.69
499.267	81.69
499.484	85.69
499.701	91.69
499.918	86.69
500.135	96.69
500.352	84.69
500.569	98.69
500.786	111.69
501.003	83.69
501.22	84.69
501.437	93.69
501.654	92.69
501.871	84.69
502.088	106.69
502.305	100.69
502.522	89.69
502.739	91.69
502.956	108.69
503.172	94.69
503.389	80.69
503.606	94.69
503.823	83.69
504.04	71.69
504.256	85.69
504.473	68.69
504.69	88.69
504.907	96.69
505.123	96.69
505.34	101.69
505.557	82.69
505.773	103.69
505.99	86.69
506.207	87.69
506.423	98.69
506.64	85.69
506.856	82.69
507.073	93.69
507.289	101.69
507.506	80.69
507.722	93.69
507.939	109.69
508.155	86.69
508.372	77.69
508.588	97.69
508.805	112.69
509.021	93.69
509.238	99.69
509.454	96.69
509.67	88.69
509.887	114.69
510.103	132.69
510.319	180.69
510.536	569.69
510.752	1714.69
510.968	510.69
511.184	121.69
511.401	97.69
511.617	93.69
511.833	91.69
512.049	80.69
512.265	84.69
512.481	93.69
512.698	86.69
512.914	80.69
513.13	84.69
513.346	78.69
513.562	89.69
513.778	100.69
513.994	93.69
514.21	112.69
514.426	116.69
514.642	128.69
514.858	109.69
515.074	122.69
515.29	356.69
515.506	1100.69
515.721	431.69
515.937	140.69
516.153	103.69
516.369	83.69
516.585	89.69
516.801	83.69
