Data from Uncirc_2009_H10_HRD10591_00064.txt Node
Date: Wed Jan 03 10:12:14 EST 2024
User: Yrep
Spectrometer: HR+D1059
Trigger mode: 1
Integration Time (sec): 1.000000E-1
Scans to average: 1
Electric dark correction enabled: true
Nonlinearity correction enabled: false
Boxcar width: 0
XAxis mode: Wavelengths
Number of Pixels in Spectrum: 2048
>>>>>Begin Spectral Data<<<<<
223.165	-6.38
223.4	-6.38
223.635	-6.38
223.869	-14.38
224.104	-25.38
224.338	-32.38
224.573	-0.38
224.808	-6.38
225.042	-22.38
225.277	-12.38
225.511	-6.38
225.746	10.62
225.98	7.62
226.215	10.62
226.449	13.62
226.683	13.62
226.918	34.62
227.152	35.62
227.387	37.62
227.621	38.62
227.856	55.62
228.09	47.62
228.324	52.62
228.559	56.62
228.793	61.62
229.027	70.62
229.262	69.62
229.496	71.62
229.73	71.62
229.964	74.62
230.199	71.62
230.433	81.62
230.667	81.62
230.901	63.62
231.136	78.62
231.37	86.62
231.604	86.62
231.838	88.62
232.072	93.62
232.306	86.62
232.541	107.62
232.775	76.62
233.009	76.62
233.243	65.62
233.477	64.62
233.711	64.62
233.945	74.62
234.179	64.62
234.413	88.62
234.647	75.62
234.881	80.62
235.115	79.62
235.349	74.62
235.583	66.62
235.817	81.62
236.051	76.62
236.285	92.62
236.519	93.62
236.753	72.62
236.987	87.62
237.221	74.62
237.455	78.62
237.689	76.62
237.922	79.62
238.156	68.62
238.39	83.62
238.624	76.62
238.858	87.62
239.091	72.62
239.325	78.62
239.559	82.62
239.793	74.62
240.027	90.62
240.26	91.62
240.494	69.62
240.728	89.62
240.961	78.62
241.195	74.62
241.429	80.62
241.662	70.62
241.896	78.62
242.13	86.62
242.363	71.62
242.597	79.62
242.83	76.62
243.064	78.62
243.298	88.62
243.531	73.62
243.765	70.62
243.998	86.62
244.232	74.62
244.465	78.62
244.699	86.62
244.932	78.62
245.166	69.62
245.399	75.62
245.633	75.62
245.866	73.62
246.099	91.62
246.333	85.62
246.566	85.62
246.8	73.62
247.033	76.62
247.266	72.62
247.5	77.62
247.733	70.62
247.966	70.62
248.2	78.62
248.433	75.62
248.666	88.62
248.899	79.62
249.133	88.62
249.366	81.62
249.599	82.62
249.832	77.62
250.066	84.62
250.299	81.62
250.532	71.62
250.765	81.62
250.998	73.62
251.231	75.62
251.465	73.62
251.698	72.62
251.931	86.62
252.164	76.62
252.397	82.62
252.63	72.62
252.863	72.62
253.096	55.62
253.329	94.62
253.562	67.62
253.795	77.62
254.028	76.62
254.261	72.62
254.494	77.62
254.727	85.62
254.96	77.62
255.193	80.62
255.426	79.62
255.659	97.62
255.892	81.62
256.124	76.62
256.357	71.62
256.59	85.62
256.823	92.62
257.056	73.62
257.289	78.62
257.521	86.62
257.754	84.62
257.987	80.62
258.22	81.62
258.452	91.62
258.685	92.62
258.918	67.62
259.151	81.62
259.383	88.62
259.616	81.62
259.849	92.62
260.081	87.62
260.314	85.62
260.547	86.62
260.779	92.62
261.012	87.62
261.244	85.62
261.477	85.62
261.71	80.62
261.942	103.62
262.175	106.62
262.407	85.62
262.64	89.62
262.872	89.62
263.105	56.62
263.337	85.62
263.57	86.62
263.802	91.62
264.035	75.62
264.267	82.62
264.499	84.62
264.732	90.62
264.964	85.62
265.197	87.62
265.429	80.62
265.661	63.62
265.894	80.62
266.126	70.62
266.358	87.62
266.591	84.62
266.823	103.62
267.055	87.62
267.287	69.62
267.52	100.62
267.752	89.62
267.984	87.62
268.216	84.62
268.448	88.62
268.681	78.62
268.913	72.62
269.145	70.62
269.377	81.62
269.609	93.62
269.841	85.62
270.073	84.62
270.306	77.62
270.538	78.62
270.77	84.62
271.002	88.62
271.234	80.62
271.466	86.62
271.698	81.62
271.93	86.62
272.162	85.62
272.394	79.62
272.626	82.62
272.858	73.62
273.09	72.62
273.322	84.62
273.553	84.62
273.785	103.62
274.017	75.62
274.249	91.62
274.481	87.62
274.713	89.62
274.945	70.62
275.176	77.62
275.408	85.62
275.64	77.62
275.872	87.62
276.104	87.62
276.335	93.62
276.567	94.62
276.799	99.62
277.031	89.62
277.262	86.62
277.494	79.62
277.726	71.62
277.957	80.62
278.189	81.62
278.421	78.62
278.652	84.62
278.884	75.62
279.115	83.62
279.347	82.62
279.579	87.62
279.81	87.62
280.042	88.62
280.273	86.62
280.505	71.62
280.736	73.62
280.968	78.62
281.199	97.62
281.431	76.62
281.662	78.62
281.894	82.62
282.125	96.62
282.356	92.62
282.588	121.62
282.819	120.62
283.051	85.62
283.282	85.62
283.513	102.62
283.745	89.62
283.976	99.62
284.207	103.62
284.439	87.62
284.67	101.62
284.901	88.62
285.132	85.62
285.364	84.62
285.595	86.62
285.826	92.62
286.057	87.62
286.288	89.62
286.52	104.62
286.751	100.62
286.982	98.62
287.213	99.62
287.444	97.62
287.675	68.62
287.906	87.62
288.138	92.62
288.369	84.62
288.6	81.62
288.831	91.62
289.062	91.62
289.293	78.62
289.524	81.62
289.755	79.62
289.986	78.62
290.217	88.62
290.448	74.62
290.679	77.62
290.91	84.62
291.141	85.62
291.371	90.62
291.602	91.62
291.833	82.62
292.064	79.62
292.295	95.62
292.526	89.62
292.757	66.62
292.987	74.62
293.218	85.62
293.449	80.62
293.68	90.62
293.91	76.62
294.141	90.62
294.372	86.62
294.603	95.62
294.833	66.62
295.064	81.62
295.295	85.62
295.525	102.62
295.756	97.62
295.987	103.62
296.217	118.62
296.448	104.62
296.679	84.62
296.909	85.62
297.14	90.62
297.37	104.62
297.601	97.62
297.831	95.62
298.062	87.62
298.292	96.62
298.523	87.62
298.753	106.62
298.984	85.62
299.214	94.62
299.445	89.62
299.675	71.62
299.905	90.62
300.136	71.62
300.366	82.62
300.597	91.62
300.827	87.62
301.057	90.62
301.288	93.62
301.518	91.62
301.748	87.62
301.979	86.62
302.209	81.62
302.439	88.62
302.669	92.62
302.9	87.62
303.13	98.62
303.36	95.62
303.59	112.62
303.82	125.62
304.051	102.62
304.281	88.62
304.511	94.62
304.741	81.62
304.971	93.62
305.201	99.62
305.431	86.62
305.661	79.62
305.891	74.62
306.121	100.62
306.352	111.62
306.582	101.62
306.812	102.62
307.042	90.62
307.272	84.62
307.502	86.62
307.731	95.62
307.961	87.62
308.191	89.62
308.421	84.62
308.651	77.62
308.881	84.62
309.111	82.62
309.341	78.62
309.571	86.62
309.8	88.62
310.03	78.62
310.26	96.62
310.49	96.62
310.72	89.62
310.949	100.62
311.179	92.62
311.409	85.62
311.639	92.62
311.868	101.62
312.098	92.62
312.328	103.62
312.557	99.62
312.787	86.62
313.017	88.62
313.246	108.62
313.476	95.62
313.706	92.62
313.935	86.62
314.165	92.62
314.394	94.62
314.624	100.62
314.853	93.62
315.083	94.62
315.312	98.62
315.542	94.62
315.771	95.62
316.001	84.62
316.23	99.62
316.46	99.62
316.689	97.62
316.919	96.62
317.148	102.62
317.377	107.62
317.607	115.62
317.836	99.62
318.065	100.62
318.295	101.62
318.524	93.62
318.753	86.62
318.983	89.62
319.212	84.62
319.441	97.62
319.67	85.62
319.9	75.62
320.129	83.62
320.358	84.62
320.587	92.62
320.816	111.62
321.046	102.62
321.275	97.62
321.504	107.62
321.733	95.62
321.962	96.62
322.191	93.62
322.42	107.62
322.649	106.62
322.878	87.62
323.108	101.62
323.337	115.62
323.566	135.62
323.795	146.62
324.024	196.62
324.253	334.62
324.482	663.62
324.71	1348.62
324.939	1791.62
325.168	673.62
325.397	201.62
325.626	127.62
325.855	129.62
326.084	144.62
326.313	152.62
326.542	149.62
326.77	195.62
326.999	398.62
327.228	780.62
327.457	1400.62
327.686	1107.62
327.914	317.62
328.143	168.62
328.372	119.62
328.6	120.62
328.829	92.62
329.058	106.62
329.287	112.62
329.515	110.62
329.744	96.62
329.972	102.62
330.201	86.62
330.43	113.62
330.658	101.62
330.887	119.62
331.115	99.62
331.344	91.62
331.572	88.62
331.801	83.62
332.03	89.62
332.258	82.62
332.486	76.62
332.715	90.62
332.943	90.62
333.172	107.62
333.4	102.62
333.629	98.62
333.857	94.62
334.085	107.62
334.314	105.62
334.542	140.62
334.771	115.62
334.999	93.62
335.227	96.62
335.455	99.62
335.684	110.62
335.912	87.62
336.14	90.62
336.369	76.62
336.597	91.62
336.825	90.62
337.053	87.62
337.281	89.62
337.51	89.62
337.738	102.62
337.966	94.62
338.194	100.62
338.422	97.62
338.65	78.62
338.878	96.62
339.106	89.62
339.334	102.62
339.562	78.62
339.79	86.62
340.018	97.62
340.246	69.62
340.474	105.62
340.702	94.62
340.93	94.62
341.158	112.62
341.386	101.62
341.614	100.62
341.842	86.62
342.07	88.62
342.298	95.62
342.526	85.62
342.754	93.62
342.981	84.62
343.209	95.62
343.437	95.62
343.665	89.62
343.893	103.62
344.12	80.62
344.348	84.62
344.576	89.62
344.804	101.62
345.031	89.62
345.259	86.62
345.487	104.62
345.714	94.62
345.942	97.62
346.17	89.62
346.397	85.62
346.625	91.62
346.853	81.62
347.08	90.62
347.308	89.62
347.535	97.62
347.763	96.62
347.99	95.62
348.218	99.62
348.445	100.62
348.673	95.62
348.9	89.62
349.128	86.62
349.355	89.62
349.583	87.62
349.81	103.62
350.037	108.62
350.265	88.62
350.492	89.62
350.72	88.62
350.947	102.62
351.174	102.62
351.402	110.62
351.629	99.62
351.856	102.62
352.083	81.62
352.311	100.62
352.538	99.62
352.765	100.62
352.992	108.62
353.22	111.62
353.447	108.62
353.674	92.62
353.901	103.62
354.128	97.62
354.355	86.62
354.583	96.62
354.81	96.62
355.037	97.62
355.264	99.62
355.491	100.62
355.718	96.62
355.945	93.62
356.172	96.62
356.399	108.62
356.626	95.62
356.853	109.62
357.08	92.62
357.307	103.62
357.534	95.62
357.761	88.62
357.988	80.62
358.215	94.62
358.441	84.62
358.668	74.62
358.895	72.62
359.122	79.62
359.349	91.62
359.576	76.62
359.802	90.62
360.029	87.62
360.256	100.62
360.483	89.62
360.709	85.62
360.936	95.62
361.163	91.62
361.39	79.62
361.616	103.62
361.843	92.62
362.07	87.62
362.296	94.62
362.523	94.62
362.749	92.62
362.976	79.62
363.203	89.62
363.429	78.62
363.656	86.62
363.882	65.62
364.109	98.62
364.335	92.62
364.562	83.62
364.788	86.62
365.015	93.62
365.241	95.62
365.468	87.62
365.694	91.62
365.92	87.62
366.147	101.62
366.373	88.62
366.599	97.62
366.826	89.62
367.052	92.62
367.278	80.62
367.505	78.62
367.731	97.62
367.957	83.62
368.184	99.62
368.41	97.62
368.636	108.62
368.862	96.62
369.089	101.62
369.315	96.62
369.541	93.62
369.767	82.62
369.993	85.62
370.219	81.62
370.445	90.62
370.672	87.62
370.898	100.62
371.124	76.62
371.35	87.62
371.576	71.62
371.802	83.62
372.028	78.62
372.254	77.62
372.48	90.62
372.706	88.62
372.932	90.62
373.158	79.62
373.384	84.62
373.61	79.62
373.835	97.62
374.061	91.62
374.287	100.62
374.513	79.62
374.739	90.62
374.965	92.62
375.191	88.62
375.416	96.62
375.642	80.62
375.868	91.62
376.094	90.62
376.319	97.62
376.545	81.62
376.771	91.62
376.997	88.62
377.222	84.62
377.448	88.62
377.674	91.62
377.899	98.62
378.125	87.62
378.35	103.62
378.576	79.62
378.802	99.62
379.027	91.62
379.253	102.62
379.478	102.62
379.704	105.62
379.929	101.62
380.155	90.62
380.38	93.62
380.606	103.62
380.831	100.62
381.057	99.62
381.282	81.62
381.507	83.62
381.733	92.62
381.958	92.62
382.184	96.62
382.409	108.62
382.634	102.62
382.86	102.62
383.085	109.62
383.31	96.62
383.535	95.62
383.761	87.62
383.986	85.62
384.211	104.62
384.436	83.62
384.662	99.62
384.887	111.62
385.112	89.62
385.337	102.62
385.562	85.62
385.787	95.62
386.013	110.62
386.238	103.62
386.463	109.62
386.688	104.62
386.913	97.62
387.138	92.62
387.363	97.62
387.588	105.62
387.813	99.62
388.038	106.62
388.263	105.62
388.488	110.62
388.713	91.62
388.938	94.62
389.163	118.62
389.387	92.62
389.612	83.62
389.837	86.62
390.062	91.62
390.287	100.62
390.512	93.62
390.736	82.62
390.961	75.62
391.186	94.62
391.411	86.62
391.636	96.62
391.86	92.62
392.085	82.62
392.31	78.62
392.534	80.62
392.759	77.62
392.984	84.62
393.208	94.62
393.433	90.62
393.658	83.62
393.882	75.62
394.107	86.62
394.331	81.62
394.556	70.62
394.78	111.62
395.005	92.62
395.229	96.62
395.454	75.62
395.678	77.62
395.903	104.62
396.127	100.62
396.352	86.62
396.576	88.62
396.801	105.62
397.025	83.62
397.249	91.62
397.474	85.62
397.698	81.62
397.922	80.62
398.147	81.62
398.371	80.62
398.595	93.62
398.82	83.62
399.044	84.62
399.268	88.62
399.492	93.62
399.717	87.62
399.941	79.62
400.165	92.62
400.389	90.62
400.613	77.62
400.837	89.62
401.062	99.62
401.286	104.62
401.51	92.62
401.734	100.62
401.958	92.62
402.182	112.62
402.406	108.62
402.63	115.62
402.854	96.62
403.078	87.62
403.302	78.62
403.526	89.62
403.75	85.62
403.974	86.62
404.198	100.62
404.422	86.62
404.645	97.62
404.869	70.62
405.093	73.62
405.317	93.62
405.541	93.62
405.765	94.62
405.988	125.62
406.212	133.62
406.436	151.62
406.66	120.62
406.883	80.62
407.107	102.62
407.331	92.62
407.555	91.62
407.778	96.62
408.002	100.62
408.226	88.62
408.449	88.62
408.673	94.62
408.896	103.62
409.12	93.62
409.344	88.62
409.567	83.62
409.791	86.62
410.014	86.62
410.238	72.62
410.461	85.62
410.685	104.62
410.908	79.62
411.132	111.62
411.355	84.62
411.578	93.62
411.802	96.62
412.025	95.62
412.249	95.62
412.472	94.62
412.695	93.62
412.919	99.62
413.142	95.62
413.365	80.62
413.589	88.62
413.812	96.62
414.035	100.62
414.258	77.62
414.482	87.62
414.705	106.62
414.928	103.62
415.151	101.62
415.374	89.62
415.597	93.62
415.821	91.62
416.044	103.62
416.267	88.62
416.49	103.62
416.713	99.62
416.936	75.62
417.159	89.62
417.382	93.62
417.605	80.62
417.828	90.62
418.051	88.62
418.274	91.62
418.497	79.62
418.72	103.62
418.943	85.62
419.166	76.62
419.389	84.62
419.611	88.62
419.834	81.62
420.057	79.62
420.28	89.62
420.503	85.62
420.726	86.62
420.948	93.62
421.171	100.62
421.394	88.62
421.617	89.62
421.839	90.62
422.062	90.62
422.285	88.62
422.507	102.62
422.73	98.62
422.953	101.62
423.175	86.62
423.398	80.62
423.621	84.62
423.843	91.62
424.066	89.62
424.288	90.62
424.511	96.62
424.733	87.62
424.956	92.62
425.178	95.62
425.401	91.62
425.623	88.62
425.846	80.62
426.068	88.62
426.291	110.62
426.513	94.62
426.735	79.62
426.958	83.62
427.18	95.62
427.402	121.62
427.625	135.62
427.847	112.62
428.069	105.62
428.292	81.62
428.514	78.62
428.736	91.62
428.958	84.62
429.181	86.62
429.403	75.62
429.625	87.62
429.847	91.62
430.069	109.62
430.292	85.62
430.514	75.62
430.736	82.62
430.958	76.62
431.18	87.62
431.402	92.62
431.624	92.62
431.846	97.62
432.068	88.62
432.29	88.62
432.512	79.62
432.734	84.62
432.956	90.62
433.178	98.62
433.4	88.62
433.622	90.62
433.844	104.62
434.066	99.62
434.287	84.62
434.509	79.62
434.731	93.62
434.953	85.62
435.175	91.62
435.397	87.62
435.618	79.62
435.84	98.62
436.062	105.62
436.284	109.62
436.505	89.62
436.727	97.62
436.949	103.62
437.17	86.62
437.392	92.62
437.614	88.62
437.835	103.62
438.057	96.62
438.278	98.62
438.5	93.62
438.721	107.62
438.943	98.62
439.165	77.62
439.386	82.62
439.608	85.62
439.829	109.62
440.05	111.62
440.272	119.62
440.493	91.62
440.715	100.62
440.936	75.62
441.158	89.62
441.379	85.62
441.6	92.62
441.822	79.62
442.043	90.62
442.264	91.62
442.486	86.62
442.707	82.62
442.928	84.62
443.149	105.62
443.371	112.62
443.592	102.62
443.813	117.62
444.034	111.62
444.255	86.62
444.476	83.62
444.698	79.62
444.919	84.62
445.14	126.62
445.361	100.62
445.582	107.62
445.803	117.62
446.024	104.62
446.245	119.62
446.466	96.62
446.687	89.62
446.908	91.62
447.129	80.62
447.35	94.62
447.571	86.62
447.792	93.62
448.013	91.62
448.234	93.62
448.455	79.62
448.675	109.62
448.896	103.62
449.117	89.62
449.338	93.62
449.559	118.62
449.779	119.62
450	97.62
450.221	80.62
450.442	104.62
450.662	87.62
450.883	99.62
451.104	93.62
451.324	99.62
451.545	86.62
451.766	92.62
451.986	101.62
452.207	90.62
452.428	89.62
452.648	85.62
452.869	108.62
453.089	96.62
453.31	102.62
453.53	93.62
453.751	92.62
453.971	86.62
454.192	98.62
454.412	89.62
454.633	79.62
454.853	93.62
455.073	83.62
455.294	79.62
455.514	90.62
455.734	100.62
455.955	90.62
456.175	81.62
456.395	97.62
456.616	102.62
456.836	82.62
457.056	92.62
457.276	87.62
457.497	89.62
457.717	75.62
457.937	77.62
458.157	81.62
458.377	81.62
458.598	86.62
458.818	117.62
459.038	122.62
459.258	97.62
459.478	98.62
459.698	85.62
459.918	82.62
460.138	81.62
460.358	76.62
460.578	76.62
460.798	88.62
461.018	90.62
461.238	86.62
461.458	77.62
461.678	82.62
461.898	87.62
462.118	80.62
462.338	88.62
462.558	89.62
462.777	83.62
462.997	89.62
463.217	78.62
463.437	89.62
463.657	80.62
463.876	74.62
464.096	81.62
464.316	94.62
464.536	96.62
464.755	96.62
464.975	94.62
465.195	128.62
465.414	131.62
465.634	107.62
465.854	92.62
466.073	98.62
466.293	92.62
466.512	74.62
466.732	82.62
466.951	103.62
467.171	99.62
467.391	83.62
467.61	105.62
467.829	95.62
468.049	97.62
468.268	115.62
468.488	91.62
468.707	90.62
468.927	83.62
469.146	72.62
469.365	89.62
469.585	95.62
469.804	93.62
470.023	97.62
470.243	87.62
470.462	97.62
470.681	91.62
470.901	87.62
471.12	99.62
471.339	90.62
471.558	81.62
471.777	75.62
471.997	80.62
472.216	107.62
472.435	131.62
472.654	88.62
472.873	84.62
473.092	76.62
473.311	82.62
473.53	77.62
473.749	95.62
473.968	84.62
474.187	94.62
474.406	95.62
474.625	94.62
474.844	77.62
475.063	92.62
475.282	88.62
475.501	86.62
475.72	111.62
475.939	89.62
476.158	93.62
476.377	87.62
476.596	103.62
476.814	62.62
477.033	89.62
477.252	102.62
477.471	88.62
477.69	85.62
477.908	86.62
478.127	91.62
478.346	82.62
478.564	95.62
478.783	96.62
479.002	82.62
479.22	89.62
479.439	96.62
479.658	99.62
479.876	87.62
480.095	91.62
480.313	87.62
480.532	97.62
480.751	88.62
480.969	109.62
481.188	155.62
481.406	129.62
481.624	90.62
481.843	89.62
482.061	85.62
482.28	86.62
482.498	75.62
482.717	91.62
482.935	93.62
483.153	105.62
483.372	92.62
483.59	88.62
483.808	94.62
484.027	87.62
484.245	97.62
484.463	93.62
484.681	100.62
484.9	96.62
485.118	101.62
485.336	92.62
485.554	88.62
485.772	105.62
485.99	99.62
486.209	97.62
486.427	99.62
486.645	123.62
486.863	119.62
487.081	100.62
487.299	99.62
487.517	92.62
487.735	92.62
487.953	99.62
488.171	92.62
488.389	99.62
488.607	94.62
488.825	86.62
489.043	81.62
489.261	79.62
489.479	94.62
489.696	86.62
489.914	89.62
490.132	88.62
490.35	77.62
490.568	92.62
490.786	72.62
491.003	117.62
491.221	95.62
491.439	87.62
491.657	89.62
491.874	104.62
492.092	77.62
492.31	77.62
492.527	89.62
492.745	79.62
492.963	86.62
493.18	98.62
493.398	94.62
493.615	106.62
493.833	89.62
494.05	90.62
494.268	90.62
494.485	90.62
494.703	85.62
494.92	92.62
495.138	106.62
495.355	97.62
495.573	81.62
495.79	91.62
496.008	74.62
496.225	82.62
496.442	91.62
496.66	89.62
496.877	71.62
497.094	87.62
497.312	86.62
497.529	90.62
497.746	100.62
497.963	91.62
498.181	80.62
498.398	81.62
498.615	116.62
498.832	90.62
499.049	92.62
499.267	86.62
499.484	74.62
499.701	81.62
499.918	109.62
500.135	87.62
500.352	82.62
500.569	95.62
500.786	95.62
501.003	92.62
501.22	92.62
501.437	86.62
501.654	93.62
501.871	115.62
502.088	96.62
502.305	92.62
502.522	93.62
502.739	95.62
502.956	76.62
503.172	84.62
503.389	98.62
503.606	92.62
503.823	108.62
504.04	95.62
504.256	84.62
504.473	93.62
504.69	81.62
504.907	74.62
505.123	87.62
505.34	99.62
505.557	86.62
505.773	90.62
505.99	80.62
506.207	93.62
506.423	94.62
506.64	83.62
506.856	91.62
507.073	93.62
507.289	92.62
507.506	84.62
507.722	98.62
507.939	101.62
508.155	108.62
508.372	95.62
508.588	89.62
508.805	79.62
509.021	84.62
509.238	94.62
509.454	103.62
509.67	103.62
509.887	103.62
510.103	104.62
510.319	162.62
510.536	538.62
510.752	1639.62
510.968	504.62
511.184	131.62
511.401	108.62
511.617	100.62
511.833	79.62
512.049	86.62
512.265	95.62
512.481	106.62
512.698	91.62
512.914	97.62
513.13	92.62
513.346	99.62
513.562	103.62
513.778	96.62
513.994	99.62
514.21	81.62
514.426	106.62
514.642	107.62
514.858	93.62
515.074	134.62
515.29	321.62
515.506	939.62
515.721	374.62
515.937	115.62
516.153	104.62
516.369	86.62
