Data from Uncirc_2009_H10_HRD10591_00044.txt Node
Date: Wed Jan 03 10:12:10 EST 2024
User: Yrep
Spectrometer: HR+D1059
Trigger mode: 1
Integration Time (sec): 1.000000E-1
Scans to average: 1
Electric dark correction enabled: true
Nonlinearity correction enabled: false
Boxcar width: 0
XAxis mode: Wavelengths
Number of Pixels in Spectrum: 2048
>>>>>Begin Spectral Data<<<<<
223.165	-19.25
223.4	-19.25
223.635	-19.25
223.869	-22.25
224.104	-27.25
224.338	-16.25
224.573	-15.25
224.808	-9.25
225.042	-15.25
225.277	-12.25
225.511	1.75
225.746	6.75
225.98	5.75
226.215	21.75
226.449	17.75
226.683	12.75
226.918	31.75
227.152	38.75
227.387	47.75
227.621	42.75
227.856	42.75
228.09	46.75
228.324	67.75
228.559	53.75
228.793	78.75
229.027	64.75
229.262	75.75
229.496	69.75
229.73	75.75
229.964	80.75
230.199	85.75
230.433	78.75
230.667	76.75
230.901	87.75
231.136	70.75
231.37	73.75
231.604	71.75
231.838	81.75
232.072	82.75
232.306	71.75
232.541	79.75
232.775	78.75
233.009	83.75
233.243	90.75
233.477	78.75
233.711	88.75
233.945	75.75
234.179	88.75
234.413	77.75
234.647	69.75
234.881	78.75
235.115	72.75
235.349	63.75
235.583	77.75
235.817	67.75
236.051	81.75
236.285	67.75
236.519	75.75
236.753	69.75
236.987	87.75
237.221	71.75
237.455	85.75
237.689	69.75
237.922	82.75
238.156	84.75
238.39	87.75
238.624	72.75
238.858	85.75
239.091	79.75
239.325	69.75
239.559	70.75
239.793	83.75
240.027	73.75
240.26	72.75
240.494	68.75
240.728	77.75
240.961	73.75
241.195	80.75
241.429	64.75
241.662	86.75
241.896	64.75
242.13	76.75
242.363	74.75
242.597	81.75
242.83	79.75
243.064	80.75
243.298	80.75
243.531	72.75
243.765	77.75
243.998	77.75
244.232	82.75
244.465	77.75
244.699	79.75
244.932	91.75
245.166	64.75
245.399	77.75
245.633	75.75
245.866	68.75
246.099	72.75
246.333	80.75
246.566	72.75
246.8	73.75
247.033	71.75
247.266	83.75
247.5	82.75
247.733	83.75
247.966	80.75
248.2	71.75
248.433	77.75
248.666	65.75
248.899	69.75
249.133	87.75
249.366	97.75
249.599	89.75
249.832	78.75
250.066	85.75
250.299	76.75
250.532	85.75
250.765	76.75
250.998	83.75
251.231	83.75
251.465	73.75
251.698	72.75
251.931	84.75
252.164	71.75
252.397	80.75
252.63	83.75
252.863	89.75
253.096	80.75
253.329	70.75
253.562	75.75
253.795	84.75
254.028	92.75
254.261	88.75
254.494	88.75
254.727	88.75
254.96	91.75
255.193	72.75
255.426	79.75
255.659	76.75
255.892	74.75
256.124	86.75
256.357	73.75
256.59	86.75
256.823	92.75
257.056	80.75
257.289	73.75
257.521	73.75
257.754	80.75
257.987	73.75
258.22	77.75
258.452	81.75
258.685	85.75
258.918	89.75
259.151	71.75
259.383	81.75
259.616	92.75
259.849	88.75
260.081	94.75
260.314	84.75
260.547	88.75
260.779	76.75
261.012	81.75
261.244	91.75
261.477	77.75
261.71	96.75
261.942	100.75
262.175	102.75
262.407	84.75
262.64	86.75
262.872	84.75
263.105	89.75
263.337	78.75
263.57	73.75
263.802	84.75
264.035	83.75
264.267	78.75
264.499	88.75
264.732	84.75
264.964	84.75
265.197	82.75
265.429	85.75
265.661	86.75
265.894	72.75
266.126	87.75
266.358	80.75
266.591	102.75
266.823	78.75
267.055	82.75
267.287	78.75
267.52	86.75
267.752	85.75
267.984	92.75
268.216	81.75
268.448	87.75
268.681	90.75
268.913	82.75
269.145	83.75
269.377	87.75
269.609	75.75
269.841	77.75
270.073	76.75
270.306	87.75
270.538	96.75
270.77	88.75
271.002	93.75
271.234	85.75
271.466	76.75
271.698	79.75
271.93	82.75
272.162	86.75
272.394	89.75
272.626	85.75
272.858	92.75
273.09	78.75
273.322	88.75
273.553	63.75
273.785	69.75
274.017	103.75
274.249	95.75
274.481	93.75
274.713	91.75
274.945	80.75
275.176	97.75
275.408	84.75
275.64	86.75
275.872	74.75
276.104	92.75
276.335	94.75
276.567	88.75
276.799	95.75
277.031	90.75
277.262	99.75
277.494	82.75
277.726	101.75
277.957	93.75
278.189	71.75
278.421	95.75
278.652	83.75
278.884	86.75
279.115	90.75
279.347	84.75
279.579	90.75
279.81	80.75
280.042	77.75
280.273	89.75
280.505	69.75
280.736	79.75
280.968	92.75
281.199	90.75
281.431	85.75
281.662	91.75
281.894	80.75
282.125	89.75
282.356	97.75
282.588	115.75
282.819	108.75
283.051	85.75
283.282	78.75
283.513	92.75
283.745	87.75
283.976	94.75
284.207	83.75
284.439	88.75
284.67	79.75
284.901	95.75
285.132	76.75
285.364	81.75
285.595	89.75
285.826	98.75
286.057	87.75
286.288	80.75
286.52	92.75
286.751	74.75
286.982	87.75
287.213	92.75
287.444	89.75
287.675	86.75
287.906	88.75
288.138	81.75
288.369	88.75
288.6	96.75
288.831	97.75
289.062	77.75
289.293	93.75
289.524	81.75
289.755	87.75
289.986	84.75
290.217	90.75
290.448	88.75
290.679	92.75
290.91	96.75
291.141	74.75
291.371	80.75
291.602	83.75
291.833	80.75
292.064	86.75
292.295	87.75
292.526	81.75
292.757	96.75
292.987	95.75
293.218	85.75
293.449	70.75
293.68	87.75
293.91	80.75
294.141	90.75
294.372	79.75
294.603	88.75
294.833	86.75
295.064	86.75
295.295	92.75
295.525	92.75
295.756	105.75
295.987	96.75
296.217	122.75
296.448	106.75
296.679	89.75
296.909	84.75
297.14	80.75
297.37	89.75
297.601	85.75
297.831	84.75
298.062	89.75
298.292	100.75
298.523	93.75
298.753	88.75
298.984	74.75
299.214	79.75
299.445	84.75
299.675	91.75
299.905	90.75
300.136	87.75
300.366	91.75
300.597	90.75
300.827	104.75
301.057	100.75
301.288	107.75
301.518	96.75
301.748	90.75
301.979	89.75
302.209	86.75
302.439	102.75
302.669	87.75
302.9	102.75
303.13	87.75
303.36	98.75
303.59	112.75
303.82	110.75
304.051	102.75
304.281	104.75
304.511	93.75
304.741	92.75
304.971	85.75
305.201	93.75
305.431	97.75
305.661	87.75
305.891	95.75
306.121	84.75
306.352	86.75
306.582	87.75
306.812	95.75
307.042	92.75
307.272	99.75
307.502	87.75
307.731	83.75
307.961	73.75
308.191	88.75
308.421	91.75
308.651	101.75
308.881	89.75
309.111	101.75
309.341	93.75
309.571	96.75
309.8	98.75
310.03	99.75
310.26	97.75
310.49	95.75
310.72	97.75
310.949	87.75
311.179	88.75
311.409	88.75
311.639	79.75
311.868	115.75
312.098	96.75
312.328	102.75
312.557	104.75
312.787	88.75
313.017	95.75
313.246	100.75
313.476	90.75
313.706	92.75
313.935	92.75
314.165	85.75
314.394	90.75
314.624	95.75
314.853	91.75
315.083	88.75
315.312	79.75
315.542	87.75
315.771	95.75
316.001	98.75
316.23	96.75
316.46	91.75
316.689	82.75
316.919	93.75
317.148	107.75
317.377	108.75
317.607	110.75
317.836	104.75
318.065	96.75
318.295	86.75
318.524	87.75
318.753	94.75
318.983	76.75
319.212	93.75
319.441	97.75
319.67	93.75
319.9	91.75
320.129	81.75
320.358	102.75
320.587	80.75
320.816	105.75
321.046	101.75
321.275	91.75
321.504	97.75
321.733	84.75
321.962	99.75
322.191	107.75
322.42	96.75
322.649	105.75
322.878	117.75
323.108	113.75
323.337	127.75
323.566	134.75
323.795	144.75
324.024	182.75
324.253	341.75
324.482	736.75
324.71	1515.75
324.939	1967.75
325.168	746.75
325.397	213.75
325.626	142.75
325.855	125.75
326.084	138.75
326.313	136.75
326.542	169.75
326.77	222.75
326.999	421.75
327.228	844.75
327.457	1533.75
327.686	1210.75
327.914	343.75
328.143	164.75
328.372	141.75
328.6	117.75
328.829	101.75
329.058	131.75
329.287	126.75
329.515	97.75
329.744	107.75
329.972	110.75
330.201	110.75
330.43	116.75
330.658	122.75
330.887	112.75
331.115	122.75
331.344	106.75
331.572	106.75
331.801	93.75
332.03	97.75
332.258	97.75
332.486	97.75
332.715	93.75
332.943	78.75
333.172	91.75
333.4	88.75
333.629	104.75
333.857	110.75
334.085	100.75
334.314	101.75
334.542	108.75
334.771	119.75
334.999	104.75
335.227	107.75
335.455	90.75
335.684	95.75
335.912	91.75
336.14	104.75
336.369	92.75
336.597	86.75
336.825	100.75
337.053	110.75
337.281	82.75
337.51	87.75
337.738	84.75
337.966	74.75
338.194	94.75
338.422	82.75
338.65	79.75
338.878	96.75
339.106	90.75
339.334	88.75
339.562	88.75
339.79	71.75
340.018	79.75
340.246	84.75
340.474	93.75
340.702	96.75
340.93	99.75
341.158	83.75
341.386	88.75
341.614	89.75
341.842	90.75
342.07	102.75
342.298	88.75
342.526	87.75
342.754	89.75
342.981	88.75
343.209	63.75
343.437	105.75
343.665	91.75
343.893	99.75
344.12	75.75
344.348	96.75
344.576	80.75
344.804	84.75
345.031	90.75
345.259	99.75
345.487	99.75
345.714	94.75
345.942	84.75
346.17	91.75
346.397	101.75
346.625	89.75
346.853	83.75
347.08	100.75
347.308	93.75
347.535	95.75
347.763	108.75
347.99	100.75
348.218	90.75
348.445	92.75
348.673	93.75
348.9	93.75
349.128	100.75
349.355	88.75
349.583	95.75
349.81	103.75
350.037	91.75
350.265	95.75
350.492	91.75
350.72	93.75
350.947	103.75
351.174	105.75
351.402	108.75
351.629	108.75
351.856	103.75
352.083	88.75
352.311	99.75
352.538	106.75
352.765	103.75
352.992	111.75
353.22	92.75
353.447	102.75
353.674	106.75
353.901	116.75
354.128	94.75
354.355	87.75
354.583	96.75
354.81	96.75
355.037	80.75
355.264	90.75
355.491	97.75
355.718	89.75
355.945	94.75
356.172	91.75
356.399	93.75
356.626	84.75
356.853	80.75
357.08	91.75
357.307	96.75
357.534	94.75
357.761	112.75
357.988	99.75
358.215	88.75
358.441	85.75
358.668	87.75
358.895	98.75
359.122	92.75
359.349	92.75
359.576	102.75
359.802	105.75
360.029	104.75
360.256	87.75
360.483	77.75
360.709	86.75
360.936	89.75
361.163	103.75
361.39	74.75
361.616	94.75
361.843	81.75
362.07	81.75
362.296	81.75
362.523	85.75
362.749	95.75
362.976	83.75
363.203	87.75
363.429	98.75
363.656	90.75
363.882	81.75
364.109	89.75
364.335	84.75
364.562	107.75
364.788	89.75
365.015	89.75
365.241	101.75
365.468	109.75
365.694	76.75
365.92	89.75
366.147	91.75
366.373	87.75
366.599	93.75
366.826	94.75
367.052	87.75
367.278	97.75
367.505	76.75
367.731	106.75
367.957	86.75
368.184	84.75
368.41	100.75
368.636	105.75
368.862	107.75
369.089	110.75
369.315	94.75
369.541	91.75
369.767	88.75
369.993	93.75
370.219	86.75
370.445	81.75
370.672	71.75
370.898	85.75
371.124	86.75
371.35	80.75
371.576	99.75
371.802	84.75
372.028	72.75
372.254	89.75
372.48	96.75
372.706	87.75
372.932	86.75
373.158	94.75
373.384	91.75
373.61	77.75
373.835	99.75
374.061	99.75
374.287	94.75
374.513	89.75
374.739	80.75
374.965	83.75
375.191	88.75
375.416	94.75
375.642	81.75
375.868	95.75
376.094	94.75
376.319	75.75
376.545	81.75
376.771	86.75
376.997	85.75
377.222	92.75
377.448	92.75
377.674	90.75
377.899	82.75
378.125	87.75
378.35	91.75
378.576	91.75
378.802	81.75
379.027	94.75
379.253	103.75
379.478	86.75
379.704	89.75
379.929	102.75
380.155	96.75
380.38	98.75
380.606	99.75
380.831	97.75
381.057	93.75
381.282	91.75
381.507	74.75
381.733	87.75
381.958	78.75
382.184	92.75
382.409	99.75
382.634	101.75
382.86	89.75
383.085	101.75
383.31	91.75
383.535	104.75
383.761	87.75
383.986	89.75
384.211	90.75
384.436	99.75
384.662	93.75
384.887	101.75
385.112	103.75
385.337	99.75
385.562	102.75
385.787	86.75
386.013	116.75
386.238	106.75
386.463	106.75
386.688	105.75
386.913	103.75
387.138	87.75
387.363	92.75
387.588	99.75
387.813	103.75
388.038	99.75
388.263	115.75
388.488	102.75
388.713	97.75
388.938	101.75
389.163	88.75
389.387	85.75
389.612	86.75
389.837	81.75
390.062	78.75
390.287	87.75
390.512	95.75
390.736	84.75
390.961	88.75
391.186	97.75
391.411	94.75
391.636	87.75
391.86	87.75
392.085	103.75
392.31	97.75
392.534	109.75
392.759	90.75
392.984	80.75
393.208	76.75
393.433	76.75
393.658	60.75
393.882	71.75
394.107	101.75
394.331	80.75
394.556	84.75
394.78	87.75
395.005	79.75
395.229	86.75
395.454	94.75
395.678	77.75
395.903	79.75
396.127	87.75
396.352	80.75
396.576	83.75
396.801	100.75
397.025	78.75
397.249	96.75
397.474	85.75
397.698	84.75
397.922	78.75
398.147	69.75
398.371	79.75
398.595	110.75
398.82	90.75
399.044	87.75
399.268	91.75
399.492	85.75
399.717	80.75
399.941	101.75
400.165	92.75
400.389	93.75
400.613	100.75
400.837	77.75
401.062	80.75
401.286	77.75
401.51	103.75
401.734	83.75
401.958	95.75
402.182	114.75
402.406	142.75
402.63	108.75
402.854	88.75
403.078	91.75
403.302	86.75
403.526	80.75
403.75	97.75
403.974	85.75
404.198	81.75
404.422	87.75
404.645	104.75
404.869	102.75
405.093	80.75
405.317	94.75
405.541	77.75
405.765	96.75
405.988	110.75
406.212	143.75
406.436	176.75
406.66	126.75
406.883	89.75
407.107	87.75
407.331	95.75
407.555	90.75
407.778	78.75
408.002	91.75
408.226	87.75
408.449	92.75
408.673	91.75
408.896	101.75
409.12	100.75
409.344	75.75
409.567	87.75
409.791	96.75
410.014	96.75
410.238	87.75
410.461	101.75
410.685	95.75
410.908	88.75
411.132	87.75
411.355	99.75
411.578	88.75
411.802	95.75
412.025	77.75
412.249	83.75
412.472	97.75
412.695	89.75
412.919	85.75
413.142	76.75
413.365	91.75
413.589	85.75
413.812	79.75
414.035	88.75
414.258	98.75
414.482	103.75
414.705	96.75
414.928	89.75
415.151	93.75
415.374	99.75
415.597	82.75
415.821	86.75
416.044	80.75
416.267	87.75
416.49	85.75
416.713	89.75
416.936	91.75
417.159	91.75
417.382	91.75
417.605	74.75
417.828	88.75
418.051	92.75
418.274	81.75
418.497	77.75
418.72	75.75
418.943	87.75
419.166	80.75
419.389	80.75
419.611	81.75
419.834	106.75
420.057	90.75
420.28	77.75
420.503	81.75
420.726	90.75
420.948	88.75
421.171	90.75
421.394	96.75
421.617	89.75
421.839	95.75
422.062	88.75
422.285	108.75
422.507	101.75
422.73	99.75
422.953	84.75
423.175	76.75
423.398	90.75
423.621	85.75
423.843	102.75
424.066	81.75
424.288	67.75
424.511	82.75
424.733	90.75
424.956	107.75
425.178	110.75
425.401	90.75
425.623	108.75
425.846	78.75
426.068	75.75
426.291	99.75
426.513	95.75
426.735	84.75
426.958	100.75
427.18	83.75
427.402	140.75
427.625	145.75
427.847	109.75
428.069	99.75
428.292	84.75
428.514	97.75
428.736	91.75
428.958	103.75
429.181	104.75
429.403	85.75
429.625	89.75
429.847	82.75
430.069	89.75
430.292	86.75
430.514	92.75
430.736	78.75
430.958	89.75
431.18	75.75
431.402	84.75
431.624	83.75
431.846	83.75
432.068	94.75
432.29	85.75
432.512	78.75
432.734	84.75
432.956	92.75
433.178	86.75
433.4	91.75
433.622	88.75
433.844	97.75
434.066	80.75
434.287	82.75
434.509	95.75
434.731	88.75
434.953	86.75
435.175	87.75
435.397	92.75
435.618	88.75
435.84	93.75
436.062	123.75
436.284	102.75
436.505	86.75
436.727	90.75
436.949	79.75
437.17	91.75
437.392	90.75
437.614	104.75
437.835	86.75
438.057	107.75
438.278	108.75
438.5	104.75
438.721	113.75
438.943	96.75
439.165	82.75
439.386	90.75
439.608	100.75
439.829	75.75
440.05	114.75
440.272	125.75
440.493	86.75
440.715	89.75
440.936	86.75
441.158	92.75
441.379	88.75
441.6	96.75
441.822	98.75
442.043	94.75
442.264	108.75
442.486	96.75
442.707	80.75
442.928	100.75
443.149	132.75
443.371	112.75
443.592	103.75
443.813	108.75
444.034	96.75
444.255	103.75
444.476	104.75
444.698	84.75
444.919	95.75
445.14	119.75
445.361	106.75
445.582	121.75
445.803	107.75
446.024	112.75
446.245	134.75
446.466	109.75
446.687	89.75
446.908	83.75
447.129	78.75
447.35	76.75
447.571	104.75
447.792	97.75
448.013	104.75
448.234	89.75
448.455	86.75
448.675	111.75
448.896	118.75
449.117	101.75
449.338	121.75
449.559	117.75
449.779	127.75
450	92.75
450.221	88.75
450.442	87.75
450.662	84.75
450.883	98.75
451.104	116.75
451.324	100.75
451.545	92.75
451.766	81.75
451.986	86.75
452.207	81.75
452.428	99.75
452.648	75.75
452.869	90.75
453.089	117.75
453.31	106.75
453.53	97.75
453.751	88.75
453.971	88.75
454.192	102.75
454.412	84.75
454.633	86.75
454.853	88.75
455.073	94.75
455.294	91.75
455.514	94.75
455.734	73.75
455.955	95.75
456.175	79.75
456.395	79.75
456.616	68.75
456.836	84.75
457.056	89.75
457.276	99.75
457.497	89.75
457.717	84.75
457.937	98.75
458.157	86.75
458.377	87.75
458.598	101.75
458.818	139.75
459.038	144.75
459.258	108.75
459.478	83.75
459.698	90.75
459.918	90.75
460.138	83.75
460.358	85.75
460.578	88.75
460.798	82.75
461.018	95.75
461.238	91.75
461.458	89.75
461.678	86.75
461.898	76.75
462.118	92.75
462.338	83.75
462.558	89.75
462.777	93.75
462.997	100.75
463.217	89.75
463.437	87.75
463.657	94.75
463.876	77.75
464.096	72.75
464.316	78.75
464.536	93.75
464.755	92.75
464.975	101.75
465.195	137.75
465.414	140.75
465.634	96.75
465.854	91.75
466.073	92.75
466.293	87.75
466.512	91.75
466.732	77.75
466.951	90.75
467.171	99.75
467.391	77.75
467.61	90.75
467.829	88.75
468.049	97.75
468.268	101.75
468.488	85.75
468.707	95.75
468.927	86.75
469.146	97.75
469.365	80.75
469.585	83.75
469.804	75.75
470.023	86.75
470.243	91.75
470.462	99.75
470.681	104.75
470.901	91.75
471.12	95.75
471.339	87.75
471.558	76.75
471.777	80.75
471.997	101.75
472.216	103.75
472.435	135.75
472.654	95.75
472.873	90.75
473.092	81.75
473.311	79.75
473.53	76.75
473.749	91.75
473.968	91.75
474.187	111.75
474.406	84.75
474.625	93.75
474.844	93.75
475.063	85.75
475.282	91.75
475.501	90.75
475.72	88.75
475.939	86.75
476.158	92.75
476.377	81.75
476.596	95.75
476.814	89.75
477.033	82.75
477.252	78.75
477.471	96.75
477.69	96.75
477.908	73.75
478.127	96.75
478.346	104.75
478.564	104.75
478.783	89.75
479.002	91.75
479.22	84.75
479.439	93.75
479.658	99.75
479.876	92.75
480.095	87.75
480.313	89.75
480.532	102.75
480.751	95.75
480.969	110.75
481.188	171.75
481.406	139.75
481.624	93.75
481.843	86.75
482.061	87.75
482.28	88.75
482.498	78.75
482.717	89.75
482.935	93.75
483.153	96.75
483.372	89.75
483.59	97.75
483.808	96.75
484.027	85.75
484.245	92.75
484.463	86.75
484.681	99.75
484.9	89.75
485.118	88.75
485.336	89.75
485.554	87.75
485.772	100.75
485.99	105.75
486.209	100.75
486.427	104.75
486.645	94.75
486.863	111.75
487.081	105.75
487.299	84.75
487.517	96.75
487.735	96.75
487.953	94.75
488.171	94.75
488.389	90.75
488.607	80.75
488.825	88.75
489.043	84.75
489.261	90.75
489.479	78.75
489.696	80.75
489.914	100.75
490.132	100.75
490.35	92.75
490.568	93.75
490.786	90.75
491.003	90.75
491.221	94.75
491.439	77.75
491.657	81.75
491.874	93.75
492.092	89.75
492.31	93.75
492.527	83.75
492.745	89.75
492.963	93.75
493.18	82.75
493.398	90.75
493.615	102.75
493.833	87.75
494.05	82.75
494.268	93.75
494.485	92.75
494.703	91.75
494.92	78.75
495.138	85.75
495.355	91.75
495.573	93.75
495.79	80.75
496.008	89.75
496.225	88.75
496.442	67.75
496.66	106.75
496.877	92.75
497.094	89.75
497.312	93.75
497.529	85.75
497.746	79.75
497.963	94.75
498.181	80.75
498.398	95.75
498.615	108.75
498.832	109.75
499.049	89.75
499.267	80.75
499.484	78.75
499.701	97.75
499.918	90.75
500.135	86.75
500.352	84.75
500.569	87.75
500.786	96.75
501.003	94.75
501.22	83.75
501.437	85.75
501.654	106.75
501.871	106.75
502.088	84.75
502.305	90.75
502.522	96.75
502.739	86.75
502.956	101.75
503.172	87.75
503.389	91.75
503.606	97.75
503.823	90.75
504.04	88.75
504.256	72.75
504.473	87.75
504.69	93.75
504.907	96.75
505.123	94.75
505.34	81.75
505.557	82.75
505.773	75.75
505.99	90.75
506.207	88.75
506.423	99.75
506.64	85.75
506.856	83.75
507.073	81.75
507.289	96.75
507.506	87.75
507.722	101.75
507.939	96.75
508.155	96.75
508.372	83.75
508.588	89.75
508.805	88.75
509.021	86.75
509.238	91.75
509.454	79.75
509.67	95.75
509.887	98.75
510.103	124.75
510.319	174.75
510.536	577.75
510.752	1785.75
510.968	537.75
511.184	130.75
511.401	99.75
511.617	95.75
511.833	96.75
512.049	88.75
512.265	74.75
512.481	101.75
512.698	79.75
512.914	83.75
513.13	90.75
513.346	84.75
513.562	94.75
513.778	101.75
513.994	73.75
514.21	103.75
514.426	110.75
514.642	108.75
514.858	111.75
515.074	134.75
515.29	355.75
515.506	1070.75
515.721	450.75
515.937	122.75
516.153	88.75
516.369	89.75
