Data from Uncirc_2009_H10_HRD10591_00006.txt Node
Date: Wed Jan 03 10:12:03 EST 2024
User: Yrep
Spectrometer: HR+D1059
Trigger mode: 1
Integration Time (sec): 1.000000E-1
Scans to average: 1
Electric dark correction enabled: true
Nonlinearity correction enabled: false
Boxcar width: 0
XAxis mode: Wavelengths
Number of Pixels in Spectrum: 2048
>>>>>Begin Spectral Data<<<<<
223.165	-17.69
223.4	-17.69
223.635	-17.69
223.869	-22.69
224.104	-19.69
224.338	-19.69
224.573	-18.69
224.808	-19.69
225.042	-6.69
225.277	-4.69
225.511	-1.69
225.746	18.31
225.98	11.31
226.215	0.31
226.449	23.31
226.683	17.31
226.918	25.31
227.152	35.31
227.387	35.31
227.621	35.31
227.856	45.31
228.09	46.31
228.324	45.31
228.559	60.31
228.793	62.31
229.027	57.31
229.262	60.31
229.496	65.31
229.73	85.31
229.964	78.31
230.199	75.31
230.433	69.31
230.667	72.31
230.901	76.31
231.136	75.31
231.37	71.31
231.604	96.31
231.838	77.31
232.072	72.31
232.306	94.31
232.541	80.31
232.775	83.31
233.009	71.31
233.243	72.31
233.477	85.31
233.711	92.31
233.945	80.31
234.179	76.31
234.413	77.31
234.647	77.31
234.881	79.31
235.115	83.31
235.349	74.31
235.583	83.31
235.817	63.31
236.051	79.31
236.285	58.31
236.519	68.31
236.753	79.31
236.987	79.31
237.221	70.31
237.455	83.31
237.689	88.31
237.922	79.31
238.156	86.31
238.39	76.31
238.624	65.31
238.858	67.31
239.091	73.31
239.325	76.31
239.559	82.31
239.793	70.31
240.027	66.31
240.26	65.31
240.494	77.31
240.728	72.31
240.961	76.31
241.195	75.31
241.429	81.31
241.662	74.31
241.896	71.31
242.13	63.31
242.363	75.31
242.597	71.31
242.83	74.31
243.064	79.31
243.298	88.31
243.531	78.31
243.765	60.31
243.998	67.31
244.232	75.31
244.465	89.31
244.699	87.31
244.932	84.31
245.166	67.31
245.399	74.31
245.633	78.31
245.866	76.31
246.099	87.31
246.333	70.31
246.566	91.31
246.8	72.31
247.033	79.31
247.266	84.31
247.5	71.31
247.733	79.31
247.966	87.31
248.2	86.31
248.433	75.31
248.666	72.31
248.899	77.31
249.133	71.31
249.366	85.31
249.599	87.31
249.832	73.31
250.066	94.31
250.299	78.31
250.532	72.31
250.765	85.31
250.998	85.31
251.231	89.31
251.465	70.31
251.698	89.31
251.931	71.31
252.164	79.31
252.397	85.31
252.63	63.31
252.863	76.31
253.096	94.31
253.329	89.31
253.562	75.31
253.795	72.31
254.028	77.31
254.261	75.31
254.494	80.31
254.727	91.31
254.96	84.31
255.193	78.31
255.426	81.31
255.659	86.31
255.892	83.31
256.124	98.31
256.357	55.31
256.59	78.31
256.823	77.31
257.056	91.31
257.289	74.31
257.521	77.31
257.754	90.31
257.987	99.31
258.22	74.31
258.452	73.31
258.685	85.31
258.918	85.31
259.151	78.31
259.383	79.31
259.616	80.31
259.849	81.31
260.081	68.31
260.314	76.31
260.547	76.31
260.779	81.31
261.012	81.31
261.244	91.31
261.477	72.31
261.71	85.31
261.942	94.31
262.175	103.31
262.407	84.31
262.64	72.31
262.872	87.31
263.105	84.31
263.337	85.31
263.57	69.31
263.802	81.31
264.035	89.31
264.267	72.31
264.499	93.31
264.732	79.31
264.964	84.31
265.197	80.31
265.429	71.31
265.661	74.31
265.894	81.31
266.126	84.31
266.358	66.31
266.591	80.31
266.823	84.31
267.055	81.31
267.287	92.31
267.52	102.31
267.752	95.31
267.984	78.31
268.216	74.31
268.448	86.31
268.681	62.31
268.913	84.31
269.145	81.31
269.377	83.31
269.609	77.31
269.841	86.31
270.073	76.31
270.306	81.31
270.538	76.31
270.77	92.31
271.002	83.31
271.234	77.31
271.466	88.31
271.698	77.31
271.93	73.31
272.162	76.31
272.394	88.31
272.626	76.31
272.858	75.31
273.09	88.31
273.322	75.31
273.553	71.31
273.785	86.31
274.017	81.31
274.249	67.31
274.481	76.31
274.713	73.31
274.945	88.31
275.176	85.31
275.408	95.31
275.64	77.31
275.872	98.31
276.104	96.31
276.335	80.31
276.567	101.31
276.799	87.31
277.031	97.31
277.262	87.31
277.494	82.31
277.726	94.31
277.957	91.31
278.189	75.31
278.421	81.31
278.652	87.31
278.884	87.31
279.115	80.31
279.347	80.31
279.579	80.31
279.81	79.31
280.042	80.31
280.273	79.31
280.505	79.31
280.736	76.31
280.968	84.31
281.199	84.31
281.431	80.31
281.662	74.31
281.894	87.31
282.125	96.31
282.356	117.31
282.588	110.31
282.819	95.31
283.051	97.31
283.282	88.31
283.513	89.31
283.745	94.31
283.976	104.31
284.207	96.31
284.439	89.31
284.67	88.31
284.901	81.31
285.132	81.31
285.364	88.31
285.595	93.31
285.826	87.31
286.057	75.31
286.288	95.31
286.52	109.31
286.751	86.31
286.982	79.31
287.213	79.31
287.444	88.31
287.675	89.31
287.906	90.31
288.138	78.31
288.369	93.31
288.6	102.31
288.831	86.31
289.062	71.31
289.293	86.31
289.524	95.31
289.755	89.31
289.986	92.31
290.217	91.31
290.448	78.31
290.679	89.31
290.91	79.31
291.141	67.31
291.371	82.31
291.602	104.31
291.833	77.31
292.064	76.31
292.295	95.31
292.526	83.31
292.757	88.31
292.987	80.31
293.218	87.31
293.449	87.31
293.68	99.31
293.91	91.31
294.141	80.31
294.372	82.31
294.603	88.31
294.833	92.31
295.064	75.31
295.295	86.31
295.525	90.31
295.756	104.31
295.987	103.31
296.217	102.31
296.448	104.31
296.679	97.31
296.909	82.31
297.14	88.31
297.37	76.31
297.601	89.31
297.831	93.31
298.062	78.31
298.292	93.31
298.523	104.31
298.753	88.31
298.984	97.31
299.214	89.31
299.445	88.31
299.675	87.31
299.905	83.31
300.136	91.31
300.366	75.31
300.597	77.31
300.827	92.31
301.057	108.31
301.288	107.31
301.518	96.31
301.748	72.31
301.979	111.31
302.209	91.31
302.439	92.31
302.669	81.31
302.9	88.31
303.13	89.31
303.36	103.31
303.59	112.31
303.82	105.31
304.051	88.31
304.281	97.31
304.511	80.31
304.741	88.31
304.971	88.31
305.201	84.31
305.431	81.31
305.661	96.31
305.891	81.31
306.121	78.31
306.352	93.31
306.582	94.31
306.812	88.31
307.042	90.31
307.272	99.31
307.502	75.31
307.731	83.31
307.961	88.31
308.191	88.31
308.421	106.31
308.651	94.31
308.881	92.31
309.111	80.31
309.341	82.31
309.571	100.31
309.8	93.31
310.03	89.31
310.26	93.31
310.49	84.31
310.72	101.31
310.949	101.31
311.179	101.31
311.409	95.31
311.639	85.31
311.868	88.31
312.098	95.31
312.328	88.31
312.557	86.31
312.787	86.31
313.017	95.31
313.246	88.31
313.476	104.31
313.706	94.31
313.935	89.31
314.165	92.31
314.394	95.31
314.624	102.31
314.853	75.31
315.083	92.31
315.312	92.31
315.542	92.31
315.771	94.31
316.001	76.31
316.23	86.31
316.46	84.31
316.689	98.31
316.919	98.31
317.148	106.31
317.377	102.31
317.607	111.31
317.836	96.31
318.065	87.31
318.295	80.31
318.524	94.31
318.753	97.31
318.983	82.31
319.212	82.31
319.441	92.31
319.67	110.31
319.9	93.31
320.129	80.31
320.358	84.31
320.587	96.31
320.816	84.31
321.046	85.31
321.275	95.31
321.504	92.31
321.733	107.31
321.962	88.31
322.191	93.31
322.42	102.31
322.649	116.31
322.878	103.31
323.108	84.31
323.337	95.31
323.566	123.31
323.795	144.31
324.024	182.31
324.253	321.31
324.482	677.31
324.71	1333.31
324.939	1763.31
325.168	641.31
325.397	213.31
325.626	135.31
325.855	107.31
326.084	131.31
326.313	136.31
326.542	149.31
326.77	200.31
326.999	395.31
327.228	742.31
327.457	1360.31
327.686	1099.31
327.914	303.31
328.143	165.31
328.372	126.31
328.6	108.31
328.829	106.31
329.058	104.31
329.287	107.31
329.515	95.31
329.744	92.31
329.972	109.31
330.201	105.31
330.43	110.31
330.658	107.31
330.887	127.31
331.115	99.31
331.344	104.31
331.572	112.31
331.801	84.31
332.03	95.31
332.258	96.31
332.486	100.31
332.715	81.31
332.943	84.31
333.172	96.31
333.4	96.31
333.629	92.31
333.857	106.31
334.085	99.31
334.314	104.31
334.542	115.31
334.771	124.31
334.999	94.31
335.227	99.31
335.455	101.31
335.684	84.31
335.912	93.31
336.14	95.31
336.369	90.31
336.597	84.31
336.825	105.31
337.053	90.31
337.281	91.31
337.51	96.31
337.738	92.31
337.966	78.31
338.194	85.31
338.422	87.31
338.65	96.31
338.878	95.31
339.106	78.31
339.334	82.31
339.562	93.31
339.79	84.31
340.018	78.31
340.246	93.31
340.474	86.31
340.702	80.31
340.93	99.31
341.158	94.31
341.386	93.31
341.614	90.31
341.842	95.31
342.07	89.31
342.298	95.31
342.526	92.31
342.754	83.31
342.981	85.31
343.209	85.31
343.437	95.31
343.665	95.31
343.893	85.31
344.12	79.31
344.348	102.31
344.576	96.31
344.804	87.31
345.031	89.31
345.259	81.31
345.487	83.31
345.714	108.31
345.942	92.31
346.17	83.31
346.397	97.31
346.625	91.31
346.853	102.31
347.08	88.31
347.308	89.31
347.535	86.31
347.763	92.31
347.99	104.31
348.218	96.31
348.445	111.31
348.673	92.31
348.9	108.31
349.128	89.31
349.355	96.31
349.583	95.31
349.81	96.31
350.037	91.31
350.265	92.31
350.492	83.31
350.72	92.31
350.947	96.31
351.174	88.31
351.402	114.31
351.629	90.31
351.856	100.31
352.083	99.31
352.311	84.31
352.538	100.31
352.765	102.31
352.992	107.31
353.22	97.31
353.447	104.31
353.674	96.31
353.901	89.31
354.128	105.31
354.355	107.31
354.583	110.31
354.81	92.31
355.037	99.31
355.264	80.31
355.491	98.31
355.718	96.31
355.945	99.31
356.172	91.31
356.399	92.31
356.626	97.31
356.853	75.31
357.08	94.31
357.307	78.31
357.534	108.31
357.761	90.31
357.988	90.31
358.215	94.31
358.441	81.31
358.668	97.31
358.895	93.31
359.122	88.31
359.349	80.31
359.576	93.31
359.802	95.31
360.029	107.31
360.256	107.31
360.483	95.31
360.709	82.31
360.936	90.31
361.163	79.31
361.39	74.31
361.616	94.31
361.843	84.31
362.07	89.31
362.296	88.31
362.523	88.31
362.749	84.31
362.976	94.31
363.203	82.31
363.429	76.31
363.656	89.31
363.882	87.31
364.109	82.31
364.335	85.31
364.562	104.31
364.788	99.31
365.015	81.31
365.241	91.31
365.468	91.31
365.694	108.31
365.92	107.31
366.147	91.31
366.373	88.31
366.599	90.31
366.826	87.31
367.052	78.31
367.278	89.31
367.505	88.31
367.731	86.31
367.957	85.31
368.184	78.31
368.41	85.31
368.636	91.31
368.862	100.31
369.089	88.31
369.315	87.31
369.541	93.31
369.767	88.31
369.993	83.31
370.219	84.31
370.445	99.31
370.672	80.31
370.898	79.31
371.124	78.31
371.35	93.31
371.576	98.31
371.802	88.31
372.028	71.31
372.254	82.31
372.48	79.31
372.706	89.31
372.932	89.31
373.158	82.31
373.384	85.31
373.61	102.31
373.835	77.31
374.061	95.31
374.287	86.31
374.513	90.31
374.739	81.31
374.965	85.31
375.191	81.31
375.416	87.31
375.642	85.31
375.868	87.31
376.094	80.31
376.319	86.31
376.545	89.31
376.771	84.31
376.997	88.31
377.222	90.31
377.448	69.31
377.674	97.31
377.899	90.31
378.125	95.31
378.35	84.31
378.576	73.31
378.802	94.31
379.027	95.31
379.253	98.31
379.478	101.31
379.704	98.31
379.929	109.31
380.155	112.31
380.38	98.31
380.606	93.31
380.831	90.31
381.057	94.31
381.282	80.31
381.507	94.31
381.733	100.31
381.958	107.31
382.184	101.31
382.409	95.31
382.634	96.31
382.86	89.31
383.085	96.31
383.31	107.31
383.535	122.31
383.761	102.31
383.986	110.31
384.211	83.31
384.436	96.31
384.662	100.31
384.887	104.31
385.112	108.31
385.337	104.31
385.562	105.31
385.787	116.31
386.013	113.31
386.238	106.31
386.463	104.31
386.688	116.31
386.913	114.31
387.138	113.31
387.363	101.31
387.588	101.31
387.813	103.31
388.038	107.31
388.263	110.31
388.488	125.31
388.713	99.31
388.938	94.31
389.163	94.31
389.387	93.31
389.612	93.31
389.837	92.31
390.062	94.31
390.287	85.31
390.512	106.31
390.736	95.31
390.961	90.31
391.186	100.31
391.411	86.31
391.636	86.31
391.86	79.31
392.085	80.31
392.31	82.31
392.534	92.31
392.759	79.31
392.984	92.31
393.208	93.31
393.433	90.31
393.658	93.31
393.882	89.31
394.107	70.31
394.331	95.31
394.556	88.31
394.78	77.31
395.005	99.31
395.229	91.31
395.454	88.31
395.678	92.31
395.903	85.31
396.127	86.31
396.352	81.31
396.576	92.31
396.801	89.31
397.025	82.31
397.249	104.31
397.474	85.31
397.698	78.31
397.922	77.31
398.147	81.31
398.371	74.31
398.595	80.31
398.82	93.31
399.044	84.31
399.268	104.31
399.492	81.31
399.717	100.31
399.941	87.31
400.165	84.31
400.389	96.31
400.613	95.31
400.837	81.31
401.062	89.31
401.286	87.31
401.51	80.31
401.734	95.31
401.958	108.31
402.182	108.31
402.406	140.31
402.63	93.31
402.854	91.31
403.078	87.31
403.302	90.31
403.526	79.31
403.75	85.31
403.974	103.31
404.198	92.31
404.422	89.31
404.645	93.31
404.869	79.31
405.093	92.31
405.317	115.31
405.541	94.31
405.765	93.31
405.988	91.31
406.212	138.31
406.436	167.31
406.66	105.31
406.883	97.31
407.107	85.31
407.331	99.31
407.555	96.31
407.778	97.31
408.002	87.31
408.226	85.31
408.449	81.31
408.673	75.31
408.896	98.31
409.12	105.31
409.344	92.31
409.567	89.31
409.791	80.31
410.014	94.31
410.238	87.31
410.461	90.31
410.685	80.31
410.908	85.31
411.132	88.31
411.355	85.31
411.578	96.31
411.802	73.31
412.025	82.31
412.249	91.31
412.472	100.31
412.695	87.31
412.919	64.31
413.142	86.31
413.365	63.31
413.589	91.31
413.812	82.31
414.035	81.31
414.258	94.31
414.482	79.31
414.705	85.31
414.928	92.31
415.151	99.31
415.374	96.31
415.597	89.31
415.821	97.31
416.044	78.31
416.267	80.31
416.49	93.31
416.713	90.31
416.936	87.31
417.159	78.31
417.382	96.31
417.605	79.31
417.828	108.31
418.051	98.31
418.274	101.31
418.497	90.31
418.72	84.31
418.943	84.31
419.166	84.31
419.389	82.31
419.611	87.31
419.834	96.31
420.057	96.31
420.28	80.31
420.503	76.31
420.726	88.31
420.948	80.31
421.171	73.31
421.394	83.31
421.617	78.31
421.839	95.31
422.062	91.31
422.285	96.31
422.507	84.31
422.73	81.31
422.953	67.31
423.175	88.31
423.398	93.31
423.621	89.31
423.843	79.31
424.066	81.31
424.288	80.31
424.511	81.31
424.733	87.31
424.956	90.31
425.178	94.31
425.401	101.31
425.623	91.31
425.846	97.31
426.068	93.31
426.291	97.31
426.513	88.31
426.735	88.31
426.958	81.31
427.18	92.31
427.402	139.31
427.625	138.31
427.847	121.31
428.069	117.31
428.292	95.31
428.514	92.31
428.736	94.31
428.958	73.31
429.181	90.31
429.403	103.31
429.625	92.31
429.847	95.31
430.069	85.31
430.292	99.31
430.514	87.31
430.736	84.31
430.958	84.31
431.18	96.31
431.402	72.31
431.624	86.31
431.846	77.31
432.068	86.31
432.29	70.31
432.512	68.31
432.734	80.31
432.956	73.31
433.178	96.31
433.4	89.31
433.622	94.31
433.844	101.31
434.066	81.31
434.287	81.31
434.509	101.31
434.731	101.31
434.953	96.31
435.175	84.31
435.397	81.31
435.618	91.31
435.84	94.31
436.062	108.31
436.284	118.31
436.505	99.31
436.727	99.31
436.949	75.31
437.17	84.31
437.392	88.31
437.614	89.31
437.835	91.31
438.057	100.31
438.278	108.31
438.5	102.31
438.721	105.31
438.943	99.31
439.165	93.31
439.386	87.31
439.608	83.31
439.829	94.31
440.05	105.31
440.272	123.31
440.493	95.31
440.715	95.31
440.936	84.31
441.158	86.31
441.379	95.31
441.6	87.31
441.822	83.31
442.043	91.31
442.264	93.31
442.486	90.31
442.707	74.31
442.928	102.31
443.149	106.31
443.371	105.31
443.592	90.31
443.813	101.31
444.034	97.31
444.255	98.31
444.476	93.31
444.698	106.31
444.919	85.31
445.14	133.31
445.361	112.31
445.582	104.31
445.803	118.31
446.024	114.31
446.245	108.31
446.466	107.31
446.687	102.31
446.908	93.31
447.129	96.31
447.35	80.31
447.571	76.31
447.792	95.31
448.013	81.31
448.234	89.31
448.455	102.31
448.675	97.31
448.896	85.31
449.117	100.31
449.338	119.31
449.559	118.31
449.779	117.31
450	102.31
450.221	92.31
450.442	88.31
450.662	76.31
450.883	92.31
451.104	87.31
451.324	93.31
451.545	81.31
451.766	79.31
451.986	78.31
452.207	99.31
452.428	94.31
452.648	107.31
452.869	92.31
453.089	98.31
453.31	99.31
453.53	99.31
453.751	78.31
453.971	88.31
454.192	95.31
454.412	85.31
454.633	81.31
454.853	85.31
455.073	77.31
455.294	81.31
455.514	94.31
455.734	86.31
455.955	92.31
456.175	95.31
456.395	80.31
456.616	94.31
456.836	84.31
457.056	87.31
457.276	101.31
457.497	81.31
457.717	81.31
457.937	85.31
458.157	84.31
458.377	84.31
458.598	93.31
458.818	123.31
459.038	131.31
459.258	100.31
459.478	85.31
459.698	80.31
459.918	103.31
460.138	86.31
460.358	83.31
460.578	76.31
460.798	94.31
461.018	79.31
461.238	82.31
461.458	79.31
461.678	67.31
461.898	79.31
462.118	75.31
462.338	86.31
462.558	75.31
462.777	88.31
462.997	82.31
463.217	79.31
463.437	80.31
463.657	75.31
463.876	77.31
464.096	93.31
464.316	97.31
464.536	99.31
464.755	85.31
464.975	88.31
465.195	123.31
465.414	121.31
465.634	106.31
465.854	88.31
466.073	102.31
466.293	89.31
466.512	89.31
466.732	87.31
466.951	95.31
467.171	101.31
467.391	103.31
467.61	96.31
467.829	92.31
468.049	101.31
468.268	106.31
468.488	78.31
468.707	78.31
468.927	83.31
469.146	72.31
469.365	84.31
469.585	82.31
469.804	89.31
470.023	96.31
470.243	97.31
470.462	92.31
470.681	96.31
470.901	93.31
471.12	92.31
471.339	95.31
471.558	92.31
471.777	91.31
471.997	100.31
472.216	107.31
472.435	117.31
472.654	97.31
472.873	89.31
473.092	80.31
473.311	79.31
473.53	100.31
473.749	109.31
473.968	81.31
474.187	92.31
474.406	89.31
474.625	93.31
474.844	94.31
475.063	74.31
475.282	82.31
475.501	100.31
475.72	85.31
475.939	93.31
476.158	74.31
476.377	86.31
476.596	85.31
476.814	82.31
477.033	87.31
477.252	74.31
477.471	94.31
477.69	88.31
477.908	88.31
478.127	83.31
478.346	85.31
478.564	89.31
478.783	94.31
479.002	92.31
479.22	88.31
479.439	102.31
479.658	94.31
479.876	85.31
480.095	87.31
480.313	95.31
480.532	90.31
480.751	88.31
480.969	102.31
481.188	162.31
481.406	129.31
481.624	92.31
481.843	90.31
482.061	76.31
482.28	79.31
482.498	101.31
482.717	81.31
482.935	103.31
483.153	102.31
483.372	87.31
483.59	100.31
483.808	79.31
484.027	83.31
484.245	96.31
484.463	104.31
484.681	102.31
484.9	112.31
485.118	82.31
485.336	71.31
485.554	92.31
485.772	85.31
485.99	109.31
486.209	116.31
486.427	95.31
486.645	100.31
486.863	99.31
487.081	95.31
487.299	93.31
487.517	103.31
487.735	92.31
487.953	86.31
488.171	108.31
488.389	101.31
488.607	96.31
488.825	85.31
489.043	86.31
489.261	83.31
489.479	86.31
489.696	98.31
489.914	94.31
490.132	95.31
490.35	96.31
490.568	88.31
490.786	102.31
491.003	85.31
491.221	99.31
491.439	89.31
491.657	88.31
491.874	96.31
492.092	95.31
492.31	89.31
492.527	97.31
492.745	93.31
492.963	91.31
493.18	91.31
493.398	80.31
493.615	91.31
493.833	105.31
494.05	96.31
494.268	95.31
494.485	90.31
494.703	78.31
494.92	88.31
495.138	94.31
495.355	95.31
495.573	90.31
495.79	102.31
496.008	101.31
496.225	91.31
496.442	90.31
496.66	87.31
496.877	109.31
497.094	95.31
497.312	94.31
497.529	103.31
497.746	88.31
497.963	93.31
498.181	96.31
498.398	88.31
498.615	92.31
498.832	98.31
499.049	86.31
499.267	95.31
499.484	102.31
499.701	97.31
499.918	96.31
500.135	101.31
500.352	84.31
500.569	89.31
500.786	93.31
501.003	85.31
501.22	95.31
501.437	103.31
501.654	93.31
501.871	87.31
502.088	85.31
502.305	84.31
502.522	93.31
502.739	89.31
502.956	100.31
503.172	102.31
503.389	94.31
503.606	85.31
503.823	100.31
504.04	101.31
504.256	88.31
504.473	82.31
504.69	66.31
504.907	98.31
505.123	94.31
505.34	91.31
505.557	96.31
505.773	84.31
505.99	90.31
506.207	88.31
506.423	91.31
506.64	92.31
506.856	96.31
507.073	92.31
507.289	94.31
507.506	101.31
507.722	103.31
507.939	105.31
508.155	90.31
508.372	87.31
508.588	103.31
508.805	90.31
509.021	83.31
509.238	90.31
509.454	91.31
509.67	87.31
509.887	100.31
510.103	112.31
510.319	167.31
510.536	543.31
510.752	1598.31
510.968	479.31
511.184	131.31
511.401	95.31
511.617	97.31
511.833	89.31
512.049	90.31
512.265	96.31
512.481	102.31
512.698	86.31
512.914	79.31
513.13	103.31
513.346	78.31
513.562	95.31
513.778	79.31
513.994	86.31
514.21	93.31
514.426	104.31
514.642	113.31
514.858	116.31
515.074	145.31
515.29	316.31
515.506	922.31
515.721	385.31
515.937	130.31
516.153	96.31
516.369	91.31
516.585	108.31
