Data from Uncirc_2009_H10_HRD10591_00007.txt Node
Date: Wed Jan 03 10:12:03 EST 2024
User: Yrep
Spectrometer: HR+D1059
Trigger mode: 1
Integration Time (sec): 1.000000E-1
Scans to average: 1
Electric dark correction enabled: true
Nonlinearity correction enabled: false
Boxcar width: 0
XAxis mode: Wavelengths
Number of Pixels in Spectrum: 2048
>>>>>Begin Spectral Data<<<<<
223.165	-18.25
223.4	-18.25
223.635	-18.25
223.869	-16.25
224.104	-18.25
224.338	-9.25
224.573	-24.25
224.808	-7.25
225.042	-15.25
225.277	-4.25
225.511	6.75
225.746	9.75
225.98	4.75
226.215	3.75
226.449	23.75
226.683	15.75
226.918	13.75
227.152	34.75
227.387	28.75
227.621	31.75
227.856	46.75
228.09	59.75
228.324	56.75
228.559	61.75
228.793	52.75
229.027	60.75
229.262	75.75
229.496	70.75
229.73	76.75
229.964	82.75
230.199	72.75
230.433	58.75
230.667	74.75
230.901	78.75
231.136	73.75
231.37	89.75
231.604	87.75
231.838	79.75
232.072	75.75
232.306	85.75
232.541	96.75
232.775	80.75
233.009	89.75
233.243	69.75
233.477	66.75
233.711	84.75
233.945	76.75
234.179	80.75
234.413	90.75
234.647	77.75
234.881	76.75
235.115	73.75
235.349	87.75
235.583	80.75
235.817	87.75
236.051	85.75
236.285	89.75
236.519	75.75
236.753	76.75
236.987	91.75
237.221	83.75
237.455	67.75
237.689	66.75
237.922	67.75
238.156	64.75
238.39	76.75
238.624	87.75
238.858	65.75
239.091	82.75
239.325	80.75
239.559	71.75
239.793	82.75
240.027	72.75
240.26	71.75
240.494	67.75
240.728	79.75
240.961	81.75
241.195	74.75
241.429	75.75
241.662	79.75
241.896	70.75
242.13	75.75
242.363	94.75
242.597	76.75
242.83	75.75
243.064	74.75
243.298	63.75
243.531	80.75
243.765	86.75
243.998	76.75
244.232	73.75
244.465	77.75
244.699	90.75
244.932	79.75
245.166	73.75
245.399	77.75
245.633	63.75
245.866	73.75
246.099	75.75
246.333	83.75
246.566	74.75
246.8	68.75
247.033	66.75
247.266	80.75
247.5	79.75
247.733	89.75
247.966	84.75
248.2	76.75
248.433	82.75
248.666	90.75
248.899	83.75
249.133	70.75
249.366	78.75
249.599	81.75
249.832	89.75
250.066	87.75
250.299	94.75
250.532	83.75
250.765	99.75
250.998	89.75
251.231	72.75
251.465	81.75
251.698	77.75
251.931	81.75
252.164	75.75
252.397	86.75
252.63	90.75
252.863	79.75
253.096	67.75
253.329	80.75
253.562	69.75
253.795	90.75
254.028	66.75
254.261	72.75
254.494	88.75
254.727	90.75
254.96	86.75
255.193	75.75
255.426	89.75
255.659	70.75
255.892	70.75
256.124	71.75
256.357	78.75
256.59	83.75
256.823	76.75
257.056	80.75
257.289	83.75
257.521	82.75
257.754	89.75
257.987	73.75
258.22	80.75
258.452	89.75
258.685	86.75
258.918	76.75
259.151	83.75
259.383	94.75
259.616	92.75
259.849	78.75
260.081	82.75
260.314	81.75
260.547	77.75
260.779	94.75
261.012	79.75
261.244	69.75
261.477	90.75
261.71	87.75
261.942	102.75
262.175	92.75
262.407	76.75
262.64	73.75
262.872	71.75
263.105	75.75
263.337	88.75
263.57	77.75
263.802	78.75
264.035	71.75
264.267	89.75
264.499	87.75
264.732	72.75
264.964	58.75
265.197	92.75
265.429	79.75
265.661	83.75
265.894	79.75
266.126	83.75
266.358	82.75
266.591	88.75
266.823	95.75
267.055	83.75
267.287	80.75
267.52	71.75
267.752	86.75
267.984	82.75
268.216	81.75
268.448	63.75
268.681	68.75
268.913	76.75
269.145	83.75
269.377	77.75
269.609	85.75
269.841	77.75
270.073	79.75
270.306	86.75
270.538	89.75
270.77	88.75
271.002	75.75
271.234	85.75
271.466	90.75
271.698	80.75
271.93	81.75
272.162	86.75
272.394	100.75
272.626	75.75
272.858	65.75
273.09	82.75
273.322	72.75
273.553	77.75
273.785	74.75
274.017	83.75
274.249	74.75
274.481	72.75
274.713	83.75
274.945	78.75
275.176	75.75
275.408	84.75
275.64	74.75
275.872	98.75
276.104	78.75
276.335	92.75
276.567	98.75
276.799	91.75
277.031	102.75
277.262	86.75
277.494	90.75
277.726	88.75
277.957	90.75
278.189	87.75
278.421	88.75
278.652	91.75
278.884	77.75
279.115	81.75
279.347	83.75
279.579	79.75
279.81	80.75
280.042	87.75
280.273	92.75
280.505	78.75
280.736	74.75
280.968	78.75
281.199	83.75
281.431	77.75
281.662	72.75
281.894	93.75
282.125	87.75
282.356	103.75
282.588	127.75
282.819	93.75
283.051	91.75
283.282	93.75
283.513	85.75
283.745	100.75
283.976	88.75
284.207	103.75
284.439	84.75
284.67	86.75
284.901	78.75
285.132	80.75
285.364	89.75
285.595	85.75
285.826	69.75
286.057	87.75
286.288	95.75
286.52	90.75
286.751	80.75
286.982	83.75
287.213	95.75
287.444	78.75
287.675	82.75
287.906	86.75
288.138	95.75
288.369	95.75
288.6	94.75
288.831	81.75
289.062	76.75
289.293	82.75
289.524	85.75
289.755	80.75
289.986	78.75
290.217	103.75
290.448	85.75
290.679	78.75
290.91	86.75
291.141	67.75
291.371	87.75
291.602	85.75
291.833	91.75
292.064	72.75
292.295	101.75
292.526	87.75
292.757	91.75
292.987	78.75
293.218	90.75
293.449	86.75
293.68	85.75
293.91	75.75
294.141	93.75
294.372	99.75
294.603	85.75
294.833	73.75
295.064	78.75
295.295	78.75
295.525	87.75
295.756	83.75
295.987	97.75
296.217	130.75
296.448	114.75
296.679	95.75
296.909	90.75
297.14	80.75
297.37	79.75
297.601	90.75
297.831	86.75
298.062	96.75
298.292	82.75
298.523	88.75
298.753	86.75
298.984	96.75
299.214	66.75
299.445	93.75
299.675	93.75
299.905	91.75
300.136	88.75
300.366	90.75
300.597	83.75
300.827	80.75
301.057	97.75
301.288	95.75
301.518	100.75
301.748	95.75
301.979	100.75
302.209	86.75
302.439	88.75
302.669	89.75
302.9	99.75
303.13	86.75
303.36	98.75
303.59	107.75
303.82	96.75
304.051	86.75
304.281	96.75
304.511	100.75
304.741	87.75
304.971	103.75
305.201	70.75
305.431	73.75
305.661	87.75
305.891	91.75
306.121	102.75
306.352	106.75
306.582	83.75
306.812	68.75
307.042	89.75
307.272	94.75
307.502	76.75
307.731	85.75
307.961	90.75
308.191	92.75
308.421	88.75
308.651	98.75
308.881	102.75
309.111	81.75
309.341	92.75
309.571	78.75
309.8	90.75
310.03	84.75
310.26	81.75
310.49	98.75
310.72	90.75
310.949	78.75
311.179	93.75
311.409	93.75
311.639	87.75
311.868	87.75
312.098	104.75
312.328	99.75
312.557	88.75
312.787	92.75
313.017	98.75
313.246	87.75
313.476	96.75
313.706	87.75
313.935	91.75
314.165	98.75
314.394	91.75
314.624	102.75
314.853	94.75
315.083	111.75
315.312	87.75
315.542	73.75
315.771	71.75
316.001	100.75
316.23	88.75
316.46	87.75
316.689	77.75
316.919	92.75
317.148	97.75
317.377	102.75
317.607	130.75
317.836	104.75
318.065	92.75
318.295	88.75
318.524	93.75
318.753	99.75
318.983	92.75
319.212	90.75
319.441	107.75
319.67	92.75
319.9	84.75
320.129	93.75
320.358	77.75
320.587	93.75
320.816	80.75
321.046	92.75
321.275	88.75
321.504	105.75
321.733	86.75
321.962	109.75
322.191	96.75
322.42	99.75
322.649	80.75
322.878	105.75
323.108	120.75
323.337	116.75
323.566	117.75
323.795	129.75
324.024	192.75
324.253	351.75
324.482	695.75
324.71	1358.75
324.939	1754.75
325.168	654.75
325.397	201.75
325.626	140.75
325.855	126.75
326.084	134.75
326.313	153.75
326.542	151.75
326.77	219.75
326.999	387.75
327.228	770.75
327.457	1361.75
327.686	1106.75
327.914	316.75
328.143	172.75
328.372	123.75
328.6	114.75
328.829	106.75
329.058	104.75
329.287	115.75
329.515	107.75
329.744	114.75
329.972	96.75
330.201	94.75
330.43	119.75
330.658	102.75
330.887	114.75
331.115	109.75
331.344	107.75
331.572	77.75
331.801	101.75
332.03	107.75
332.258	92.75
332.486	90.75
332.715	96.75
332.943	75.75
333.172	83.75
333.4	87.75
333.629	98.75
333.857	106.75
334.085	106.75
334.314	95.75
334.542	114.75
334.771	107.75
334.999	105.75
335.227	91.75
335.455	87.75
335.684	83.75
335.912	88.75
336.14	91.75
336.369	82.75
336.597	99.75
336.825	91.75
337.053	98.75
337.281	107.75
337.51	112.75
337.738	79.75
337.966	81.75
338.194	93.75
338.422	93.75
338.65	87.75
338.878	87.75
339.106	79.75
339.334	98.75
339.562	85.75
339.79	93.75
340.018	78.75
340.246	101.75
340.474	76.75
340.702	84.75
340.93	72.75
341.158	93.75
341.386	95.75
341.614	90.75
341.842	100.75
342.07	91.75
342.298	89.75
342.526	95.75
342.754	78.75
342.981	85.75
343.209	87.75
343.437	97.75
343.665	88.75
343.893	97.75
344.12	96.75
344.348	93.75
344.576	76.75
344.804	83.75
345.031	89.75
345.259	96.75
345.487	87.75
345.714	93.75
345.942	86.75
346.17	90.75
346.397	94.75
346.625	90.75
346.853	91.75
347.08	94.75
347.308	88.75
347.535	75.75
347.763	87.75
347.99	91.75
348.218	88.75
348.445	99.75
348.673	96.75
348.9	95.75
349.128	99.75
349.355	96.75
349.583	93.75
349.81	99.75
350.037	86.75
350.265	73.75
350.492	86.75
350.72	90.75
350.947	95.75
351.174	102.75
351.402	101.75
351.629	95.75
351.856	94.75
352.083	103.75
352.311	104.75
352.538	111.75
352.765	93.75
352.992	112.75
353.22	104.75
353.447	96.75
353.674	92.75
353.901	92.75
354.128	93.75
354.355	96.75
354.583	100.75
354.81	105.75
355.037	107.75
355.264	99.75
355.491	83.75
355.718	92.75
355.945	86.75
356.172	91.75
356.399	96.75
356.626	95.75
356.853	95.75
357.08	80.75
357.307	94.75
357.534	83.75
357.761	101.75
357.988	102.75
358.215	90.75
358.441	95.75
358.668	83.75
358.895	99.75
359.122	90.75
359.349	92.75
359.576	98.75
359.802	83.75
360.029	80.75
360.256	91.75
360.483	85.75
360.709	81.75
360.936	87.75
361.163	99.75
361.39	80.75
361.616	85.75
361.843	86.75
362.07	102.75
362.296	88.75
362.523	84.75
362.749	76.75
362.976	90.75
363.203	97.75
363.429	98.75
363.656	83.75
363.882	80.75
364.109	92.75
364.335	102.75
364.562	102.75
364.788	101.75
365.015	90.75
365.241	85.75
365.468	101.75
365.694	89.75
365.92	92.75
366.147	82.75
366.373	77.75
366.599	88.75
366.826	78.75
367.052	84.75
367.278	86.75
367.505	89.75
367.731	92.75
367.957	84.75
368.184	85.75
368.41	78.75
368.636	99.75
368.862	110.75
369.089	98.75
369.315	92.75
369.541	84.75
369.767	84.75
369.993	91.75
370.219	84.75
370.445	102.75
370.672	85.75
370.898	92.75
371.124	91.75
371.35	100.75
371.576	79.75
371.802	93.75
372.028	92.75
372.254	82.75
372.48	92.75
372.706	87.75
372.932	90.75
373.158	93.75
373.384	94.75
373.61	77.75
373.835	88.75
374.061	80.75
374.287	84.75
374.513	94.75
374.739	76.75
374.965	95.75
375.191	84.75
375.416	78.75
375.642	93.75
375.868	82.75
376.094	101.75
376.319	90.75
376.545	92.75
376.771	101.75
376.997	84.75
377.222	94.75
377.448	94.75
377.674	91.75
377.899	91.75
378.125	93.75
378.35	92.75
378.576	88.75
378.802	91.75
379.027	106.75
379.253	77.75
379.478	68.75
379.704	109.75
379.929	106.75
380.155	93.75
380.38	100.75
380.606	103.75
380.831	98.75
381.057	94.75
381.282	92.75
381.507	102.75
381.733	92.75
381.958	107.75
382.184	102.75
382.409	97.75
382.634	90.75
382.86	105.75
383.085	92.75
383.31	94.75
383.535	103.75
383.761	98.75
383.986	93.75
384.211	104.75
384.436	95.75
384.662	111.75
384.887	96.75
385.112	88.75
385.337	100.75
385.562	107.75
385.787	94.75
386.013	107.75
386.238	116.75
386.463	92.75
386.688	114.75
386.913	101.75
387.138	103.75
387.363	107.75
387.588	106.75
387.813	95.75
388.038	116.75
388.263	107.75
388.488	108.75
388.713	106.75
388.938	101.75
389.163	81.75
389.387	86.75
389.612	92.75
389.837	91.75
390.062	95.75
390.287	96.75
390.512	85.75
390.736	91.75
390.961	84.75
391.186	84.75
391.411	71.75
391.636	82.75
391.86	84.75
392.085	75.75
392.31	83.75
392.534	93.75
392.759	90.75
392.984	86.75
393.208	108.75
393.433	94.75
393.658	74.75
393.882	85.75
394.107	110.75
394.331	98.75
394.556	81.75
394.78	91.75
395.005	89.75
395.229	92.75
395.454	92.75
395.678	80.75
395.903	89.75
396.127	86.75
396.352	94.75
396.576	79.75
396.801	76.75
397.025	89.75
397.249	86.75
397.474	78.75
397.698	99.75
397.922	86.75
398.147	73.75
398.371	84.75
398.595	80.75
398.82	84.75
399.044	93.75
399.268	79.75
399.492	89.75
399.717	100.75
399.941	99.75
400.165	91.75
400.389	85.75
400.613	89.75
400.837	95.75
401.062	91.75
401.286	80.75
401.51	82.75
401.734	90.75
401.958	98.75
402.182	113.75
402.406	126.75
402.63	102.75
402.854	87.75
403.078	79.75
403.302	80.75
403.526	106.75
403.75	92.75
403.974	76.75
404.198	79.75
404.422	102.75
404.645	104.75
404.869	74.75
405.093	102.75
405.317	102.75
405.541	93.75
405.765	91.75
405.988	91.75
406.212	127.75
406.436	178.75
406.66	125.75
406.883	89.75
407.107	94.75
407.331	90.75
407.555	101.75
407.778	92.75
408.002	91.75
408.226	89.75
408.449	76.75
408.673	102.75
408.896	79.75
409.12	77.75
409.344	84.75
409.567	95.75
409.791	83.75
410.014	92.75
410.238	88.75
410.461	90.75
410.685	93.75
410.908	94.75
411.132	109.75
411.355	91.75
411.578	97.75
411.802	87.75
412.025	86.75
412.249	94.75
412.472	99.75
412.695	96.75
412.919	91.75
413.142	76.75
413.365	94.75
413.589	94.75
413.812	87.75
414.035	82.75
414.258	101.75
414.482	82.75
414.705	85.75
414.928	81.75
415.151	93.75
415.374	83.75
415.597	91.75
415.821	95.75
416.044	89.75
416.267	88.75
416.49	89.75
416.713	85.75
416.936	72.75
417.159	87.75
417.382	82.75
417.605	100.75
417.828	87.75
418.051	84.75
418.274	78.75
418.497	70.75
418.72	95.75
418.943	86.75
419.166	98.75
419.389	86.75
419.611	83.75
419.834	79.75
420.057	86.75
420.28	83.75
420.503	81.75
420.726	87.75
420.948	89.75
421.171	93.75
421.394	86.75
421.617	91.75
421.839	88.75
422.062	101.75
422.285	80.75
422.507	95.75
422.73	107.75
422.953	98.75
423.175	94.75
423.398	94.75
423.621	76.75
423.843	91.75
424.066	88.75
424.288	80.75
424.511	92.75
424.733	90.75
424.956	90.75
425.178	88.75
425.401	87.75
425.623	87.75
425.846	91.75
426.068	91.75
426.291	87.75
426.513	90.75
426.735	95.75
426.958	100.75
427.18	95.75
427.402	111.75
427.625	125.75
427.847	112.75
428.069	108.75
428.292	96.75
428.514	82.75
428.736	70.75
428.958	84.75
429.181	85.75
429.403	77.75
429.625	74.75
429.847	91.75
430.069	105.75
430.292	86.75
430.514	86.75
430.736	80.75
430.958	79.75
431.18	83.75
431.402	87.75
431.624	83.75
431.846	94.75
432.068	87.75
432.29	93.75
432.512	83.75
432.734	92.75
432.956	91.75
433.178	86.75
433.4	91.75
433.622	79.75
433.844	90.75
434.066	68.75
434.287	94.75
434.509	82.75
434.731	90.75
434.953	85.75
435.175	88.75
435.397	98.75
435.618	77.75
435.84	99.75
436.062	111.75
436.284	106.75
436.505	94.75
436.727	90.75
436.949	93.75
437.17	80.75
437.392	81.75
437.614	82.75
437.835	77.75
438.057	98.75
438.278	102.75
438.5	97.75
438.721	88.75
438.943	91.75
439.165	87.75
439.386	84.75
439.608	99.75
439.829	101.75
440.05	114.75
440.272	114.75
440.493	91.75
440.715	93.75
440.936	84.75
441.158	75.75
441.379	78.75
441.6	84.75
441.822	90.75
442.043	87.75
442.264	94.75
442.486	94.75
442.707	74.75
442.928	80.75
443.149	106.75
443.371	107.75
443.592	96.75
443.813	92.75
444.034	93.75
444.255	95.75
444.476	76.75
444.698	75.75
444.919	82.75
445.14	135.75
445.361	105.75
445.582	109.75
445.803	110.75
446.024	133.75
446.245	127.75
446.466	100.75
446.687	86.75
446.908	88.75
447.129	83.75
447.35	80.75
447.571	84.75
447.792	87.75
448.013	95.75
448.234	96.75
448.455	96.75
448.675	98.75
448.896	107.75
449.117	92.75
449.338	115.75
449.559	115.75
449.779	128.75
450	93.75
450.221	100.75
450.442	89.75
450.662	80.75
450.883	98.75
451.104	94.75
451.324	88.75
451.545	96.75
451.766	81.75
451.986	82.75
452.207	77.75
452.428	80.75
452.648	88.75
452.869	109.75
453.089	104.75
453.31	108.75
453.53	80.75
453.751	82.75
453.971	94.75
454.192	102.75
454.412	88.75
454.633	98.75
454.853	74.75
455.073	87.75
455.294	87.75
455.514	98.75
455.734	88.75
455.955	78.75
456.175	94.75
456.395	90.75
456.616	79.75
456.836	91.75
457.056	85.75
457.276	85.75
457.497	90.75
457.717	90.75
457.937	61.75
458.157	106.75
458.377	84.75
458.598	97.75
458.818	113.75
459.038	121.75
459.258	96.75
459.478	90.75
459.698	92.75
459.918	103.75
460.138	75.75
460.358	82.75
460.578	84.75
460.798	91.75
461.018	90.75
461.238	90.75
461.458	98.75
461.678	74.75
461.898	89.75
462.118	76.75
462.338	76.75
462.558	89.75
462.777	89.75
462.997	92.75
463.217	80.75
463.437	73.75
463.657	83.75
463.876	85.75
464.096	88.75
464.316	79.75
464.536	83.75
464.755	70.75
464.975	95.75
465.195	145.75
465.414	134.75
465.634	77.75
465.854	82.75
466.073	76.75
466.293	80.75
466.512	78.75
466.732	92.75
466.951	100.75
467.171	92.75
467.391	80.75
467.61	96.75
467.829	93.75
468.049	88.75
468.268	94.75
468.488	88.75
468.707	87.75
468.927	97.75
469.146	80.75
469.365	92.75
469.585	79.75
469.804	90.75
470.023	92.75
470.243	86.75
470.462	92.75
470.681	99.75
470.901	72.75
471.12	79.75
471.339	86.75
471.558	86.75
471.777	87.75
471.997	102.75
472.216	96.75
472.435	115.75
472.654	94.75
472.873	93.75
473.092	86.75
473.311	90.75
473.53	88.75
473.749	80.75
473.968	89.75
474.187	95.75
474.406	95.75
474.625	91.75
474.844	85.75
475.063	85.75
475.282	85.75
475.501	86.75
475.72	105.75
475.939	77.75
476.158	91.75
476.377	70.75
476.596	91.75
476.814	70.75
477.033	88.75
477.252	91.75
477.471	82.75
477.69	82.75
477.908	79.75
478.127	83.75
478.346	98.75
478.564	95.75
478.783	96.75
479.002	85.75
479.22	81.75
479.439	84.75
479.658	101.75
479.876	98.75
480.095	80.75
480.313	84.75
480.532	84.75
480.751	84.75
480.969	108.75
481.188	147.75
481.406	131.75
481.624	103.75
481.843	88.75
482.061	96.75
482.28	103.75
482.498	89.75
482.717	89.75
482.935	96.75
483.153	91.75
483.372	106.75
483.59	88.75
483.808	90.75
484.027	100.75
484.245	98.75
484.463	86.75
484.681	93.75
484.9	87.75
485.118	84.75
485.336	103.75
485.554	89.75
485.772	90.75
485.99	95.75
486.209	95.75
486.427	93.75
486.645	89.75
486.863	96.75
487.081	94.75
487.299	97.75
487.517	104.75
487.735	91.75
487.953	99.75
488.171	78.75
488.389	97.75
488.607	101.75
488.825	92.75
489.043	96.75
489.261	92.75
489.479	90.75
489.696	89.75
489.914	85.75
490.132	83.75
490.35	66.75
490.568	74.75
490.786	92.75
491.003	82.75
491.221	89.75
491.439	99.75
491.657	95.75
491.874	88.75
492.092	84.75
492.31	92.75
492.527	80.75
492.745	99.75
492.963	92.75
493.18	101.75
493.398	82.75
493.615	86.75
493.833	88.75
494.05	98.75
494.268	104.75
494.485	86.75
494.703	86.75
494.92	77.75
495.138	78.75
495.355	97.75
495.573	85.75
495.79	91.75
496.008	79.75
496.225	88.75
496.442	80.75
496.66	90.75
496.877	83.75
497.094	90.75
497.312	107.75
497.529	83.75
497.746	71.75
497.963	80.75
498.181	96.75
498.398	89.75
498.615	98.75
498.832	97.75
499.049	105.75
499.267	87.75
499.484	94.75
499.701	88.75
499.918	88.75
500.135	94.75
500.352	90.75
500.569	86.75
500.786	93.75
501.003	94.75
501.22	89.75
501.437	79.75
501.654	86.75
501.871	96.75
502.088	88.75
502.305	80.75
502.522	87.75
502.739	90.75
502.956	78.75
503.172	89.75
503.389	97.75
503.606	91.75
503.823	91.75
504.04	80.75
504.256	85.75
504.473	94.75
504.69	86.75
504.907	91.75
505.123	95.75
505.34	74.75
505.557	90.75
505.773	95.75
505.99	75.75
506.207	85.75
506.423	90.75
506.64	73.75
506.856	86.75
507.073	79.75
507.289	92.75
507.506	83.75
507.722	100.75
507.939	108.75
508.155	91.75
508.372	93.75
508.588	81.75
508.805	88.75
509.021	82.75
509.238	117.75
509.454	91.75
509.67	93.75
509.887	92.75
510.103	115.75
510.319	179.75
510.536	596.75
510.752	1699.75
510.968	520.75
511.184	142.75
511.401	101.75
511.617	90.75
511.833	94.75
512.049	93.75
512.265	97.75
512.481	80.75
512.698	82.75
512.914	93.75
513.13	86.75
513.346	87.75
513.562	98.75
513.778	91.75
513.994	109.75
514.21	100.75
514.426	95.75
514.642	116.75
514.858	99.75
515.074	118.75
515.29	310.75
515.506	1007.75
515.721	395.75
515.937	143.75
516.153	98.75
516.369	87.75
516.585	88.75
516.801	87.75
517.016	81.75
