Data from Uncirc_2009_H10_HRD10591_00082.txt Node
Date: Wed Jan 03 10:12:18 EST 2024
User: Yrep
Spectrometer: HR+D1059
Trigger mode: 1
Integration Time (sec): 1.000000E-1
Scans to average: 1
Electric dark correction enabled: true
Nonlinearity correction enabled: false
Boxcar width: 0
XAxis mode: Wavelengths
Number of Pixels in Spectrum: 2048
>>>>>Begin Spectral Data<<<<<
223.165	-5.19
223.4	-5.19
223.635	-5.19
223.869	-28.19
224.104	-6.19
224.338	-24.19
224.573	-11.19
224.808	-9.19
225.042	-9.19
225.277	-12.19
225.511	-12.19
225.746	7.81
225.98	10.81
226.215	12.81
226.449	20.81
226.683	12.81
226.918	25.81
227.152	26.81
227.387	23.81
227.621	44.81
227.856	64.81
228.09	61.81
228.324	51.81
228.559	54.81
228.793	45.81
229.027	58.81
229.262	63.81
229.496	69.81
229.73	69.81
229.964	65.81
230.199	78.81
230.433	68.81
230.667	75.81
230.901	84.81
231.136	76.81
231.37	78.81
231.604	71.81
231.838	86.81
232.072	90.81
232.306	86.81
232.541	70.81
232.775	77.81
233.009	77.81
233.243	95.81
233.477	83.81
233.711	90.81
233.945	76.81
234.179	87.81
234.413	66.81
234.647	77.81
234.881	72.81
235.115	86.81
235.349	74.81
235.583	71.81
235.817	78.81
236.051	74.81
236.285	63.81
236.519	61.81
236.753	73.81
236.987	73.81
237.221	75.81
237.455	71.81
237.689	76.81
237.922	87.81
238.156	80.81
238.39	57.81
238.624	60.81
238.858	69.81
239.091	83.81
239.325	73.81
239.559	68.81
239.793	74.81
240.027	74.81
240.26	87.81
240.494	76.81
240.728	82.81
240.961	74.81
241.195	60.81
241.429	87.81
241.662	77.81
241.896	58.81
242.13	78.81
242.363	78.81
242.597	64.81
242.83	66.81
243.064	70.81
243.298	73.81
243.531	77.81
243.765	76.81
243.998	65.81
244.232	64.81
244.465	83.81
244.699	66.81
244.932	78.81
245.166	73.81
245.399	80.81
245.633	63.81
245.866	79.81
246.099	81.81
246.333	79.81
246.566	79.81
246.8	67.81
247.033	73.81
247.266	66.81
247.5	83.81
247.733	71.81
247.966	77.81
248.2	69.81
248.433	79.81
248.666	75.81
248.899	75.81
249.133	78.81
249.366	84.81
249.599	80.81
249.832	66.81
250.066	82.81
250.299	62.81
250.532	82.81
250.765	78.81
250.998	71.81
251.231	78.81
251.465	81.81
251.698	83.81
251.931	85.81
252.164	82.81
252.397	69.81
252.63	73.81
252.863	76.81
253.096	74.81
253.329	86.81
253.562	66.81
253.795	83.81
254.028	78.81
254.261	90.81
254.494	93.81
254.727	81.81
254.96	83.81
255.193	75.81
255.426	92.81
255.659	80.81
255.892	69.81
256.124	72.81
256.357	77.81
256.59	75.81
256.823	66.81
257.056	69.81
257.289	87.81
257.521	75.81
257.754	59.81
257.987	68.81
258.22	80.81
258.452	78.81
258.685	76.81
258.918	81.81
259.151	72.81
259.383	83.81
259.616	76.81
259.849	82.81
260.081	70.81
260.314	80.81
260.547	81.81
260.779	75.81
261.012	80.81
261.244	92.81
261.477	88.81
261.71	73.81
261.942	84.81
262.175	94.81
262.407	89.81
262.64	76.81
262.872	77.81
263.105	77.81
263.337	95.81
263.57	79.81
263.802	93.81
264.035	79.81
264.267	72.81
264.499	79.81
264.732	86.81
264.964	86.81
265.197	83.81
265.429	92.81
265.661	80.81
265.894	75.81
266.126	90.81
266.358	86.81
266.591	87.81
266.823	89.81
267.055	86.81
267.287	75.81
267.52	82.81
267.752	72.81
267.984	79.81
268.216	77.81
268.448	87.81
268.681	86.81
268.913	82.81
269.145	78.81
269.377	67.81
269.609	93.81
269.841	84.81
270.073	80.81
270.306	63.81
270.538	76.81
270.77	85.81
271.002	70.81
271.234	78.81
271.466	78.81
271.698	81.81
271.93	80.81
272.162	77.81
272.394	94.81
272.626	83.81
272.858	83.81
273.09	79.81
273.322	80.81
273.553	74.81
273.785	86.81
274.017	77.81
274.249	87.81
274.481	91.81
274.713	77.81
274.945	80.81
275.176	77.81
275.408	73.81
275.64	73.81
275.872	78.81
276.104	84.81
276.335	92.81
276.567	86.81
276.799	87.81
277.031	81.81
277.262	90.81
277.494	77.81
277.726	85.81
277.957	88.81
278.189	85.81
278.421	84.81
278.652	87.81
278.884	76.81
279.115	84.81
279.347	94.81
279.579	79.81
279.81	74.81
280.042	84.81
280.273	84.81
280.505	83.81
280.736	88.81
280.968	80.81
281.199	94.81
281.431	91.81
281.662	86.81
281.894	84.81
282.125	104.81
282.356	94.81
282.588	108.81
282.819	94.81
283.051	98.81
283.282	79.81
283.513	86.81
283.745	92.81
283.976	89.81
284.207	99.81
284.439	96.81
284.67	79.81
284.901	70.81
285.132	84.81
285.364	80.81
285.595	90.81
285.826	90.81
286.057	87.81
286.288	93.81
286.52	94.81
286.751	83.81
286.982	88.81
287.213	91.81
287.444	95.81
287.675	79.81
287.906	91.81
288.138	76.81
288.369	85.81
288.6	68.81
288.831	71.81
289.062	71.81
289.293	100.81
289.524	84.81
289.755	77.81
289.986	80.81
290.217	89.81
290.448	78.81
290.679	84.81
290.91	82.81
291.141	71.81
291.371	98.81
291.602	89.81
291.833	82.81
292.064	84.81
292.295	79.81
292.526	73.81
292.757	76.81
292.987	68.81
293.218	89.81
293.449	89.81
293.68	89.81
293.91	81.81
294.141	77.81
294.372	87.81
294.603	76.81
294.833	85.81
295.064	69.81
295.295	93.81
295.525	90.81
295.756	95.81
295.987	104.81
296.217	121.81
296.448	117.81
296.679	86.81
296.909	94.81
297.14	77.81
297.37	89.81
297.601	84.81
297.831	86.81
298.062	92.81
298.292	75.81
298.523	91.81
298.753	83.81
298.984	88.81
299.214	71.81
299.445	88.81
299.675	87.81
299.905	80.81
300.136	80.81
300.366	85.81
300.597	92.81
300.827	76.81
301.057	88.81
301.288	90.81
301.518	98.81
301.748	79.81
301.979	92.81
302.209	97.81
302.439	81.81
302.669	69.81
302.9	91.81
303.13	88.81
303.36	94.81
303.59	82.81
303.82	101.81
304.051	94.81
304.281	88.81
304.511	94.81
304.741	69.81
304.971	85.81
305.201	76.81
305.431	86.81
305.661	79.81
305.891	89.81
306.121	86.81
306.352	88.81
306.582	72.81
306.812	95.81
307.042	99.81
307.272	87.81
307.502	86.81
307.731	85.81
307.961	76.81
308.191	88.81
308.421	75.81
308.651	73.81
308.881	88.81
309.111	84.81
309.341	93.81
309.571	98.81
309.8	100.81
310.03	80.81
310.26	89.81
310.49	91.81
310.72	91.81
310.949	92.81
311.179	89.81
311.409	95.81
311.639	92.81
311.868	101.81
312.098	87.81
312.328	87.81
312.557	100.81
312.787	100.81
313.017	89.81
313.246	84.81
313.476	74.81
313.706	87.81
313.935	92.81
314.165	94.81
314.394	89.81
314.624	95.81
314.853	88.81
315.083	79.81
315.312	101.81
315.542	90.81
315.771	84.81
316.001	83.81
316.23	84.81
316.46	83.81
316.689	92.81
316.919	96.81
317.148	101.81
317.377	127.81
317.607	124.81
317.836	109.81
318.065	91.81
318.295	89.81
318.524	92.81
318.753	94.81
318.983	97.81
319.212	89.81
319.441	91.81
319.67	81.81
319.9	101.81
320.129	92.81
320.358	88.81
320.587	87.81
320.816	83.81
321.046	83.81
321.275	103.81
321.504	84.81
321.733	89.81
321.962	97.81
322.191	92.81
322.42	93.81
322.649	95.81
322.878	105.81
323.108	109.81
323.337	110.81
323.566	114.81
323.795	140.81
324.024	182.81
324.253	336.81
324.482	667.81
324.71	1372.81
324.939	1798.81
325.168	670.81
325.397	206.81
325.626	144.81
325.855	108.81
326.084	111.81
326.313	132.81
326.542	146.81
326.77	213.81
326.999	392.81
327.228	786.81
327.457	1384.81
327.686	1124.81
327.914	309.81
328.143	157.81
328.372	127.81
328.6	106.81
328.829	85.81
329.058	94.81
329.287	115.81
329.515	108.81
329.744	99.81
329.972	98.81
330.201	107.81
330.43	113.81
330.658	107.81
330.887	114.81
331.115	111.81
331.344	102.81
331.572	104.81
331.801	86.81
332.03	104.81
332.258	95.81
332.486	86.81
332.715	95.81
332.943	90.81
333.172	99.81
333.4	91.81
333.629	107.81
333.857	108.81
334.085	90.81
334.314	111.81
334.542	108.81
334.771	110.81
334.999	70.81
335.227	95.81
335.455	88.81
335.684	94.81
335.912	76.81
336.14	78.81
336.369	94.81
336.597	77.81
336.825	78.81
337.053	85.81
337.281	102.81
337.51	85.81
337.738	97.81
337.966	91.81
338.194	99.81
338.422	83.81
338.65	76.81
338.878	94.81
339.106	92.81
339.334	86.81
339.562	90.81
339.79	105.81
340.018	91.81
340.246	78.81
340.474	74.81
340.702	88.81
340.93	76.81
341.158	92.81
341.386	93.81
341.614	99.81
341.842	98.81
342.07	93.81
342.298	99.81
342.526	81.81
342.754	83.81
342.981	95.81
343.209	79.81
343.437	102.81
343.665	86.81
343.893	90.81
344.12	80.81
344.348	91.81
344.576	82.81
344.804	87.81
345.031	96.81
345.259	96.81
345.487	92.81
345.714	86.81
345.942	91.81
346.17	103.81
346.397	93.81
346.625	89.81
346.853	95.81
347.08	86.81
347.308	92.81
347.535	107.81
347.763	86.81
347.99	90.81
348.218	85.81
348.445	90.81
348.673	102.81
348.9	85.81
349.128	88.81
349.355	87.81
349.583	90.81
349.81	88.81
350.037	83.81
350.265	99.81
350.492	82.81
350.72	91.81
350.947	91.81
351.174	96.81
351.402	105.81
351.629	84.81
351.856	96.81
352.083	97.81
352.311	101.81
352.538	114.81
352.765	91.81
352.992	112.81
353.22	104.81
353.447	93.81
353.674	94.81
353.901	101.81
354.128	95.81
354.355	107.81
354.583	95.81
354.81	85.81
355.037	84.81
355.264	87.81
355.491	93.81
355.718	100.81
355.945	99.81
356.172	80.81
356.399	94.81
356.626	85.81
356.853	109.81
357.08	85.81
357.307	101.81
357.534	89.81
357.761	91.81
357.988	90.81
358.215	85.81
358.441	90.81
358.668	83.81
358.895	91.81
359.122	95.81
359.349	87.81
359.576	80.81
359.802	77.81
360.029	93.81
360.256	84.81
360.483	93.81
360.709	80.81
360.936	90.81
361.163	93.81
361.39	72.81
361.616	95.81
361.843	91.81
362.07	107.81
362.296	95.81
362.523	87.81
362.749	87.81
362.976	83.81
363.203	86.81
363.429	95.81
363.656	83.81
363.882	96.81
364.109	91.81
364.335	105.81
364.562	99.81
364.788	76.81
365.015	104.81
365.241	102.81
365.468	96.81
365.694	100.81
365.92	92.81
366.147	92.81
366.373	87.81
366.599	90.81
366.826	95.81
367.052	103.81
367.278	92.81
367.505	91.81
367.731	99.81
367.957	89.81
368.184	84.81
368.41	95.81
368.636	92.81
368.862	112.81
369.089	86.81
369.315	93.81
369.541	87.81
369.767	90.81
369.993	78.81
370.219	96.81
370.445	90.81
370.672	98.81
370.898	90.81
371.124	74.81
371.35	89.81
371.576	90.81
371.802	87.81
372.028	84.81
372.254	79.81
372.48	91.81
372.706	85.81
372.932	79.81
373.158	90.81
373.384	95.81
373.61	101.81
373.835	87.81
374.061	95.81
374.287	90.81
374.513	87.81
374.739	90.81
374.965	95.81
375.191	91.81
375.416	81.81
375.642	82.81
375.868	87.81
376.094	75.81
376.319	85.81
376.545	91.81
376.771	88.81
376.997	95.81
377.222	81.81
377.448	74.81
377.674	91.81
377.899	82.81
378.125	94.81
378.35	94.81
378.576	88.81
378.802	101.81
379.027	91.81
379.253	88.81
379.478	98.81
379.704	87.81
379.929	96.81
380.155	85.81
380.38	92.81
380.606	80.81
380.831	76.81
381.057	97.81
381.282	92.81
381.507	86.81
381.733	99.81
381.958	90.81
382.184	92.81
382.409	98.81
382.634	99.81
382.86	102.81
383.085	90.81
383.31	92.81
383.535	104.81
383.761	101.81
383.986	80.81
384.211	84.81
384.436	99.81
384.662	105.81
384.887	97.81
385.112	98.81
385.337	115.81
385.562	91.81
385.787	96.81
386.013	97.81
386.238	99.81
386.463	102.81
386.688	105.81
386.913	85.81
387.138	94.81
387.363	105.81
387.588	90.81
387.813	90.81
388.038	115.81
388.263	91.81
388.488	87.81
388.713	88.81
388.938	92.81
389.163	80.81
389.387	93.81
389.612	90.81
389.837	74.81
390.062	104.81
390.287	82.81
390.512	87.81
390.736	82.81
390.961	80.81
391.186	98.81
391.411	96.81
391.636	82.81
391.86	69.81
392.085	93.81
392.31	73.81
392.534	89.81
392.759	91.81
392.984	73.81
393.208	79.81
393.433	95.81
393.658	93.81
393.882	92.81
394.107	90.81
394.331	85.81
394.556	86.81
394.78	90.81
395.005	81.81
395.229	86.81
395.454	85.81
395.678	72.81
395.903	88.81
396.127	96.81
396.352	82.81
396.576	91.81
396.801	85.81
397.025	89.81
397.249	91.81
397.474	72.81
397.698	90.81
397.922	90.81
398.147	83.81
398.371	67.81
398.595	82.81
398.82	78.81
399.044	76.81
399.268	73.81
399.492	91.81
399.717	87.81
399.941	80.81
400.165	84.81
400.389	96.81
400.613	88.81
400.837	84.81
401.062	78.81
401.286	79.81
401.51	66.81
401.734	97.81
401.958	93.81
402.182	106.81
402.406	126.81
402.63	113.81
402.854	76.81
403.078	82.81
403.302	96.81
403.526	92.81
403.75	77.81
403.974	79.81
404.198	84.81
404.422	90.81
404.645	88.81
404.869	95.81
405.093	96.81
405.317	92.81
405.541	104.81
405.765	94.81
405.988	109.81
406.212	129.81
406.436	159.81
406.66	115.81
406.883	99.81
407.107	98.81
407.331	87.81
407.555	97.81
407.778	93.81
408.002	89.81
408.226	93.81
408.449	67.81
408.673	88.81
408.896	96.81
409.12	89.81
409.344	92.81
409.567	84.81
409.791	96.81
410.014	84.81
410.238	73.81
410.461	98.81
410.685	91.81
410.908	84.81
411.132	95.81
411.355	109.81
411.578	98.81
411.802	79.81
412.025	84.81
412.249	94.81
412.472	96.81
412.695	96.81
412.919	85.81
413.142	71.81
413.365	88.81
413.589	93.81
413.812	75.81
414.035	74.81
414.258	85.81
414.482	77.81
414.705	78.81
414.928	114.81
415.151	86.81
415.374	104.81
415.597	89.81
415.821	85.81
416.044	92.81
416.267	86.81
416.49	93.81
416.713	89.81
416.936	92.81
417.159	87.81
417.382	90.81
417.605	91.81
417.828	72.81
418.051	87.81
418.274	86.81
418.497	94.81
418.72	94.81
418.943	81.81
419.166	86.81
419.389	96.81
419.611	76.81
419.834	75.81
420.057	79.81
420.28	94.81
420.503	91.81
420.726	85.81
420.948	81.81
421.171	88.81
421.394	92.81
421.617	81.81
421.839	97.81
422.062	98.81
422.285	93.81
422.507	94.81
422.73	94.81
422.953	85.81
423.175	97.81
423.398	87.81
423.621	89.81
423.843	80.81
424.066	81.81
424.288	85.81
424.511	84.81
424.733	96.81
424.956	89.81
425.178	97.81
425.401	104.81
425.623	93.81
425.846	93.81
426.068	106.81
426.291	94.81
426.513	93.81
426.735	81.81
426.958	81.81
427.18	95.81
427.402	111.81
427.625	124.81
427.847	110.81
428.069	116.81
428.292	86.81
428.514	86.81
428.736	79.81
428.958	80.81
429.181	96.81
429.403	65.81
429.625	71.81
429.847	92.81
430.069	100.81
430.292	90.81
430.514	91.81
430.736	90.81
430.958	92.81
431.18	68.81
431.402	86.81
431.624	93.81
431.846	69.81
432.068	82.81
432.29	86.81
432.512	82.81
432.734	78.81
432.956	85.81
433.178	86.81
433.4	97.81
433.622	80.81
433.844	89.81
434.066	82.81
434.287	68.81
434.509	95.81
434.731	99.81
434.953	98.81
435.175	79.81
435.397	78.81
435.618	74.81
435.84	90.81
436.062	121.81
436.284	107.81
436.505	101.81
436.727	106.81
436.949	82.81
437.17	85.81
437.392	76.81
437.614	89.81
437.835	100.81
438.057	107.81
438.278	116.81
438.5	102.81
438.721	98.81
438.943	87.81
439.165	83.81
439.386	91.81
439.608	104.81
439.829	84.81
440.05	111.81
440.272	132.81
440.493	100.81
440.715	98.81
440.936	91.81
441.158	75.81
441.379	90.81
441.6	90.81
441.822	95.81
442.043	91.81
442.264	82.81
442.486	98.81
442.707	80.81
442.928	96.81
443.149	127.81
443.371	112.81
443.592	93.81
443.813	94.81
444.034	107.81
444.255	92.81
444.476	85.81
444.698	80.81
444.919	82.81
445.14	118.81
445.361	108.81
445.582	118.81
445.803	114.81
446.024	98.81
446.245	102.81
446.466	79.81
446.687	91.81
446.908	91.81
447.129	79.81
447.35	87.81
447.571	78.81
447.792	90.81
448.013	88.81
448.234	101.81
448.455	86.81
448.675	91.81
448.896	102.81
449.117	92.81
449.338	104.81
449.559	118.81
449.779	138.81
450	88.81
450.221	92.81
450.442	89.81
450.662	94.81
450.883	90.81
451.104	83.81
451.324	85.81
451.545	95.81
451.766	83.81
451.986	80.81
452.207	85.81
452.428	91.81
452.648	78.81
452.869	100.81
453.089	89.81
453.31	87.81
453.53	97.81
453.751	102.81
453.971	95.81
454.192	89.81
454.412	87.81
454.633	90.81
454.853	82.81
455.073	88.81
455.294	78.81
455.514	103.81
455.734	87.81
455.955	82.81
456.175	91.81
456.395	86.81
456.616	90.81
456.836	93.81
457.056	96.81
457.276	84.81
457.497	76.81
457.717	83.81
457.937	87.81
458.157	87.81
458.377	84.81
458.598	103.81
458.818	109.81
459.038	124.81
459.258	105.81
459.478	85.81
459.698	86.81
459.918	85.81
460.138	82.81
460.358	103.81
460.578	101.81
460.798	88.81
461.018	89.81
461.238	76.81
461.458	82.81
461.678	74.81
461.898	78.81
462.118	99.81
462.338	95.81
462.558	83.81
462.777	80.81
462.997	82.81
463.217	89.81
463.437	90.81
463.657	85.81
463.876	77.81
464.096	92.81
464.316	91.81
464.536	79.81
464.755	91.81
464.975	95.81
465.195	134.81
465.414	120.81
465.634	96.81
465.854	79.81
466.073	106.81
466.293	99.81
466.512	85.81
466.732	89.81
466.951	79.81
467.171	78.81
467.391	96.81
467.61	99.81
467.829	90.81
468.049	80.81
468.268	94.81
468.488	76.81
468.707	83.81
468.927	90.81
469.146	79.81
469.365	77.81
469.585	86.81
469.804	76.81
470.023	87.81
470.243	99.81
470.462	100.81
470.681	101.81
470.901	82.81
471.12	100.81
471.339	78.81
471.558	88.81
471.777	77.81
471.997	87.81
472.216	88.81
472.435	101.81
472.654	87.81
472.873	99.81
473.092	91.81
473.311	92.81
473.53	82.81
473.749	86.81
473.968	86.81
474.187	86.81
474.406	86.81
474.625	74.81
474.844	79.81
475.063	102.81
475.282	85.81
475.501	84.81
475.72	95.81
475.939	75.81
476.158	79.81
476.377	88.81
476.596	93.81
476.814	82.81
477.033	95.81
477.252	91.81
477.471	94.81
477.69	74.81
477.908	96.81
478.127	93.81
478.346	70.81
478.564	94.81
478.783	89.81
479.002	78.81
479.22	85.81
479.439	100.81
479.658	92.81
479.876	81.81
480.095	86.81
480.313	95.81
480.532	91.81
480.751	84.81
480.969	84.81
481.188	148.81
481.406	143.81
481.624	90.81
481.843	83.81
482.061	96.81
482.28	92.81
482.498	104.81
482.717	87.81
482.935	95.81
483.153	78.81
483.372	93.81
483.59	88.81
483.808	92.81
484.027	84.81
484.245	90.81
484.463	102.81
484.681	111.81
484.9	86.81
485.118	85.81
485.336	87.81
485.554	101.81
485.772	78.81
485.99	105.81
486.209	105.81
486.427	100.81
486.645	104.81
486.863	95.81
487.081	82.81
487.299	86.81
487.517	88.81
487.735	93.81
487.953	99.81
488.171	111.81
488.389	74.81
488.607	93.81
488.825	83.81
489.043	74.81
489.261	90.81
489.479	94.81
489.696	78.81
489.914	89.81
490.132	79.81
490.35	87.81
490.568	81.81
490.786	79.81
491.003	85.81
491.221	87.81
491.439	90.81
491.657	90.81
491.874	94.81
492.092	79.81
492.31	77.81
492.527	95.81
492.745	72.81
492.963	85.81
493.18	84.81
493.398	90.81
493.615	80.81
493.833	94.81
494.05	84.81
494.268	85.81
494.485	80.81
494.703	82.81
494.92	82.81
495.138	86.81
495.355	103.81
495.573	88.81
495.79	93.81
496.008	87.81
496.225	87.81
496.442	94.81
496.66	91.81
496.877	89.81
497.094	99.81
497.312	88.81
497.529	89.81
497.746	85.81
497.963	95.81
498.181	94.81
498.398	98.81
498.615	112.81
498.832	88.81
499.049	87.81
499.267	102.81
499.484	79.81
499.701	86.81
499.918	87.81
500.135	92.81
500.352	80.81
500.569	94.81
500.786	75.81
501.003	74.81
501.22	84.81
501.437	86.81
501.654	100.81
501.871	112.81
502.088	90.81
502.305	82.81
502.522	75.81
502.739	86.81
502.956	68.81
503.172	94.81
503.389	85.81
503.606	101.81
503.823	90.81
504.04	91.81
504.256	91.81
504.473	88.81
504.69	77.81
504.907	93.81
505.123	89.81
505.34	81.81
505.557	77.81
505.773	96.81
505.99	84.81
506.207	86.81
506.423	79.81
506.64	88.81
506.856	101.81
507.073	83.81
507.289	91.81
507.506	84.81
507.722	100.81
507.939	109.81
508.155	82.81
508.372	88.81
508.588	86.81
508.805	94.81
509.021	88.81
509.238	110.81
509.454	85.81
509.67	95.81
509.887	94.81
510.103	111.81
510.319	173.81
510.536	546.81
510.752	1647.81
510.968	483.81
511.184	142.81
511.401	92.81
511.617	99.81
511.833	84.81
512.049	93.81
512.265	82.81
512.481	99.81
512.698	92.81
512.914	88.81
513.13	84.81
513.346	100.81
513.562	89.81
513.778	92.81
513.994	91.81
514.21	91.81
514.426	114.81
514.642	120.81
514.858	111.81
515.074	129.81
515.29	317.81
515.506	926.81
515.721	375.81
515.937	144.81
516.153	108.81
516.369	90.81
516.585	94.81
516.801	92.81
517.016	81.81
517.232	83.81
517.448	98.81
