Data from Uncirc_2009_H10_HRD10591_00022.txt Node
Date: Wed Jan 03 10:12:06 EST 2024
User: Yrep
Spectrometer: HR+D1059
Trigger mode: 1
Integration Time (sec): 1.000000E-1
Scans to average: 1
Electric dark correction enabled: true
Nonlinearity correction enabled: false
Boxcar width: 0
XAxis mode: Wavelengths
Number of Pixels in Spectrum: 2048
>>>>>Begin Spectral Data<<<<<
223.165	-16.88
223.4	-16.88
223.635	-16.88
223.869	-22.88
224.104	1.12
224.338	-18.88
224.573	-11.88
224.808	-9.88
225.042	-0.88
225.277	1.12
225.511	9.12
225.746	-2.88
225.98	-3.88
226.215	-3.88
226.449	14.12
226.683	10.12
226.918	28.12
227.152	28.12
227.387	45.12
227.621	36.12
227.856	40.12
228.09	49.12
228.324	53.12
228.559	51.12
228.793	67.12
229.027	54.12
229.262	71.12
229.496	69.12
229.73	91.12
229.964	89.12
230.199	82.12
230.433	75.12
230.667	85.12
230.901	67.12
231.136	83.12
231.37	74.12
231.604	71.12
231.838	72.12
232.072	70.12
232.306	77.12
232.541	89.12
232.775	71.12
233.009	69.12
233.243	73.12
233.477	74.12
233.711	92.12
233.945	74.12
234.179	86.12
234.413	84.12
234.647	74.12
234.881	83.12
235.115	86.12
235.349	69.12
235.583	87.12
235.817	79.12
236.051	71.12
236.285	73.12
236.519	76.12
236.753	73.12
236.987	69.12
237.221	75.12
237.455	75.12
237.689	80.12
237.922	88.12
238.156	77.12
238.39	68.12
238.624	76.12
238.858	86.12
239.091	61.12
239.325	77.12
239.559	86.12
239.793	84.12
240.027	76.12
240.26	74.12
240.494	86.12
240.728	72.12
240.961	64.12
241.195	82.12
241.429	77.12
241.662	51.12
241.896	74.12
242.13	78.12
242.363	79.12
242.597	81.12
242.83	68.12
243.064	63.12
243.298	61.12
243.531	79.12
243.765	73.12
243.998	84.12
244.232	70.12
244.465	72.12
244.699	56.12
244.932	74.12
245.166	74.12
245.399	66.12
245.633	71.12
245.866	81.12
246.099	74.12
246.333	75.12
246.566	76.12
246.8	81.12
247.033	74.12
247.266	64.12
247.5	79.12
247.733	74.12
247.966	70.12
248.2	79.12
248.433	77.12
248.666	75.12
248.899	73.12
249.133	77.12
249.366	95.12
249.599	89.12
249.832	82.12
250.066	83.12
250.299	79.12
250.532	79.12
250.765	82.12
250.998	92.12
251.231	78.12
251.465	71.12
251.698	82.12
251.931	89.12
252.164	83.12
252.397	88.12
252.63	77.12
252.863	73.12
253.096	70.12
253.329	91.12
253.562	79.12
253.795	72.12
254.028	93.12
254.261	85.12
254.494	80.12
254.727	86.12
254.96	73.12
255.193	80.12
255.426	69.12
255.659	80.12
255.892	73.12
256.124	88.12
256.357	76.12
256.59	85.12
256.823	86.12
257.056	74.12
257.289	72.12
257.521	82.12
257.754	77.12
257.987	68.12
258.22	67.12
258.452	71.12
258.685	76.12
258.918	69.12
259.151	81.12
259.383	84.12
259.616	82.12
259.849	83.12
260.081	69.12
260.314	74.12
260.547	91.12
260.779	67.12
261.012	79.12
261.244	83.12
261.477	83.12
261.71	96.12
261.942	110.12
262.175	116.12
262.407	90.12
262.64	85.12
262.872	79.12
263.105	73.12
263.337	75.12
263.57	70.12
263.802	76.12
264.035	74.12
264.267	69.12
264.499	78.12
264.732	82.12
264.964	85.12
265.197	72.12
265.429	68.12
265.661	84.12
265.894	85.12
266.126	75.12
266.358	84.12
266.591	86.12
266.823	86.12
267.055	83.12
267.287	91.12
267.52	75.12
267.752	74.12
267.984	84.12
268.216	74.12
268.448	99.12
268.681	76.12
268.913	83.12
269.145	88.12
269.377	70.12
269.609	85.12
269.841	88.12
270.073	74.12
270.306	76.12
270.538	98.12
270.77	98.12
271.002	91.12
271.234	89.12
271.466	96.12
271.698	79.12
271.93	82.12
272.162	83.12
272.394	86.12
272.626	91.12
272.858	81.12
273.09	82.12
273.322	65.12
273.553	77.12
273.785	85.12
274.017	81.12
274.249	85.12
274.481	89.12
274.713	87.12
274.945	82.12
275.176	76.12
275.408	87.12
275.64	87.12
275.872	88.12
276.104	77.12
276.335	78.12
276.567	85.12
276.799	97.12
277.031	93.12
277.262	83.12
277.494	81.12
277.726	82.12
277.957	79.12
278.189	81.12
278.421	90.12
278.652	79.12
278.884	98.12
279.115	86.12
279.347	67.12
279.579	87.12
279.81	80.12
280.042	83.12
280.273	78.12
280.505	87.12
280.736	73.12
280.968	92.12
281.199	90.12
281.431	82.12
281.662	86.12
281.894	94.12
282.125	96.12
282.356	100.12
282.588	127.12
282.819	95.12
283.051	85.12
283.282	71.12
283.513	83.12
283.745	102.12
283.976	106.12
284.207	99.12
284.439	82.12
284.67	79.12
284.901	81.12
285.132	89.12
285.364	88.12
285.595	73.12
285.826	62.12
286.057	84.12
286.288	97.12
286.52	89.12
286.751	71.12
286.982	82.12
287.213	75.12
287.444	81.12
287.675	79.12
287.906	98.12
288.138	92.12
288.369	82.12
288.6	89.12
288.831	77.12
289.062	84.12
289.293	79.12
289.524	98.12
289.755	68.12
289.986	70.12
290.217	89.12
290.448	91.12
290.679	90.12
290.91	82.12
291.141	90.12
291.371	83.12
291.602	83.12
291.833	73.12
292.064	101.12
292.295	76.12
292.526	83.12
292.757	88.12
292.987	82.12
293.218	98.12
293.449	90.12
293.68	82.12
293.91	85.12
294.141	71.12
294.372	90.12
294.603	94.12
294.833	84.12
295.064	75.12
295.295	90.12
295.525	77.12
295.756	95.12
295.987	104.12
296.217	118.12
296.448	102.12
296.679	78.12
296.909	88.12
297.14	86.12
297.37	84.12
297.601	86.12
297.831	83.12
298.062	82.12
298.292	82.12
298.523	80.12
298.753	85.12
298.984	96.12
299.214	73.12
299.445	90.12
299.675	84.12
299.905	86.12
300.136	85.12
300.366	93.12
300.597	73.12
300.827	105.12
301.057	99.12
301.288	106.12
301.518	86.12
301.748	99.12
301.979	106.12
302.209	85.12
302.439	83.12
302.669	87.12
302.9	85.12
303.13	98.12
303.36	99.12
303.59	106.12
303.82	107.12
304.051	97.12
304.281	86.12
304.511	72.12
304.741	91.12
304.971	96.12
305.201	92.12
305.431	79.12
305.661	96.12
305.891	92.12
306.121	88.12
306.352	94.12
306.582	100.12
306.812	98.12
307.042	87.12
307.272	88.12
307.502	97.12
307.731	97.12
307.961	79.12
308.191	92.12
308.421	81.12
308.651	79.12
308.881	89.12
309.111	72.12
309.341	93.12
309.571	102.12
309.8	81.12
310.03	99.12
310.26	93.12
310.49	97.12
310.72	95.12
310.949	88.12
311.179	84.12
311.409	89.12
311.639	92.12
311.868	91.12
312.098	76.12
312.328	99.12
312.557	85.12
312.787	87.12
313.017	93.12
313.246	83.12
313.476	96.12
313.706	88.12
313.935	85.12
314.165	89.12
314.394	87.12
314.624	82.12
314.853	97.12
315.083	95.12
315.312	91.12
315.542	91.12
315.771	83.12
316.001	74.12
316.23	94.12
316.46	86.12
316.689	85.12
316.919	89.12
317.148	102.12
317.377	100.12
317.607	117.12
317.836	94.12
318.065	90.12
318.295	78.12
318.524	113.12
318.753	90.12
318.983	87.12
319.212	89.12
319.441	97.12
319.67	98.12
319.9	97.12
320.129	90.12
320.358	102.12
320.587	95.12
320.816	93.12
321.046	83.12
321.275	90.12
321.504	82.12
321.733	90.12
321.962	103.12
322.191	94.12
322.42	95.12
322.649	90.12
322.878	94.12
323.108	97.12
323.337	113.12
323.566	131.12
323.795	141.12
324.024	173.12
324.253	328.12
324.482	702.12
324.71	1390.12
324.939	1837.12
325.168	707.12
325.397	215.12
325.626	133.12
325.855	119.12
326.084	127.12
326.313	149.12
326.542	160.12
326.77	195.12
326.999	405.12
327.228	805.12
327.457	1467.12
327.686	1157.12
327.914	313.12
328.143	170.12
328.372	121.12
328.6	110.12
328.829	118.12
329.058	104.12
329.287	104.12
329.515	93.12
329.744	104.12
329.972	105.12
330.201	104.12
330.43	130.12
330.658	98.12
330.887	123.12
331.115	102.12
331.344	97.12
331.572	102.12
331.801	99.12
332.03	106.12
332.258	90.12
332.486	86.12
332.715	85.12
332.943	74.12
333.172	99.12
333.4	95.12
333.629	91.12
333.857	106.12
334.085	104.12
334.314	96.12
334.542	129.12
334.771	115.12
334.999	106.12
335.227	94.12
335.455	94.12
335.684	92.12
335.912	97.12
336.14	97.12
336.369	105.12
336.597	88.12
336.825	71.12
337.053	96.12
337.281	90.12
337.51	77.12
337.738	85.12
337.966	76.12
338.194	95.12
338.422	98.12
338.65	85.12
338.878	81.12
339.106	81.12
339.334	92.12
339.562	88.12
339.79	90.12
340.018	71.12
340.246	76.12
340.474	86.12
340.702	93.12
340.93	80.12
341.158	87.12
341.386	93.12
341.614	93.12
341.842	89.12
342.07	79.12
342.298	84.12
342.526	85.12
342.754	88.12
342.981	88.12
343.209	88.12
343.437	104.12
343.665	80.12
343.893	76.12
344.12	85.12
344.348	100.12
344.576	77.12
344.804	90.12
345.031	83.12
345.259	86.12
345.487	91.12
345.714	99.12
345.942	85.12
346.17	95.12
346.397	82.12
346.625	73.12
346.853	81.12
347.08	96.12
347.308	81.12
347.535	97.12
347.763	91.12
347.99	94.12
348.218	91.12
348.445	105.12
348.673	96.12
348.9	99.12
349.128	96.12
349.355	87.12
349.583	99.12
349.81	88.12
350.037	94.12
350.265	86.12
350.492	79.12
350.72	85.12
350.947	84.12
351.174	91.12
351.402	108.12
351.629	96.12
351.856	89.12
352.083	86.12
352.311	106.12
352.538	90.12
352.765	100.12
352.992	109.12
353.22	92.12
353.447	101.12
353.674	99.12
353.901	98.12
354.128	95.12
354.355	91.12
354.583	101.12
354.81	87.12
355.037	91.12
355.264	98.12
355.491	82.12
355.718	102.12
355.945	87.12
356.172	106.12
356.399	94.12
356.626	83.12
356.853	87.12
357.08	89.12
357.307	87.12
357.534	110.12
357.761	87.12
357.988	91.12
358.215	95.12
358.441	88.12
358.668	105.12
358.895	87.12
359.122	84.12
359.349	93.12
359.576	96.12
359.802	83.12
360.029	85.12
360.256	104.12
360.483	94.12
360.709	84.12
360.936	81.12
361.163	83.12
361.39	91.12
361.616	85.12
361.843	86.12
362.07	91.12
362.296	76.12
362.523	78.12
362.749	91.12
362.976	99.12
363.203	85.12
363.429	78.12
363.656	89.12
363.882	85.12
364.109	87.12
364.335	83.12
364.562	97.12
364.788	84.12
365.015	82.12
365.241	94.12
365.468	93.12
365.694	97.12
365.92	83.12
366.147	85.12
366.373	83.12
366.599	86.12
366.826	95.12
367.052	86.12
367.278	69.12
367.505	89.12
367.731	79.12
367.957	97.12
368.184	82.12
368.41	99.12
368.636	101.12
368.862	100.12
369.089	104.12
369.315	104.12
369.541	90.12
369.767	93.12
369.993	77.12
370.219	86.12
370.445	89.12
370.672	98.12
370.898	94.12
371.124	70.12
371.35	78.12
371.576	70.12
371.802	85.12
372.028	82.12
372.254	91.12
372.48	89.12
372.706	74.12
372.932	73.12
373.158	78.12
373.384	85.12
373.61	82.12
373.835	91.12
374.061	87.12
374.287	101.12
374.513	92.12
374.739	81.12
374.965	84.12
375.191	81.12
375.416	85.12
375.642	77.12
375.868	90.12
376.094	94.12
376.319	89.12
376.545	90.12
376.771	93.12
376.997	78.12
377.222	87.12
377.448	96.12
377.674	78.12
377.899	92.12
378.125	94.12
378.35	84.12
378.576	88.12
378.802	73.12
379.027	84.12
379.253	83.12
379.478	87.12
379.704	93.12
379.929	96.12
380.155	90.12
380.38	98.12
380.606	103.12
380.831	96.12
381.057	90.12
381.282	78.12
381.507	78.12
381.733	97.12
381.958	90.12
382.184	90.12
382.409	95.12
382.634	90.12
382.86	100.12
383.085	102.12
383.31	98.12
383.535	105.12
383.761	86.12
383.986	91.12
384.211	100.12
384.436	107.12
384.662	98.12
384.887	100.12
385.112	103.12
385.337	96.12
385.562	105.12
385.787	105.12
386.013	109.12
386.238	104.12
386.463	93.12
386.688	107.12
386.913	103.12
387.138	110.12
387.363	94.12
387.588	103.12
387.813	110.12
388.038	115.12
388.263	117.12
388.488	104.12
388.713	89.12
388.938	96.12
389.163	90.12
389.387	90.12
389.612	96.12
389.837	92.12
390.062	78.12
390.287	85.12
390.512	87.12
390.736	84.12
390.961	79.12
391.186	89.12
391.411	98.12
391.636	88.12
391.86	74.12
392.085	82.12
392.31	81.12
392.534	83.12
392.759	99.12
392.984	83.12
393.208	71.12
393.433	71.12
393.658	84.12
393.882	62.12
394.107	86.12
394.331	89.12
394.556	86.12
394.78	81.12
395.005	84.12
395.229	83.12
395.454	83.12
395.678	81.12
395.903	82.12
396.127	76.12
396.352	86.12
396.576	80.12
396.801	81.12
397.025	91.12
397.249	90.12
397.474	69.12
397.698	85.12
397.922	72.12
398.147	78.12
398.371	74.12
398.595	71.12
398.82	82.12
399.044	88.12
399.268	73.12
399.492	87.12
399.717	85.12
399.941	101.12
400.165	99.12
400.389	84.12
400.613	84.12
400.837	93.12
401.062	86.12
401.286	81.12
401.51	93.12
401.734	85.12
401.958	84.12
402.182	94.12
402.406	117.12
402.63	97.12
402.854	92.12
403.078	94.12
403.302	94.12
403.526	81.12
403.75	91.12
403.974	78.12
404.198	86.12
404.422	80.12
404.645	79.12
404.869	88.12
405.093	80.12
405.317	78.12
405.541	77.12
405.765	88.12
405.988	106.12
406.212	135.12
406.436	170.12
406.66	116.12
406.883	82.12
407.107	98.12
407.331	93.12
407.555	83.12
407.778	89.12
408.002	89.12
408.226	91.12
408.449	96.12
408.673	90.12
408.896	78.12
409.12	87.12
409.344	88.12
409.567	98.12
409.791	102.12
410.014	90.12
410.238	86.12
410.461	86.12
410.685	79.12
410.908	96.12
411.132	92.12
411.355	97.12
411.578	86.12
411.802	81.12
412.025	84.12
412.249	95.12
412.472	92.12
412.695	90.12
412.919	92.12
413.142	89.12
413.365	90.12
413.589	80.12
413.812	76.12
414.035	86.12
414.258	59.12
414.482	92.12
414.705	77.12
414.928	86.12
415.151	96.12
415.374	87.12
415.597	72.12
415.821	85.12
416.044	88.12
416.267	87.12
416.49	92.12
416.713	89.12
416.936	87.12
417.159	95.12
417.382	79.12
417.605	83.12
417.828	92.12
418.051	85.12
418.274	78.12
418.497	78.12
418.72	77.12
418.943	91.12
419.166	87.12
419.389	80.12
419.611	81.12
419.834	89.12
420.057	89.12
420.28	85.12
420.503	88.12
420.726	77.12
420.948	79.12
421.171	70.12
421.394	89.12
421.617	87.12
421.839	73.12
422.062	81.12
422.285	86.12
422.507	96.12
422.73	90.12
422.953	83.12
423.175	75.12
423.398	91.12
423.621	100.12
423.843	72.12
424.066	78.12
424.288	87.12
424.511	86.12
424.733	75.12
424.956	105.12
425.178	99.12
425.401	94.12
425.623	89.12
425.846	72.12
426.068	93.12
426.291	71.12
426.513	82.12
426.735	77.12
426.958	76.12
427.18	101.12
427.402	117.12
427.625	131.12
427.847	111.12
428.069	110.12
428.292	75.12
428.514	84.12
428.736	90.12
428.958	98.12
429.181	79.12
429.403	90.12
429.625	85.12
429.847	100.12
430.069	79.12
430.292	92.12
430.514	85.12
430.736	87.12
430.958	78.12
431.18	97.12
431.402	84.12
431.624	79.12
431.846	85.12
432.068	78.12
432.29	81.12
432.512	87.12
432.734	84.12
432.956	81.12
433.178	93.12
433.4	91.12
433.622	103.12
433.844	87.12
434.066	94.12
434.287	78.12
434.509	82.12
434.731	98.12
434.953	85.12
435.175	84.12
435.397	85.12
435.618	79.12
435.84	92.12
436.062	118.12
436.284	89.12
436.505	100.12
436.727	101.12
436.949	95.12
437.17	99.12
437.392	74.12
437.614	77.12
437.835	87.12
438.057	100.12
438.278	93.12
438.5	91.12
438.721	112.12
438.943	80.12
439.165	84.12
439.386	78.12
439.608	89.12
439.829	91.12
440.05	111.12
440.272	111.12
440.493	90.12
440.715	96.12
440.936	78.12
441.158	89.12
441.379	86.12
441.6	86.12
441.822	99.12
442.043	80.12
442.264	94.12
442.486	79.12
442.707	99.12
442.928	81.12
443.149	106.12
443.371	97.12
443.592	94.12
443.813	99.12
444.034	88.12
444.255	84.12
444.476	91.12
444.698	89.12
444.919	77.12
445.14	117.12
445.361	123.12
445.582	100.12
445.803	106.12
446.024	113.12
446.245	115.12
446.466	99.12
446.687	91.12
446.908	81.12
447.129	79.12
447.35	84.12
447.571	85.12
447.792	90.12
448.013	95.12
448.234	98.12
448.455	91.12
448.675	106.12
448.896	94.12
449.117	91.12
449.338	90.12
449.559	105.12
449.779	126.12
450	91.12
450.221	86.12
450.442	87.12
450.662	90.12
450.883	92.12
451.104	98.12
451.324	88.12
451.545	93.12
451.766	69.12
451.986	82.12
452.207	81.12
452.428	72.12
452.648	88.12
452.869	104.12
453.089	106.12
453.31	109.12
453.53	99.12
453.751	95.12
453.971	97.12
454.192	102.12
454.412	83.12
454.633	81.12
454.853	83.12
455.073	76.12
455.294	90.12
455.514	79.12
455.734	81.12
455.955	80.12
456.175	86.12
456.395	77.12
456.616	93.12
456.836	85.12
457.056	85.12
457.276	79.12
457.497	90.12
457.717	79.12
457.937	73.12
458.157	84.12
458.377	91.12
458.598	111.12
458.818	121.12
459.038	122.12
459.258	77.12
459.478	87.12
459.698	79.12
459.918	81.12
460.138	99.12
460.358	84.12
460.578	66.12
460.798	86.12
461.018	89.12
461.238	78.12
461.458	91.12
461.678	73.12
461.898	67.12
462.118	85.12
462.338	88.12
462.558	82.12
462.777	70.12
462.997	83.12
463.217	76.12
463.437	89.12
463.657	79.12
463.876	81.12
464.096	89.12
464.316	109.12
464.536	86.12
464.755	90.12
464.975	100.12
465.195	137.12
465.414	119.12
465.634	95.12
465.854	83.12
466.073	87.12
466.293	91.12
466.512	79.12
466.732	92.12
466.951	84.12
467.171	85.12
467.391	83.12
467.61	84.12
467.829	85.12
468.049	93.12
468.268	89.12
468.488	78.12
468.707	90.12
468.927	82.12
469.146	77.12
469.365	84.12
469.585	87.12
469.804	77.12
470.023	84.12
470.243	87.12
470.462	89.12
470.681	93.12
470.901	91.12
471.12	92.12
471.339	73.12
471.558	81.12
471.777	87.12
471.997	85.12
472.216	102.12
472.435	116.12
472.654	98.12
472.873	83.12
473.092	68.12
473.311	82.12
473.53	75.12
473.749	80.12
473.968	92.12
474.187	95.12
474.406	80.12
474.625	75.12
474.844	80.12
475.063	78.12
475.282	87.12
475.501	91.12
475.72	89.12
475.939	85.12
476.158	76.12
476.377	80.12
476.596	81.12
476.814	84.12
477.033	88.12
477.252	88.12
477.471	83.12
477.69	76.12
477.908	77.12
478.127	73.12
478.346	97.12
478.564	81.12
478.783	85.12
479.002	95.12
479.22	84.12
479.439	82.12
479.658	84.12
479.876	85.12
480.095	86.12
480.313	86.12
480.532	92.12
480.751	72.12
480.969	108.12
481.188	164.12
481.406	135.12
481.624	95.12
481.843	93.12
482.061	88.12
482.28	79.12
482.498	89.12
482.717	74.12
482.935	84.12
483.153	91.12
483.372	95.12
483.59	80.12
483.808	95.12
484.027	91.12
484.245	79.12
484.463	82.12
484.681	87.12
484.9	90.12
485.118	100.12
485.336	82.12
485.554	87.12
485.772	107.12
485.99	105.12
486.209	84.12
486.427	96.12
486.645	93.12
486.863	93.12
487.081	97.12
487.299	101.12
487.517	90.12
487.735	99.12
487.953	93.12
488.171	94.12
488.389	89.12
488.607	93.12
488.825	78.12
489.043	96.12
489.261	81.12
489.479	73.12
489.696	89.12
489.914	86.12
490.132	78.12
490.35	89.12
490.568	73.12
490.786	78.12
491.003	89.12
491.221	97.12
491.439	90.12
491.657	93.12
491.874	95.12
492.092	89.12
492.31	92.12
492.527	98.12
492.745	83.12
492.963	85.12
493.18	86.12
493.398	90.12
493.615	93.12
493.833	91.12
494.05	87.12
494.268	82.12
494.485	79.12
494.703	94.12
494.92	90.12
495.138	95.12
495.355	93.12
495.573	96.12
495.79	92.12
496.008	97.12
496.225	78.12
496.442	89.12
496.66	83.12
496.877	94.12
497.094	92.12
497.312	79.12
497.529	82.12
497.746	72.12
497.963	81.12
498.181	103.12
498.398	92.12
498.615	92.12
498.832	98.12
499.049	95.12
499.267	97.12
499.484	81.12
499.701	91.12
499.918	77.12
500.135	73.12
500.352	87.12
500.569	85.12
500.786	101.12
501.003	91.12
501.22	76.12
501.437	78.12
501.654	84.12
501.871	98.12
502.088	81.12
502.305	83.12
502.522	98.12
502.739	96.12
502.956	78.12
503.172	96.12
503.389	101.12
503.606	91.12
503.823	87.12
504.04	95.12
504.256	97.12
504.473	83.12
504.69	90.12
504.907	84.12
505.123	85.12
505.34	73.12
505.557	80.12
505.773	93.12
505.99	71.12
506.207	96.12
506.423	92.12
506.64	83.12
506.856	90.12
507.073	87.12
507.289	91.12
507.506	94.12
507.722	102.12
507.939	110.12
508.155	95.12
508.372	85.12
508.588	82.12
508.805	77.12
509.021	99.12
509.238	90.12
509.454	91.12
509.67	75.12
509.887	80.12
510.103	108.12
510.319	174.12
510.536	548.12
510.752	1675.12
510.968	508.12
511.184	126.12
511.401	100.12
511.617	96.12
511.833	82.12
512.049	73.12
512.265	76.12
512.481	89.12
512.698	72.12
512.914	85.12
513.13	83.12
513.346	101.12
513.562	85.12
513.778	97.12
513.994	89.12
514.21	92.12
514.426	94.12
514.642	110.12
514.858	98.12
515.074	147.12
515.29	355.12
515.506	1018.12
515.721	405.12
515.937	132.12
516.153	94.12
516.369	92.12
516.585	89.12
516.801	85.12
517.016	82.12
517.232	90.12
517.448	99.12
517.664	107.12
