Data from Uncirc_2009_H10_HRD10591_00025.txt Node
Date: Wed Jan 03 10:12:06 EST 2024
User: Yrep
Spectrometer: HR+D1059
Trigger mode: 1
Integration Time (sec): 1.000000E-1
Scans to average: 1
Electric dark correction enabled: true
Nonlinearity correction enabled: false
Boxcar width: 0
XAxis mode: Wavelengths
Number of Pixels in Spectrum: 2048
>>>>>Begin Spectral Data<<<<<
223.165	-27.62
223.4	-27.62
223.635	-27.62
223.869	-9.62
224.104	-4.62
224.338	-23.62
224.573	-20.62
224.808	-0.62
225.042	-7.62
225.277	-22.62
225.511	-6.62
225.746	1.38
225.98	5.38
226.215	27.38
226.449	20.38
226.683	4.38
226.918	31.38
227.152	33.38
227.387	29.38
227.621	32.38
227.856	49.38
228.09	38.38
228.324	58.38
228.559	61.38
228.793	66.38
229.027	51.38
229.262	58.38
229.496	73.38
229.73	67.38
229.964	86.38
230.199	71.38
230.433	71.38
230.667	83.38
230.901	77.38
231.136	77.38
231.37	72.38
231.604	87.38
231.838	77.38
232.072	77.38
232.306	83.38
232.541	93.38
232.775	88.38
233.009	81.38
233.243	79.38
233.477	80.38
233.711	78.38
233.945	76.38
234.179	82.38
234.413	90.38
234.647	82.38
234.881	83.38
235.115	82.38
235.349	88.38
235.583	89.38
235.817	87.38
236.051	84.38
236.285	77.38
236.519	64.38
236.753	80.38
236.987	82.38
237.221	87.38
237.455	85.38
237.689	69.38
237.922	76.38
238.156	79.38
238.39	72.38
238.624	73.38
238.858	69.38
239.091	71.38
239.325	80.38
239.559	74.38
239.793	67.38
240.027	64.38
240.26	74.38
240.494	69.38
240.728	69.38
240.961	72.38
241.195	94.38
241.429	79.38
241.662	79.38
241.896	81.38
242.13	71.38
242.363	80.38
242.597	73.38
242.83	82.38
243.064	80.38
243.298	78.38
243.531	57.38
243.765	73.38
243.998	78.38
244.232	82.38
244.465	91.38
244.699	85.38
244.932	83.38
245.166	76.38
245.399	73.38
245.633	84.38
245.866	81.38
246.099	82.38
246.333	76.38
246.566	79.38
246.8	78.38
247.033	73.38
247.266	71.38
247.5	77.38
247.733	82.38
247.966	75.38
248.2	83.38
248.433	76.38
248.666	86.38
248.899	59.38
249.133	78.38
249.366	79.38
249.599	78.38
249.832	79.38
250.066	84.38
250.299	83.38
250.532	73.38
250.765	80.38
250.998	78.38
251.231	83.38
251.465	84.38
251.698	79.38
251.931	75.38
252.164	75.38
252.397	80.38
252.63	81.38
252.863	93.38
253.096	81.38
253.329	85.38
253.562	78.38
253.795	87.38
254.028	94.38
254.261	103.38
254.494	77.38
254.727	92.38
254.96	86.38
255.193	79.38
255.426	82.38
255.659	79.38
255.892	88.38
256.124	90.38
256.357	83.38
256.59	87.38
256.823	81.38
257.056	83.38
257.289	85.38
257.521	68.38
257.754	76.38
257.987	74.38
258.22	73.38
258.452	83.38
258.685	73.38
258.918	76.38
259.151	78.38
259.383	80.38
259.616	69.38
259.849	87.38
260.081	69.38
260.314	70.38
260.547	79.38
260.779	65.38
261.012	81.38
261.244	65.38
261.477	89.38
261.71	91.38
261.942	88.38
262.175	97.38
262.407	86.38
262.64	85.38
262.872	81.38
263.105	76.38
263.337	95.38
263.57	81.38
263.802	102.38
264.035	92.38
264.267	83.38
264.499	80.38
264.732	84.38
264.964	73.38
265.197	70.38
265.429	77.38
265.661	88.38
265.894	87.38
266.126	80.38
266.358	76.38
266.591	77.38
266.823	73.38
267.055	66.38
267.287	77.38
267.52	71.38
267.752	84.38
267.984	90.38
268.216	74.38
268.448	80.38
268.681	86.38
268.913	72.38
269.145	73.38
269.377	73.38
269.609	83.38
269.841	89.38
270.073	79.38
270.306	88.38
270.538	86.38
270.77	101.38
271.002	90.38
271.234	78.38
271.466	85.38
271.698	81.38
271.93	75.38
272.162	93.38
272.394	93.38
272.626	94.38
272.858	87.38
273.09	89.38
273.322	87.38
273.553	100.38
273.785	89.38
274.017	91.38
274.249	91.38
274.481	76.38
274.713	87.38
274.945	88.38
275.176	91.38
275.408	76.38
275.64	76.38
275.872	78.38
276.104	73.38
276.335	88.38
276.567	93.38
276.799	106.38
277.031	87.38
277.262	89.38
277.494	89.38
277.726	93.38
277.957	83.38
278.189	76.38
278.421	88.38
278.652	90.38
278.884	89.38
279.115	103.38
279.347	80.38
279.579	85.38
279.81	89.38
280.042	90.38
280.273	78.38
280.505	83.38
280.736	72.38
280.968	81.38
281.199	88.38
281.431	79.38
281.662	88.38
281.894	92.38
282.125	93.38
282.356	96.38
282.588	124.38
282.819	103.38
283.051	98.38
283.282	91.38
283.513	91.38
283.745	98.38
283.976	107.38
284.207	93.38
284.439	89.38
284.67	98.38
284.901	95.38
285.132	91.38
285.364	87.38
285.595	92.38
285.826	93.38
286.057	78.38
286.288	88.38
286.52	94.38
286.751	95.38
286.982	88.38
287.213	70.38
287.444	86.38
287.675	83.38
287.906	76.38
288.138	83.38
288.369	94.38
288.6	94.38
288.831	76.38
289.062	82.38
289.293	87.38
289.524	92.38
289.755	81.38
289.986	82.38
290.217	83.38
290.448	94.38
290.679	87.38
290.91	81.38
291.141	82.38
291.371	86.38
291.602	98.38
291.833	99.38
292.064	82.38
292.295	87.38
292.526	90.38
292.757	93.38
292.987	76.38
293.218	88.38
293.449	85.38
293.68	81.38
293.91	83.38
294.141	89.38
294.372	78.38
294.603	93.38
294.833	90.38
295.064	65.38
295.295	94.38
295.525	98.38
295.756	103.38
295.987	112.38
296.217	122.38
296.448	106.38
296.679	80.38
296.909	101.38
297.14	91.38
297.37	95.38
297.601	93.38
297.831	94.38
298.062	83.38
298.292	77.38
298.523	96.38
298.753	94.38
298.984	83.38
299.214	84.38
299.445	77.38
299.675	89.38
299.905	101.38
300.136	95.38
300.366	94.38
300.597	82.38
300.827	85.38
301.057	93.38
301.288	103.38
301.518	103.38
301.748	93.38
301.979	93.38
302.209	93.38
302.439	91.38
302.669	90.38
302.9	82.38
303.13	80.38
303.36	101.38
303.59	101.38
303.82	97.38
304.051	99.38
304.281	81.38
304.511	72.38
304.741	90.38
304.971	88.38
305.201	94.38
305.431	105.38
305.661	86.38
305.891	79.38
306.121	92.38
306.352	102.38
306.582	99.38
306.812	85.38
307.042	84.38
307.272	98.38
307.502	74.38
307.731	80.38
307.961	97.38
308.191	99.38
308.421	80.38
308.651	98.38
308.881	87.38
309.111	83.38
309.341	79.38
309.571	96.38
309.8	97.38
310.03	90.38
310.26	104.38
310.49	91.38
310.72	96.38
310.949	92.38
311.179	85.38
311.409	96.38
311.639	97.38
311.868	97.38
312.098	90.38
312.328	95.38
312.557	104.38
312.787	95.38
313.017	97.38
313.246	93.38
313.476	91.38
313.706	96.38
313.935	87.38
314.165	90.38
314.394	104.38
314.624	86.38
314.853	98.38
315.083	80.38
315.312	83.38
315.542	82.38
315.771	84.38
316.001	105.38
316.23	85.38
316.46	97.38
316.689	102.38
316.919	87.38
317.148	101.38
317.377	118.38
317.607	119.38
317.836	106.38
318.065	90.38
318.295	90.38
318.524	94.38
318.753	95.38
318.983	72.38
319.212	80.38
319.441	91.38
319.67	102.38
319.9	90.38
320.129	107.38
320.358	88.38
320.587	90.38
320.816	98.38
321.046	91.38
321.275	96.38
321.504	100.38
321.733	86.38
321.962	90.38
322.191	94.38
322.42	100.38
322.649	103.38
322.878	126.38
323.108	102.38
323.337	120.38
323.566	114.38
323.795	137.38
324.024	177.38
324.253	318.38
324.482	617.38
324.71	1194.38
324.939	1625.38
325.168	605.38
325.397	207.38
325.626	141.38
325.855	109.38
326.084	131.38
326.313	147.38
326.542	163.38
326.77	192.38
326.999	368.38
327.228	753.38
327.457	1303.38
327.686	1029.38
327.914	301.38
328.143	167.38
328.372	133.38
328.6	110.38
328.829	93.38
329.058	102.38
329.287	112.38
329.515	97.38
329.744	93.38
329.972	104.38
330.201	100.38
330.43	121.38
330.658	102.38
330.887	101.38
331.115	88.38
331.344	105.38
331.572	106.38
331.801	106.38
332.03	107.38
332.258	93.38
332.486	88.38
332.715	104.38
332.943	89.38
333.172	91.38
333.4	91.38
333.629	104.38
333.857	91.38
334.085	98.38
334.314	124.38
334.542	88.38
334.771	100.38
334.999	92.38
335.227	82.38
335.455	95.38
335.684	87.38
335.912	83.38
336.14	100.38
336.369	96.38
336.597	89.38
336.825	94.38
337.053	92.38
337.281	94.38
337.51	115.38
337.738	89.38
337.966	86.38
338.194	95.38
338.422	93.38
338.65	78.38
338.878	97.38
339.106	77.38
339.334	90.38
339.562	94.38
339.79	84.38
340.018	94.38
340.246	80.38
340.474	93.38
340.702	81.38
340.93	89.38
341.158	83.38
341.386	97.38
341.614	90.38
341.842	104.38
342.07	93.38
342.298	102.38
342.526	91.38
342.754	96.38
342.981	97.38
343.209	86.38
343.437	104.38
343.665	95.38
343.893	89.38
344.12	99.38
344.348	82.38
344.576	82.38
344.804	103.38
345.031	99.38
345.259	106.38
345.487	95.38
345.714	102.38
345.942	83.38
346.17	120.38
346.397	98.38
346.625	95.38
346.853	102.38
347.08	86.38
347.308	95.38
347.535	102.38
347.763	97.38
347.99	107.38
348.218	100.38
348.445	86.38
348.673	101.38
348.9	105.38
349.128	97.38
349.355	96.38
349.583	92.38
349.81	90.38
350.037	91.38
350.265	103.38
350.492	82.38
350.72	85.38
350.947	97.38
351.174	111.38
351.402	101.38
351.629	85.38
351.856	95.38
352.083	98.38
352.311	106.38
352.538	99.38
352.765	109.38
352.992	96.38
353.22	107.38
353.447	101.38
353.674	102.38
353.901	90.38
354.128	83.38
354.355	83.38
354.583	106.38
354.81	73.38
355.037	93.38
355.264	99.38
355.491	92.38
355.718	87.38
355.945	94.38
356.172	107.38
356.399	91.38
356.626	102.38
356.853	98.38
357.08	111.38
357.307	89.38
357.534	90.38
357.761	90.38
357.988	106.38
358.215	94.38
358.441	107.38
358.668	103.38
358.895	85.38
359.122	92.38
359.349	77.38
359.576	96.38
359.802	98.38
360.029	95.38
360.256	95.38
360.483	78.38
360.709	99.38
360.936	100.38
361.163	92.38
361.39	98.38
361.616	92.38
361.843	89.38
362.07	86.38
362.296	86.38
362.523	90.38
362.749	93.38
362.976	93.38
363.203	88.38
363.429	88.38
363.656	97.38
363.882	96.38
364.109	81.38
364.335	74.38
364.562	83.38
364.788	91.38
365.015	86.38
365.241	82.38
365.468	102.38
365.694	96.38
365.92	83.38
366.147	88.38
366.373	87.38
366.599	94.38
366.826	107.38
367.052	95.38
367.278	101.38
367.505	82.38
367.731	95.38
367.957	96.38
368.184	91.38
368.41	88.38
368.636	105.38
368.862	104.38
369.089	96.38
369.315	89.38
369.541	93.38
369.767	75.38
369.993	85.38
370.219	90.38
370.445	82.38
370.672	98.38
370.898	95.38
371.124	92.38
371.35	93.38
371.576	98.38
371.802	92.38
372.028	90.38
372.254	84.38
372.48	93.38
372.706	86.38
372.932	107.38
373.158	87.38
373.384	101.38
373.61	93.38
373.835	87.38
374.061	87.38
374.287	87.38
374.513	90.38
374.739	85.38
374.965	92.38
375.191	88.38
375.416	94.38
375.642	99.38
375.868	106.38
376.094	93.38
376.319	69.38
376.545	97.38
376.771	91.38
376.997	90.38
377.222	89.38
377.448	82.38
377.674	93.38
377.899	79.38
378.125	82.38
378.35	93.38
378.576	88.38
378.802	91.38
379.027	91.38
379.253	92.38
379.478	91.38
379.704	87.38
379.929	85.38
380.155	101.38
380.38	103.38
380.606	93.38
380.831	100.38
381.057	88.38
381.282	89.38
381.507	110.38
381.733	110.38
381.958	94.38
382.184	101.38
382.409	95.38
382.634	105.38
382.86	88.38
383.085	97.38
383.31	104.38
383.535	92.38
383.761	98.38
383.986	95.38
384.211	101.38
384.436	102.38
384.662	87.38
384.887	109.38
385.112	106.38
385.337	104.38
385.562	107.38
385.787	95.38
386.013	103.38
386.238	114.38
386.463	105.38
386.688	117.38
386.913	107.38
387.138	105.38
387.363	109.38
387.588	115.38
387.813	100.38
388.038	100.38
388.263	116.38
388.488	113.38
388.713	102.38
388.938	93.38
389.163	95.38
389.387	104.38
389.612	100.38
389.837	102.38
390.062	103.38
390.287	94.38
390.512	86.38
390.736	92.38
390.961	87.38
391.186	90.38
391.411	90.38
391.636	94.38
391.86	87.38
392.085	88.38
392.31	85.38
392.534	79.38
392.759	82.38
392.984	74.38
393.208	94.38
393.433	101.38
393.658	99.38
393.882	86.38
394.107	97.38
394.331	96.38
394.556	75.38
394.78	97.38
395.005	80.38
395.229	94.38
395.454	82.38
395.678	85.38
395.903	107.38
396.127	98.38
396.352	95.38
396.576	80.38
396.801	73.38
397.025	69.38
397.249	82.38
397.474	92.38
397.698	89.38
397.922	90.38
398.147	78.38
398.371	106.38
398.595	81.38
398.82	97.38
399.044	78.38
399.268	83.38
399.492	81.38
399.717	83.38
399.941	74.38
400.165	92.38
400.389	93.38
400.613	93.38
400.837	97.38
401.062	91.38
401.286	75.38
401.51	73.38
401.734	88.38
401.958	91.38
402.182	113.38
402.406	119.38
402.63	91.38
402.854	90.38
403.078	95.38
403.302	66.38
403.526	94.38
403.75	88.38
403.974	97.38
404.198	101.38
404.422	89.38
404.645	98.38
404.869	83.38
405.093	89.38
405.317	108.38
405.541	94.38
405.765	97.38
405.988	102.38
406.212	134.38
406.436	153.38
406.66	126.38
406.883	87.38
407.107	86.38
407.331	104.38
407.555	95.38
407.778	98.38
408.002	82.38
408.226	100.38
408.449	79.38
408.673	85.38
408.896	86.38
409.12	109.38
409.344	94.38
409.567	83.38
409.791	105.38
410.014	95.38
410.238	92.38
410.461	89.38
410.685	95.38
410.908	95.38
411.132	92.38
411.355	102.38
411.578	102.38
411.802	96.38
412.025	82.38
412.249	95.38
412.472	89.38
412.695	95.38
412.919	68.38
413.142	71.38
413.365	93.38
413.589	85.38
413.812	88.38
414.035	83.38
414.258	87.38
414.482	85.38
414.705	89.38
414.928	85.38
415.151	98.38
415.374	97.38
415.597	94.38
415.821	79.38
416.044	98.38
416.267	97.38
416.49	87.38
416.713	98.38
416.936	89.38
417.159	83.38
417.382	82.38
417.605	96.38
417.828	94.38
418.051	94.38
418.274	79.38
418.497	80.38
418.72	78.38
418.943	80.38
419.166	87.38
419.389	101.38
419.611	98.38
419.834	83.38
420.057	82.38
420.28	83.38
420.503	90.38
420.726	95.38
420.948	87.38
421.171	105.38
421.394	92.38
421.617	94.38
421.839	91.38
422.062	96.38
422.285	88.38
422.507	83.38
422.73	77.38
422.953	88.38
423.175	77.38
423.398	80.38
423.621	95.38
423.843	74.38
424.066	86.38
424.288	85.38
424.511	98.38
424.733	93.38
424.956	95.38
425.178	80.38
425.401	83.38
425.623	100.38
425.846	89.38
426.068	87.38
426.291	92.38
426.513	77.38
426.735	88.38
426.958	77.38
427.18	97.38
427.402	118.38
427.625	139.38
427.847	102.38
428.069	100.38
428.292	101.38
428.514	94.38
428.736	81.38
428.958	82.38
429.181	96.38
429.403	69.38
429.625	91.38
429.847	95.38
430.069	89.38
430.292	94.38
430.514	86.38
430.736	69.38
430.958	85.38
431.18	92.38
431.402	77.38
431.624	92.38
431.846	93.38
432.068	87.38
432.29	80.38
432.512	87.38
432.734	89.38
432.956	92.38
433.178	112.38
433.4	101.38
433.622	96.38
433.844	103.38
434.066	76.38
434.287	81.38
434.509	95.38
434.731	92.38
434.953	93.38
435.175	86.38
435.397	102.38
435.618	89.38
435.84	98.38
436.062	96.38
436.284	106.38
436.505	98.38
436.727	99.38
436.949	95.38
437.17	98.38
437.392	79.38
437.614	88.38
437.835	96.38
438.057	96.38
438.278	91.38
438.5	103.38
438.721	103.38
438.943	98.38
439.165	94.38
439.386	77.38
439.608	87.38
439.829	88.38
440.05	95.38
440.272	145.38
440.493	91.38
440.715	85.38
440.936	90.38
441.158	103.38
441.379	76.38
441.6	79.38
441.822	89.38
442.043	92.38
442.264	100.38
442.486	93.38
442.707	86.38
442.928	101.38
443.149	117.38
443.371	118.38
443.592	100.38
443.813	105.38
444.034	123.38
444.255	108.38
444.476	99.38
444.698	88.38
444.919	82.38
445.14	139.38
445.361	124.38
445.582	96.38
445.803	119.38
446.024	114.38
446.245	125.38
446.466	110.38
446.687	96.38
446.908	78.38
447.129	97.38
447.35	93.38
447.571	99.38
447.792	80.38
448.013	93.38
448.234	108.38
448.455	101.38
448.675	104.38
448.896	87.38
449.117	108.38
449.338	75.38
449.559	106.38
449.779	118.38
450	93.38
450.221	107.38
450.442	84.38
450.662	101.38
450.883	110.38
451.104	109.38
451.324	80.38
451.545	80.38
451.766	78.38
451.986	73.38
452.207	97.38
452.428	105.38
452.648	94.38
452.869	96.38
453.089	89.38
453.31	98.38
453.53	100.38
453.751	97.38
453.971	87.38
454.192	99.38
454.412	80.38
454.633	87.38
454.853	82.38
455.073	94.38
455.294	95.38
455.514	99.38
455.734	88.38
455.955	81.38
456.175	87.38
456.395	96.38
456.616	74.38
456.836	76.38
457.056	81.38
457.276	78.38
457.497	96.38
457.717	83.38
457.937	86.38
458.157	77.38
458.377	79.38
458.598	99.38
458.818	118.38
459.038	127.38
459.258	98.38
459.478	88.38
459.698	96.38
459.918	86.38
460.138	72.38
460.358	78.38
460.578	82.38
460.798	93.38
461.018	93.38
461.238	83.38
461.458	82.38
461.678	76.38
461.898	91.38
462.118	86.38
462.338	82.38
462.558	82.38
462.777	82.38
462.997	75.38
463.217	96.38
463.437	86.38
463.657	87.38
463.876	85.38
464.096	87.38
464.316	90.38
464.536	77.38
464.755	85.38
464.975	96.38
465.195	130.38
465.414	135.38
465.634	93.38
465.854	94.38
466.073	86.38
466.293	94.38
466.512	87.38
466.732	85.38
466.951	85.38
467.171	93.38
467.391	88.38
467.61	91.38
467.829	78.38
468.049	77.38
468.268	100.38
468.488	87.38
468.707	103.38
468.927	98.38
469.146	71.38
469.365	95.38
469.585	74.38
469.804	95.38
470.023	93.38
470.243	103.38
470.462	90.38
470.681	105.38
470.901	93.38
471.12	94.38
471.339	89.38
471.558	86.38
471.777	79.38
471.997	79.38
472.216	103.38
472.435	136.38
472.654	96.38
472.873	102.38
473.092	88.38
473.311	75.38
473.53	79.38
473.749	83.38
473.968	106.38
474.187	90.38
474.406	92.38
474.625	97.38
474.844	95.38
475.063	86.38
475.282	97.38
475.501	98.38
475.72	91.38
475.939	81.38
476.158	79.38
476.377	91.38
476.596	105.38
476.814	86.38
477.033	91.38
477.252	95.38
477.471	89.38
477.69	97.38
477.908	98.38
478.127	80.38
478.346	83.38
478.564	88.38
478.783	84.38
479.002	94.38
479.22	90.38
479.439	92.38
479.658	102.38
479.876	90.38
480.095	97.38
480.313	90.38
480.532	106.38
480.751	87.38
480.969	110.38
481.188	161.38
481.406	131.38
481.624	92.38
481.843	93.38
482.061	83.38
482.28	87.38
482.498	97.38
482.717	74.38
482.935	85.38
483.153	68.38
483.372	101.38
483.59	93.38
483.808	92.38
484.027	90.38
484.245	101.38
484.463	63.38
484.681	98.38
484.9	81.38
485.118	98.38
485.336	78.38
485.554	104.38
485.772	108.38
485.99	96.38
486.209	99.38
486.427	108.38
486.645	105.38
486.863	99.38
487.081	98.38
487.299	89.38
487.517	102.38
487.735	101.38
487.953	90.38
488.171	109.38
488.389	94.38
488.607	84.38
488.825	84.38
489.043	96.38
489.261	91.38
489.479	86.38
489.696	100.38
489.914	93.38
490.132	95.38
490.35	78.38
490.568	88.38
490.786	82.38
491.003	84.38
491.221	88.38
491.439	87.38
491.657	99.38
491.874	89.38
492.092	85.38
492.31	94.38
492.527	96.38
492.745	86.38
492.963	79.38
493.18	85.38
493.398	92.38
493.615	92.38
493.833	96.38
494.05	99.38
494.268	88.38
494.485	80.38
494.703	89.38
494.92	107.38
495.138	80.38
495.355	86.38
495.573	104.38
495.79	80.38
496.008	90.38
496.225	93.38
496.442	90.38
496.66	83.38
496.877	84.38
497.094	89.38
497.312	96.38
497.529	96.38
497.746	90.38
497.963	91.38
498.181	103.38
498.398	82.38
498.615	94.38
498.832	100.38
499.049	92.38
499.267	96.38
499.484	87.38
499.701	89.38
499.918	81.38
500.135	103.38
500.352	95.38
500.569	90.38
500.786	87.38
501.003	97.38
501.22	73.38
501.437	94.38
501.654	89.38
501.871	83.38
502.088	95.38
502.305	78.38
502.522	77.38
502.739	89.38
502.956	86.38
503.172	84.38
503.389	101.38
503.606	93.38
503.823	91.38
504.04	91.38
504.256	78.38
504.473	87.38
504.69	86.38
504.907	89.38
505.123	78.38
505.34	89.38
505.557	96.38
505.773	89.38
505.99	81.38
506.207	92.38
506.423	106.38
506.64	83.38
506.856	88.38
507.073	83.38
507.289	89.38
507.506	90.38
507.722	99.38
507.939	94.38
508.155	78.38
508.372	91.38
508.588	89.38
508.805	86.38
509.021	117.38
509.238	91.38
509.454	90.38
509.67	101.38
509.887	105.38
510.103	120.38
510.319	177.38
510.536	513.38
510.752	1562.38
510.968	469.38
511.184	133.38
511.401	110.38
511.617	97.38
511.833	86.38
512.049	94.38
512.265	87.38
512.481	86.38
512.698	84.38
512.914	82.38
513.13	89.38
513.346	83.38
513.562	89.38
513.778	107.38
513.994	94.38
514.21	89.38
514.426	117.38
514.642	111.38
514.858	106.38
515.074	127.38
515.29	299.38
515.506	899.38
515.721	364.38
515.937	131.38
516.153	101.38
516.369	93.38
