Data from Uncirc_2009_H10_HRD10591_00038.txt Node
Date: Wed Jan 03 10:12:09 EST 2024
User: Yrep
Spectrometer: HR+D1059
Trigger mode: 1
Integration Time (sec): 1.000000E-1
Scans to average: 1
Electric dark correction enabled: true
Nonlinearity correction enabled: false
Boxcar width: 0
XAxis mode: Wavelengths
Number of Pixels in Spectrum: 2048
>>>>>Begin Spectral Data<<<<<
223.165	-6.56
223.4	-6.56
223.635	-6.56
223.869	-13.56
224.104	-9.56
224.338	-3.56
224.573	-9.56
224.808	-4.56
225.042	-6.56
225.277	-4.56
225.511	0.44
225.746	-0.56
225.98	-7.56
226.215	1.44
226.449	18.44
226.683	28.44
226.918	8.44
227.152	9.44
227.387	41.44
227.621	40.44
227.856	34.44
228.09	44.44
228.324	45.44
228.559	57.44
228.793	62.44
229.027	77.44
229.262	75.44
229.496	71.44
229.73	72.44
229.964	83.44
230.199	67.44
230.433	70.44
230.667	75.44
230.901	75.44
231.136	78.44
231.37	85.44
231.604	58.44
231.838	76.44
232.072	75.44
232.306	79.44
232.541	85.44
232.775	89.44
233.009	77.44
233.243	73.44
233.477	80.44
233.711	70.44
233.945	80.44
234.179	82.44
234.413	74.44
234.647	77.44
234.881	89.44
235.115	71.44
235.349	79.44
235.583	81.44
235.817	85.44
236.051	82.44
236.285	68.44
236.519	74.44
236.753	83.44
236.987	74.44
237.221	76.44
237.455	75.44
237.689	73.44
237.922	78.44
238.156	63.44
238.39	76.44
238.624	69.44
238.858	69.44
239.091	74.44
239.325	73.44
239.559	82.44
239.793	80.44
240.027	61.44
240.26	75.44
240.494	75.44
240.728	78.44
240.961	80.44
241.195	75.44
241.429	80.44
241.662	74.44
241.896	70.44
242.13	66.44
242.363	70.44
242.597	62.44
242.83	73.44
243.064	72.44
243.298	78.44
243.531	81.44
243.765	65.44
243.998	83.44
244.232	73.44
244.465	78.44
244.699	78.44
244.932	78.44
245.166	74.44
245.399	71.44
245.633	74.44
245.866	70.44
246.099	81.44
246.333	72.44
246.566	80.44
246.8	81.44
247.033	67.44
247.266	67.44
247.5	74.44
247.733	85.44
247.966	81.44
248.2	84.44
248.433	91.44
248.666	77.44
248.899	69.44
249.133	88.44
249.366	99.44
249.599	87.44
249.832	88.44
250.066	85.44
250.299	66.44
250.532	71.44
250.765	76.44
250.998	68.44
251.231	68.44
251.465	61.44
251.698	73.44
251.931	69.44
252.164	72.44
252.397	64.44
252.63	71.44
252.863	77.44
253.096	74.44
253.329	69.44
253.562	73.44
253.795	76.44
254.028	87.44
254.261	77.44
254.494	80.44
254.727	78.44
254.96	76.44
255.193	75.44
255.426	84.44
255.659	76.44
255.892	74.44
256.124	69.44
256.357	76.44
256.59	80.44
256.823	74.44
257.056	80.44
257.289	81.44
257.521	78.44
257.754	76.44
257.987	73.44
258.22	83.44
258.452	78.44
258.685	84.44
258.918	74.44
259.151	91.44
259.383	79.44
259.616	86.44
259.849	78.44
260.081	75.44
260.314	73.44
260.547	75.44
260.779	67.44
261.012	66.44
261.244	85.44
261.477	86.44
261.71	89.44
261.942	99.44
262.175	96.44
262.407	71.44
262.64	73.44
262.872	78.44
263.105	78.44
263.337	84.44
263.57	90.44
263.802	74.44
264.035	69.44
264.267	67.44
264.499	86.44
264.732	81.44
264.964	77.44
265.197	72.44
265.429	92.44
265.661	82.44
265.894	77.44
266.126	82.44
266.358	85.44
266.591	84.44
266.823	81.44
267.055	81.44
267.287	75.44
267.52	74.44
267.752	78.44
267.984	75.44
268.216	97.44
268.448	82.44
268.681	69.44
268.913	85.44
269.145	82.44
269.377	74.44
269.609	93.44
269.841	77.44
270.073	66.44
270.306	88.44
270.538	90.44
270.77	84.44
271.002	93.44
271.234	64.44
271.466	68.44
271.698	87.44
271.93	93.44
272.162	75.44
272.394	92.44
272.626	85.44
272.858	71.44
273.09	86.44
273.322	83.44
273.553	84.44
273.785	72.44
274.017	69.44
274.249	80.44
274.481	96.44
274.713	96.44
274.945	88.44
275.176	68.44
275.408	80.44
275.64	74.44
275.872	84.44
276.104	77.44
276.335	79.44
276.567	89.44
276.799	93.44
277.031	81.44
277.262	78.44
277.494	90.44
277.726	72.44
277.957	91.44
278.189	93.44
278.421	78.44
278.652	84.44
278.884	91.44
279.115	92.44
279.347	76.44
279.579	75.44
279.81	80.44
280.042	71.44
280.273	88.44
280.505	86.44
280.736	93.44
280.968	77.44
281.199	79.44
281.431	72.44
281.662	74.44
281.894	74.44
282.125	89.44
282.356	101.44
282.588	123.44
282.819	100.44
283.051	78.44
283.282	77.44
283.513	86.44
283.745	93.44
283.976	89.44
284.207	101.44
284.439	93.44
284.67	84.44
284.901	87.44
285.132	85.44
285.364	82.44
285.595	82.44
285.826	96.44
286.057	87.44
286.288	89.44
286.52	85.44
286.751	79.44
286.982	84.44
287.213	83.44
287.444	82.44
287.675	76.44
287.906	85.44
288.138	74.44
288.369	79.44
288.6	87.44
288.831	76.44
289.062	78.44
289.293	76.44
289.524	81.44
289.755	85.44
289.986	65.44
290.217	75.44
290.448	81.44
290.679	72.44
290.91	67.44
291.141	94.44
291.371	89.44
291.602	86.44
291.833	82.44
292.064	75.44
292.295	75.44
292.526	97.44
292.757	66.44
292.987	86.44
293.218	83.44
293.449	82.44
293.68	75.44
293.91	88.44
294.141	76.44
294.372	88.44
294.603	87.44
294.833	91.44
295.064	100.44
295.295	87.44
295.525	82.44
295.756	87.44
295.987	104.44
296.217	112.44
296.448	109.44
296.679	100.44
296.909	74.44
297.14	85.44
297.37	82.44
297.601	82.44
297.831	90.44
298.062	84.44
298.292	79.44
298.523	83.44
298.753	84.44
298.984	93.44
299.214	70.44
299.445	74.44
299.675	89.44
299.905	72.44
300.136	80.44
300.366	76.44
300.597	97.44
300.827	80.44
301.057	99.44
301.288	95.44
301.518	86.44
301.748	76.44
301.979	93.44
302.209	86.44
302.439	74.44
302.669	81.44
302.9	84.44
303.13	92.44
303.36	99.44
303.59	106.44
303.82	89.44
304.051	96.44
304.281	95.44
304.511	79.44
304.741	85.44
304.971	83.44
305.201	99.44
305.431	88.44
305.661	81.44
305.891	86.44
306.121	79.44
306.352	77.44
306.582	96.44
306.812	84.44
307.042	80.44
307.272	81.44
307.502	81.44
307.731	86.44
307.961	79.44
308.191	90.44
308.421	76.44
308.651	91.44
308.881	85.44
309.111	98.44
309.341	93.44
309.571	93.44
309.8	83.44
310.03	92.44
310.26	94.44
310.49	79.44
310.72	69.44
310.949	101.44
311.179	104.44
311.409	91.44
311.639	87.44
311.868	84.44
312.098	82.44
312.328	97.44
312.557	99.44
312.787	83.44
313.017	103.44
313.246	77.44
313.476	75.44
313.706	83.44
313.935	95.44
314.165	93.44
314.394	99.44
314.624	93.44
314.853	83.44
315.083	97.44
315.312	85.44
315.542	80.44
315.771	89.44
316.001	91.44
316.23	92.44
316.46	86.44
316.689	85.44
316.919	79.44
317.148	100.44
317.377	101.44
317.607	114.44
317.836	117.44
318.065	95.44
318.295	76.44
318.524	80.44
318.753	88.44
318.983	77.44
319.212	94.44
319.441	92.44
319.67	82.44
319.9	85.44
320.129	86.44
320.358	100.44
320.587	87.44
320.816	95.44
321.046	104.44
321.275	87.44
321.504	88.44
321.733	90.44
321.962	92.44
322.191	90.44
322.42	90.44
322.649	105.44
322.878	107.44
323.108	106.44
323.337	103.44
323.566	119.44
323.795	126.44
324.024	170.44
324.253	296.44
324.482	618.44
324.71	1232.44
324.939	1586.44
325.168	612.44
325.397	197.44
325.626	139.44
325.855	100.44
326.084	124.44
326.313	159.44
326.542	150.44
326.77	188.44
326.999	384.44
327.228	719.44
327.457	1274.44
327.686	1006.44
327.914	296.44
328.143	162.44
328.372	125.44
328.6	101.44
328.829	102.44
329.058	124.44
329.287	118.44
329.515	108.44
329.744	102.44
329.972	82.44
330.201	85.44
330.43	104.44
330.658	120.44
330.887	107.44
331.115	101.44
331.344	87.44
331.572	77.44
331.801	90.44
332.03	93.44
332.258	84.44
332.486	87.44
332.715	94.44
332.943	105.44
333.172	95.44
333.4	85.44
333.629	101.44
333.857	99.44
334.085	110.44
334.314	100.44
334.542	102.44
334.771	105.44
334.999	83.44
335.227	81.44
335.455	85.44
335.684	93.44
335.912	82.44
336.14	79.44
336.369	83.44
336.597	100.44
336.825	87.44
337.053	104.44
337.281	80.44
337.51	80.44
337.738	87.44
337.966	98.44
338.194	94.44
338.422	71.44
338.65	99.44
338.878	91.44
339.106	90.44
339.334	92.44
339.562	97.44
339.79	87.44
340.018	77.44
340.246	104.44
340.474	79.44
340.702	84.44
340.93	97.44
341.158	73.44
341.386	78.44
341.614	98.44
341.842	89.44
342.07	89.44
342.298	83.44
342.526	83.44
342.754	82.44
342.981	100.44
343.209	90.44
343.437	103.44
343.665	91.44
343.893	78.44
344.12	78.44
344.348	86.44
344.576	88.44
344.804	77.44
345.031	77.44
345.259	100.44
345.487	91.44
345.714	83.44
345.942	90.44
346.17	91.44
346.397	74.44
346.625	85.44
346.853	81.44
347.08	83.44
347.308	91.44
347.535	92.44
347.763	97.44
347.99	99.44
348.218	92.44
348.445	84.44
348.673	98.44
348.9	97.44
349.128	88.44
349.355	97.44
349.583	76.44
349.81	89.44
350.037	102.44
350.265	84.44
350.492	75.44
350.72	96.44
350.947	77.44
351.174	84.44
351.402	85.44
351.629	87.44
351.856	96.44
352.083	89.44
352.311	96.44
352.538	89.44
352.765	108.44
352.992	117.44
353.22	103.44
353.447	94.44
353.674	103.44
353.901	95.44
354.128	95.44
354.355	83.44
354.583	84.44
354.81	97.44
355.037	95.44
355.264	96.44
355.491	81.44
355.718	78.44
355.945	90.44
356.172	93.44
356.399	103.44
356.626	72.44
356.853	91.44
357.08	104.44
357.307	84.44
357.534	78.44
357.761	83.44
357.988	83.44
358.215	90.44
358.441	84.44
358.668	73.44
358.895	94.44
359.122	90.44
359.349	90.44
359.576	88.44
359.802	75.44
360.029	102.44
360.256	93.44
360.483	84.44
360.709	93.44
360.936	92.44
361.163	90.44
361.39	86.44
361.616	90.44
361.843	85.44
362.07	83.44
362.296	76.44
362.523	76.44
362.749	70.44
362.976	79.44
363.203	92.44
363.429	95.44
363.656	101.44
363.882	76.44
364.109	86.44
364.335	87.44
364.562	80.44
364.788	96.44
365.015	95.44
365.241	96.44
365.468	93.44
365.694	93.44
365.92	80.44
366.147	82.44
366.373	89.44
366.599	79.44
366.826	94.44
367.052	88.44
367.278	62.44
367.505	82.44
367.731	92.44
367.957	91.44
368.184	96.44
368.41	88.44
368.636	91.44
368.862	99.44
369.089	84.44
369.315	85.44
369.541	104.44
369.767	77.44
369.993	86.44
370.219	76.44
370.445	90.44
370.672	86.44
370.898	85.44
371.124	74.44
371.35	80.44
371.576	84.44
371.802	61.44
372.028	87.44
372.254	88.44
372.48	95.44
372.706	76.44
372.932	80.44
373.158	85.44
373.384	78.44
373.61	85.44
373.835	87.44
374.061	98.44
374.287	97.44
374.513	74.44
374.739	69.44
374.965	88.44
375.191	91.44
375.416	88.44
375.642	83.44
375.868	91.44
376.094	94.44
376.319	97.44
376.545	80.44
376.771	87.44
376.997	90.44
377.222	92.44
377.448	84.44
377.674	84.44
377.899	80.44
378.125	91.44
378.35	83.44
378.576	86.44
378.802	93.44
379.027	93.44
379.253	90.44
379.478	80.44
379.704	70.44
379.929	99.44
380.155	114.44
380.38	104.44
380.606	98.44
380.831	100.44
381.057	93.44
381.282	84.44
381.507	89.44
381.733	93.44
381.958	89.44
382.184	112.44
382.409	98.44
382.634	101.44
382.86	96.44
383.085	88.44
383.31	87.44
383.535	93.44
383.761	103.44
383.986	92.44
384.211	83.44
384.436	83.44
384.662	96.44
384.887	107.44
385.112	94.44
385.337	104.44
385.562	93.44
385.787	83.44
386.013	113.44
386.238	109.44
386.463	93.44
386.688	100.44
386.913	105.44
387.138	114.44
387.363	105.44
387.588	100.44
387.813	106.44
388.038	101.44
388.263	101.44
388.488	105.44
388.713	86.44
388.938	73.44
389.163	82.44
389.387	88.44
389.612	94.44
389.837	93.44
390.062	81.44
390.287	93.44
390.512	93.44
390.736	80.44
390.961	90.44
391.186	89.44
391.411	83.44
391.636	93.44
391.86	86.44
392.085	84.44
392.31	98.44
392.534	81.44
392.759	94.44
392.984	90.44
393.208	92.44
393.433	86.44
393.658	91.44
393.882	78.44
394.107	79.44
394.331	80.44
394.556	89.44
394.78	86.44
395.005	86.44
395.229	93.44
395.454	90.44
395.678	74.44
395.903	71.44
396.127	91.44
396.352	80.44
396.576	86.44
396.801	90.44
397.025	69.44
397.249	82.44
397.474	87.44
397.698	81.44
397.922	90.44
398.147	80.44
398.371	85.44
398.595	92.44
398.82	77.44
399.044	74.44
399.268	82.44
399.492	99.44
399.717	66.44
399.941	87.44
400.165	100.44
400.389	83.44
400.613	86.44
400.837	92.44
401.062	78.44
401.286	75.44
401.51	93.44
401.734	87.44
401.958	83.44
402.182	113.44
402.406	136.44
402.63	107.44
402.854	73.44
403.078	81.44
403.302	85.44
403.526	84.44
403.75	89.44
403.974	81.44
404.198	73.44
404.422	73.44
404.645	72.44
404.869	87.44
405.093	87.44
405.317	99.44
405.541	86.44
405.765	91.44
405.988	97.44
406.212	117.44
406.436	169.44
406.66	102.44
406.883	102.44
407.107	85.44
407.331	88.44
407.555	85.44
407.778	85.44
408.002	83.44
408.226	91.44
408.449	96.44
408.673	99.44
408.896	89.44
409.12	87.44
409.344	92.44
409.567	84.44
409.791	89.44
410.014	88.44
410.238	93.44
410.461	98.44
410.685	102.44
410.908	85.44
411.132	88.44
411.355	86.44
411.578	83.44
411.802	87.44
412.025	93.44
412.249	92.44
412.472	75.44
412.695	90.44
412.919	84.44
413.142	83.44
413.365	85.44
413.589	78.44
413.812	78.44
414.035	87.44
414.258	85.44
414.482	75.44
414.705	75.44
414.928	78.44
415.151	91.44
415.374	86.44
415.597	78.44
415.821	84.44
416.044	91.44
416.267	92.44
416.49	90.44
416.713	76.44
416.936	83.44
417.159	86.44
417.382	89.44
417.605	83.44
417.828	72.44
418.051	86.44
418.274	83.44
418.497	75.44
418.72	96.44
418.943	77.44
419.166	84.44
419.389	94.44
419.611	83.44
419.834	96.44
420.057	93.44
420.28	78.44
420.503	79.44
420.726	87.44
420.948	87.44
421.171	93.44
421.394	92.44
421.617	71.44
421.839	83.44
422.062	81.44
422.285	98.44
422.507	79.44
422.73	86.44
422.953	72.44
423.175	80.44
423.398	86.44
423.621	84.44
423.843	78.44
424.066	82.44
424.288	72.44
424.511	92.44
424.733	102.44
424.956	103.44
425.178	89.44
425.401	92.44
425.623	87.44
425.846	82.44
426.068	85.44
426.291	78.44
426.513	78.44
426.735	92.44
426.958	89.44
427.18	87.44
427.402	126.44
427.625	110.44
427.847	112.44
428.069	98.44
428.292	74.44
428.514	83.44
428.736	86.44
428.958	70.44
429.181	77.44
429.403	80.44
429.625	91.44
429.847	81.44
430.069	84.44
430.292	101.44
430.514	88.44
430.736	87.44
430.958	89.44
431.18	76.44
431.402	76.44
431.624	82.44
431.846	87.44
432.068	69.44
432.29	78.44
432.512	82.44
432.734	86.44
432.956	74.44
433.178	100.44
433.4	97.44
433.622	82.44
433.844	85.44
434.066	91.44
434.287	86.44
434.509	85.44
434.731	88.44
434.953	90.44
435.175	74.44
435.397	82.44
435.618	69.44
435.84	85.44
436.062	115.44
436.284	101.44
436.505	86.44
436.727	89.44
436.949	91.44
437.17	83.44
437.392	82.44
437.614	85.44
437.835	96.44
438.057	99.44
438.278	99.44
438.5	100.44
438.721	107.44
438.943	90.44
439.165	90.44
439.386	86.44
439.608	82.44
439.829	84.44
440.05	116.44
440.272	126.44
440.493	83.44
440.715	86.44
440.936	88.44
441.158	80.44
441.379	77.44
441.6	88.44
441.822	85.44
442.043	81.44
442.264	94.44
442.486	88.44
442.707	96.44
442.928	89.44
443.149	106.44
443.371	109.44
443.592	98.44
443.813	101.44
444.034	98.44
444.255	92.44
444.476	98.44
444.698	79.44
444.919	78.44
445.14	116.44
445.361	108.44
445.582	92.44
445.803	115.44
446.024	99.44
446.245	114.44
446.466	92.44
446.687	87.44
446.908	95.44
447.129	89.44
447.35	81.44
447.571	89.44
447.792	95.44
448.013	82.44
448.234	97.44
448.455	90.44
448.675	101.44
448.896	109.44
449.117	84.44
449.338	112.44
449.559	105.44
449.779	110.44
450	98.44
450.221	84.44
450.442	84.44
450.662	105.44
450.883	90.44
451.104	83.44
451.324	77.44
451.545	84.44
451.766	87.44
451.986	75.44
452.207	81.44
452.428	95.44
452.648	90.44
452.869	90.44
453.089	85.44
453.31	131.44
453.53	101.44
453.751	83.44
453.971	97.44
454.192	106.44
454.412	82.44
454.633	75.44
454.853	79.44
455.073	69.44
455.294	83.44
455.514	81.44
455.734	87.44
455.955	92.44
456.175	95.44
456.395	83.44
456.616	71.44
456.836	86.44
457.056	91.44
457.276	80.44
457.497	77.44
457.717	76.44
457.937	72.44
458.157	67.44
458.377	79.44
458.598	85.44
458.818	109.44
459.038	115.44
459.258	98.44
459.478	80.44
459.698	88.44
459.918	86.44
460.138	93.44
460.358	73.44
460.578	77.44
460.798	76.44
461.018	90.44
461.238	78.44
461.458	90.44
461.678	87.44
461.898	80.44
462.118	80.44
462.338	97.44
462.558	72.44
462.777	77.44
462.997	96.44
463.217	83.44
463.437	93.44
463.657	81.44
463.876	83.44
464.096	81.44
464.316	78.44
464.536	91.44
464.755	77.44
464.975	88.44
465.195	124.44
465.414	119.44
465.634	92.44
465.854	90.44
466.073	74.44
466.293	82.44
466.512	79.44
466.732	86.44
466.951	71.44
467.171	89.44
467.391	72.44
467.61	77.44
467.829	95.44
468.049	93.44
468.268	96.44
468.488	83.44
468.707	76.44
468.927	70.44
469.146	79.44
469.365	75.44
469.585	85.44
469.804	94.44
470.023	96.44
470.243	92.44
470.462	98.44
470.681	102.44
470.901	96.44
471.12	101.44
471.339	84.44
471.558	82.44
471.777	90.44
471.997	93.44
472.216	105.44
472.435	127.44
472.654	90.44
472.873	81.44
473.092	79.44
473.311	91.44
473.53	86.44
473.749	79.44
473.968	62.44
474.187	86.44
474.406	78.44
474.625	92.44
474.844	113.44
475.063	76.44
475.282	82.44
475.501	88.44
475.72	83.44
475.939	74.44
476.158	77.44
476.377	89.44
476.596	82.44
476.814	91.44
477.033	106.44
477.252	85.44
477.471	72.44
477.69	82.44
477.908	73.44
478.127	73.44
478.346	89.44
478.564	88.44
478.783	89.44
479.002	98.44
479.22	96.44
479.439	87.44
479.658	88.44
479.876	83.44
480.095	78.44
480.313	90.44
480.532	84.44
480.751	83.44
480.969	100.44
481.188	150.44
481.406	130.44
481.624	76.44
481.843	75.44
482.061	84.44
482.28	84.44
482.498	76.44
482.717	93.44
482.935	88.44
483.153	89.44
483.372	71.44
483.59	79.44
483.808	75.44
484.027	89.44
484.245	88.44
484.463	88.44
484.681	99.44
484.9	94.44
485.118	96.44
485.336	84.44
485.554	72.44
485.772	103.44
485.99	95.44
486.209	94.44
486.427	104.44
486.645	102.44
486.863	85.44
487.081	88.44
487.299	91.44
487.517	82.44
487.735	77.44
487.953	91.44
488.171	88.44
488.389	94.44
488.607	88.44
488.825	89.44
489.043	91.44
489.261	84.44
489.479	95.44
489.696	79.44
489.914	71.44
490.132	80.44
490.35	88.44
490.568	91.44
490.786	77.44
491.003	86.44
491.221	87.44
491.439	87.44
491.657	92.44
491.874	87.44
492.092	103.44
492.31	86.44
492.527	87.44
492.745	100.44
492.963	86.44
493.18	94.44
493.398	87.44
493.615	101.44
493.833	95.44
494.05	82.44
494.268	102.44
494.485	78.44
494.703	77.44
494.92	72.44
495.138	72.44
495.355	80.44
495.573	75.44
495.79	92.44
496.008	95.44
496.225	74.44
496.442	86.44
496.66	96.44
496.877	99.44
497.094	96.44
497.312	79.44
497.529	95.44
497.746	96.44
497.963	97.44
498.181	86.44
498.398	97.44
498.615	94.44
498.832	99.44
499.049	82.44
499.267	75.44
499.484	89.44
499.701	81.44
499.918	82.44
500.135	93.44
500.352	78.44
500.569	85.44
500.786	92.44
501.003	85.44
501.22	91.44
501.437	80.44
501.654	90.44
501.871	103.44
502.088	75.44
502.305	81.44
502.522	80.44
502.739	81.44
502.956	90.44
503.172	87.44
503.389	88.44
503.606	96.44
503.823	88.44
504.04	80.44
504.256	72.44
504.473	78.44
504.69	95.44
504.907	85.44
505.123	76.44
505.34	97.44
505.557	80.44
505.773	91.44
505.99	77.44
506.207	81.44
506.423	77.44
506.64	84.44
506.856	78.44
507.073	82.44
507.289	74.44
507.506	88.44
507.722	106.44
507.939	93.44
508.155	88.44
508.372	96.44
508.588	89.44
508.805	89.44
509.021	73.44
509.238	90.44
509.454	98.44
509.67	99.44
509.887	93.44
510.103	100.44
510.319	180.44
510.536	540.44
510.752	1584.44
510.968	481.44
511.184	129.44
511.401	93.44
511.617	81.44
511.833	96.44
512.049	78.44
512.265	92.44
512.481	93.44
512.698	81.44
512.914	92.44
513.13	94.44
513.346	84.44
513.562	89.44
513.778	83.44
513.994	98.44
514.21	103.44
514.426	107.44
514.642	112.44
514.858	111.44
515.074	141.44
515.29	305.44
515.506	933.44
515.721	354.44
515.937	127.44
516.153	85.44
516.369	90.44
516.585	94.44
516.801	90.44
517.016	102.44
517.232	76.44
517.448	92.44
517.664	87.44
