Data from Uncirc_2009_H10_HRD10591_00027.txt Node
Date: Wed Jan 03 10:12:07 EST 2024
User: Yrep
Spectrometer: HR+D1059
Trigger mode: 1
Integration Time (sec): 1.000000E-1
Scans to average: 1
Electric dark correction enabled: true
Nonlinearity correction enabled: false
Boxcar width: 0
XAxis mode: Wavelengths
Number of Pixels in Spectrum: 2048
>>>>>Begin Spectral Data<<<<<
223.165	-25.44
223.4	-25.44
223.635	-25.44
223.869	-29.44
224.104	-26.44
224.338	-18.44
224.573	-11.44
224.808	-12.44
225.042	-2.44
225.277	7.56
225.511	-8.44
225.746	13.56
225.98	13.56
226.215	25.56
226.449	14.56
226.683	12.56
226.918	17.56
227.152	29.56
227.387	33.56
227.621	37.56
227.856	37.56
228.09	46.56
228.324	56.56
228.559	60.56
228.793	65.56
229.027	53.56
229.262	65.56
229.496	67.56
229.73	60.56
229.964	73.56
230.199	70.56
230.433	76.56
230.667	62.56
230.901	72.56
231.136	83.56
231.37	62.56
231.604	87.56
231.838	76.56
232.072	82.56
232.306	83.56
232.541	75.56
232.775	82.56
233.009	77.56
233.243	68.56
233.477	69.56
233.711	82.56
233.945	83.56
234.179	74.56
234.413	57.56
234.647	74.56
234.881	68.56
235.115	87.56
235.349	87.56
235.583	67.56
235.817	76.56
236.051	85.56
236.285	70.56
236.519	72.56
236.753	65.56
236.987	82.56
237.221	68.56
237.455	73.56
237.689	70.56
237.922	68.56
238.156	82.56
238.39	62.56
238.624	77.56
238.858	74.56
239.091	73.56
239.325	68.56
239.559	77.56
239.793	78.56
240.027	78.56
240.26	75.56
240.494	75.56
240.728	86.56
240.961	74.56
241.195	67.56
241.429	83.56
241.662	80.56
241.896	69.56
242.13	66.56
242.363	74.56
242.597	70.56
242.83	69.56
243.064	84.56
243.298	81.56
243.531	65.56
243.765	78.56
243.998	82.56
244.232	77.56
244.465	85.56
244.699	75.56
244.932	71.56
245.166	72.56
245.399	77.56
245.633	73.56
245.866	59.56
246.099	74.56
246.333	91.56
246.566	66.56
246.8	72.56
247.033	77.56
247.266	69.56
247.5	79.56
247.733	79.56
247.966	76.56
248.2	83.56
248.433	69.56
248.666	79.56
248.899	80.56
249.133	82.56
249.366	92.56
249.599	84.56
249.832	72.56
250.066	76.56
250.299	81.56
250.532	79.56
250.765	78.56
250.998	73.56
251.231	83.56
251.465	79.56
251.698	91.56
251.931	78.56
252.164	80.56
252.397	84.56
252.63	75.56
252.863	72.56
253.096	85.56
253.329	86.56
253.562	66.56
253.795	78.56
254.028	87.56
254.261	83.56
254.494	82.56
254.727	78.56
254.96	83.56
255.193	67.56
255.426	89.56
255.659	84.56
255.892	79.56
256.124	87.56
256.357	80.56
256.59	84.56
256.823	85.56
257.056	84.56
257.289	84.56
257.521	67.56
257.754	74.56
257.987	83.56
258.22	81.56
258.452	84.56
258.685	89.56
258.918	86.56
259.151	67.56
259.383	83.56
259.616	67.56
259.849	77.56
260.081	76.56
260.314	83.56
260.547	55.56
260.779	81.56
261.012	79.56
261.244	74.56
261.477	94.56
261.71	100.56
261.942	95.56
262.175	92.56
262.407	86.56
262.64	85.56
262.872	90.56
263.105	85.56
263.337	79.56
263.57	88.56
263.802	92.56
264.035	72.56
264.267	88.56
264.499	71.56
264.732	78.56
264.964	93.56
265.197	63.56
265.429	84.56
265.661	70.56
265.894	74.56
266.126	84.56
266.358	87.56
266.591	76.56
266.823	81.56
267.055	79.56
267.287	85.56
267.52	73.56
267.752	79.56
267.984	76.56
268.216	92.56
268.448	82.56
268.681	72.56
268.913	73.56
269.145	74.56
269.377	65.56
269.609	81.56
269.841	83.56
270.073	89.56
270.306	85.56
270.538	80.56
270.77	94.56
271.002	99.56
271.234	86.56
271.466	84.56
271.698	78.56
271.93	90.56
272.162	85.56
272.394	89.56
272.626	79.56
272.858	73.56
273.09	79.56
273.322	69.56
273.553	84.56
273.785	82.56
274.017	88.56
274.249	76.56
274.481	91.56
274.713	82.56
274.945	82.56
275.176	75.56
275.408	78.56
275.64	95.56
275.872	70.56
276.104	74.56
276.335	90.56
276.567	97.56
276.799	102.56
277.031	79.56
277.262	77.56
277.494	72.56
277.726	77.56
277.957	87.56
278.189	88.56
278.421	86.56
278.652	82.56
278.884	80.56
279.115	79.56
279.347	91.56
279.579	86.56
279.81	86.56
280.042	85.56
280.273	90.56
280.505	89.56
280.736	83.56
280.968	86.56
281.199	85.56
281.431	91.56
281.662	91.56
281.894	79.56
282.125	83.56
282.356	96.56
282.588	110.56
282.819	103.56
283.051	79.56
283.282	75.56
283.513	91.56
283.745	79.56
283.976	86.56
284.207	102.56
284.439	87.56
284.67	88.56
284.901	86.56
285.132	79.56
285.364	101.56
285.595	86.56
285.826	69.56
286.057	90.56
286.288	82.56
286.52	77.56
286.751	83.56
286.982	79.56
287.213	76.56
287.444	79.56
287.675	70.56
287.906	89.56
288.138	78.56
288.369	85.56
288.6	79.56
288.831	92.56
289.062	71.56
289.293	82.56
289.524	79.56
289.755	78.56
289.986	78.56
290.217	89.56
290.448	77.56
290.679	80.56
290.91	72.56
291.141	86.56
291.371	94.56
291.602	86.56
291.833	67.56
292.064	87.56
292.295	94.56
292.526	87.56
292.757	68.56
292.987	87.56
293.218	100.56
293.449	82.56
293.68	82.56
293.91	78.56
294.141	76.56
294.372	86.56
294.603	80.56
294.833	71.56
295.064	79.56
295.295	70.56
295.525	85.56
295.756	83.56
295.987	96.56
296.217	121.56
296.448	110.56
296.679	74.56
296.909	75.56
297.14	89.56
297.37	85.56
297.601	81.56
297.831	93.56
298.062	81.56
298.292	92.56
298.523	92.56
298.753	79.56
298.984	93.56
299.214	67.56
299.445	88.56
299.675	101.56
299.905	90.56
300.136	87.56
300.366	98.56
300.597	95.56
300.827	100.56
301.057	110.56
301.288	96.56
301.518	91.56
301.748	85.56
301.979	89.56
302.209	76.56
302.439	97.56
302.669	73.56
302.9	81.56
303.13	93.56
303.36	102.56
303.59	109.56
303.82	97.56
304.051	92.56
304.281	86.56
304.511	93.56
304.741	90.56
304.971	81.56
305.201	77.56
305.431	84.56
305.661	77.56
305.891	89.56
306.121	100.56
306.352	94.56
306.582	96.56
306.812	86.56
307.042	74.56
307.272	74.56
307.502	87.56
307.731	97.56
307.961	93.56
308.191	81.56
308.421	89.56
308.651	89.56
308.881	78.56
309.111	88.56
309.341	85.56
309.571	84.56
309.8	99.56
310.03	81.56
310.26	94.56
310.49	85.56
310.72	86.56
310.949	83.56
311.179	97.56
311.409	89.56
311.639	96.56
311.868	79.56
312.098	81.56
312.328	82.56
312.557	86.56
312.787	100.56
313.017	86.56
313.246	83.56
313.476	87.56
313.706	91.56
313.935	94.56
314.165	79.56
314.394	93.56
314.624	85.56
314.853	83.56
315.083	94.56
315.312	86.56
315.542	75.56
315.771	67.56
316.001	77.56
316.23	93.56
316.46	89.56
316.689	76.56
316.919	83.56
317.148	87.56
317.377	100.56
317.607	109.56
317.836	106.56
318.065	81.56
318.295	85.56
318.524	86.56
318.753	88.56
318.983	88.56
319.212	98.56
319.441	89.56
319.67	95.56
319.9	106.56
320.129	99.56
320.358	79.56
320.587	95.56
320.816	97.56
321.046	107.56
321.275	95.56
321.504	103.56
321.733	106.56
321.962	99.56
322.191	102.56
322.42	72.56
322.649	97.56
322.878	102.56
323.108	106.56
323.337	103.56
323.566	114.56
323.795	113.56
324.024	170.56
324.253	334.56
324.482	641.56
324.71	1331.56
324.939	1683.56
325.168	654.56
325.397	199.56
325.626	126.56
325.855	118.56
326.084	139.56
326.313	139.56
326.542	156.56
326.77	185.56
326.999	376.56
327.228	753.56
327.457	1357.56
327.686	1099.56
327.914	294.56
328.143	161.56
328.372	113.56
328.6	111.56
328.829	91.56
329.058	117.56
329.287	120.56
329.515	100.56
329.744	99.56
329.972	109.56
330.201	99.56
330.43	110.56
330.658	93.56
330.887	103.56
331.115	101.56
331.344	90.56
331.572	88.56
331.801	97.56
332.03	84.56
332.258	91.56
332.486	90.56
332.715	97.56
332.943	79.56
333.172	90.56
333.4	88.56
333.629	91.56
333.857	94.56
334.085	97.56
334.314	106.56
334.542	123.56
334.771	114.56
334.999	85.56
335.227	87.56
335.455	84.56
335.684	91.56
335.912	101.56
336.14	89.56
336.369	82.56
336.597	90.56
336.825	93.56
337.053	82.56
337.281	78.56
337.51	87.56
337.738	92.56
337.966	94.56
338.194	97.56
338.422	78.56
338.65	82.56
338.878	98.56
339.106	85.56
339.334	88.56
339.562	96.56
339.79	90.56
340.018	82.56
340.246	92.56
340.474	83.56
340.702	94.56
340.93	105.56
341.158	78.56
341.386	79.56
341.614	97.56
341.842	77.56
342.07	87.56
342.298	94.56
342.526	78.56
342.754	94.56
342.981	80.56
343.209	82.56
343.437	85.56
343.665	93.56
343.893	89.56
344.12	86.56
344.348	72.56
344.576	83.56
344.804	84.56
345.031	85.56
345.259	89.56
345.487	98.56
345.714	97.56
345.942	85.56
346.17	103.56
346.397	96.56
346.625	86.56
346.853	91.56
347.08	84.56
347.308	95.56
347.535	86.56
347.763	101.56
347.99	109.56
348.218	85.56
348.445	91.56
348.673	91.56
348.9	91.56
349.128	97.56
349.355	93.56
349.583	84.56
349.81	82.56
350.037	86.56
350.265	89.56
350.492	105.56
350.72	102.56
350.947	99.56
351.174	89.56
351.402	90.56
351.629	99.56
351.856	72.56
352.083	97.56
352.311	105.56
352.538	83.56
352.765	107.56
352.992	106.56
353.22	97.56
353.447	99.56
353.674	100.56
353.901	95.56
354.128	107.56
354.355	87.56
354.583	84.56
354.81	95.56
355.037	93.56
355.264	99.56
355.491	88.56
355.718	79.56
355.945	91.56
356.172	96.56
356.399	78.56
356.626	100.56
356.853	90.56
357.08	95.56
357.307	94.56
357.534	90.56
357.761	82.56
357.988	87.56
358.215	97.56
358.441	82.56
358.668	73.56
358.895	77.56
359.122	90.56
359.349	87.56
359.576	93.56
359.802	82.56
360.029	85.56
360.256	102.56
360.483	113.56
360.709	86.56
360.936	98.56
361.163	86.56
361.39	83.56
361.616	94.56
361.843	86.56
362.07	91.56
362.296	82.56
362.523	81.56
362.749	82.56
362.976	91.56
363.203	81.56
363.429	67.56
363.656	84.56
363.882	88.56
364.109	90.56
364.335	84.56
364.562	70.56
364.788	85.56
365.015	86.56
365.241	83.56
365.468	96.56
365.694	85.56
365.92	85.56
366.147	91.56
366.373	91.56
366.599	89.56
366.826	94.56
367.052	71.56
367.278	89.56
367.505	78.56
367.731	94.56
367.957	77.56
368.184	92.56
368.41	85.56
368.636	84.56
368.862	123.56
369.089	93.56
369.315	94.56
369.541	94.56
369.767	90.56
369.993	92.56
370.219	90.56
370.445	88.56
370.672	95.56
370.898	83.56
371.124	82.56
371.35	71.56
371.576	73.56
371.802	72.56
372.028	98.56
372.254	85.56
372.48	75.56
372.706	81.56
372.932	84.56
373.158	88.56
373.384	79.56
373.61	80.56
373.835	93.56
374.061	79.56
374.287	88.56
374.513	100.56
374.739	84.56
374.965	82.56
375.191	93.56
375.416	83.56
375.642	83.56
375.868	78.56
376.094	79.56
376.319	82.56
376.545	83.56
376.771	76.56
376.997	94.56
377.222	91.56
377.448	76.56
377.674	82.56
377.899	77.56
378.125	89.56
378.35	83.56
378.576	75.56
378.802	84.56
379.027	83.56
379.253	92.56
379.478	92.56
379.704	83.56
379.929	99.56
380.155	90.56
380.38	88.56
380.606	101.56
380.831	89.56
381.057	93.56
381.282	93.56
381.507	74.56
381.733	85.56
381.958	88.56
382.184	90.56
382.409	94.56
382.634	95.56
382.86	83.56
383.085	83.56
383.31	102.56
383.535	105.56
383.761	98.56
383.986	97.56
384.211	86.56
384.436	98.56
384.662	88.56
384.887	100.56
385.112	91.56
385.337	110.56
385.562	107.56
385.787	99.56
386.013	101.56
386.238	113.56
386.463	89.56
386.688	103.56
386.913	103.56
387.138	94.56
387.363	91.56
387.588	90.56
387.813	95.56
388.038	93.56
388.263	99.56
388.488	103.56
388.713	95.56
388.938	94.56
389.163	87.56
389.387	95.56
389.612	94.56
389.837	91.56
390.062	95.56
390.287	84.56
390.512	77.56
390.736	80.56
390.961	83.56
391.186	85.56
391.411	92.56
391.636	73.56
391.86	81.56
392.085	83.56
392.31	70.56
392.534	88.56
392.759	85.56
392.984	88.56
393.208	98.56
393.433	87.56
393.658	84.56
393.882	90.56
394.107	74.56
394.331	75.56
394.556	76.56
394.78	77.56
395.005	91.56
395.229	77.56
395.454	80.56
395.678	74.56
395.903	88.56
396.127	88.56
396.352	92.56
396.576	89.56
396.801	84.56
397.025	98.56
397.249	90.56
397.474	80.56
397.698	78.56
397.922	74.56
398.147	88.56
398.371	79.56
398.595	75.56
398.82	72.56
399.044	80.56
399.268	82.56
399.492	87.56
399.717	66.56
399.941	94.56
400.165	95.56
400.389	57.56
400.613	77.56
400.837	78.56
401.062	69.56
401.286	64.56
401.51	77.56
401.734	92.56
401.958	97.56
402.182	110.56
402.406	137.56
402.63	92.56
402.854	84.56
403.078	90.56
403.302	85.56
403.526	97.56
403.75	85.56
403.974	82.56
404.198	81.56
404.422	67.56
404.645	75.56
404.869	80.56
405.093	98.56
405.317	83.56
405.541	98.56
405.765	93.56
405.988	99.56
406.212	152.56
406.436	172.56
406.66	118.56
406.883	84.56
407.107	97.56
407.331	74.56
407.555	89.56
407.778	96.56
408.002	79.56
408.226	91.56
408.449	81.56
408.673	82.56
408.896	78.56
409.12	82.56
409.344	92.56
409.567	89.56
409.791	89.56
410.014	84.56
410.238	92.56
410.461	88.56
410.685	79.56
410.908	93.56
411.132	95.56
411.355	89.56
411.578	84.56
411.802	81.56
412.025	89.56
412.249	74.56
412.472	83.56
412.695	91.56
412.919	73.56
413.142	82.56
413.365	96.56
413.589	81.56
413.812	97.56
414.035	87.56
414.258	81.56
414.482	87.56
414.705	90.56
414.928	94.56
415.151	97.56
415.374	82.56
415.597	77.56
415.821	85.56
416.044	67.56
416.267	84.56
416.49	109.56
416.713	76.56
416.936	77.56
417.159	83.56
417.382	86.56
417.605	81.56
417.828	87.56
418.051	79.56
418.274	77.56
418.497	95.56
418.72	93.56
418.943	79.56
419.166	82.56
419.389	88.56
419.611	84.56
419.834	71.56
420.057	74.56
420.28	77.56
420.503	93.56
420.726	86.56
420.948	83.56
421.171	90.56
421.394	96.56
421.617	79.56
421.839	75.56
422.062	89.56
422.285	75.56
422.507	87.56
422.73	86.56
422.953	95.56
423.175	78.56
423.398	88.56
423.621	70.56
423.843	77.56
424.066	77.56
424.288	84.56
424.511	83.56
424.733	94.56
424.956	95.56
425.178	83.56
425.401	95.56
425.623	90.56
425.846	82.56
426.068	81.56
426.291	90.56
426.513	76.56
426.735	92.56
426.958	94.56
427.18	92.56
427.402	121.56
427.625	131.56
427.847	109.56
428.069	102.56
428.292	80.56
428.514	85.56
428.736	105.56
428.958	81.56
429.181	77.56
429.403	83.56
429.625	82.56
429.847	78.56
430.069	93.56
430.292	97.56
430.514	81.56
430.736	84.56
430.958	91.56
431.18	85.56
431.402	77.56
431.624	90.56
431.846	82.56
432.068	85.56
432.29	85.56
432.512	86.56
432.734	101.56
432.956	74.56
433.178	82.56
433.4	82.56
433.622	94.56
433.844	85.56
434.066	89.56
434.287	75.56
434.509	91.56
434.731	80.56
434.953	79.56
435.175	68.56
435.397	107.56
435.618	77.56
435.84	96.56
436.062	106.56
436.284	103.56
436.505	99.56
436.727	90.56
436.949	91.56
437.17	92.56
437.392	73.56
437.614	86.56
437.835	94.56
438.057	95.56
438.278	117.56
438.5	93.56
438.721	103.56
438.943	96.56
439.165	89.56
439.386	77.56
439.608	93.56
439.829	85.56
440.05	90.56
440.272	108.56
440.493	95.56
440.715	84.56
440.936	83.56
441.158	79.56
441.379	64.56
441.6	83.56
441.822	92.56
442.043	88.56
442.264	78.56
442.486	68.56
442.707	93.56
442.928	93.56
443.149	106.56
443.371	103.56
443.592	84.56
443.813	83.56
444.034	92.56
444.255	79.56
444.476	81.56
444.698	81.56
444.919	74.56
445.14	110.56
445.361	114.56
445.582	106.56
445.803	115.56
446.024	115.56
446.245	109.56
446.466	95.56
446.687	89.56
446.908	86.56
447.129	87.56
447.35	86.56
447.571	88.56
447.792	93.56
448.013	84.56
448.234	93.56
448.455	104.56
448.675	91.56
448.896	106.56
449.117	93.56
449.338	101.56
449.559	132.56
449.779	123.56
450	94.56
450.221	75.56
450.442	78.56
450.662	90.56
450.883	85.56
451.104	85.56
451.324	91.56
451.545	80.56
451.766	71.56
451.986	83.56
452.207	82.56
452.428	97.56
452.648	83.56
452.869	93.56
453.089	93.56
453.31	87.56
453.53	84.56
453.751	91.56
453.971	97.56
454.192	106.56
454.412	84.56
454.633	97.56
454.853	88.56
455.073	70.56
455.294	84.56
455.514	88.56
455.734	83.56
455.955	81.56
456.175	87.56
456.395	82.56
456.616	75.56
456.836	94.56
457.056	78.56
457.276	77.56
457.497	78.56
457.717	82.56
457.937	86.56
458.157	79.56
458.377	87.56
458.598	88.56
458.818	112.56
459.038	129.56
459.258	104.56
459.478	93.56
459.698	84.56
459.918	87.56
460.138	82.56
460.358	85.56
460.578	84.56
460.798	88.56
461.018	81.56
461.238	87.56
461.458	82.56
461.678	79.56
461.898	74.56
462.118	89.56
462.338	88.56
462.558	80.56
462.777	80.56
462.997	68.56
463.217	80.56
463.437	80.56
463.657	91.56
463.876	89.56
464.096	100.56
464.316	90.56
464.536	82.56
464.755	86.56
464.975	92.56
465.195	104.56
465.414	117.56
465.634	102.56
465.854	89.56
466.073	83.56
466.293	82.56
466.512	98.56
466.732	81.56
466.951	72.56
467.171	88.56
467.391	103.56
467.61	97.56
467.829	90.56
468.049	96.56
468.268	95.56
468.488	82.56
468.707	79.56
468.927	90.56
469.146	84.56
469.365	88.56
469.585	84.56
469.804	84.56
470.023	99.56
470.243	99.56
470.462	100.56
470.681	98.56
470.901	88.56
471.12	74.56
471.339	96.56
471.558	85.56
471.777	86.56
471.997	82.56
472.216	107.56
472.435	118.56
472.654	92.56
472.873	86.56
473.092	84.56
473.311	91.56
473.53	85.56
473.749	79.56
473.968	89.56
474.187	97.56
474.406	94.56
474.625	85.56
474.844	73.56
475.063	89.56
475.282	77.56
475.501	84.56
475.72	98.56
475.939	87.56
476.158	79.56
476.377	86.56
476.596	96.56
476.814	89.56
477.033	88.56
477.252	68.56
477.471	76.56
477.69	89.56
477.908	85.56
478.127	80.56
478.346	72.56
478.564	82.56
478.783	103.56
479.002	86.56
479.22	83.56
479.439	90.56
479.658	96.56
479.876	89.56
480.095	93.56
480.313	73.56
480.532	82.56
480.751	97.56
480.969	92.56
481.188	148.56
481.406	129.56
481.624	99.56
481.843	78.56
482.061	76.56
482.28	91.56
482.498	80.56
482.717	86.56
482.935	92.56
483.153	77.56
483.372	88.56
483.59	84.56
483.808	81.56
484.027	84.56
484.245	91.56
484.463	88.56
484.681	100.56
484.9	102.56
485.118	89.56
485.336	92.56
485.554	90.56
485.772	87.56
485.99	76.56
486.209	82.56
486.427	104.56
486.645	118.56
486.863	104.56
487.081	94.56
487.299	86.56
487.517	89.56
487.735	87.56
487.953	85.56
488.171	85.56
488.389	96.56
488.607	93.56
488.825	82.56
489.043	90.56
489.261	91.56
489.479	79.56
489.696	89.56
489.914	91.56
490.132	96.56
490.35	79.56
490.568	79.56
490.786	86.56
491.003	82.56
491.221	83.56
491.439	74.56
491.657	89.56
491.874	100.56
492.092	96.56
492.31	100.56
492.527	81.56
492.745	94.56
492.963	94.56
493.18	87.56
493.398	84.56
493.615	90.56
493.833	89.56
494.05	76.56
494.268	81.56
494.485	79.56
494.703	97.56
494.92	74.56
495.138	81.56
495.355	88.56
495.573	95.56
495.79	79.56
496.008	85.56
496.225	72.56
496.442	77.56
496.66	87.56
496.877	81.56
497.094	91.56
497.312	78.56
497.529	84.56
497.746	98.56
497.963	97.56
498.181	78.56
498.398	100.56
498.615	98.56
498.832	86.56
499.049	90.56
499.267	76.56
499.484	86.56
499.701	89.56
499.918	97.56
500.135	89.56
500.352	86.56
500.569	85.56
500.786	94.56
501.003	92.56
501.22	94.56
501.437	97.56
501.654	91.56
501.871	89.56
502.088	87.56
502.305	93.56
502.522	73.56
502.739	87.56
502.956	92.56
503.172	90.56
503.389	82.56
503.606	93.56
503.823	84.56
504.04	100.56
504.256	102.56
504.473	82.56
504.69	78.56
504.907	86.56
505.123	75.56
505.34	79.56
505.557	82.56
505.773	85.56
505.99	77.56
506.207	109.56
506.423	74.56
506.64	77.56
506.856	105.56
507.073	85.56
507.289	89.56
507.506	99.56
507.722	97.56
507.939	88.56
508.155	99.56
508.372	83.56
508.588	74.56
508.805	98.56
509.021	84.56
509.238	82.56
509.454	83.56
509.67	91.56
509.887	95.56
510.103	118.56
510.319	175.56
510.536	573.56
510.752	1649.56
510.968	494.56
511.184	129.56
511.401	98.56
511.617	91.56
511.833	85.56
512.049	80.56
512.265	95.56
512.481	85.56
512.698	85.56
512.914	72.56
513.13	76.56
513.346	77.56
513.562	111.56
513.778	92.56
513.994	91.56
514.21	91.56
514.426	81.56
514.642	110.56
514.858	107.56
515.074	139.56
515.29	322.56
515.506	1021.56
515.721	387.56
515.937	131.56
516.153	108.56
516.369	81.56
516.585	85.56
516.801	100.56
517.016	107.56
517.232	97.56
517.448	91.56
517.664	84.56
