Data from Uncirc_2009_H10_HRD10591_00071.txt Node
Date: Wed Jan 03 10:12:16 EST 2024
User: Yrep
Spectrometer: HR+D1059
Trigger mode: 1
Integration Time (sec): 1.000000E-1
Scans to average: 1
Electric dark correction enabled: true
Nonlinearity correction enabled: false
Boxcar width: 0
XAxis mode: Wavelengths
Number of Pixels in Spectrum: 2048
>>>>>Begin Spectral Data<<<<<
223.165	-14.25
223.4	-14.25
223.635	-14.25
223.869	-30.25
224.104	-15.25
224.338	-8.25
224.573	-12.25
224.808	-6.25
225.042	-6.25
225.277	-3.25
225.511	4.75
225.746	-3.25
225.98	2.75
226.215	9.75
226.449	14.75
226.683	20.75
226.918	13.75
227.152	32.75
227.387	45.75
227.621	40.75
227.856	45.75
228.09	53.75
228.324	44.75
228.559	69.75
228.793	68.75
229.027	73.75
229.262	71.75
229.496	82.75
229.73	78.75
229.964	82.75
230.199	75.75
230.433	87.75
230.667	89.75
230.901	82.75
231.136	78.75
231.37	83.75
231.604	73.75
231.838	98.75
232.072	85.75
232.306	81.75
232.541	95.75
232.775	74.75
233.009	82.75
233.243	90.75
233.477	99.75
233.711	80.75
233.945	78.75
234.179	93.75
234.413	80.75
234.647	84.75
234.881	78.75
235.115	83.75
235.349	87.75
235.583	87.75
235.817	95.75
236.051	79.75
236.285	89.75
236.519	99.75
236.753	75.75
236.987	85.75
237.221	79.75
237.455	84.75
237.689	80.75
237.922	87.75
238.156	65.75
238.39	80.75
238.624	85.75
238.858	80.75
239.091	82.75
239.325	72.75
239.559	72.75
239.793	91.75
240.027	84.75
240.26	72.75
240.494	79.75
240.728	92.75
240.961	73.75
241.195	81.75
241.429	87.75
241.662	80.75
241.896	86.75
242.13	62.75
242.363	58.75
242.597	79.75
242.83	73.75
243.064	74.75
243.298	75.75
243.531	74.75
243.765	82.75
243.998	88.75
244.232	77.75
244.465	95.75
244.699	82.75
244.932	90.75
245.166	81.75
245.399	83.75
245.633	90.75
245.866	68.75
246.099	68.75
246.333	68.75
246.566	75.75
246.8	102.75
247.033	69.75
247.266	81.75
247.5	80.75
247.733	66.75
247.966	82.75
248.2	98.75
248.433	77.75
248.666	98.75
248.899	78.75
249.133	93.75
249.366	97.75
249.599	92.75
249.832	82.75
250.066	83.75
250.299	75.75
250.532	95.75
250.765	85.75
250.998	90.75
251.231	86.75
251.465	82.75
251.698	78.75
251.931	84.75
252.164	75.75
252.397	65.75
252.63	69.75
252.863	71.75
253.096	91.75
253.329	89.75
253.562	90.75
253.795	85.75
254.028	86.75
254.261	77.75
254.494	72.75
254.727	83.75
254.96	84.75
255.193	84.75
255.426	94.75
255.659	96.75
255.892	95.75
256.124	76.75
256.357	74.75
256.59	92.75
256.823	87.75
257.056	78.75
257.289	79.75
257.521	87.75
257.754	84.75
257.987	89.75
258.22	86.75
258.452	85.75
258.685	82.75
258.918	81.75
259.151	99.75
259.383	91.75
259.616	75.75
259.849	81.75
260.081	89.75
260.314	82.75
260.547	89.75
260.779	80.75
261.012	84.75
261.244	80.75
261.477	90.75
261.71	85.75
261.942	97.75
262.175	103.75
262.407	105.75
262.64	77.75
262.872	79.75
263.105	80.75
263.337	93.75
263.57	99.75
263.802	87.75
264.035	84.75
264.267	85.75
264.499	91.75
264.732	71.75
264.964	80.75
265.197	80.75
265.429	82.75
265.661	76.75
265.894	101.75
266.126	85.75
266.358	92.75
266.591	76.75
266.823	78.75
267.055	96.75
267.287	100.75
267.52	107.75
267.752	77.75
267.984	84.75
268.216	86.75
268.448	92.75
268.681	84.75
268.913	89.75
269.145	87.75
269.377	83.75
269.609	84.75
269.841	83.75
270.073	66.75
270.306	69.75
270.538	103.75
270.77	77.75
271.002	87.75
271.234	95.75
271.466	91.75
271.698	89.75
271.93	76.75
272.162	88.75
272.394	93.75
272.626	89.75
272.858	84.75
273.09	93.75
273.322	80.75
273.553	88.75
273.785	92.75
274.017	93.75
274.249	78.75
274.481	84.75
274.713	91.75
274.945	102.75
275.176	85.75
275.408	82.75
275.64	92.75
275.872	89.75
276.104	92.75
276.335	100.75
276.567	89.75
276.799	112.75
277.031	101.75
277.262	91.75
277.494	85.75
277.726	85.75
277.957	92.75
278.189	82.75
278.421	93.75
278.652	84.75
278.884	81.75
279.115	84.75
279.347	92.75
279.579	85.75
279.81	93.75
280.042	97.75
280.273	88.75
280.505	77.75
280.736	84.75
280.968	92.75
281.199	93.75
281.431	96.75
281.662	76.75
281.894	96.75
282.125	101.75
282.356	102.75
282.588	103.75
282.819	105.75
283.051	94.75
283.282	84.75
283.513	96.75
283.745	86.75
283.976	98.75
284.207	88.75
284.439	87.75
284.67	89.75
284.901	92.75
285.132	96.75
285.364	98.75
285.595	69.75
285.826	99.75
286.057	88.75
286.288	98.75
286.52	96.75
286.751	91.75
286.982	79.75
287.213	91.75
287.444	92.75
287.675	91.75
287.906	93.75
288.138	85.75
288.369	93.75
288.6	90.75
288.831	93.75
289.062	105.75
289.293	90.75
289.524	89.75
289.755	88.75
289.986	94.75
290.217	100.75
290.448	93.75
290.679	84.75
290.91	90.75
291.141	80.75
291.371	86.75
291.602	84.75
291.833	88.75
292.064	75.75
292.295	80.75
292.526	96.75
292.757	87.75
292.987	95.75
293.218	90.75
293.449	88.75
293.68	95.75
293.91	89.75
294.141	86.75
294.372	86.75
294.603	92.75
294.833	95.75
295.064	106.75
295.295	81.75
295.525	96.75
295.756	95.75
295.987	108.75
296.217	111.75
296.448	104.75
296.679	85.75
296.909	80.75
297.14	93.75
297.37	99.75
297.601	77.75
297.831	85.75
298.062	96.75
298.292	83.75
298.523	89.75
298.753	88.75
298.984	82.75
299.214	75.75
299.445	101.75
299.675	99.75
299.905	95.75
300.136	97.75
300.366	90.75
300.597	102.75
300.827	99.75
301.057	96.75
301.288	89.75
301.518	77.75
301.748	89.75
301.979	94.75
302.209	82.75
302.439	83.75
302.669	83.75
302.9	87.75
303.13	92.75
303.36	109.75
303.59	98.75
303.82	93.75
304.051	90.75
304.281	99.75
304.511	89.75
304.741	88.75
304.971	87.75
305.201	102.75
305.431	95.75
305.661	93.75
305.891	82.75
306.121	95.75
306.352	94.75
306.582	102.75
306.812	80.75
307.042	91.75
307.272	93.75
307.502	101.75
307.731	99.75
307.961	109.75
308.191	103.75
308.421	102.75
308.651	102.75
308.881	90.75
309.111	95.75
309.341	103.75
309.571	95.75
309.8	82.75
310.03	110.75
310.26	95.75
310.49	90.75
310.72	80.75
310.949	96.75
311.179	105.75
311.409	99.75
311.639	105.75
311.868	86.75
312.098	87.75
312.328	82.75
312.557	98.75
312.787	87.75
313.017	106.75
313.246	95.75
313.476	95.75
313.706	94.75
313.935	98.75
314.165	85.75
314.394	81.75
314.624	103.75
314.853	91.75
315.083	89.75
315.312	89.75
315.542	100.75
315.771	86.75
316.001	105.75
316.23	86.75
316.46	101.75
316.689	108.75
316.919	91.75
317.148	95.75
317.377	104.75
317.607	121.75
317.836	101.75
318.065	95.75
318.295	92.75
318.524	98.75
318.753	91.75
318.983	95.75
319.212	92.75
319.441	109.75
319.67	95.75
319.9	92.75
320.129	90.75
320.358	85.75
320.587	101.75
320.816	112.75
321.046	96.75
321.275	115.75
321.504	100.75
321.733	97.75
321.962	92.75
322.191	96.75
322.42	89.75
322.649	91.75
322.878	101.75
323.108	110.75
323.337	100.75
323.566	127.75
323.795	131.75
324.024	171.75
324.253	329.75
324.482	639.75
324.71	1295.75
324.939	1696.75
325.168	623.75
325.397	204.75
325.626	133.75
325.855	115.75
326.084	139.75
326.313	154.75
326.542	163.75
326.77	209.75
326.999	381.75
327.228	761.75
327.457	1375.75
327.686	1086.75
327.914	316.75
328.143	163.75
328.372	135.75
328.6	111.75
328.829	114.75
329.058	119.75
329.287	113.75
329.515	125.75
329.744	98.75
329.972	99.75
330.201	104.75
330.43	126.75
330.658	128.75
330.887	114.75
331.115	101.75
331.344	91.75
331.572	97.75
331.801	84.75
332.03	105.75
332.258	101.75
332.486	100.75
332.715	103.75
332.943	105.75
333.172	106.75
333.4	110.75
333.629	105.75
333.857	99.75
334.085	108.75
334.314	110.75
334.542	125.75
334.771	112.75
334.999	95.75
335.227	98.75
335.455	99.75
335.684	104.75
335.912	98.75
336.14	100.75
336.369	98.75
336.597	88.75
336.825	95.75
337.053	93.75
337.281	90.75
337.51	77.75
337.738	103.75
337.966	85.75
338.194	98.75
338.422	88.75
338.65	85.75
338.878	90.75
339.106	88.75
339.334	93.75
339.562	68.75
339.79	76.75
340.018	91.75
340.246	104.75
340.474	86.75
340.702	98.75
340.93	91.75
341.158	107.75
341.386	82.75
341.614	96.75
341.842	108.75
342.07	106.75
342.298	96.75
342.526	86.75
342.754	87.75
342.981	93.75
343.209	99.75
343.437	97.75
343.665	88.75
343.893	92.75
344.12	77.75
344.348	97.75
344.576	96.75
344.804	100.75
345.031	90.75
345.259	85.75
345.487	95.75
345.714	93.75
345.942	98.75
346.17	93.75
346.397	103.75
346.625	91.75
346.853	101.75
347.08	93.75
347.308	107.75
347.535	96.75
347.763	104.75
347.99	101.75
348.218	91.75
348.445	101.75
348.673	100.75
348.9	92.75
349.128	88.75
349.355	88.75
349.583	100.75
349.81	90.75
350.037	100.75
350.265	79.75
350.492	89.75
350.72	103.75
350.947	111.75
351.174	99.75
351.402	97.75
351.629	106.75
351.856	106.75
352.083	93.75
352.311	111.75
352.538	98.75
352.765	106.75
352.992	113.75
353.22	111.75
353.447	100.75
353.674	89.75
353.901	95.75
354.128	81.75
354.355	109.75
354.583	101.75
354.81	100.75
355.037	98.75
355.264	94.75
355.491	84.75
355.718	91.75
355.945	93.75
356.172	92.75
356.399	91.75
356.626	88.75
356.853	103.75
357.08	100.75
357.307	88.75
357.534	113.75
357.761	96.75
357.988	100.75
358.215	87.75
358.441	98.75
358.668	110.75
358.895	96.75
359.122	96.75
359.349	95.75
359.576	103.75
359.802	84.75
360.029	87.75
360.256	104.75
360.483	85.75
360.709	91.75
360.936	98.75
361.163	99.75
361.39	97.75
361.616	108.75
361.843	93.75
362.07	102.75
362.296	94.75
362.523	86.75
362.749	82.75
362.976	95.75
363.203	91.75
363.429	95.75
363.656	92.75
363.882	96.75
364.109	104.75
364.335	111.75
364.562	91.75
364.788	80.75
365.015	96.75
365.241	90.75
365.468	107.75
365.694	102.75
365.92	98.75
366.147	90.75
366.373	79.75
366.599	88.75
366.826	85.75
367.052	91.75
367.278	95.75
367.505	82.75
367.731	103.75
367.957	90.75
368.184	93.75
368.41	99.75
368.636	100.75
368.862	101.75
369.089	112.75
369.315	83.75
369.541	89.75
369.767	98.75
369.993	96.75
370.219	96.75
370.445	96.75
370.672	97.75
370.898	92.75
371.124	83.75
371.35	98.75
371.576	82.75
371.802	88.75
372.028	81.75
372.254	72.75
372.48	78.75
372.706	95.75
372.932	93.75
373.158	95.75
373.384	98.75
373.61	91.75
373.835	108.75
374.061	93.75
374.287	95.75
374.513	95.75
374.739	92.75
374.965	85.75
375.191	84.75
375.416	94.75
375.642	89.75
375.868	98.75
376.094	89.75
376.319	101.75
376.545	103.75
376.771	103.75
376.997	88.75
377.222	91.75
377.448	97.75
377.674	92.75
377.899	106.75
378.125	104.75
378.35	105.75
378.576	106.75
378.802	106.75
379.027	84.75
379.253	89.75
379.478	90.75
379.704	93.75
379.929	99.75
380.155	108.75
380.38	97.75
380.606	104.75
380.831	99.75
381.057	96.75
381.282	93.75
381.507	103.75
381.733	101.75
381.958	95.75
382.184	103.75
382.409	102.75
382.634	105.75
382.86	111.75
383.085	106.75
383.31	97.75
383.535	96.75
383.761	100.75
383.986	104.75
384.211	104.75
384.436	113.75
384.662	98.75
384.887	111.75
385.112	118.75
385.337	91.75
385.562	96.75
385.787	99.75
386.013	115.75
386.238	124.75
386.463	112.75
386.688	114.75
386.913	108.75
387.138	95.75
387.363	97.75
387.588	94.75
387.813	109.75
388.038	108.75
388.263	108.75
388.488	102.75
388.713	98.75
388.938	87.75
389.163	103.75
389.387	104.75
389.612	100.75
389.837	100.75
390.062	105.75
390.287	86.75
390.512	90.75
390.736	91.75
390.961	97.75
391.186	96.75
391.411	89.75
391.636	108.75
391.86	98.75
392.085	84.75
392.31	94.75
392.534	85.75
392.759	83.75
392.984	93.75
393.208	90.75
393.433	95.75
393.658	104.75
393.882	93.75
394.107	91.75
394.331	100.75
394.556	104.75
394.78	102.75
395.005	88.75
395.229	94.75
395.454	89.75
395.678	87.75
395.903	89.75
396.127	92.75
396.352	85.75
396.576	91.75
396.801	79.75
397.025	77.75
397.249	96.75
397.474	90.75
397.698	89.75
397.922	91.75
398.147	89.75
398.371	70.75
398.595	77.75
398.82	97.75
399.044	95.75
399.268	93.75
399.492	90.75
399.717	101.75
399.941	91.75
400.165	103.75
400.389	87.75
400.613	101.75
400.837	89.75
401.062	89.75
401.286	86.75
401.51	88.75
401.734	84.75
401.958	95.75
402.182	111.75
402.406	124.75
402.63	120.75
402.854	89.75
403.078	84.75
403.302	92.75
403.526	96.75
403.75	89.75
403.974	68.75
404.198	101.75
404.422	84.75
404.645	86.75
404.869	101.75
405.093	111.75
405.317	94.75
405.541	105.75
405.765	93.75
405.988	115.75
406.212	146.75
406.436	186.75
406.66	110.75
406.883	89.75
407.107	85.75
407.331	94.75
407.555	94.75
407.778	94.75
408.002	85.75
408.226	87.75
408.449	80.75
408.673	102.75
408.896	93.75
409.12	87.75
409.344	96.75
409.567	89.75
409.791	74.75
410.014	84.75
410.238	98.75
410.461	99.75
410.685	112.75
410.908	103.75
411.132	108.75
411.355	105.75
411.578	102.75
411.802	101.75
412.025	89.75
412.249	89.75
412.472	101.75
412.695	110.75
412.919	97.75
413.142	94.75
413.365	101.75
413.589	92.75
413.812	78.75
414.035	78.75
414.258	102.75
414.482	78.75
414.705	79.75
414.928	88.75
415.151	103.75
415.374	96.75
415.597	92.75
415.821	100.75
416.044	84.75
416.267	103.75
416.49	107.75
416.713	78.75
416.936	90.75
417.159	87.75
417.382	80.75
417.605	84.75
417.828	86.75
418.051	85.75
418.274	99.75
418.497	92.75
418.72	88.75
418.943	89.75
419.166	98.75
419.389	92.75
419.611	80.75
419.834	85.75
420.057	92.75
420.28	88.75
420.503	77.75
420.726	90.75
420.948	85.75
421.171	85.75
421.394	97.75
421.617	82.75
421.839	85.75
422.062	85.75
422.285	93.75
422.507	102.75
422.73	92.75
422.953	95.75
423.175	93.75
423.398	100.75
423.621	84.75
423.843	96.75
424.066	82.75
424.288	92.75
424.511	85.75
424.733	91.75
424.956	99.75
425.178	87.75
425.401	95.75
425.623	91.75
425.846	81.75
426.068	79.75
426.291	94.75
426.513	92.75
426.735	91.75
426.958	92.75
427.18	107.75
427.402	115.75
427.625	131.75
427.847	106.75
428.069	92.75
428.292	84.75
428.514	95.75
428.736	79.75
428.958	73.75
429.181	74.75
429.403	78.75
429.625	88.75
429.847	82.75
430.069	81.75
430.292	97.75
430.514	96.75
430.736	89.75
430.958	82.75
431.18	84.75
431.402	80.75
431.624	96.75
431.846	99.75
432.068	84.75
432.29	93.75
432.512	97.75
432.734	82.75
432.956	89.75
433.178	95.75
433.4	95.75
433.622	87.75
433.844	94.75
434.066	99.75
434.287	87.75
434.509	88.75
434.731	96.75
434.953	95.75
435.175	94.75
435.397	86.75
435.618	99.75
435.84	97.75
436.062	112.75
436.284	116.75
436.505	100.75
436.727	102.75
436.949	88.75
437.17	95.75
437.392	85.75
437.614	89.75
437.835	90.75
438.057	96.75
438.278	95.75
438.5	90.75
438.721	93.75
438.943	88.75
439.165	88.75
439.386	95.75
439.608	84.75
439.829	96.75
440.05	102.75
440.272	106.75
440.493	91.75
440.715	94.75
440.936	91.75
441.158	90.75
441.379	91.75
441.6	83.75
441.822	84.75
442.043	85.75
442.264	99.75
442.486	92.75
442.707	91.75
442.928	101.75
443.149	112.75
443.371	110.75
443.592	104.75
443.813	107.75
444.034	104.75
444.255	84.75
444.476	87.75
444.698	84.75
444.919	91.75
445.14	142.75
445.361	129.75
445.582	116.75
445.803	121.75
446.024	104.75
446.245	111.75
446.466	121.75
446.687	89.75
446.908	84.75
447.129	95.75
447.35	99.75
447.571	96.75
447.792	96.75
448.013	94.75
448.234	93.75
448.455	118.75
448.675	96.75
448.896	102.75
449.117	102.75
449.338	113.75
449.559	111.75
449.779	111.75
450	105.75
450.221	83.75
450.442	87.75
450.662	94.75
450.883	94.75
451.104	107.75
451.324	95.75
451.545	81.75
451.766	100.75
451.986	88.75
452.207	92.75
452.428	99.75
452.648	97.75
452.869	103.75
453.089	103.75
453.31	104.75
453.53	88.75
453.751	85.75
453.971	96.75
454.192	102.75
454.412	95.75
454.633	98.75
454.853	87.75
455.073	88.75
455.294	83.75
455.514	94.75
455.734	80.75
455.955	87.75
456.175	90.75
456.395	78.75
456.616	103.75
456.836	96.75
457.056	88.75
457.276	89.75
457.497	100.75
457.717	97.75
457.937	77.75
458.157	106.75
458.377	83.75
458.598	91.75
458.818	116.75
459.038	137.75
459.258	87.75
459.478	95.75
459.698	80.75
459.918	83.75
460.138	88.75
460.358	93.75
460.578	88.75
460.798	89.75
461.018	98.75
461.238	83.75
461.458	75.75
461.678	87.75
461.898	90.75
462.118	98.75
462.338	81.75
462.558	81.75
462.777	88.75
462.997	91.75
463.217	71.75
463.437	88.75
463.657	88.75
463.876	107.75
464.096	95.75
464.316	85.75
464.536	87.75
464.755	88.75
464.975	88.75
465.195	120.75
465.414	131.75
465.634	104.75
465.854	94.75
466.073	93.75
466.293	96.75
466.512	94.75
466.732	85.75
466.951	87.75
467.171	101.75
467.391	95.75
467.61	88.75
467.829	84.75
468.049	117.75
468.268	103.75
468.488	80.75
468.707	77.75
468.927	93.75
469.146	88.75
469.365	88.75
469.585	92.75
469.804	90.75
470.023	98.75
470.243	101.75
470.462	89.75
470.681	86.75
470.901	87.75
471.12	101.75
471.339	82.75
471.558	84.75
471.777	85.75
471.997	85.75
472.216	101.75
472.435	122.75
472.654	93.75
472.873	102.75
473.092	91.75
473.311	87.75
473.53	88.75
473.749	91.75
473.968	92.75
474.187	89.75
474.406	91.75
474.625	87.75
474.844	96.75
475.063	103.75
475.282	85.75
475.501	86.75
475.72	93.75
475.939	81.75
476.158	85.75
476.377	78.75
476.596	96.75
476.814	88.75
477.033	109.75
477.252	79.75
477.471	102.75
477.69	103.75
477.908	83.75
478.127	85.75
478.346	96.75
478.564	91.75
478.783	94.75
479.002	89.75
479.22	89.75
479.439	91.75
479.658	101.75
479.876	84.75
480.095	85.75
480.313	95.75
480.532	81.75
480.751	82.75
480.969	105.75
481.188	158.75
481.406	138.75
481.624	99.75
481.843	90.75
482.061	90.75
482.28	94.75
482.498	99.75
482.717	88.75
482.935	83.75
483.153	99.75
483.372	100.75
483.59	85.75
483.808	96.75
484.027	71.75
484.245	89.75
484.463	84.75
484.681	99.75
484.9	86.75
485.118	99.75
485.336	94.75
485.554	86.75
485.772	96.75
485.99	103.75
486.209	107.75
486.427	113.75
486.645	103.75
486.863	106.75
487.081	92.75
487.299	106.75
487.517	91.75
487.735	100.75
487.953	103.75
488.171	119.75
488.389	108.75
488.607	91.75
488.825	84.75
489.043	80.75
489.261	100.75
489.479	91.75
489.696	83.75
489.914	85.75
490.132	82.75
490.35	101.75
490.568	93.75
490.786	89.75
491.003	96.75
491.221	91.75
491.439	99.75
491.657	99.75
491.874	93.75
492.092	105.75
492.31	93.75
492.527	86.75
492.745	95.75
492.963	95.75
493.18	92.75
493.398	88.75
493.615	98.75
493.833	91.75
494.05	91.75
494.268	97.75
494.485	98.75
494.703	89.75
494.92	92.75
495.138	89.75
495.355	104.75
495.573	96.75
495.79	88.75
496.008	88.75
496.225	99.75
496.442	102.75
496.66	92.75
496.877	92.75
497.094	96.75
497.312	81.75
497.529	81.75
497.746	77.75
497.963	106.75
498.181	88.75
498.398	93.75
498.615	95.75
498.832	91.75
499.049	96.75
499.267	88.75
499.484	99.75
499.701	95.75
499.918	90.75
500.135	84.75
500.352	99.75
500.569	82.75
500.786	90.75
501.003	92.75
501.22	98.75
501.437	93.75
501.654	95.75
501.871	96.75
502.088	99.75
502.305	101.75
502.522	90.75
502.739	85.75
502.956	107.75
503.172	91.75
503.389	85.75
503.606	111.75
503.823	103.75
504.04	95.75
504.256	100.75
504.473	114.75
504.69	90.75
504.907	112.75
505.123	101.75
505.34	75.75
505.557	90.75
505.773	87.75
505.99	100.75
506.207	81.75
506.423	88.75
506.64	84.75
506.856	89.75
507.073	92.75
507.289	100.75
507.506	84.75
507.722	92.75
507.939	106.75
508.155	94.75
508.372	80.75
508.588	101.75
508.805	101.75
509.021	88.75
509.238	95.75
509.454	91.75
509.67	111.75
509.887	103.75
510.103	112.75
510.319	167.75
510.536	528.75
510.752	1541.75
510.968	474.75
511.184	135.75
511.401	121.75
511.617	102.75
511.833	102.75
512.049	96.75
512.265	88.75
512.481	100.75
512.698	79.75
512.914	92.75
513.13	106.75
513.346	104.75
513.562	95.75
513.778	99.75
513.994	85.75
514.21	101.75
514.426	104.75
514.642	94.75
514.858	112.75
515.074	119.75
515.29	305.75
515.506	880.75
