Data from Uncirc_2009_H10_HRD10591_00074.txt Node
Date: Wed Jan 03 10:12:16 EST 2024
User: Yrep
Spectrometer: HR+D1059
Trigger mode: 1
Integration Time (sec): 1.000000E-1
Scans to average: 1
Electric dark correction enabled: true
Nonlinearity correction enabled: false
Boxcar width: 0
XAxis mode: Wavelengths
Number of Pixels in Spectrum: 2048
>>>>>Begin Spectral Data<<<<<
223.165	-19.06
223.4	-19.06
223.635	-19.06
223.869	-13.06
224.104	-17.06
224.338	-8.06
224.573	-28.06
224.808	-12.06
225.042	-15.06
225.277	0.94
225.511	-6.06
225.746	-0.06
225.98	1.94
226.215	14.94
226.449	25.94
226.683	20.94
226.918	29.94
227.152	23.94
227.387	40.94
227.621	37.94
227.856	42.94
228.09	56.94
228.324	57.94
228.559	42.94
228.793	50.94
229.027	61.94
229.262	75.94
229.496	81.94
229.73	87.94
229.964	83.94
230.199	81.94
230.433	81.94
230.667	77.94
230.901	71.94
231.136	82.94
231.37	96.94
231.604	86.94
231.838	82.94
232.072	79.94
232.306	74.94
232.541	69.94
232.775	84.94
233.009	104.94
233.243	86.94
233.477	91.94
233.711	87.94
233.945	94.94
234.179	79.94
234.413	81.94
234.647	77.94
234.881	74.94
235.115	88.94
235.349	85.94
235.583	79.94
235.817	77.94
236.051	92.94
236.285	71.94
236.519	77.94
236.753	75.94
236.987	76.94
237.221	76.94
237.455	86.94
237.689	82.94
237.922	91.94
238.156	71.94
238.39	82.94
238.624	79.94
238.858	67.94
239.091	72.94
239.325	89.94
239.559	77.94
239.793	71.94
240.027	101.94
240.26	86.94
240.494	70.94
240.728	78.94
240.961	71.94
241.195	73.94
241.429	74.94
241.662	82.94
241.896	78.94
242.13	72.94
242.363	87.94
242.597	90.94
242.83	83.94
243.064	77.94
243.298	91.94
243.531	82.94
243.765	79.94
243.998	79.94
244.232	77.94
244.465	73.94
244.699	76.94
244.932	71.94
245.166	88.94
245.399	77.94
245.633	101.94
245.866	76.94
246.099	81.94
246.333	78.94
246.566	76.94
246.8	79.94
247.033	81.94
247.266	69.94
247.5	79.94
247.733	80.94
247.966	75.94
248.2	79.94
248.433	74.94
248.666	78.94
248.899	79.94
249.133	78.94
249.366	89.94
249.599	96.94
249.832	73.94
250.066	81.94
250.299	66.94
250.532	69.94
250.765	64.94
250.998	81.94
251.231	80.94
251.465	81.94
251.698	94.94
251.931	79.94
252.164	89.94
252.397	80.94
252.63	81.94
252.863	79.94
253.096	86.94
253.329	90.94
253.562	95.94
253.795	90.94
254.028	82.94
254.261	86.94
254.494	74.94
254.727	82.94
254.96	75.94
255.193	92.94
255.426	81.94
255.659	84.94
255.892	84.94
256.124	79.94
256.357	75.94
256.59	87.94
256.823	79.94
257.056	71.94
257.289	79.94
257.521	88.94
257.754	81.94
257.987	91.94
258.22	71.94
258.452	72.94
258.685	73.94
258.918	81.94
259.151	78.94
259.383	83.94
259.616	81.94
259.849	90.94
260.081	78.94
260.314	103.94
260.547	101.94
260.779	87.94
261.012	89.94
261.244	79.94
261.477	94.94
261.71	93.94
261.942	98.94
262.175	107.94
262.407	89.94
262.64	83.94
262.872	90.94
263.105	86.94
263.337	81.94
263.57	101.94
263.802	85.94
264.035	82.94
264.267	72.94
264.499	83.94
264.732	80.94
264.964	90.94
265.197	80.94
265.429	70.94
265.661	78.94
265.894	89.94
266.126	102.94
266.358	77.94
266.591	79.94
266.823	81.94
267.055	80.94
267.287	78.94
267.52	78.94
267.752	98.94
267.984	100.94
268.216	83.94
268.448	86.94
268.681	97.94
268.913	90.94
269.145	91.94
269.377	88.94
269.609	92.94
269.841	82.94
270.073	88.94
270.306	83.94
270.538	87.94
270.77	79.94
271.002	78.94
271.234	98.94
271.466	88.94
271.698	70.94
271.93	88.94
272.162	94.94
272.394	87.94
272.626	82.94
272.858	86.94
273.09	83.94
273.322	93.94
273.553	76.94
273.785	87.94
274.017	78.94
274.249	89.94
274.481	81.94
274.713	81.94
274.945	96.94
275.176	96.94
275.408	90.94
275.64	92.94
275.872	98.94
276.104	77.94
276.335	96.94
276.567	94.94
276.799	94.94
277.031	101.94
277.262	97.94
277.494	89.94
277.726	88.94
277.957	87.94
278.189	78.94
278.421	98.94
278.652	78.94
278.884	75.94
279.115	92.94
279.347	77.94
279.579	78.94
279.81	97.94
280.042	104.94
280.273	80.94
280.505	81.94
280.736	77.94
280.968	88.94
281.199	92.94
281.431	101.94
281.662	82.94
281.894	97.94
282.125	93.94
282.356	102.94
282.588	102.94
282.819	94.94
283.051	79.94
283.282	89.94
283.513	85.94
283.745	91.94
283.976	100.94
284.207	98.94
284.439	84.94
284.67	74.94
284.901	89.94
285.132	83.94
285.364	77.94
285.595	88.94
285.826	84.94
286.057	91.94
286.288	92.94
286.52	97.94
286.751	87.94
286.982	85.94
287.213	86.94
287.444	82.94
287.675	81.94
287.906	90.94
288.138	85.94
288.369	86.94
288.6	94.94
288.831	101.94
289.062	92.94
289.293	89.94
289.524	86.94
289.755	95.94
289.986	82.94
290.217	89.94
290.448	88.94
290.679	94.94
290.91	92.94
291.141	96.94
291.371	82.94
291.602	87.94
291.833	95.94
292.064	78.94
292.295	90.94
292.526	80.94
292.757	86.94
292.987	90.94
293.218	86.94
293.449	78.94
293.68	79.94
293.91	96.94
294.141	89.94
294.372	80.94
294.603	77.94
294.833	86.94
295.064	82.94
295.295	89.94
295.525	90.94
295.756	95.94
295.987	119.94
296.217	126.94
296.448	118.94
296.679	103.94
296.909	108.94
297.14	77.94
297.37	90.94
297.601	100.94
297.831	90.94
298.062	98.94
298.292	96.94
298.523	74.94
298.753	92.94
298.984	79.94
299.214	80.94
299.445	83.94
299.675	94.94
299.905	80.94
300.136	82.94
300.366	95.94
300.597	103.94
300.827	93.94
301.057	98.94
301.288	107.94
301.518	86.94
301.748	83.94
301.979	103.94
302.209	89.94
302.439	78.94
302.669	90.94
302.9	91.94
303.13	84.94
303.36	103.94
303.59	111.94
303.82	110.94
304.051	91.94
304.281	90.94
304.511	91.94
304.741	80.94
304.971	89.94
305.201	92.94
305.431	106.94
305.661	91.94
305.891	94.94
306.121	103.94
306.352	90.94
306.582	91.94
306.812	77.94
307.042	81.94
307.272	92.94
307.502	96.94
307.731	97.94
307.961	79.94
308.191	82.94
308.421	87.94
308.651	96.94
308.881	88.94
309.111	94.94
309.341	82.94
309.571	117.94
309.8	91.94
310.03	86.94
310.26	110.94
310.49	91.94
310.72	102.94
310.949	96.94
311.179	84.94
311.409	92.94
311.639	90.94
311.868	94.94
312.098	105.94
312.328	100.94
312.557	100.94
312.787	88.94
313.017	92.94
313.246	83.94
313.476	91.94
313.706	103.94
313.935	102.94
314.165	88.94
314.394	101.94
314.624	81.94
314.853	94.94
315.083	86.94
315.312	97.94
315.542	95.94
315.771	90.94
316.001	91.94
316.23	84.94
316.46	73.94
316.689	76.94
316.919	73.94
317.148	98.94
317.377	119.94
317.607	119.94
317.836	99.94
318.065	88.94
318.295	87.94
318.524	96.94
318.753	95.94
318.983	110.94
319.212	107.94
319.441	97.94
319.67	94.94
319.9	104.94
320.129	101.94
320.358	96.94
320.587	85.94
320.816	92.94
321.046	93.94
321.275	109.94
321.504	98.94
321.733	103.94
321.962	98.94
322.191	94.94
322.42	99.94
322.649	111.94
322.878	121.94
323.108	109.94
323.337	114.94
323.566	131.94
323.795	156.94
324.024	195.94
324.253	352.94
324.482	694.94
324.71	1397.94
324.939	1864.94
325.168	692.94
325.397	215.94
325.626	149.94
325.855	122.94
326.084	120.94
326.313	151.94
326.542	166.94
326.77	213.94
326.999	386.94
327.228	818.94
327.457	1461.94
327.686	1165.94
327.914	323.94
328.143	162.94
328.372	134.94
328.6	103.94
328.829	119.94
329.058	105.94
329.287	125.94
329.515	103.94
329.744	105.94
329.972	98.94
330.201	103.94
330.43	113.94
330.658	122.94
330.887	133.94
331.115	107.94
331.344	104.94
331.572	102.94
331.801	97.94
332.03	93.94
332.258	109.94
332.486	96.94
332.715	103.94
332.943	99.94
333.172	85.94
333.4	94.94
333.629	104.94
333.857	98.94
334.085	109.94
334.314	91.94
334.542	118.94
334.771	112.94
334.999	105.94
335.227	87.94
335.455	94.94
335.684	81.94
335.912	109.94
336.14	98.94
336.369	95.94
336.597	93.94
336.825	106.94
337.053	96.94
337.281	105.94
337.51	90.94
337.738	93.94
337.966	101.94
338.194	81.94
338.422	95.94
338.65	85.94
338.878	93.94
339.106	97.94
339.334	95.94
339.562	98.94
339.79	90.94
340.018	98.94
340.246	93.94
340.474	102.94
340.702	98.94
340.93	94.94
341.158	81.94
341.386	101.94
341.614	95.94
341.842	86.94
342.07	86.94
342.298	94.94
342.526	86.94
342.754	99.94
342.981	101.94
343.209	91.94
343.437	101.94
343.665	81.94
343.893	105.94
344.12	83.94
344.348	99.94
344.576	91.94
344.804	102.94
345.031	97.94
345.259	97.94
345.487	95.94
345.714	99.94
345.942	90.94
346.17	98.94
346.397	90.94
346.625	82.94
346.853	101.94
347.08	87.94
347.308	88.94
347.535	95.94
347.763	88.94
347.99	96.94
348.218	99.94
348.445	111.94
348.673	94.94
348.9	91.94
349.128	83.94
349.355	103.94
349.583	102.94
349.81	87.94
350.037	102.94
350.265	88.94
350.492	87.94
350.72	84.94
350.947	91.94
351.174	94.94
351.402	104.94
351.629	101.94
351.856	106.94
352.083	103.94
352.311	101.94
352.538	105.94
352.765	105.94
352.992	103.94
353.22	103.94
353.447	101.94
353.674	109.94
353.901	94.94
354.128	109.94
354.355	102.94
354.583	110.94
354.81	111.94
355.037	117.94
355.264	98.94
355.491	91.94
355.718	113.94
355.945	95.94
356.172	108.94
356.399	95.94
356.626	98.94
356.853	94.94
357.08	90.94
357.307	97.94
357.534	85.94
357.761	78.94
357.988	79.94
358.215	86.94
358.441	90.94
358.668	92.94
358.895	77.94
359.122	83.94
359.349	92.94
359.576	95.94
359.802	84.94
360.029	103.94
360.256	97.94
360.483	96.94
360.709	96.94
360.936	114.94
361.163	107.94
361.39	97.94
361.616	105.94
361.843	97.94
362.07	99.94
362.296	100.94
362.523	91.94
362.749	97.94
362.976	88.94
363.203	86.94
363.429	91.94
363.656	87.94
363.882	92.94
364.109	89.94
364.335	102.94
364.562	95.94
364.788	85.94
365.015	95.94
365.241	86.94
365.468	104.94
365.694	117.94
365.92	85.94
366.147	104.94
366.373	93.94
366.599	99.94
366.826	95.94
367.052	79.94
367.278	88.94
367.505	98.94
367.731	94.94
367.957	88.94
368.184	77.94
368.41	99.94
368.636	104.94
368.862	93.94
369.089	109.94
369.315	92.94
369.541	84.94
369.767	88.94
369.993	96.94
370.219	91.94
370.445	92.94
370.672	92.94
370.898	78.94
371.124	88.94
371.35	87.94
371.576	95.94
371.802	103.94
372.028	94.94
372.254	80.94
372.48	95.94
372.706	89.94
372.932	88.94
373.158	91.94
373.384	90.94
373.61	79.94
373.835	83.94
374.061	86.94
374.287	90.94
374.513	94.94
374.739	95.94
374.965	100.94
375.191	90.94
375.416	96.94
375.642	91.94
375.868	81.94
376.094	99.94
376.319	78.94
376.545	96.94
376.771	80.94
376.997	88.94
377.222	83.94
377.448	87.94
377.674	99.94
377.899	90.94
378.125	108.94
378.35	90.94
378.576	103.94
378.802	84.94
379.027	94.94
379.253	86.94
379.478	92.94
379.704	103.94
379.929	101.94
380.155	108.94
380.38	105.94
380.606	99.94
380.831	98.94
381.057	98.94
381.282	96.94
381.507	94.94
381.733	90.94
381.958	102.94
382.184	108.94
382.409	96.94
382.634	96.94
382.86	95.94
383.085	85.94
383.31	101.94
383.535	103.94
383.761	95.94
383.986	102.94
384.211	94.94
384.436	107.94
384.662	79.94
384.887	103.94
385.112	95.94
385.337	117.94
385.562	97.94
385.787	83.94
386.013	87.94
386.238	111.94
386.463	94.94
386.688	107.94
386.913	109.94
387.138	105.94
387.363	91.94
387.588	107.94
387.813	102.94
388.038	112.94
388.263	97.94
388.488	107.94
388.713	112.94
388.938	90.94
389.163	100.94
389.387	111.94
389.612	102.94
389.837	90.94
390.062	91.94
390.287	79.94
390.512	83.94
390.736	90.94
390.961	96.94
391.186	80.94
391.411	107.94
391.636	90.94
391.86	93.94
392.085	81.94
392.31	87.94
392.534	96.94
392.759	81.94
392.984	96.94
393.208	96.94
393.433	73.94
393.658	76.94
393.882	88.94
394.107	97.94
394.331	92.94
394.556	98.94
394.78	99.94
395.005	95.94
395.229	92.94
395.454	102.94
395.678	80.94
395.903	80.94
396.127	88.94
396.352	82.94
396.576	77.94
396.801	73.94
397.025	77.94
397.249	91.94
397.474	87.94
397.698	86.94
397.922	94.94
398.147	93.94
398.371	83.94
398.595	87.94
398.82	82.94
399.044	80.94
399.268	86.94
399.492	104.94
399.717	87.94
399.941	105.94
400.165	86.94
400.389	80.94
400.613	96.94
400.837	96.94
401.062	92.94
401.286	96.94
401.51	97.94
401.734	85.94
401.958	91.94
402.182	109.94
402.406	132.94
402.63	119.94
402.854	87.94
403.078	94.94
403.302	75.94
403.526	84.94
403.75	85.94
403.974	90.94
404.198	98.94
404.422	94.94
404.645	85.94
404.869	95.94
405.093	92.94
405.317	93.94
405.541	103.94
405.765	89.94
405.988	96.94
406.212	138.94
406.436	173.94
406.66	134.94
406.883	91.94
407.107	90.94
407.331	92.94
407.555	91.94
407.778	101.94
408.002	97.94
408.226	85.94
408.449	81.94
408.673	90.94
408.896	88.94
409.12	101.94
409.344	96.94
409.567	94.94
409.791	91.94
410.014	104.94
410.238	95.94
410.461	84.94
410.685	97.94
410.908	114.94
411.132	97.94
411.355	79.94
411.578	96.94
411.802	89.94
412.025	90.94
412.249	91.94
412.472	95.94
412.695	86.94
412.919	82.94
413.142	73.94
413.365	81.94
413.589	80.94
413.812	105.94
414.035	91.94
414.258	88.94
414.482	87.94
414.705	89.94
414.928	91.94
415.151	101.94
415.374	98.94
415.597	75.94
415.821	89.94
416.044	74.94
416.267	79.94
416.49	96.94
416.713	88.94
416.936	101.94
417.159	89.94
417.382	82.94
417.605	94.94
417.828	107.94
418.051	89.94
418.274	89.94
418.497	89.94
418.72	99.94
418.943	94.94
419.166	90.94
419.389	89.94
419.611	92.94
419.834	87.94
420.057	79.94
420.28	99.94
420.503	101.94
420.726	88.94
420.948	92.94
421.171	87.94
421.394	98.94
421.617	88.94
421.839	89.94
422.062	92.94
422.285	87.94
422.507	98.94
422.73	100.94
422.953	110.94
423.175	102.94
423.398	96.94
423.621	103.94
423.843	88.94
424.066	95.94
424.288	89.94
424.511	83.94
424.733	86.94
424.956	88.94
425.178	92.94
425.401	88.94
425.623	94.94
425.846	95.94
426.068	102.94
426.291	90.94
426.513	88.94
426.735	93.94
426.958	83.94
427.18	106.94
427.402	124.94
427.625	130.94
427.847	115.94
428.069	98.94
428.292	81.94
428.514	80.94
428.736	73.94
428.958	87.94
429.181	85.94
429.403	87.94
429.625	81.94
429.847	82.94
430.069	80.94
430.292	105.94
430.514	71.94
430.736	93.94
430.958	93.94
431.18	93.94
431.402	86.94
431.624	89.94
431.846	87.94
432.068	86.94
432.29	86.94
432.512	91.94
432.734	89.94
432.956	79.94
433.178	90.94
433.4	98.94
433.622	98.94
433.844	96.94
434.066	99.94
434.287	95.94
434.509	85.94
434.731	76.94
434.953	93.94
435.175	102.94
435.397	87.94
435.618	88.94
435.84	96.94
436.062	108.94
436.284	103.94
436.505	104.94
436.727	99.94
436.949	89.94
437.17	90.94
437.392	81.94
437.614	91.94
437.835	109.94
438.057	109.94
438.278	111.94
438.5	100.94
438.721	99.94
438.943	97.94
439.165	94.94
439.386	78.94
439.608	90.94
439.829	99.94
440.05	109.94
440.272	122.94
440.493	99.94
440.715	89.94
440.936	91.94
441.158	89.94
441.379	74.94
441.6	75.94
441.822	83.94
442.043	82.94
442.264	102.94
442.486	100.94
442.707	92.94
442.928	85.94
443.149	110.94
443.371	102.94
443.592	103.94
443.813	120.94
444.034	94.94
444.255	83.94
444.476	91.94
444.698	92.94
444.919	92.94
445.14	137.94
445.361	111.94
445.582	90.94
445.803	114.94
446.024	119.94
446.245	97.94
446.466	102.94
446.687	94.94
446.908	93.94
447.129	89.94
447.35	87.94
447.571	86.94
447.792	89.94
448.013	76.94
448.234	92.94
448.455	107.94
448.675	104.94
448.896	113.94
449.117	96.94
449.338	103.94
449.559	106.94
449.779	90.94
450	87.94
450.221	82.94
450.442	82.94
450.662	94.94
450.883	110.94
451.104	93.94
451.324	79.94
451.545	83.94
451.766	91.94
451.986	91.94
452.207	89.94
452.428	82.94
452.648	98.94
452.869	107.94
453.089	92.94
453.31	98.94
453.53	89.94
453.751	89.94
453.971	106.94
454.192	108.94
454.412	87.94
454.633	85.94
454.853	72.94
455.073	85.94
455.294	87.94
455.514	92.94
455.734	79.94
455.955	89.94
456.175	81.94
456.395	82.94
456.616	85.94
456.836	92.94
457.056	89.94
457.276	77.94
457.497	72.94
457.717	74.94
457.937	99.94
458.157	100.94
458.377	101.94
458.598	99.94
458.818	127.94
459.038	125.94
459.258	94.94
459.478	100.94
459.698	85.94
459.918	95.94
460.138	83.94
460.358	86.94
460.578	79.94
460.798	98.94
461.018	84.94
461.238	88.94
461.458	86.94
461.678	95.94
461.898	90.94
462.118	92.94
462.338	90.94
462.558	81.94
462.777	87.94
462.997	81.94
463.217	75.94
463.437	93.94
463.657	93.94
463.876	99.94
464.096	90.94
464.316	90.94
464.536	85.94
464.755	84.94
464.975	93.94
465.195	138.94
465.414	132.94
465.634	96.94
465.854	89.94
466.073	74.94
466.293	74.94
466.512	82.94
466.732	89.94
466.951	95.94
467.171	92.94
467.391	88.94
467.61	94.94
467.829	86.94
468.049	95.94
468.268	102.94
468.488	83.94
468.707	81.94
468.927	79.94
469.146	88.94
469.365	83.94
469.585	78.94
469.804	93.94
470.023	106.94
470.243	98.94
470.462	98.94
470.681	108.94
470.901	83.94
471.12	98.94
471.339	89.94
471.558	102.94
471.777	105.94
471.997	108.94
472.216	116.94
472.435	112.94
472.654	92.94
472.873	81.94
473.092	101.94
473.311	89.94
473.53	86.94
473.749	88.94
473.968	88.94
474.187	105.94
474.406	92.94
474.625	94.94
474.844	80.94
475.063	83.94
475.282	83.94
475.501	99.94
475.72	82.94
475.939	85.94
476.158	83.94
476.377	87.94
476.596	89.94
476.814	93.94
477.033	73.94
477.252	84.94
477.471	76.94
477.69	94.94
477.908	75.94
478.127	79.94
478.346	83.94
478.564	97.94
478.783	82.94
479.002	93.94
479.22	90.94
479.439	81.94
479.658	94.94
479.876	90.94
480.095	83.94
480.313	82.94
480.532	93.94
480.751	89.94
480.969	92.94
481.188	150.94
481.406	134.94
481.624	82.94
481.843	84.94
482.061	80.94
482.28	77.94
482.498	89.94
482.717	87.94
482.935	85.94
483.153	99.94
483.372	93.94
483.59	90.94
483.808	93.94
484.027	91.94
484.245	96.94
484.463	92.94
484.681	93.94
484.9	94.94
485.118	91.94
485.336	92.94
485.554	88.94
485.772	98.94
485.99	80.94
486.209	108.94
486.427	104.94
486.645	111.94
486.863	108.94
487.081	93.94
487.299	100.94
487.517	87.94
487.735	95.94
487.953	113.94
488.171	95.94
488.389	92.94
488.607	101.94
488.825	86.94
489.043	78.94
489.261	80.94
489.479	82.94
489.696	91.94
489.914	101.94
490.132	89.94
490.35	81.94
490.568	103.94
490.786	96.94
491.003	89.94
491.221	82.94
491.439	67.94
491.657	91.94
491.874	94.94
492.092	77.94
492.31	90.94
492.527	95.94
492.745	84.94
492.963	94.94
493.18	97.94
493.398	101.94
493.615	91.94
493.833	97.94
494.05	90.94
494.268	94.94
494.485	88.94
494.703	96.94
494.92	90.94
495.138	96.94
495.355	102.94
495.573	78.94
495.79	69.94
496.008	79.94
496.225	82.94
496.442	93.94
496.66	89.94
496.877	87.94
497.094	101.94
497.312	82.94
497.529	82.94
497.746	95.94
497.963	100.94
498.181	93.94
498.398	94.94
498.615	94.94
498.832	100.94
499.049	94.94
499.267	89.94
499.484	100.94
499.701	88.94
499.918	84.94
500.135	102.94
500.352	97.94
500.569	79.94
500.786	89.94
501.003	98.94
501.22	94.94
501.437	90.94
501.654	98.94
501.871	98.94
502.088	86.94
502.305	95.94
502.522	91.94
502.739	97.94
502.956	89.94
503.172	94.94
503.389	77.94
503.606	97.94
503.823	89.94
504.04	94.94
504.256	85.94
504.473	95.94
504.69	84.94
504.907	87.94
505.123	86.94
505.34	83.94
505.557	89.94
505.773	82.94
505.99	93.94
506.207	82.94
506.423	89.94
506.64	89.94
506.856	83.94
507.073	86.94
507.289	89.94
507.506	104.94
507.722	99.94
507.939	101.94
508.155	90.94
508.372	95.94
508.588	92.94
508.805	98.94
509.021	102.94
509.238	86.94
509.454	92.94
509.67	100.94
509.887	103.94
510.103	105.94
510.319	158.94
510.536	577.94
510.752	1650.94
510.968	508.94
511.184	135.94
511.401	103.94
511.617	78.94
511.833	71.94
512.049	76.94
512.265	83.94
512.481	85.94
512.698	101.94
512.914	86.94
513.13	90.94
513.346	106.94
513.562	91.94
513.778	97.94
513.994	98.94
514.21	97.94
514.426	105.94
514.642	133.94
514.858	109.94
515.074	147.94
515.29	331.94
515.506	985.94
515.721	379.94
515.937	135.94
