Data from Uncirc_2009_H10_HRD10591_00059.txt Node
Date: Wed Jan 03 10:12:13 EST 2024
User: Yrep
Spectrometer: HR+D1059
Trigger mode: 1
Integration Time (sec): 1.000000E-1
Scans to average: 1
Electric dark correction enabled: true
Nonlinearity correction enabled: false
Boxcar width: 0
XAxis mode: Wavelengths
Number of Pixels in Spectrum: 2048
>>>>>Begin Spectral Data<<<<<
223.165	-25.94
223.4	-25.94
223.635	-25.94
223.869	-16.94
224.104	-5.94
224.338	-4.94
224.573	-6.94
224.808	-10.94
225.042	-17.94
225.277	-14.94
225.511	2.06
225.746	-0.94
225.98	14.06
226.215	0.06
226.449	4.06
226.683	23.06
226.918	27.06
227.152	35.06
227.387	26.06
227.621	37.06
227.856	53.06
228.09	48.06
228.324	47.06
228.559	28.06
228.793	57.06
229.027	56.06
229.262	65.06
229.496	53.06
229.73	82.06
229.964	84.06
230.199	68.06
230.433	70.06
230.667	66.06
230.901	65.06
231.136	73.06
231.37	64.06
231.604	92.06
231.838	85.06
232.072	77.06
232.306	83.06
232.541	83.06
232.775	82.06
233.009	80.06
233.243	78.06
233.477	92.06
233.711	78.06
233.945	66.06
234.179	73.06
234.413	82.06
234.647	85.06
234.881	77.06
235.115	86.06
235.349	81.06
235.583	80.06
235.817	83.06
236.051	87.06
236.285	90.06
236.519	77.06
236.753	80.06
236.987	65.06
237.221	77.06
237.455	73.06
237.689	82.06
237.922	74.06
238.156	80.06
238.39	63.06
238.624	70.06
238.858	78.06
239.091	85.06
239.325	71.06
239.559	81.06
239.793	85.06
240.027	79.06
240.26	65.06
240.494	71.06
240.728	81.06
240.961	81.06
241.195	80.06
241.429	72.06
241.662	72.06
241.896	69.06
242.13	58.06
242.363	78.06
242.597	59.06
242.83	77.06
243.064	81.06
243.298	79.06
243.531	84.06
243.765	86.06
243.998	71.06
244.232	75.06
244.465	85.06
244.699	66.06
244.932	69.06
245.166	90.06
245.399	73.06
245.633	89.06
245.866	72.06
246.099	72.06
246.333	87.06
246.566	67.06
246.8	69.06
247.033	89.06
247.266	65.06
247.5	65.06
247.733	76.06
247.966	75.06
248.2	73.06
248.433	70.06
248.666	85.06
248.899	87.06
249.133	87.06
249.366	93.06
249.599	98.06
249.832	97.06
250.066	82.06
250.299	85.06
250.532	74.06
250.765	89.06
250.998	80.06
251.231	83.06
251.465	78.06
251.698	73.06
251.931	82.06
252.164	75.06
252.397	75.06
252.63	82.06
252.863	77.06
253.096	70.06
253.329	73.06
253.562	75.06
253.795	79.06
254.028	88.06
254.261	87.06
254.494	75.06
254.727	83.06
254.96	90.06
255.193	79.06
255.426	81.06
255.659	79.06
255.892	85.06
256.124	66.06
256.357	69.06
256.59	83.06
256.823	78.06
257.056	86.06
257.289	88.06
257.521	77.06
257.754	82.06
257.987	71.06
258.22	70.06
258.452	75.06
258.685	81.06
258.918	85.06
259.151	95.06
259.383	80.06
259.616	70.06
259.849	90.06
260.081	82.06
260.314	77.06
260.547	86.06
260.779	82.06
261.012	75.06
261.244	78.06
261.477	81.06
261.71	77.06
261.942	94.06
262.175	95.06
262.407	78.06
262.64	78.06
262.872	78.06
263.105	68.06
263.337	97.06
263.57	89.06
263.802	91.06
264.035	87.06
264.267	73.06
264.499	84.06
264.732	89.06
264.964	73.06
265.197	81.06
265.429	77.06
265.661	91.06
265.894	78.06
266.126	72.06
266.358	91.06
266.591	80.06
266.823	91.06
267.055	83.06
267.287	89.06
267.52	91.06
267.752	71.06
267.984	82.06
268.216	92.06
268.448	88.06
268.681	79.06
268.913	80.06
269.145	91.06
269.377	90.06
269.609	81.06
269.841	64.06
270.073	79.06
270.306	90.06
270.538	90.06
270.77	97.06
271.002	97.06
271.234	80.06
271.466	90.06
271.698	86.06
271.93	86.06
272.162	82.06
272.394	88.06
272.626	73.06
272.858	70.06
273.09	76.06
273.322	88.06
273.553	78.06
273.785	92.06
274.017	79.06
274.249	76.06
274.481	70.06
274.713	92.06
274.945	86.06
275.176	88.06
275.408	84.06
275.64	79.06
275.872	83.06
276.104	74.06
276.335	83.06
276.567	92.06
276.799	107.06
277.031	106.06
277.262	84.06
277.494	86.06
277.726	98.06
277.957	89.06
278.189	79.06
278.421	91.06
278.652	85.06
278.884	76.06
279.115	87.06
279.347	78.06
279.579	87.06
279.81	80.06
280.042	86.06
280.273	88.06
280.505	76.06
280.736	89.06
280.968	94.06
281.199	80.06
281.431	78.06
281.662	80.06
281.894	82.06
282.125	95.06
282.356	109.06
282.588	130.06
282.819	115.06
283.051	89.06
283.282	94.06
283.513	86.06
283.745	82.06
283.976	98.06
284.207	103.06
284.439	85.06
284.67	84.06
284.901	90.06
285.132	83.06
285.364	82.06
285.595	77.06
285.826	80.06
286.057	97.06
286.288	98.06
286.52	98.06
286.751	86.06
286.982	91.06
287.213	93.06
287.444	96.06
287.675	83.06
287.906	88.06
288.138	83.06
288.369	103.06
288.6	88.06
288.831	94.06
289.062	95.06
289.293	93.06
289.524	75.06
289.755	90.06
289.986	104.06
290.217	88.06
290.448	88.06
290.679	88.06
290.91	84.06
291.141	73.06
291.371	84.06
291.602	93.06
291.833	83.06
292.064	75.06
292.295	72.06
292.526	70.06
292.757	89.06
292.987	86.06
293.218	75.06
293.449	80.06
293.68	93.06
293.91	80.06
294.141	97.06
294.372	91.06
294.603	86.06
294.833	72.06
295.064	81.06
295.295	90.06
295.525	82.06
295.756	89.06
295.987	108.06
296.217	107.06
296.448	105.06
296.679	91.06
296.909	92.06
297.14	77.06
297.37	99.06
297.601	84.06
297.831	83.06
298.062	93.06
298.292	91.06
298.523	89.06
298.753	87.06
298.984	92.06
299.214	97.06
299.445	99.06
299.675	88.06
299.905	94.06
300.136	84.06
300.366	83.06
300.597	102.06
300.827	103.06
301.057	98.06
301.288	95.06
301.518	92.06
301.748	102.06
301.979	100.06
302.209	79.06
302.439	89.06
302.669	82.06
302.9	104.06
303.13	90.06
303.36	105.06
303.59	120.06
303.82	106.06
304.051	87.06
304.281	92.06
304.511	90.06
304.741	88.06
304.971	80.06
305.201	84.06
305.431	90.06
305.661	90.06
305.891	83.06
306.121	84.06
306.352	93.06
306.582	98.06
306.812	94.06
307.042	94.06
307.272	79.06
307.502	105.06
307.731	107.06
307.961	87.06
308.191	100.06
308.421	97.06
308.651	79.06
308.881	87.06
309.111	83.06
309.341	98.06
309.571	98.06
309.8	84.06
310.03	93.06
310.26	97.06
310.49	87.06
310.72	85.06
310.949	90.06
311.179	96.06
311.409	85.06
311.639	90.06
311.868	89.06
312.098	85.06
312.328	96.06
312.557	78.06
312.787	99.06
313.017	98.06
313.246	104.06
313.476	97.06
313.706	85.06
313.935	97.06
314.165	98.06
314.394	92.06
314.624	108.06
314.853	81.06
315.083	101.06
315.312	99.06
315.542	93.06
315.771	95.06
316.001	84.06
316.23	89.06
316.46	82.06
316.689	81.06
316.919	83.06
317.148	100.06
317.377	101.06
317.607	113.06
317.836	109.06
318.065	96.06
318.295	87.06
318.524	110.06
318.753	82.06
318.983	89.06
319.212	96.06
319.441	102.06
319.67	89.06
319.9	109.06
320.129	80.06
320.358	94.06
320.587	95.06
320.816	109.06
321.046	93.06
321.275	98.06
321.504	92.06
321.733	93.06
321.962	90.06
322.191	96.06
322.42	105.06
322.649	103.06
322.878	113.06
323.108	111.06
323.337	127.06
323.566	139.06
323.795	142.06
324.024	186.06
324.253	329.06
324.482	680.06
324.71	1413.06
324.939	1813.06
325.168	685.06
325.397	210.06
325.626	147.06
325.855	120.06
326.084	131.06
326.313	157.06
326.542	165.06
326.77	194.06
326.999	418.06
327.228	803.06
327.457	1457.06
327.686	1164.06
327.914	330.06
328.143	168.06
328.372	134.06
328.6	124.06
328.829	101.06
329.058	96.06
329.287	134.06
329.515	106.06
329.744	98.06
329.972	96.06
330.201	105.06
330.43	99.06
330.658	115.06
330.887	127.06
331.115	112.06
331.344	94.06
331.572	93.06
331.801	78.06
332.03	93.06
332.258	95.06
332.486	97.06
332.715	98.06
332.943	102.06
333.172	94.06
333.4	103.06
333.629	102.06
333.857	96.06
334.085	108.06
334.314	105.06
334.542	119.06
334.771	125.06
334.999	98.06
335.227	107.06
335.455	91.06
335.684	86.06
335.912	111.06
336.14	97.06
336.369	91.06
336.597	94.06
336.825	88.06
337.053	90.06
337.281	97.06
337.51	84.06
337.738	94.06
337.966	86.06
338.194	96.06
338.422	87.06
338.65	95.06
338.878	93.06
339.106	105.06
339.334	96.06
339.562	87.06
339.79	104.06
340.018	111.06
340.246	96.06
340.474	93.06
340.702	86.06
340.93	92.06
341.158	95.06
341.386	80.06
341.614	75.06
341.842	83.06
342.07	88.06
342.298	97.06
342.526	103.06
342.754	89.06
342.981	84.06
343.209	86.06
343.437	94.06
343.665	76.06
343.893	94.06
344.12	104.06
344.348	104.06
344.576	102.06
344.804	80.06
345.031	96.06
345.259	89.06
345.487	88.06
345.714	87.06
345.942	93.06
346.17	118.06
346.397	76.06
346.625	91.06
346.853	101.06
347.08	88.06
347.308	103.06
347.535	88.06
347.763	96.06
347.99	83.06
348.218	102.06
348.445	108.06
348.673	107.06
348.9	94.06
349.128	97.06
349.355	79.06
349.583	88.06
349.81	94.06
350.037	92.06
350.265	105.06
350.492	107.06
350.72	81.06
350.947	96.06
351.174	108.06
351.402	109.06
351.629	101.06
351.856	94.06
352.083	104.06
352.311	111.06
352.538	105.06
352.765	107.06
352.992	112.06
353.22	110.06
353.447	98.06
353.674	86.06
353.901	102.06
354.128	102.06
354.355	101.06
354.583	114.06
354.81	92.06
355.037	96.06
355.264	106.06
355.491	94.06
355.718	86.06
355.945	96.06
356.172	98.06
356.399	104.06
356.626	97.06
356.853	102.06
357.08	91.06
357.307	98.06
357.534	113.06
357.761	84.06
357.988	98.06
358.215	104.06
358.441	94.06
358.668	94.06
358.895	91.06
359.122	93.06
359.349	99.06
359.576	92.06
359.802	89.06
360.029	100.06
360.256	90.06
360.483	90.06
360.709	104.06
360.936	93.06
361.163	82.06
361.39	97.06
361.616	96.06
361.843	89.06
362.07	103.06
362.296	93.06
362.523	93.06
362.749	78.06
362.976	84.06
363.203	102.06
363.429	101.06
363.656	97.06
363.882	83.06
364.109	95.06
364.335	103.06
364.562	95.06
364.788	91.06
365.015	93.06
365.241	81.06
365.468	112.06
365.694	98.06
365.92	91.06
366.147	99.06
366.373	93.06
366.599	89.06
366.826	95.06
367.052	87.06
367.278	99.06
367.505	104.06
367.731	103.06
367.957	98.06
368.184	84.06
368.41	94.06
368.636	108.06
368.862	110.06
369.089	104.06
369.315	85.06
369.541	85.06
369.767	87.06
369.993	94.06
370.219	94.06
370.445	88.06
370.672	94.06
370.898	69.06
371.124	95.06
371.35	82.06
371.576	98.06
371.802	83.06
372.028	98.06
372.254	90.06
372.48	75.06
372.706	85.06
372.932	84.06
373.158	94.06
373.384	88.06
373.61	101.06
373.835	89.06
374.061	97.06
374.287	87.06
374.513	97.06
374.739	96.06
374.965	86.06
375.191	97.06
375.416	82.06
375.642	89.06
375.868	104.06
376.094	109.06
376.319	93.06
376.545	93.06
376.771	81.06
376.997	96.06
377.222	81.06
377.448	85.06
377.674	95.06
377.899	90.06
378.125	98.06
378.35	81.06
378.576	83.06
378.802	82.06
379.027	97.06
379.253	91.06
379.478	94.06
379.704	96.06
379.929	97.06
380.155	105.06
380.38	90.06
380.606	82.06
380.831	101.06
381.057	93.06
381.282	95.06
381.507	103.06
381.733	102.06
381.958	90.06
382.184	87.06
382.409	98.06
382.634	97.06
382.86	94.06
383.085	98.06
383.31	93.06
383.535	98.06
383.761	107.06
383.986	92.06
384.211	91.06
384.436	95.06
384.662	91.06
384.887	95.06
385.112	96.06
385.337	105.06
385.562	108.06
385.787	98.06
386.013	112.06
386.238	111.06
386.463	110.06
386.688	90.06
386.913	100.06
387.138	106.06
387.363	92.06
387.588	106.06
387.813	103.06
388.038	103.06
388.263	102.06
388.488	110.06
388.713	94.06
388.938	90.06
389.163	102.06
389.387	94.06
389.612	90.06
389.837	94.06
390.062	90.06
390.287	89.06
390.512	97.06
390.736	85.06
390.961	101.06
391.186	111.06
391.411	99.06
391.636	103.06
391.86	101.06
392.085	88.06
392.31	85.06
392.534	97.06
392.759	81.06
392.984	93.06
393.208	90.06
393.433	98.06
393.658	94.06
393.882	100.06
394.107	90.06
394.331	79.06
394.556	81.06
394.78	97.06
395.005	98.06
395.229	95.06
395.454	86.06
395.678	92.06
395.903	81.06
396.127	88.06
396.352	85.06
396.576	77.06
396.801	77.06
397.025	89.06
397.249	95.06
397.474	98.06
397.698	102.06
397.922	87.06
398.147	94.06
398.371	98.06
398.595	98.06
398.82	92.06
399.044	89.06
399.268	90.06
399.492	98.06
399.717	91.06
399.941	81.06
400.165	85.06
400.389	80.06
400.613	89.06
400.837	83.06
401.062	92.06
401.286	96.06
401.51	96.06
401.734	94.06
401.958	107.06
402.182	117.06
402.406	124.06
402.63	119.06
402.854	100.06
403.078	88.06
403.302	96.06
403.526	81.06
403.75	86.06
403.974	76.06
404.198	83.06
404.422	98.06
404.645	100.06
404.869	95.06
405.093	93.06
405.317	98.06
405.541	85.06
405.765	103.06
405.988	114.06
406.212	139.06
406.436	163.06
406.66	114.06
406.883	101.06
407.107	88.06
407.331	79.06
407.555	98.06
407.778	91.06
408.002	91.06
408.226	83.06
408.449	105.06
408.673	104.06
408.896	76.06
409.12	100.06
409.344	98.06
409.567	83.06
409.791	97.06
410.014	110.06
410.238	106.06
410.461	106.06
410.685	92.06
410.908	99.06
411.132	103.06
411.355	93.06
411.578	98.06
411.802	103.06
412.025	104.06
412.249	97.06
412.472	94.06
412.695	90.06
412.919	101.06
413.142	85.06
413.365	84.06
413.589	84.06
413.812	101.06
414.035	102.06
414.258	73.06
414.482	84.06
414.705	91.06
414.928	95.06
415.151	91.06
415.374	92.06
415.597	96.06
415.821	90.06
416.044	95.06
416.267	94.06
416.49	83.06
416.713	82.06
416.936	81.06
417.159	78.06
417.382	80.06
417.605	84.06
417.828	85.06
418.051	100.06
418.274	91.06
418.497	89.06
418.72	95.06
418.943	91.06
419.166	90.06
419.389	81.06
419.611	88.06
419.834	97.06
420.057	102.06
420.28	98.06
420.503	80.06
420.726	84.06
420.948	85.06
421.171	92.06
421.394	80.06
421.617	98.06
421.839	111.06
422.062	96.06
422.285	93.06
422.507	97.06
422.73	98.06
422.953	94.06
423.175	93.06
423.398	89.06
423.621	82.06
423.843	77.06
424.066	95.06
424.288	101.06
424.511	96.06
424.733	97.06
424.956	107.06
425.178	102.06
425.401	98.06
425.623	94.06
425.846	82.06
426.068	78.06
426.291	87.06
426.513	91.06
426.735	79.06
426.958	79.06
427.18	110.06
427.402	124.06
427.625	146.06
427.847	124.06
428.069	107.06
428.292	85.06
428.514	87.06
428.736	74.06
428.958	80.06
429.181	93.06
429.403	76.06
429.625	74.06
429.847	91.06
430.069	108.06
430.292	94.06
430.514	101.06
430.736	80.06
430.958	82.06
431.18	96.06
431.402	86.06
431.624	81.06
431.846	82.06
432.068	99.06
432.29	91.06
432.512	106.06
432.734	83.06
432.956	85.06
433.178	81.06
433.4	106.06
433.622	101.06
433.844	106.06
434.066	86.06
434.287	79.06
434.509	71.06
434.731	82.06
434.953	73.06
435.175	81.06
435.397	79.06
435.618	93.06
435.84	107.06
436.062	118.06
436.284	106.06
436.505	93.06
436.727	94.06
436.949	84.06
437.17	97.06
437.392	95.06
437.614	96.06
437.835	88.06
438.057	104.06
438.278	94.06
438.5	88.06
438.721	121.06
438.943	91.06
439.165	95.06
439.386	81.06
439.608	90.06
439.829	95.06
440.05	105.06
440.272	118.06
440.493	102.06
440.715	92.06
440.936	82.06
441.158	94.06
441.379	89.06
441.6	87.06
441.822	79.06
442.043	101.06
442.264	101.06
442.486	95.06
442.707	99.06
442.928	106.06
443.149	125.06
443.371	127.06
443.592	99.06
443.813	90.06
444.034	106.06
444.255	94.06
444.476	94.06
444.698	96.06
444.919	87.06
445.14	124.06
445.361	127.06
445.582	113.06
445.803	126.06
446.024	125.06
446.245	126.06
446.466	114.06
446.687	83.06
446.908	94.06
447.129	80.06
447.35	77.06
447.571	84.06
447.792	94.06
448.013	89.06
448.234	93.06
448.455	99.06
448.675	98.06
448.896	101.06
449.117	103.06
449.338	99.06
449.559	129.06
449.779	131.06
450	100.06
450.221	94.06
450.442	88.06
450.662	103.06
450.883	103.06
451.104	111.06
451.324	90.06
451.545	94.06
451.766	85.06
451.986	104.06
452.207	77.06
452.428	88.06
452.648	101.06
452.869	104.06
453.089	93.06
453.31	99.06
453.53	87.06
453.751	87.06
453.971	96.06
454.192	94.06
454.412	85.06
454.633	88.06
454.853	97.06
455.073	79.06
455.294	81.06
455.514	85.06
455.734	92.06
455.955	75.06
456.175	92.06
456.395	93.06
456.616	82.06
456.836	90.06
457.056	90.06
457.276	80.06
457.497	74.06
457.717	88.06
457.937	92.06
458.157	76.06
458.377	87.06
458.598	77.06
458.818	115.06
459.038	124.06
459.258	93.06
459.478	88.06
459.698	73.06
459.918	77.06
460.138	92.06
460.358	89.06
460.578	77.06
460.798	87.06
461.018	91.06
461.238	93.06
461.458	85.06
461.678	89.06
461.898	95.06
462.118	89.06
462.338	77.06
462.558	75.06
462.777	82.06
462.997	87.06
463.217	94.06
463.437	75.06
463.657	71.06
463.876	83.06
464.096	90.06
464.316	88.06
464.536	85.06
464.755	83.06
464.975	96.06
465.195	141.06
465.414	155.06
465.634	91.06
465.854	89.06
466.073	105.06
466.293	94.06
466.512	90.06
466.732	82.06
466.951	75.06
467.171	102.06
467.391	84.06
467.61	97.06
467.829	97.06
468.049	95.06
468.268	85.06
468.488	91.06
468.707	75.06
468.927	94.06
469.146	84.06
469.365	93.06
469.585	91.06
469.804	98.06
470.023	85.06
470.243	82.06
470.462	85.06
470.681	97.06
470.901	109.06
471.12	92.06
471.339	78.06
471.558	97.06
471.777	103.06
471.997	89.06
472.216	99.06
472.435	120.06
472.654	101.06
472.873	93.06
473.092	88.06
473.311	104.06
473.53	86.06
473.749	83.06
473.968	93.06
474.187	99.06
474.406	93.06
474.625	89.06
474.844	93.06
475.063	94.06
475.282	89.06
475.501	85.06
475.72	98.06
475.939	80.06
476.158	67.06
476.377	97.06
476.596	80.06
476.814	84.06
477.033	91.06
477.252	91.06
477.471	83.06
477.69	67.06
477.908	87.06
478.127	90.06
478.346	87.06
478.564	87.06
478.783	94.06
479.002	87.06
479.22	100.06
479.439	91.06
479.658	93.06
479.876	83.06
480.095	85.06
480.313	77.06
480.532	79.06
480.751	88.06
480.969	87.06
481.188	167.06
481.406	131.06
481.624	82.06
481.843	95.06
482.061	85.06
482.28	91.06
482.498	82.06
482.717	93.06
482.935	86.06
483.153	95.06
483.372	85.06
483.59	85.06
483.808	89.06
484.027	77.06
484.245	86.06
484.463	88.06
484.681	98.06
484.9	105.06
485.118	101.06
485.336	88.06
485.554	85.06
485.772	86.06
485.99	84.06
486.209	107.06
486.427	93.06
486.645	108.06
486.863	103.06
487.081	94.06
487.299	98.06
487.517	105.06
487.735	97.06
487.953	87.06
488.171	98.06
488.389	78.06
488.607	97.06
488.825	96.06
489.043	87.06
489.261	97.06
489.479	80.06
489.696	89.06
489.914	88.06
490.132	93.06
490.35	87.06
490.568	76.06
490.786	79.06
491.003	89.06
491.221	103.06
491.439	85.06
491.657	94.06
491.874	89.06
492.092	91.06
492.31	80.06
492.527	88.06
492.745	87.06
492.963	103.06
493.18	96.06
493.398	86.06
493.615	90.06
493.833	105.06
494.05	93.06
494.268	90.06
494.485	85.06
494.703	92.06
494.92	78.06
495.138	77.06
495.355	80.06
495.573	87.06
495.79	95.06
496.008	103.06
496.225	95.06
496.442	92.06
496.66	94.06
496.877	86.06
497.094	97.06
497.312	100.06
497.529	98.06
497.746	91.06
497.963	84.06
498.181	97.06
498.398	89.06
498.615	96.06
498.832	93.06
499.049	72.06
499.267	90.06
499.484	99.06
499.701	89.06
499.918	102.06
500.135	87.06
500.352	88.06
500.569	84.06
500.786	89.06
501.003	102.06
501.22	88.06
501.437	97.06
501.654	92.06
501.871	93.06
502.088	83.06
502.305	83.06
502.522	89.06
502.739	101.06
502.956	91.06
503.172	99.06
503.389	96.06
503.606	95.06
503.823	95.06
504.04	101.06
504.256	88.06
504.473	85.06
504.69	93.06
504.907	84.06
505.123	99.06
505.34	88.06
505.557	95.06
505.773	84.06
505.99	91.06
506.207	86.06
506.423	81.06
506.64	82.06
506.856	88.06
507.073	91.06
507.289	90.06
507.506	101.06
507.722	105.06
507.939	106.06
508.155	95.06
508.372	86.06
508.588	92.06
508.805	79.06
509.021	102.06
509.238	96.06
509.454	95.06
509.67	86.06
509.887	105.06
510.103	111.06
510.319	176.06
510.536	562.06
510.752	1590.06
510.968	493.06
511.184	136.06
511.401	108.06
511.617	89.06
511.833	87.06
512.049	107.06
512.265	86.06
512.481	101.06
512.698	105.06
512.914	86.06
513.13	91.06
513.346	81.06
513.562	92.06
513.778	100.06
513.994	87.06
514.21	87.06
514.426	104.06
514.642	117.06
514.858	102.06
515.074	149.06
515.29	317.06
515.506	935.06
515.721	380.06
515.937	131.06
516.153	106.06
