Data from Uncirc_2009_H10_HRD10591_00060.txt Node
Date: Wed Jan 03 10:12:13 EST 2024
User: Yrep
Spectrometer: HR+D1059
Trigger mode: 1
Integration Time (sec): 1.000000E-1
Scans to average: 1
Electric dark correction enabled: true
Nonlinearity correction enabled: false
Boxcar width: 0
XAxis mode: Wavelengths
Number of Pixels in Spectrum: 2048
>>>>>Begin Spectral Data<<<<<
223.165	-29.94
223.4	-29.94
223.635	-29.94
223.869	-16.94
224.104	-17.94
224.338	-14.94
224.573	-13.94
224.808	-15.94
225.042	3.06
225.277	-2.94
225.511	-24.94
225.746	-1.94
225.98	10.06
226.215	7.06
226.449	29.06
226.683	19.06
226.918	33.06
227.152	38.06
227.387	44.06
227.621	31.06
227.856	46.06
228.09	54.06
228.324	48.06
228.559	55.06
228.793	62.06
229.027	70.06
229.262	63.06
229.496	55.06
229.73	53.06
229.964	58.06
230.199	60.06
230.433	75.06
230.667	81.06
230.901	78.06
231.136	70.06
231.37	78.06
231.604	83.06
231.838	89.06
232.072	72.06
232.306	78.06
232.541	71.06
232.775	70.06
233.009	96.06
233.243	87.06
233.477	72.06
233.711	72.06
233.945	86.06
234.179	84.06
234.413	85.06
234.647	91.06
234.881	66.06
235.115	84.06
235.349	63.06
235.583	74.06
235.817	79.06
236.051	80.06
236.285	77.06
236.519	78.06
236.753	69.06
236.987	86.06
237.221	85.06
237.455	98.06
237.689	80.06
237.922	80.06
238.156	73.06
238.39	79.06
238.624	65.06
238.858	78.06
239.091	70.06
239.325	79.06
239.559	78.06
239.793	74.06
240.027	78.06
240.26	93.06
240.494	77.06
240.728	67.06
240.961	84.06
241.195	78.06
241.429	70.06
241.662	73.06
241.896	78.06
242.13	74.06
242.363	88.06
242.597	93.06
242.83	75.06
243.064	87.06
243.298	86.06
243.531	78.06
243.765	70.06
243.998	69.06
244.232	89.06
244.465	87.06
244.699	91.06
244.932	69.06
245.166	70.06
245.399	82.06
245.633	72.06
245.866	74.06
246.099	78.06
246.333	90.06
246.566	74.06
246.8	78.06
247.033	71.06
247.266	86.06
247.5	84.06
247.733	86.06
247.966	85.06
248.2	83.06
248.433	84.06
248.666	83.06
248.899	84.06
249.133	89.06
249.366	81.06
249.599	99.06
249.832	77.06
250.066	88.06
250.299	83.06
250.532	75.06
250.765	74.06
250.998	79.06
251.231	68.06
251.465	80.06
251.698	89.06
251.931	79.06
252.164	79.06
252.397	73.06
252.63	61.06
252.863	79.06
253.096	84.06
253.329	80.06
253.562	80.06
253.795	83.06
254.028	87.06
254.261	93.06
254.494	73.06
254.727	72.06
254.96	78.06
255.193	86.06
255.426	86.06
255.659	80.06
255.892	74.06
256.124	79.06
256.357	73.06
256.59	82.06
256.823	89.06
257.056	85.06
257.289	76.06
257.521	73.06
257.754	86.06
257.987	81.06
258.22	83.06
258.452	67.06
258.685	87.06
258.918	84.06
259.151	69.06
259.383	81.06
259.616	77.06
259.849	64.06
260.081	72.06
260.314	57.06
260.547	86.06
260.779	89.06
261.012	75.06
261.244	82.06
261.477	96.06
261.71	91.06
261.942	102.06
262.175	78.06
262.407	92.06
262.64	72.06
262.872	74.06
263.105	75.06
263.337	83.06
263.57	87.06
263.802	79.06
264.035	83.06
264.267	90.06
264.499	80.06
264.732	81.06
264.964	88.06
265.197	86.06
265.429	91.06
265.661	92.06
265.894	95.06
266.126	74.06
266.358	86.06
266.591	71.06
266.823	88.06
267.055	89.06
267.287	86.06
267.52	81.06
267.752	76.06
267.984	85.06
268.216	86.06
268.448	83.06
268.681	90.06
268.913	83.06
269.145	94.06
269.377	95.06
269.609	83.06
269.841	65.06
270.073	81.06
270.306	71.06
270.538	87.06
270.77	94.06
271.002	88.06
271.234	79.06
271.466	66.06
271.698	89.06
271.93	89.06
272.162	89.06
272.394	81.06
272.626	91.06
272.858	71.06
273.09	80.06
273.322	96.06
273.553	89.06
273.785	83.06
274.017	83.06
274.249	92.06
274.481	91.06
274.713	88.06
274.945	86.06
275.176	83.06
275.408	91.06
275.64	92.06
275.872	83.06
276.104	79.06
276.335	96.06
276.567	91.06
276.799	98.06
277.031	98.06
277.262	86.06
277.494	84.06
277.726	94.06
277.957	86.06
278.189	106.06
278.421	68.06
278.652	90.06
278.884	85.06
279.115	76.06
279.347	90.06
279.579	89.06
279.81	77.06
280.042	84.06
280.273	79.06
280.505	98.06
280.736	98.06
280.968	113.06
281.199	70.06
281.431	83.06
281.662	89.06
281.894	99.06
282.125	84.06
282.356	95.06
282.588	115.06
282.819	107.06
283.051	77.06
283.282	88.06
283.513	88.06
283.745	99.06
283.976	96.06
284.207	110.06
284.439	102.06
284.67	74.06
284.901	83.06
285.132	104.06
285.364	80.06
285.595	90.06
285.826	91.06
286.057	89.06
286.288	88.06
286.52	99.06
286.751	90.06
286.982	81.06
287.213	85.06
287.444	89.06
287.675	87.06
287.906	91.06
288.138	83.06
288.369	87.06
288.6	83.06
288.831	76.06
289.062	83.06
289.293	105.06
289.524	86.06
289.755	80.06
289.986	78.06
290.217	85.06
290.448	82.06
290.679	86.06
290.91	82.06
291.141	90.06
291.371	83.06
291.602	88.06
291.833	89.06
292.064	86.06
292.295	88.06
292.526	89.06
292.757	100.06
292.987	90.06
293.218	105.06
293.449	76.06
293.68	85.06
293.91	94.06
294.141	90.06
294.372	86.06
294.603	91.06
294.833	84.06
295.064	108.06
295.295	84.06
295.525	96.06
295.756	97.06
295.987	104.06
296.217	121.06
296.448	105.06
296.679	98.06
296.909	91.06
297.14	90.06
297.37	97.06
297.601	91.06
297.831	83.06
298.062	87.06
298.292	77.06
298.523	97.06
298.753	79.06
298.984	94.06
299.214	87.06
299.445	80.06
299.675	78.06
299.905	93.06
300.136	85.06
300.366	87.06
300.597	88.06
300.827	97.06
301.057	105.06
301.288	96.06
301.518	91.06
301.748	95.06
301.979	114.06
302.209	87.06
302.439	77.06
302.669	93.06
302.9	89.06
303.13	87.06
303.36	108.06
303.59	109.06
303.82	111.06
304.051	84.06
304.281	93.06
304.511	101.06
304.741	92.06
304.971	83.06
305.201	72.06
305.431	83.06
305.661	87.06
305.891	88.06
306.121	87.06
306.352	99.06
306.582	86.06
306.812	89.06
307.042	85.06
307.272	98.06
307.502	99.06
307.731	94.06
307.961	102.06
308.191	99.06
308.421	92.06
308.651	95.06
308.881	89.06
309.111	79.06
309.341	101.06
309.571	84.06
309.8	90.06
310.03	112.06
310.26	97.06
310.49	95.06
310.72	92.06
310.949	89.06
311.179	93.06
311.409	98.06
311.639	92.06
311.868	80.06
312.098	97.06
312.328	86.06
312.557	77.06
312.787	90.06
313.017	108.06
313.246	85.06
313.476	87.06
313.706	102.06
313.935	89.06
314.165	99.06
314.394	104.06
314.624	99.06
314.853	97.06
315.083	81.06
315.312	101.06
315.542	94.06
315.771	92.06
316.001	89.06
316.23	83.06
316.46	91.06
316.689	97.06
316.919	88.06
317.148	110.06
317.377	106.06
317.607	131.06
317.836	117.06
318.065	98.06
318.295	104.06
318.524	103.06
318.753	94.06
318.983	96.06
319.212	85.06
319.441	101.06
319.67	104.06
319.9	90.06
320.129	87.06
320.358	82.06
320.587	86.06
320.816	82.06
321.046	87.06
321.275	102.06
321.504	90.06
321.733	96.06
321.962	85.06
322.191	111.06
322.42	95.06
322.649	101.06
322.878	109.06
323.108	117.06
323.337	115.06
323.566	110.06
323.795	136.06
324.024	189.06
324.253	354.06
324.482	735.06
324.71	1527.06
324.939	1989.06
325.168	705.06
325.397	223.06
325.626	149.06
325.855	139.06
326.084	140.06
326.313	144.06
326.542	147.06
326.77	205.06
326.999	408.06
327.228	859.06
327.457	1530.06
327.686	1217.06
327.914	337.06
328.143	187.06
328.372	124.06
328.6	123.06
328.829	104.06
329.058	124.06
329.287	100.06
329.515	109.06
329.744	109.06
329.972	101.06
330.201	122.06
330.43	135.06
330.658	119.06
330.887	127.06
331.115	99.06
331.344	102.06
331.572	94.06
331.801	96.06
332.03	97.06
332.258	96.06
332.486	87.06
332.715	100.06
332.943	102.06
333.172	100.06
333.4	95.06
333.629	75.06
333.857	116.06
334.085	99.06
334.314	94.06
334.542	131.06
334.771	111.06
334.999	92.06
335.227	103.06
335.455	89.06
335.684	109.06
335.912	101.06
336.14	97.06
336.369	87.06
336.597	96.06
336.825	95.06
337.053	104.06
337.281	79.06
337.51	99.06
337.738	89.06
337.966	86.06
338.194	90.06
338.422	90.06
338.65	97.06
338.878	92.06
339.106	75.06
339.334	95.06
339.562	88.06
339.79	80.06
340.018	83.06
340.246	84.06
340.474	93.06
340.702	90.06
340.93	93.06
341.158	89.06
341.386	89.06
341.614	92.06
341.842	90.06
342.07	96.06
342.298	92.06
342.526	90.06
342.754	75.06
342.981	87.06
343.209	93.06
343.437	96.06
343.665	109.06
343.893	110.06
344.12	93.06
344.348	89.06
344.576	97.06
344.804	95.06
345.031	98.06
345.259	99.06
345.487	106.06
345.714	87.06
345.942	95.06
346.17	98.06
346.397	97.06
346.625	82.06
346.853	98.06
347.08	99.06
347.308	101.06
347.535	91.06
347.763	110.06
347.99	95.06
348.218	108.06
348.445	101.06
348.673	92.06
348.9	85.06
349.128	97.06
349.355	94.06
349.583	102.06
349.81	88.06
350.037	94.06
350.265	90.06
350.492	91.06
350.72	97.06
350.947	93.06
351.174	94.06
351.402	110.06
351.629	97.06
351.856	109.06
352.083	106.06
352.311	105.06
352.538	107.06
352.765	103.06
352.992	107.06
353.22	105.06
353.447	100.06
353.674	116.06
353.901	106.06
354.128	98.06
354.355	94.06
354.583	104.06
354.81	111.06
355.037	96.06
355.264	102.06
355.491	86.06
355.718	95.06
355.945	92.06
356.172	111.06
356.399	101.06
356.626	100.06
356.853	101.06
357.08	104.06
357.307	91.06
357.534	104.06
357.761	97.06
357.988	93.06
358.215	106.06
358.441	89.06
358.668	93.06
358.895	98.06
359.122	100.06
359.349	97.06
359.576	85.06
359.802	89.06
360.029	101.06
360.256	104.06
360.483	93.06
360.709	88.06
360.936	94.06
361.163	94.06
361.39	83.06
361.616	97.06
361.843	91.06
362.07	102.06
362.296	103.06
362.523	100.06
362.749	108.06
362.976	80.06
363.203	106.06
363.429	78.06
363.656	94.06
363.882	87.06
364.109	91.06
364.335	88.06
364.562	78.06
364.788	91.06
365.015	94.06
365.241	87.06
365.468	86.06
365.694	95.06
365.92	91.06
366.147	91.06
366.373	87.06
366.599	78.06
366.826	96.06
367.052	90.06
367.278	104.06
367.505	94.06
367.731	98.06
367.957	102.06
368.184	88.06
368.41	105.06
368.636	100.06
368.862	103.06
369.089	101.06
369.315	105.06
369.541	78.06
369.767	92.06
369.993	90.06
370.219	98.06
370.445	82.06
370.672	107.06
370.898	103.06
371.124	85.06
371.35	83.06
371.576	106.06
371.802	91.06
372.028	85.06
372.254	96.06
372.48	93.06
372.706	90.06
372.932	85.06
373.158	90.06
373.384	90.06
373.61	91.06
373.835	92.06
374.061	99.06
374.287	94.06
374.513	84.06
374.739	96.06
374.965	79.06
375.191	87.06
375.416	90.06
375.642	91.06
375.868	88.06
376.094	97.06
376.319	97.06
376.545	88.06
376.771	86.06
376.997	87.06
377.222	91.06
377.448	80.06
377.674	88.06
377.899	94.06
378.125	101.06
378.35	105.06
378.576	81.06
378.802	99.06
379.027	89.06
379.253	74.06
379.478	97.06
379.704	96.06
379.929	103.06
380.155	86.06
380.38	110.06
380.606	101.06
380.831	82.06
381.057	98.06
381.282	86.06
381.507	89.06
381.733	84.06
381.958	90.06
382.184	105.06
382.409	90.06
382.634	91.06
382.86	99.06
383.085	96.06
383.31	102.06
383.535	119.06
383.761	100.06
383.986	87.06
384.211	86.06
384.436	92.06
384.662	101.06
384.887	99.06
385.112	92.06
385.337	104.06
385.562	103.06
385.787	101.06
386.013	111.06
386.238	109.06
386.463	102.06
386.688	103.06
386.913	103.06
387.138	110.06
387.363	102.06
387.588	103.06
387.813	98.06
388.038	104.06
388.263	103.06
388.488	103.06
388.713	95.06
388.938	98.06
389.163	92.06
389.387	100.06
389.612	95.06
389.837	110.06
390.062	98.06
390.287	102.06
390.512	97.06
390.736	86.06
390.961	89.06
391.186	96.06
391.411	86.06
391.636	84.06
391.86	89.06
392.085	90.06
392.31	81.06
392.534	83.06
392.759	82.06
392.984	86.06
393.208	89.06
393.433	98.06
393.658	89.06
393.882	86.06
394.107	94.06
394.331	77.06
394.556	98.06
394.78	91.06
395.005	94.06
395.229	93.06
395.454	92.06
395.678	86.06
395.903	84.06
396.127	89.06
396.352	92.06
396.576	90.06
396.801	85.06
397.025	89.06
397.249	82.06
397.474	87.06
397.698	73.06
397.922	83.06
398.147	110.06
398.371	90.06
398.595	96.06
398.82	78.06
399.044	73.06
399.268	93.06
399.492	78.06
399.717	94.06
399.941	81.06
400.165	89.06
400.389	91.06
400.613	94.06
400.837	96.06
401.062	79.06
401.286	79.06
401.51	83.06
401.734	92.06
401.958	92.06
402.182	104.06
402.406	128.06
402.63	117.06
402.854	85.06
403.078	88.06
403.302	87.06
403.526	78.06
403.75	83.06
403.974	90.06
404.198	82.06
404.422	84.06
404.645	83.06
404.869	96.06
405.093	97.06
405.317	103.06
405.541	97.06
405.765	84.06
405.988	117.06
406.212	154.06
406.436	183.06
406.66	120.06
406.883	98.06
407.107	78.06
407.331	96.06
407.555	103.06
407.778	98.06
408.002	102.06
408.226	103.06
408.449	103.06
408.673	88.06
408.896	85.06
409.12	83.06
409.344	81.06
409.567	86.06
409.791	92.06
410.014	99.06
410.238	98.06
410.461	86.06
410.685	87.06
410.908	96.06
411.132	101.06
411.355	105.06
411.578	83.06
411.802	95.06
412.025	81.06
412.249	90.06
412.472	87.06
412.695	96.06
412.919	99.06
413.142	98.06
413.365	86.06
413.589	103.06
413.812	95.06
414.035	100.06
414.258	90.06
414.482	83.06
414.705	88.06
414.928	99.06
415.151	96.06
415.374	99.06
415.597	75.06
415.821	82.06
416.044	93.06
416.267	98.06
416.49	96.06
416.713	90.06
416.936	94.06
417.159	91.06
417.382	94.06
417.605	83.06
417.828	95.06
418.051	98.06
418.274	102.06
418.497	94.06
418.72	89.06
418.943	94.06
419.166	83.06
419.389	78.06
419.611	103.06
419.834	89.06
420.057	102.06
420.28	78.06
420.503	93.06
420.726	79.06
420.948	97.06
421.171	82.06
421.394	86.06
421.617	91.06
421.839	93.06
422.062	73.06
422.285	98.06
422.507	93.06
422.73	90.06
422.953	88.06
423.175	88.06
423.398	98.06
423.621	104.06
423.843	92.06
424.066	81.06
424.288	99.06
424.511	94.06
424.733	95.06
424.956	100.06
425.178	80.06
425.401	99.06
425.623	92.06
425.846	88.06
426.068	108.06
426.291	93.06
426.513	88.06
426.735	75.06
426.958	96.06
427.18	97.06
427.402	118.06
427.625	130.06
427.847	125.06
428.069	105.06
428.292	90.06
428.514	90.06
428.736	81.06
428.958	85.06
429.181	83.06
429.403	89.06
429.625	90.06
429.847	80.06
430.069	106.06
430.292	91.06
430.514	83.06
430.736	85.06
430.958	89.06
431.18	88.06
431.402	83.06
431.624	83.06
431.846	86.06
432.068	71.06
432.29	101.06
432.512	92.06
432.734	81.06
432.956	95.06
433.178	92.06
433.4	99.06
433.622	84.06
433.844	96.06
434.066	90.06
434.287	90.06
434.509	96.06
434.731	87.06
434.953	81.06
435.175	88.06
435.397	103.06
435.618	94.06
435.84	103.06
436.062	111.06
436.284	122.06
436.505	94.06
436.727	82.06
436.949	85.06
437.17	93.06
437.392	77.06
437.614	83.06
437.835	87.06
438.057	96.06
438.278	93.06
438.5	97.06
438.721	114.06
438.943	89.06
439.165	97.06
439.386	98.06
439.608	88.06
439.829	94.06
440.05	125.06
440.272	126.06
440.493	94.06
440.715	85.06
440.936	88.06
441.158	89.06
441.379	94.06
441.6	79.06
441.822	85.06
442.043	78.06
442.264	95.06
442.486	91.06
442.707	89.06
442.928	101.06
443.149	114.06
443.371	114.06
443.592	109.06
443.813	99.06
444.034	102.06
444.255	94.06
444.476	91.06
444.698	93.06
444.919	91.06
445.14	133.06
445.361	129.06
445.582	115.06
445.803	127.06
446.024	133.06
446.245	128.06
446.466	101.06
446.687	91.06
446.908	79.06
447.129	82.06
447.35	81.06
447.571	88.06
447.792	87.06
448.013	82.06
448.234	109.06
448.455	81.06
448.675	104.06
448.896	115.06
449.117	95.06
449.338	81.06
449.559	105.06
449.779	130.06
450	103.06
450.221	84.06
450.442	89.06
450.662	95.06
450.883	106.06
451.104	109.06
451.324	83.06
451.545	90.06
451.766	98.06
451.986	85.06
452.207	97.06
452.428	94.06
452.648	84.06
452.869	89.06
453.089	103.06
453.31	110.06
453.53	95.06
453.751	94.06
453.971	85.06
454.192	88.06
454.412	90.06
454.633	81.06
454.853	95.06
455.073	84.06
455.294	81.06
455.514	102.06
455.734	98.06
455.955	78.06
456.175	87.06
456.395	82.06
456.616	85.06
456.836	86.06
457.056	97.06
457.276	95.06
457.497	91.06
457.717	83.06
457.937	82.06
458.157	97.06
458.377	80.06
458.598	91.06
458.818	140.06
459.038	121.06
459.258	101.06
459.478	95.06
459.698	94.06
459.918	90.06
460.138	83.06
460.358	91.06
460.578	80.06
460.798	96.06
461.018	104.06
461.238	95.06
461.458	83.06
461.678	81.06
461.898	89.06
462.118	85.06
462.338	73.06
462.558	94.06
462.777	76.06
462.997	88.06
463.217	88.06
463.437	83.06
463.657	86.06
463.876	84.06
464.096	84.06
464.316	83.06
464.536	88.06
464.755	85.06
464.975	90.06
465.195	132.06
465.414	133.06
465.634	96.06
465.854	94.06
466.073	94.06
466.293	88.06
466.512	85.06
466.732	86.06
466.951	83.06
467.171	93.06
467.391	83.06
467.61	92.06
467.829	97.06
468.049	101.06
468.268	96.06
468.488	90.06
468.707	93.06
468.927	77.06
469.146	78.06
469.365	94.06
469.585	74.06
469.804	88.06
470.023	93.06
470.243	93.06
470.462	94.06
470.681	98.06
470.901	79.06
471.12	90.06
471.339	98.06
471.558	84.06
471.777	91.06
471.997	87.06
472.216	110.06
472.435	126.06
472.654	93.06
472.873	87.06
473.092	93.06
473.311	72.06
473.53	79.06
473.749	88.06
473.968	96.06
474.187	94.06
474.406	89.06
474.625	93.06
474.844	82.06
475.063	90.06
475.282	92.06
475.501	83.06
475.72	88.06
475.939	81.06
476.158	80.06
476.377	82.06
476.596	85.06
476.814	87.06
477.033	94.06
477.252	93.06
477.471	88.06
477.69	93.06
477.908	91.06
478.127	93.06
478.346	87.06
478.564	93.06
478.783	91.06
479.002	87.06
479.22	89.06
479.439	90.06
479.658	99.06
479.876	90.06
480.095	90.06
480.313	84.06
480.532	89.06
480.751	110.06
480.969	100.06
481.188	173.06
481.406	130.06
481.624	99.06
481.843	87.06
482.061	89.06
482.28	81.06
482.498	96.06
482.717	87.06
482.935	78.06
483.153	85.06
483.372	74.06
483.59	92.06
483.808	91.06
484.027	87.06
484.245	102.06
484.463	88.06
484.681	105.06
484.9	96.06
485.118	99.06
485.336	93.06
485.554	82.06
485.772	101.06
485.99	90.06
486.209	95.06
486.427	100.06
486.645	116.06
486.863	90.06
487.081	78.06
487.299	97.06
487.517	85.06
487.735	75.06
487.953	80.06
488.171	83.06
488.389	107.06
488.607	101.06
488.825	97.06
489.043	82.06
489.261	97.06
489.479	98.06
489.696	94.06
489.914	78.06
490.132	81.06
490.35	104.06
490.568	100.06
490.786	84.06
491.003	82.06
491.221	89.06
491.439	102.06
491.657	86.06
491.874	87.06
492.092	89.06
492.31	90.06
492.527	91.06
492.745	95.06
492.963	93.06
493.18	106.06
493.398	106.06
493.615	100.06
493.833	79.06
494.05	91.06
494.268	94.06
494.485	91.06
494.703	100.06
494.92	101.06
495.138	104.06
495.355	90.06
495.573	85.06
495.79	96.06
496.008	94.06
496.225	82.06
496.442	92.06
496.66	87.06
496.877	98.06
497.094	82.06
497.312	92.06
497.529	96.06
497.746	83.06
497.963	78.06
498.181	74.06
498.398	83.06
498.615	108.06
498.832	99.06
499.049	78.06
499.267	96.06
499.484	91.06
499.701	105.06
499.918	99.06
500.135	87.06
500.352	87.06
500.569	73.06
500.786	89.06
501.003	89.06
501.22	86.06
501.437	93.06
501.654	83.06
501.871	92.06
502.088	94.06
502.305	87.06
502.522	89.06
502.739	75.06
502.956	91.06
503.172	91.06
503.389	97.06
503.606	96.06
503.823	79.06
504.04	90.06
504.256	89.06
504.473	78.06
504.69	87.06
504.907	83.06
505.123	90.06
505.34	90.06
505.557	84.06
505.773	89.06
505.99	80.06
506.207	87.06
506.423	87.06
506.64	77.06
506.856	91.06
507.073	90.06
507.289	84.06
507.506	103.06
507.722	109.06
507.939	115.06
508.155	96.06
508.372	99.06
508.588	93.06
508.805	91.06
509.021	88.06
509.238	101.06
509.454	98.06
509.67	107.06
509.887	110.06
510.103	120.06
510.319	194.06
510.536	574.06
510.752	1721.06
510.968	527.06
511.184	125.06
511.401	118.06
511.617	89.06
511.833	83.06
512.049	95.06
512.265	79.06
512.481	83.06
512.698	102.06
512.914	84.06
513.13	81.06
513.346	95.06
513.562	95.06
513.778	103.06
513.994	95.06
514.21	96.06
514.426	106.06
514.642	108.06
514.858	97.06
515.074	135.06
515.29	327.06
515.506	1027.06
515.721	426.06
515.937	129.06
516.153	117.06
