Data from Uncirc_2009_H10_HRD10591_00018.txt Node
Date: Wed Jan 03 10:12:05 EST 2024
User: Yrep
Spectrometer: HR+D1059
Trigger mode: 1
Integration Time (sec): 1.000000E-1
Scans to average: 1
Electric dark correction enabled: true
Nonlinearity correction enabled: false
Boxcar width: 0
XAxis mode: Wavelengths
Number of Pixels in Spectrum: 2048
>>>>>Begin Spectral Data<<<<<
223.165	-18.06
223.4	-18.06
223.635	-18.06
223.869	-15.06
224.104	-18.06
224.338	-14.06
224.573	-30.06
224.808	-6.06
225.042	-11.06
225.277	-8.06
225.511	3.94
225.746	-2.06
225.98	0.94
226.215	-5.06
226.449	24.94
226.683	42.94
226.918	26.94
227.152	27.94
227.387	23.94
227.621	52.94
227.856	43.94
228.09	35.94
228.324	42.94
228.559	49.94
228.793	58.94
229.027	63.94
229.262	70.94
229.496	69.94
229.73	77.94
229.964	88.94
230.199	70.94
230.433	76.94
230.667	82.94
230.901	77.94
231.136	87.94
231.37	71.94
231.604	71.94
231.838	71.94
232.072	85.94
232.306	76.94
232.541	79.94
232.775	76.94
233.009	82.94
233.243	89.94
233.477	80.94
233.711	93.94
233.945	91.94
234.179	76.94
234.413	74.94
234.647	88.94
234.881	86.94
235.115	74.94
235.349	91.94
235.583	89.94
235.817	69.94
236.051	73.94
236.285	77.94
236.519	73.94
236.753	68.94
236.987	78.94
237.221	91.94
237.455	75.94
237.689	76.94
237.922	87.94
238.156	72.94
238.39	64.94
238.624	66.94
238.858	72.94
239.091	71.94
239.325	68.94
239.559	74.94
239.793	90.94
240.027	78.94
240.26	70.94
240.494	88.94
240.728	82.94
240.961	74.94
241.195	81.94
241.429	82.94
241.662	87.94
241.896	76.94
242.13	63.94
242.363	72.94
242.597	69.94
242.83	71.94
243.064	73.94
243.298	77.94
243.531	76.94
243.765	89.94
243.998	71.94
244.232	68.94
244.465	89.94
244.699	85.94
244.932	74.94
245.166	68.94
245.399	79.94
245.633	71.94
245.866	84.94
246.099	82.94
246.333	81.94
246.566	77.94
246.8	81.94
247.033	93.94
247.266	82.94
247.5	83.94
247.733	87.94
247.966	90.94
248.2	76.94
248.433	76.94
248.666	75.94
248.899	85.94
249.133	72.94
249.366	79.94
249.599	84.94
249.832	81.94
250.066	88.94
250.299	76.94
250.532	79.94
250.765	80.94
250.998	73.94
251.231	79.94
251.465	91.94
251.698	75.94
251.931	80.94
252.164	80.94
252.397	68.94
252.63	68.94
252.863	66.94
253.096	82.94
253.329	71.94
253.562	73.94
253.795	70.94
254.028	93.94
254.261	92.94
254.494	76.94
254.727	80.94
254.96	65.94
255.193	82.94
255.426	89.94
255.659	63.94
255.892	89.94
256.124	62.94
256.357	89.94
256.59	81.94
256.823	86.94
257.056	90.94
257.289	66.94
257.521	75.94
257.754	67.94
257.987	80.94
258.22	66.94
258.452	62.94
258.685	82.94
258.918	79.94
259.151	80.94
259.383	76.94
259.616	76.94
259.849	91.94
260.081	77.94
260.314	90.94
260.547	81.94
260.779	84.94
261.012	86.94
261.244	84.94
261.477	79.94
261.71	86.94
261.942	88.94
262.175	103.94
262.407	90.94
262.64	77.94
262.872	84.94
263.105	85.94
263.337	91.94
263.57	86.94
263.802	90.94
264.035	76.94
264.267	83.94
264.499	71.94
264.732	70.94
264.964	81.94
265.197	80.94
265.429	86.94
265.661	89.94
265.894	71.94
266.126	79.94
266.358	81.94
266.591	77.94
266.823	87.94
267.055	95.94
267.287	81.94
267.52	87.94
267.752	89.94
267.984	89.94
268.216	76.94
268.448	87.94
268.681	86.94
268.913	81.94
269.145	81.94
269.377	87.94
269.609	89.94
269.841	71.94
270.073	88.94
270.306	84.94
270.538	95.94
270.77	99.94
271.002	84.94
271.234	94.94
271.466	81.94
271.698	91.94
271.93	86.94
272.162	91.94
272.394	99.94
272.626	85.94
272.858	96.94
273.09	83.94
273.322	87.94
273.553	84.94
273.785	81.94
274.017	89.94
274.249	92.94
274.481	82.94
274.713	70.94
274.945	96.94
275.176	78.94
275.408	80.94
275.64	90.94
275.872	88.94
276.104	82.94
276.335	89.94
276.567	89.94
276.799	101.94
277.031	102.94
277.262	79.94
277.494	102.94
277.726	99.94
277.957	92.94
278.189	100.94
278.421	84.94
278.652	90.94
278.884	75.94
279.115	80.94
279.347	102.94
279.579	93.94
279.81	68.94
280.042	86.94
280.273	92.94
280.505	86.94
280.736	94.94
280.968	80.94
281.199	92.94
281.431	94.94
281.662	92.94
281.894	81.94
282.125	86.94
282.356	110.94
282.588	121.94
282.819	98.94
283.051	63.94
283.282	90.94
283.513	77.94
283.745	86.94
283.976	94.94
284.207	109.94
284.439	94.94
284.67	81.94
284.901	74.94
285.132	85.94
285.364	79.94
285.595	80.94
285.826	72.94
286.057	91.94
286.288	84.94
286.52	90.94
286.751	87.94
286.982	101.94
287.213	86.94
287.444	89.94
287.675	89.94
287.906	81.94
288.138	82.94
288.369	83.94
288.6	82.94
288.831	78.94
289.062	93.94
289.293	103.94
289.524	92.94
289.755	88.94
289.986	87.94
290.217	77.94
290.448	85.94
290.679	89.94
290.91	87.94
291.141	84.94
291.371	91.94
291.602	86.94
291.833	85.94
292.064	85.94
292.295	99.94
292.526	85.94
292.757	93.94
292.987	77.94
293.218	87.94
293.449	81.94
293.68	90.94
293.91	92.94
294.141	87.94
294.372	88.94
294.603	86.94
294.833	89.94
295.064	80.94
295.295	91.94
295.525	84.94
295.756	106.94
295.987	95.94
296.217	116.94
296.448	103.94
296.679	100.94
296.909	98.94
297.14	87.94
297.37	89.94
297.601	86.94
297.831	94.94
298.062	88.94
298.292	90.94
298.523	86.94
298.753	88.94
298.984	81.94
299.214	97.94
299.445	91.94
299.675	93.94
299.905	108.94
300.136	80.94
300.366	86.94
300.597	105.94
300.827	100.94
301.057	102.94
301.288	89.94
301.518	86.94
301.748	78.94
301.979	98.94
302.209	81.94
302.439	95.94
302.669	93.94
302.9	98.94
303.13	82.94
303.36	101.94
303.59	110.94
303.82	107.94
304.051	100.94
304.281	115.94
304.511	77.94
304.741	98.94
304.971	86.94
305.201	80.94
305.431	103.94
305.661	81.94
305.891	94.94
306.121	95.94
306.352	96.94
306.582	97.94
306.812	94.94
307.042	103.94
307.272	87.94
307.502	95.94
307.731	103.94
307.961	82.94
308.191	89.94
308.421	82.94
308.651	100.94
308.881	92.94
309.111	91.94
309.341	71.94
309.571	77.94
309.8	93.94
310.03	88.94
310.26	97.94
310.49	88.94
310.72	88.94
310.949	93.94
311.179	94.94
311.409	87.94
311.639	89.94
311.868	79.94
312.098	88.94
312.328	92.94
312.557	94.94
312.787	98.94
313.017	89.94
313.246	96.94
313.476	80.94
313.706	95.94
313.935	96.94
314.165	90.94
314.394	103.94
314.624	91.94
314.853	89.94
315.083	92.94
315.312	93.94
315.542	112.94
315.771	86.94
316.001	90.94
316.23	92.94
316.46	82.94
316.689	91.94
316.919	94.94
317.148	99.94
317.377	112.94
317.607	115.94
317.836	100.94
318.065	94.94
318.295	97.94
318.524	88.94
318.753	62.94
318.983	82.94
319.212	95.94
319.441	101.94
319.67	92.94
319.9	91.94
320.129	90.94
320.358	91.94
320.587	88.94
320.816	95.94
321.046	90.94
321.275	88.94
321.504	93.94
321.733	93.94
321.962	98.94
322.191	111.94
322.42	95.94
322.649	92.94
322.878	96.94
323.108	109.94
323.337	107.94
323.566	114.94
323.795	135.94
324.024	180.94
324.253	342.94
324.482	658.94
324.71	1334.94
324.939	1690.94
325.168	642.94
325.397	212.94
325.626	125.94
325.855	132.94
326.084	139.94
326.313	149.94
326.542	140.94
326.77	212.94
326.999	376.94
327.228	788.94
327.457	1375.94
327.686	1079.94
327.914	295.94
328.143	160.94
328.372	139.94
328.6	119.94
328.829	110.94
329.058	100.94
329.287	110.94
329.515	103.94
329.744	92.94
329.972	102.94
330.201	105.94
330.43	119.94
330.658	107.94
330.887	120.94
331.115	99.94
331.344	103.94
331.572	105.94
331.801	112.94
332.03	102.94
332.258	106.94
332.486	92.94
332.715	89.94
332.943	95.94
333.172	102.94
333.4	101.94
333.629	102.94
333.857	94.94
334.085	114.94
334.314	116.94
334.542	110.94
334.771	110.94
334.999	95.94
335.227	90.94
335.455	77.94
335.684	92.94
335.912	94.94
336.14	97.94
336.369	98.94
336.597	108.94
336.825	98.94
337.053	94.94
337.281	94.94
337.51	91.94
337.738	97.94
337.966	91.94
338.194	98.94
338.422	100.94
338.65	94.94
338.878	86.94
339.106	89.94
339.334	93.94
339.562	84.94
339.79	94.94
340.018	89.94
340.246	81.94
340.474	87.94
340.702	97.94
340.93	101.94
341.158	100.94
341.386	93.94
341.614	94.94
341.842	88.94
342.07	93.94
342.298	86.94
342.526	85.94
342.754	102.94
342.981	85.94
343.209	97.94
343.437	97.94
343.665	87.94
343.893	91.94
344.12	101.94
344.348	95.94
344.576	92.94
344.804	77.94
345.031	98.94
345.259	77.94
345.487	91.94
345.714	86.94
345.942	85.94
346.17	91.94
346.397	93.94
346.625	94.94
346.853	80.94
347.08	88.94
347.308	92.94
347.535	110.94
347.763	99.94
347.99	86.94
348.218	100.94
348.445	100.94
348.673	102.94
348.9	98.94
349.128	102.94
349.355	87.94
349.583	88.94
349.81	90.94
350.037	100.94
350.265	89.94
350.492	100.94
350.72	93.94
350.947	111.94
351.174	113.94
351.402	98.94
351.629	97.94
351.856	98.94
352.083	94.94
352.311	110.94
352.538	112.94
352.765	108.94
352.992	116.94
353.22	131.94
353.447	105.94
353.674	106.94
353.901	108.94
354.128	97.94
354.355	92.94
354.583	84.94
354.81	99.94
355.037	107.94
355.264	89.94
355.491	86.94
355.718	97.94
355.945	91.94
356.172	109.94
356.399	101.94
356.626	89.94
356.853	98.94
357.08	100.94
357.307	94.94
357.534	108.94
357.761	96.94
357.988	109.94
358.215	98.94
358.441	93.94
358.668	88.94
358.895	100.94
359.122	103.94
359.349	88.94
359.576	93.94
359.802	101.94
360.029	103.94
360.256	94.94
360.483	103.94
360.709	87.94
360.936	104.94
361.163	97.94
361.39	96.94
361.616	85.94
361.843	84.94
362.07	88.94
362.296	92.94
362.523	93.94
362.749	82.94
362.976	85.94
363.203	94.94
363.429	91.94
363.656	78.94
363.882	100.94
364.109	96.94
364.335	82.94
364.562	100.94
364.788	102.94
365.015	93.94
365.241	99.94
365.468	105.94
365.694	110.94
365.92	82.94
366.147	87.94
366.373	76.94
366.599	93.94
366.826	89.94
367.052	92.94
367.278	94.94
367.505	86.94
367.731	91.94
367.957	92.94
368.184	88.94
368.41	96.94
368.636	87.94
368.862	102.94
369.089	108.94
369.315	100.94
369.541	95.94
369.767	89.94
369.993	74.94
370.219	94.94
370.445	88.94
370.672	83.94
370.898	90.94
371.124	89.94
371.35	90.94
371.576	86.94
371.802	90.94
372.028	95.94
372.254	92.94
372.48	87.94
372.706	79.94
372.932	85.94
373.158	89.94
373.384	94.94
373.61	98.94
373.835	94.94
374.061	79.94
374.287	93.94
374.513	92.94
374.739	89.94
374.965	87.94
375.191	92.94
375.416	96.94
375.642	89.94
375.868	94.94
376.094	90.94
376.319	87.94
376.545	104.94
376.771	93.94
376.997	81.94
377.222	82.94
377.448	88.94
377.674	100.94
377.899	94.94
378.125	96.94
378.35	81.94
378.576	87.94
378.802	94.94
379.027	82.94
379.253	91.94
379.478	91.94
379.704	107.94
379.929	98.94
380.155	107.94
380.38	103.94
380.606	83.94
380.831	97.94
381.057	105.94
381.282	80.94
381.507	99.94
381.733	94.94
381.958	102.94
382.184	103.94
382.409	90.94
382.634	106.94
382.86	103.94
383.085	104.94
383.31	97.94
383.535	99.94
383.761	98.94
383.986	105.94
384.211	101.94
384.436	112.94
384.662	103.94
384.887	101.94
385.112	109.94
385.337	103.94
385.562	92.94
385.787	115.94
386.013	110.94
386.238	128.94
386.463	110.94
386.688	118.94
386.913	118.94
387.138	112.94
387.363	114.94
387.588	114.94
387.813	102.94
388.038	97.94
388.263	115.94
388.488	100.94
388.713	96.94
388.938	99.94
389.163	90.94
389.387	95.94
389.612	80.94
389.837	96.94
390.062	103.94
390.287	91.94
390.512	86.94
390.736	95.94
390.961	100.94
391.186	87.94
391.411	88.94
391.636	90.94
391.86	97.94
392.085	75.94
392.31	92.94
392.534	87.94
392.759	99.94
392.984	94.94
393.208	96.94
393.433	103.94
393.658	79.94
393.882	93.94
394.107	92.94
394.331	85.94
394.556	78.94
394.78	91.94
395.005	85.94
395.229	85.94
395.454	75.94
395.678	93.94
395.903	79.94
396.127	94.94
396.352	87.94
396.576	73.94
396.801	84.94
397.025	97.94
397.249	100.94
397.474	94.94
397.698	93.94
397.922	76.94
398.147	73.94
398.371	89.94
398.595	89.94
398.82	92.94
399.044	80.94
399.268	71.94
399.492	94.94
399.717	76.94
399.941	86.94
400.165	94.94
400.389	86.94
400.613	96.94
400.837	86.94
401.062	93.94
401.286	97.94
401.51	77.94
401.734	87.94
401.958	86.94
402.182	116.94
402.406	120.94
402.63	100.94
402.854	80.94
403.078	89.94
403.302	96.94
403.526	100.94
403.75	101.94
403.974	88.94
404.198	91.94
404.422	94.94
404.645	88.94
404.869	91.94
405.093	88.94
405.317	96.94
405.541	103.94
405.765	92.94
405.988	98.94
406.212	135.94
406.436	168.94
406.66	112.94
406.883	88.94
407.107	80.94
407.331	89.94
407.555	94.94
407.778	88.94
408.002	68.94
408.226	70.94
408.449	93.94
408.673	95.94
408.896	109.94
409.12	103.94
409.344	94.94
409.567	95.94
409.791	89.94
410.014	95.94
410.238	91.94
410.461	84.94
410.685	106.94
410.908	108.94
411.132	101.94
411.355	87.94
411.578	80.94
411.802	105.94
412.025	93.94
412.249	98.94
412.472	96.94
412.695	94.94
412.919	97.94
413.142	94.94
413.365	87.94
413.589	88.94
413.812	92.94
414.035	89.94
414.258	81.94
414.482	94.94
414.705	109.94
414.928	93.94
415.151	87.94
415.374	93.94
415.597	91.94
415.821	99.94
416.044	85.94
416.267	92.94
416.49	95.94
416.713	87.94
416.936	101.94
417.159	72.94
417.382	82.94
417.605	97.94
417.828	99.94
418.051	81.94
418.274	86.94
418.497	86.94
418.72	95.94
418.943	89.94
419.166	71.94
419.389	84.94
419.611	92.94
419.834	92.94
420.057	66.94
420.28	84.94
420.503	87.94
420.726	85.94
420.948	87.94
421.171	82.94
421.394	92.94
421.617	91.94
421.839	84.94
422.062	86.94
422.285	113.94
422.507	90.94
422.73	101.94
422.953	102.94
423.175	81.94
423.398	87.94
423.621	97.94
423.843	80.94
424.066	96.94
424.288	87.94
424.511	88.94
424.733	94.94
424.956	100.94
425.178	91.94
425.401	91.94
425.623	92.94
425.846	94.94
426.068	84.94
426.291	87.94
426.513	94.94
426.735	88.94
426.958	87.94
427.18	108.94
427.402	131.94
427.625	126.94
427.847	118.94
428.069	104.94
428.292	93.94
428.514	78.94
428.736	93.94
428.958	88.94
429.181	84.94
429.403	89.94
429.625	78.94
429.847	85.94
430.069	71.94
430.292	79.94
430.514	82.94
430.736	79.94
430.958	81.94
431.18	84.94
431.402	73.94
431.624	84.94
431.846	82.94
432.068	85.94
432.29	89.94
432.512	87.94
432.734	86.94
432.956	105.94
433.178	96.94
433.4	115.94
433.622	86.94
433.844	83.94
434.066	75.94
434.287	84.94
434.509	87.94
434.731	90.94
434.953	93.94
435.175	96.94
435.397	84.94
435.618	90.94
435.84	101.94
436.062	121.94
436.284	93.94
436.505	90.94
436.727	97.94
436.949	94.94
437.17	84.94
437.392	87.94
437.614	91.94
437.835	104.94
438.057	104.94
438.278	95.94
438.5	102.94
438.721	108.94
438.943	87.94
439.165	88.94
439.386	106.94
439.608	84.94
439.829	94.94
440.05	105.94
440.272	133.94
440.493	96.94
440.715	86.94
440.936	90.94
441.158	82.94
441.379	94.94
441.6	105.94
441.822	98.94
442.043	92.94
442.264	100.94
442.486	91.94
442.707	101.94
442.928	93.94
443.149	114.94
443.371	107.94
443.592	102.94
443.813	116.94
444.034	104.94
444.255	103.94
444.476	90.94
444.698	98.94
444.919	93.94
445.14	133.94
445.361	108.94
445.582	103.94
445.803	106.94
446.024	107.94
446.245	119.94
446.466	97.94
446.687	92.94
446.908	74.94
447.129	75.94
447.35	88.94
447.571	89.94
447.792	95.94
448.013	94.94
448.234	116.94
448.455	87.94
448.675	87.94
448.896	92.94
449.117	98.94
449.338	93.94
449.559	120.94
449.779	109.94
450	84.94
450.221	86.94
450.442	103.94
450.662	93.94
450.883	92.94
451.104	92.94
451.324	78.94
451.545	77.94
451.766	71.94
451.986	74.94
452.207	89.94
452.428	102.94
452.648	80.94
452.869	99.94
453.089	103.94
453.31	90.94
453.53	90.94
453.751	97.94
453.971	102.94
454.192	102.94
454.412	91.94
454.633	90.94
454.853	98.94
455.073	86.94
455.294	76.94
455.514	99.94
455.734	80.94
455.955	89.94
456.175	90.94
456.395	81.94
456.616	80.94
456.836	88.94
457.056	96.94
457.276	96.94
457.497	85.94
457.717	89.94
457.937	85.94
458.157	82.94
458.377	91.94
458.598	110.94
458.818	130.94
459.038	108.94
459.258	109.94
459.478	77.94
459.698	90.94
459.918	88.94
460.138	81.94
460.358	98.94
460.578	86.94
460.798	92.94
461.018	84.94
461.238	75.94
461.458	84.94
461.678	89.94
461.898	85.94
462.118	100.94
462.338	86.94
462.558	80.94
462.777	82.94
462.997	93.94
463.217	75.94
463.437	80.94
463.657	97.94
463.876	96.94
464.096	79.94
464.316	89.94
464.536	79.94
464.755	75.94
464.975	95.94
465.195	120.94
465.414	117.94
465.634	91.94
465.854	86.94
466.073	84.94
466.293	90.94
466.512	90.94
466.732	86.94
466.951	85.94
467.171	96.94
467.391	88.94
467.61	97.94
467.829	86.94
468.049	95.94
468.268	89.94
468.488	88.94
468.707	88.94
468.927	95.94
469.146	108.94
469.365	83.94
469.585	89.94
469.804	88.94
470.023	80.94
470.243	83.94
470.462	94.94
470.681	92.94
470.901	93.94
471.12	88.94
471.339	89.94
471.558	85.94
471.777	92.94
471.997	92.94
472.216	98.94
472.435	113.94
472.654	83.94
472.873	87.94
473.092	89.94
473.311	76.94
473.53	90.94
473.749	92.94
473.968	90.94
474.187	92.94
474.406	93.94
474.625	83.94
474.844	95.94
475.063	90.94
475.282	69.94
475.501	73.94
475.72	86.94
475.939	95.94
476.158	80.94
476.377	99.94
476.596	76.94
476.814	83.94
477.033	70.94
477.252	77.94
477.471	79.94
477.69	86.94
477.908	91.94
478.127	77.94
478.346	88.94
478.564	70.94
478.783	91.94
479.002	95.94
479.22	92.94
479.439	85.94
479.658	88.94
479.876	91.94
480.095	91.94
480.313	94.94
480.532	92.94
480.751	94.94
480.969	102.94
481.188	152.94
481.406	126.94
481.624	76.94
481.843	88.94
482.061	81.94
482.28	70.94
482.498	98.94
482.717	94.94
482.935	85.94
483.153	92.94
483.372	79.94
483.59	101.94
483.808	94.94
484.027	91.94
484.245	86.94
484.463	90.94
484.681	90.94
484.9	97.94
485.118	90.94
485.336	79.94
485.554	91.94
485.772	80.94
485.99	93.94
486.209	96.94
486.427	90.94
486.645	103.94
486.863	94.94
487.081	92.94
487.299	101.94
487.517	96.94
487.735	104.94
487.953	106.94
488.171	91.94
488.389	103.94
488.607	99.94
488.825	85.94
489.043	81.94
489.261	86.94
489.479	86.94
489.696	80.94
489.914	84.94
490.132	92.94
490.35	82.94
490.568	92.94
490.786	87.94
491.003	98.94
491.221	105.94
491.439	96.94
491.657	88.94
491.874	103.94
492.092	78.94
492.31	88.94
492.527	82.94
492.745	96.94
492.963	86.94
493.18	94.94
493.398	78.94
493.615	94.94
493.833	81.94
494.05	90.94
494.268	84.94
494.485	79.94
494.703	80.94
494.92	91.94
495.138	89.94
495.355	94.94
495.573	90.94
495.79	81.94
496.008	92.94
496.225	98.94
496.442	89.94
496.66	87.94
496.877	97.94
497.094	93.94
497.312	85.94
497.529	95.94
497.746	99.94
497.963	105.94
498.181	77.94
498.398	70.94
498.615	94.94
498.832	92.94
499.049	90.94
499.267	94.94
499.484	87.94
499.701	106.94
499.918	94.94
500.135	101.94
500.352	96.94
500.569	96.94
500.786	87.94
501.003	96.94
501.22	87.94
501.437	92.94
501.654	92.94
501.871	94.94
502.088	89.94
502.305	99.94
502.522	96.94
502.739	80.94
502.956	96.94
503.172	102.94
503.389	88.94
503.606	101.94
503.823	107.94
504.04	90.94
504.256	90.94
504.473	89.94
504.69	85.94
504.907	98.94
505.123	85.94
505.34	94.94
505.557	82.94
505.773	94.94
505.99	102.94
506.207	88.94
506.423	74.94
506.64	89.94
506.856	95.94
507.073	90.94
507.289	101.94
507.506	83.94
507.722	98.94
507.939	109.94
508.155	81.94
508.372	95.94
508.588	82.94
508.805	111.94
509.021	98.94
509.238	92.94
509.454	92.94
509.67	100.94
509.887	109.94
510.103	121.94
510.319	182.94
510.536	542.94
510.752	1599.94
510.968	470.94
511.184	144.94
511.401	92.94
511.617	92.94
511.833	98.94
512.049	104.94
512.265	87.94
512.481	81.94
512.698	89.94
512.914	97.94
513.13	89.94
513.346	83.94
513.562	82.94
513.778	111.94
513.994	91.94
514.21	105.94
514.426	104.94
514.642	112.94
514.858	111.94
515.074	136.94
515.29	312.94
515.506	900.94
515.721	362.94
515.937	120.94
516.153	95.94
516.369	98.94
