Data from Uncirc_2009_H10_HRD10591_00041.txt Node
Date: Wed Jan 03 10:12:10 EST 2024
User: Yrep
Spectrometer: HR+D1059
Trigger mode: 1
Integration Time (sec): 1.000000E-1
Scans to average: 1
Electric dark correction enabled: true
Nonlinearity correction enabled: false
Boxcar width: 0
XAxis mode: Wavelengths
Number of Pixels in Spectrum: 2048
>>>>>Begin Spectral Data<<<<<
223.165	-25.62
223.4	-25.62
223.635	-25.62
223.869	-16.62
224.104	-1.62
224.338	-22.62
224.573	-8.62
224.808	-13.62
225.042	-3.62
225.277	-6.62
225.511	-3.62
225.746	10.38
225.98	-7.62
226.215	11.38
226.449	19.38
226.683	10.38
226.918	26.38
227.152	32.38
227.387	34.38
227.621	33.38
227.856	55.38
228.09	54.38
228.324	50.38
228.559	61.38
228.793	57.38
229.027	75.38
229.262	78.38
229.496	90.38
229.73	68.38
229.964	70.38
230.199	67.38
230.433	79.38
230.667	74.38
230.901	82.38
231.136	96.38
231.37	74.38
231.604	81.38
231.838	75.38
232.072	85.38
232.306	87.38
232.541	91.38
232.775	102.38
233.009	75.38
233.243	80.38
233.477	80.38
233.711	81.38
233.945	78.38
234.179	90.38
234.413	84.38
234.647	80.38
234.881	89.38
235.115	84.38
235.349	87.38
235.583	70.38
235.817	77.38
236.051	64.38
236.285	78.38
236.519	77.38
236.753	71.38
236.987	94.38
237.221	76.38
237.455	67.38
237.689	88.38
237.922	72.38
238.156	70.38
238.39	74.38
238.624	65.38
238.858	78.38
239.091	77.38
239.325	96.38
239.559	71.38
239.793	77.38
240.027	86.38
240.26	91.38
240.494	76.38
240.728	73.38
240.961	82.38
241.195	78.38
241.429	81.38
241.662	80.38
241.896	79.38
242.13	66.38
242.363	73.38
242.597	71.38
242.83	71.38
243.064	79.38
243.298	78.38
243.531	84.38
243.765	68.38
243.998	79.38
244.232	80.38
244.465	81.38
244.699	77.38
244.932	71.38
245.166	62.38
245.399	81.38
245.633	77.38
245.866	87.38
246.099	77.38
246.333	74.38
246.566	76.38
246.8	79.38
247.033	84.38
247.266	82.38
247.5	80.38
247.733	76.38
247.966	80.38
248.2	74.38
248.433	83.38
248.666	103.38
248.899	81.38
249.133	89.38
249.366	81.38
249.599	79.38
249.832	86.38
250.066	79.38
250.299	87.38
250.532	88.38
250.765	77.38
250.998	75.38
251.231	77.38
251.465	79.38
251.698	78.38
251.931	74.38
252.164	96.38
252.397	74.38
252.63	66.38
252.863	84.38
253.096	86.38
253.329	87.38
253.562	84.38
253.795	67.38
254.028	93.38
254.261	83.38
254.494	86.38
254.727	84.38
254.96	90.38
255.193	88.38
255.426	85.38
255.659	92.38
255.892	89.38
256.124	73.38
256.357	81.38
256.59	88.38
256.823	74.38
257.056	82.38
257.289	72.38
257.521	74.38
257.754	89.38
257.987	87.38
258.22	87.38
258.452	76.38
258.685	81.38
258.918	86.38
259.151	77.38
259.383	77.38
259.616	83.38
259.849	78.38
260.081	87.38
260.314	81.38
260.547	90.38
260.779	78.38
261.012	76.38
261.244	82.38
261.477	83.38
261.71	85.38
261.942	95.38
262.175	98.38
262.407	84.38
262.64	87.38
262.872	90.38
263.105	94.38
263.337	80.38
263.57	89.38
263.802	85.38
264.035	85.38
264.267	90.38
264.499	91.38
264.732	80.38
264.964	88.38
265.197	79.38
265.429	83.38
265.661	90.38
265.894	86.38
266.126	77.38
266.358	90.38
266.591	93.38
266.823	74.38
267.055	88.38
267.287	86.38
267.52	81.38
267.752	81.38
267.984	87.38
268.216	81.38
268.448	82.38
268.681	73.38
268.913	81.38
269.145	89.38
269.377	77.38
269.609	61.38
269.841	83.38
270.073	84.38
270.306	94.38
270.538	76.38
270.77	86.38
271.002	83.38
271.234	85.38
271.466	92.38
271.698	94.38
271.93	88.38
272.162	69.38
272.394	71.38
272.626	81.38
272.858	89.38
273.09	66.38
273.322	71.38
273.553	67.38
273.785	83.38
274.017	76.38
274.249	92.38
274.481	92.38
274.713	102.38
274.945	94.38
275.176	79.38
275.408	88.38
275.64	89.38
275.872	80.38
276.104	83.38
276.335	99.38
276.567	92.38
276.799	81.38
277.031	92.38
277.262	98.38
277.494	75.38
277.726	98.38
277.957	95.38
278.189	93.38
278.421	90.38
278.652	93.38
278.884	93.38
279.115	76.38
279.347	89.38
279.579	73.38
279.81	88.38
280.042	86.38
280.273	97.38
280.505	80.38
280.736	89.38
280.968	92.38
281.199	90.38
281.431	89.38
281.662	74.38
281.894	83.38
282.125	89.38
282.356	100.38
282.588	103.38
282.819	111.38
283.051	104.38
283.282	92.38
283.513	96.38
283.745	96.38
283.976	99.38
284.207	100.38
284.439	94.38
284.67	98.38
284.901	96.38
285.132	83.38
285.364	88.38
285.595	90.38
285.826	89.38
286.057	96.38
286.288	90.38
286.52	100.38
286.751	91.38
286.982	96.38
287.213	83.38
287.444	98.38
287.675	84.38
287.906	103.38
288.138	84.38
288.369	96.38
288.6	100.38
288.831	90.38
289.062	90.38
289.293	97.38
289.524	85.38
289.755	97.38
289.986	77.38
290.217	85.38
290.448	87.38
290.679	88.38
290.91	95.38
291.141	105.38
291.371	86.38
291.602	95.38
291.833	92.38
292.064	83.38
292.295	84.38
292.526	78.38
292.757	87.38
292.987	92.38
293.218	87.38
293.449	83.38
293.68	95.38
293.91	90.38
294.141	73.38
294.372	89.38
294.603	85.38
294.833	85.38
295.064	88.38
295.295	88.38
295.525	80.38
295.756	101.38
295.987	107.38
296.217	131.38
296.448	111.38
296.679	90.38
296.909	95.38
297.14	90.38
297.37	79.38
297.601	70.38
297.831	88.38
298.062	96.38
298.292	78.38
298.523	89.38
298.753	97.38
298.984	89.38
299.214	91.38
299.445	97.38
299.675	96.38
299.905	91.38
300.136	89.38
300.366	76.38
300.597	98.38
300.827	101.38
301.057	99.38
301.288	98.38
301.518	81.38
301.748	77.38
301.979	98.38
302.209	83.38
302.439	81.38
302.669	102.38
302.9	98.38
303.13	101.38
303.36	105.38
303.59	99.38
303.82	98.38
304.051	92.38
304.281	89.38
304.511	105.38
304.741	91.38
304.971	84.38
305.201	100.38
305.431	102.38
305.661	81.38
305.891	86.38
306.121	94.38
306.352	86.38
306.582	83.38
306.812	97.38
307.042	85.38
307.272	91.38
307.502	100.38
307.731	107.38
307.961	85.38
308.191	81.38
308.421	91.38
308.651	85.38
308.881	84.38
309.111	80.38
309.341	97.38
309.571	98.38
309.8	84.38
310.03	79.38
310.26	95.38
310.49	99.38
310.72	83.38
310.949	89.38
311.179	95.38
311.409	76.38
311.639	93.38
311.868	91.38
312.098	96.38
312.328	83.38
312.557	90.38
312.787	115.38
313.017	86.38
313.246	79.38
313.476	93.38
313.706	90.38
313.935	112.38
314.165	94.38
314.394	89.38
314.624	91.38
314.853	95.38
315.083	102.38
315.312	96.38
315.542	89.38
315.771	100.38
316.001	82.38
316.23	90.38
316.46	95.38
316.689	102.38
316.919	81.38
317.148	99.38
317.377	125.38
317.607	102.38
317.836	93.38
318.065	87.38
318.295	94.38
318.524	95.38
318.753	97.38
318.983	107.38
319.212	75.38
319.441	98.38
319.67	101.38
319.9	105.38
320.129	85.38
320.358	93.38
320.587	83.38
320.816	74.38
321.046	96.38
321.275	89.38
321.504	92.38
321.733	103.38
321.962	102.38
322.191	95.38
322.42	101.38
322.649	108.38
322.878	110.38
323.108	99.38
323.337	96.38
323.566	117.38
323.795	134.38
324.024	195.38
324.253	312.38
324.482	600.38
324.71	1181.38
324.939	1590.38
325.168	591.38
325.397	203.38
325.626	136.38
325.855	118.38
326.084	120.38
326.313	138.38
326.542	148.38
326.77	180.38
326.999	352.38
327.228	725.38
327.457	1288.38
327.686	1036.38
327.914	299.38
328.143	153.38
328.372	121.38
328.6	114.38
328.829	104.38
329.058	122.38
329.287	86.38
329.515	107.38
329.744	108.38
329.972	111.38
330.201	115.38
330.43	117.38
330.658	121.38
330.887	110.38
331.115	95.38
331.344	90.38
331.572	87.38
331.801	95.38
332.03	94.38
332.258	79.38
332.486	95.38
332.715	84.38
332.943	97.38
333.172	102.38
333.4	101.38
333.629	94.38
333.857	97.38
334.085	106.38
334.314	99.38
334.542	115.38
334.771	113.38
334.999	93.38
335.227	94.38
335.455	87.38
335.684	85.38
335.912	88.38
336.14	87.38
336.369	114.38
336.597	104.38
336.825	102.38
337.053	82.38
337.281	97.38
337.51	87.38
337.738	101.38
337.966	94.38
338.194	95.38
338.422	101.38
338.65	88.38
338.878	76.38
339.106	87.38
339.334	92.38
339.562	94.38
339.79	97.38
340.018	87.38
340.246	98.38
340.474	95.38
340.702	88.38
340.93	94.38
341.158	86.38
341.386	93.38
341.614	108.38
341.842	90.38
342.07	100.38
342.298	90.38
342.526	74.38
342.754	92.38
342.981	86.38
343.209	90.38
343.437	109.38
343.665	91.38
343.893	93.38
344.12	113.38
344.348	92.38
344.576	92.38
344.804	96.38
345.031	87.38
345.259	105.38
345.487	75.38
345.714	95.38
345.942	81.38
346.17	85.38
346.397	98.38
346.625	83.38
346.853	85.38
347.08	98.38
347.308	91.38
347.535	94.38
347.763	97.38
347.99	92.38
348.218	96.38
348.445	97.38
348.673	84.38
348.9	106.38
349.128	80.38
349.355	82.38
349.583	108.38
349.81	103.38
350.037	102.38
350.265	95.38
350.492	101.38
350.72	97.38
350.947	99.38
351.174	112.38
351.402	112.38
351.629	98.38
351.856	88.38
352.083	113.38
352.311	95.38
352.538	84.38
352.765	102.38
352.992	99.38
353.22	95.38
353.447	88.38
353.674	100.38
353.901	87.38
354.128	79.38
354.355	97.38
354.583	90.38
354.81	96.38
355.037	99.38
355.264	98.38
355.491	98.38
355.718	86.38
355.945	99.38
356.172	105.38
356.399	103.38
356.626	94.38
356.853	94.38
357.08	86.38
357.307	89.38
357.534	86.38
357.761	82.38
357.988	75.38
358.215	105.38
358.441	99.38
358.668	90.38
358.895	83.38
359.122	80.38
359.349	93.38
359.576	84.38
359.802	92.38
360.029	103.38
360.256	103.38
360.483	100.38
360.709	91.38
360.936	103.38
361.163	86.38
361.39	89.38
361.616	86.38
361.843	100.38
362.07	92.38
362.296	98.38
362.523	96.38
362.749	88.38
362.976	81.38
363.203	104.38
363.429	88.38
363.656	91.38
363.882	78.38
364.109	88.38
364.335	94.38
364.562	87.38
364.788	85.38
365.015	98.38
365.241	87.38
365.468	92.38
365.694	96.38
365.92	91.38
366.147	98.38
366.373	102.38
366.599	89.38
366.826	86.38
367.052	84.38
367.278	89.38
367.505	97.38
367.731	90.38
367.957	95.38
368.184	81.38
368.41	97.38
368.636	99.38
368.862	106.38
369.089	104.38
369.315	96.38
369.541	101.38
369.767	91.38
369.993	94.38
370.219	96.38
370.445	74.38
370.672	81.38
370.898	75.38
371.124	88.38
371.35	99.38
371.576	86.38
371.802	83.38
372.028	104.38
372.254	95.38
372.48	87.38
372.706	71.38
372.932	89.38
373.158	92.38
373.384	94.38
373.61	92.38
373.835	76.38
374.061	101.38
374.287	96.38
374.513	88.38
374.739	87.38
374.965	82.38
375.191	106.38
375.416	92.38
375.642	89.38
375.868	82.38
376.094	93.38
376.319	101.38
376.545	88.38
376.771	99.38
376.997	75.38
377.222	89.38
377.448	100.38
377.674	101.38
377.899	82.38
378.125	89.38
378.35	82.38
378.576	85.38
378.802	98.38
379.027	94.38
379.253	92.38
379.478	87.38
379.704	86.38
379.929	102.38
380.155	99.38
380.38	96.38
380.606	95.38
380.831	84.38
381.057	98.38
381.282	106.38
381.507	109.38
381.733	102.38
381.958	98.38
382.184	98.38
382.409	91.38
382.634	103.38
382.86	92.38
383.085	106.38
383.31	94.38
383.535	98.38
383.761	105.38
383.986	93.38
384.211	79.38
384.436	93.38
384.662	102.38
384.887	87.38
385.112	106.38
385.337	99.38
385.562	107.38
385.787	109.38
386.013	104.38
386.238	98.38
386.463	107.38
386.688	101.38
386.913	113.38
387.138	119.38
387.363	106.38
387.588	92.38
387.813	99.38
388.038	107.38
388.263	123.38
388.488	88.38
388.713	94.38
388.938	85.38
389.163	111.38
389.387	103.38
389.612	84.38
389.837	80.38
390.062	92.38
390.287	93.38
390.512	91.38
390.736	105.38
390.961	91.38
391.186	99.38
391.411	93.38
391.636	86.38
391.86	84.38
392.085	82.38
392.31	81.38
392.534	89.38
392.759	85.38
392.984	94.38
393.208	75.38
393.433	93.38
393.658	82.38
393.882	83.38
394.107	105.38
394.331	97.38
394.556	96.38
394.78	81.38
395.005	100.38
395.229	74.38
395.454	89.38
395.678	97.38
395.903	88.38
396.127	95.38
396.352	87.38
396.576	80.38
396.801	87.38
397.025	72.38
397.249	79.38
397.474	90.38
397.698	88.38
397.922	86.38
398.147	96.38
398.371	97.38
398.595	94.38
398.82	78.38
399.044	93.38
399.268	79.38
399.492	102.38
399.717	87.38
399.941	92.38
400.165	101.38
400.389	93.38
400.613	78.38
400.837	104.38
401.062	105.38
401.286	88.38
401.51	109.38
401.734	89.38
401.958	118.38
402.182	106.38
402.406	124.38
402.63	102.38
402.854	82.38
403.078	88.38
403.302	97.38
403.526	96.38
403.75	88.38
403.974	96.38
404.198	78.38
404.422	70.38
404.645	88.38
404.869	95.38
405.093	101.38
405.317	97.38
405.541	84.38
405.765	94.38
405.988	101.38
406.212	121.38
406.436	170.38
406.66	105.38
406.883	92.38
407.107	95.38
407.331	97.38
407.555	91.38
407.778	115.38
408.002	95.38
408.226	88.38
408.449	89.38
408.673	80.38
408.896	86.38
409.12	104.38
409.344	84.38
409.567	87.38
409.791	85.38
410.014	113.38
410.238	102.38
410.461	96.38
410.685	100.38
410.908	90.38
411.132	107.38
411.355	92.38
411.578	98.38
411.802	87.38
412.025	83.38
412.249	78.38
412.472	96.38
412.695	97.38
412.919	75.38
413.142	92.38
413.365	81.38
413.589	94.38
413.812	88.38
414.035	94.38
414.258	86.38
414.482	89.38
414.705	95.38
414.928	94.38
415.151	101.38
415.374	96.38
415.597	96.38
415.821	88.38
416.044	81.38
416.267	71.38
416.49	83.38
416.713	90.38
416.936	94.38
417.159	81.38
417.382	92.38
417.605	90.38
417.828	95.38
418.051	98.38
418.274	88.38
418.497	92.38
418.72	95.38
418.943	83.38
419.166	88.38
419.389	91.38
419.611	94.38
419.834	84.38
420.057	89.38
420.28	82.38
420.503	85.38
420.726	96.38
420.948	106.38
421.171	95.38
421.394	82.38
421.617	91.38
421.839	92.38
422.062	88.38
422.285	96.38
422.507	82.38
422.73	89.38
422.953	100.38
423.175	90.38
423.398	90.38
423.621	102.38
423.843	94.38
424.066	92.38
424.288	82.38
424.511	90.38
424.733	98.38
424.956	98.38
425.178	96.38
425.401	97.38
425.623	106.38
425.846	85.38
426.068	83.38
426.291	85.38
426.513	88.38
426.735	87.38
426.958	93.38
427.18	94.38
427.402	109.38
427.625	129.38
427.847	98.38
428.069	98.38
428.292	102.38
428.514	79.38
428.736	84.38
428.958	88.38
429.181	106.38
429.403	83.38
429.625	100.38
429.847	91.38
430.069	95.38
430.292	79.38
430.514	87.38
430.736	100.38
430.958	93.38
431.18	80.38
431.402	81.38
431.624	94.38
431.846	94.38
432.068	87.38
432.29	86.38
432.512	95.38
432.734	72.38
432.956	87.38
433.178	106.38
433.4	91.38
433.622	94.38
433.844	89.38
434.066	96.38
434.287	101.38
434.509	105.38
434.731	91.38
434.953	89.38
435.175	88.38
435.397	91.38
435.618	74.38
435.84	94.38
436.062	118.38
436.284	88.38
436.505	81.38
436.727	94.38
436.949	79.38
437.17	82.38
437.392	94.38
437.614	76.38
437.835	96.38
438.057	103.38
438.278	94.38
438.5	106.38
438.721	112.38
438.943	76.38
439.165	90.38
439.386	86.38
439.608	84.38
439.829	110.38
440.05	91.38
440.272	123.38
440.493	93.38
440.715	87.38
440.936	91.38
441.158	86.38
441.379	84.38
441.6	85.38
441.822	100.38
442.043	93.38
442.264	92.38
442.486	84.38
442.707	87.38
442.928	106.38
443.149	109.38
443.371	118.38
443.592	109.38
443.813	93.38
444.034	87.38
444.255	92.38
444.476	94.38
444.698	98.38
444.919	108.38
445.14	124.38
445.361	108.38
445.582	114.38
445.803	104.38
446.024	110.38
446.245	112.38
446.466	95.38
446.687	96.38
446.908	91.38
447.129	98.38
447.35	97.38
447.571	84.38
447.792	91.38
448.013	98.38
448.234	106.38
448.455	110.38
448.675	102.38
448.896	100.38
449.117	88.38
449.338	102.38
449.559	118.38
449.779	111.38
450	97.38
450.221	96.38
450.442	82.38
450.662	89.38
450.883	106.38
451.104	93.38
451.324	86.38
451.545	88.38
451.766	87.38
451.986	98.38
452.207	89.38
452.428	97.38
452.648	92.38
452.869	105.38
453.089	89.38
453.31	102.38
453.53	87.38
453.751	97.38
453.971	112.38
454.192	103.38
454.412	80.38
454.633	81.38
454.853	98.38
455.073	82.38
455.294	108.38
455.514	109.38
455.734	90.38
455.955	99.38
456.175	89.38
456.395	87.38
456.616	103.38
456.836	81.38
457.056	81.38
457.276	82.38
457.497	89.38
457.717	76.38
457.937	88.38
458.157	96.38
458.377	90.38
458.598	102.38
458.818	112.38
459.038	123.38
459.258	91.38
459.478	86.38
459.698	90.38
459.918	74.38
460.138	83.38
460.358	80.38
460.578	92.38
460.798	90.38
461.018	83.38
461.238	92.38
461.458	81.38
461.678	88.38
461.898	102.38
462.118	90.38
462.338	89.38
462.558	90.38
462.777	86.38
462.997	78.38
463.217	84.38
463.437	92.38
463.657	87.38
463.876	91.38
464.096	83.38
464.316	99.38
464.536	92.38
464.755	96.38
464.975	103.38
465.195	112.38
465.414	109.38
465.634	100.38
465.854	85.38
466.073	103.38
466.293	84.38
466.512	81.38
466.732	94.38
466.951	79.38
467.171	84.38
467.391	104.38
467.61	87.38
467.829	77.38
468.049	88.38
468.268	93.38
468.488	98.38
468.707	83.38
468.927	91.38
469.146	99.38
469.365	87.38
469.585	87.38
469.804	91.38
470.023	95.38
470.243	86.38
470.462	92.38
470.681	84.38
470.901	93.38
471.12	89.38
471.339	90.38
471.558	90.38
471.777	100.38
471.997	93.38
472.216	87.38
472.435	107.38
472.654	83.38
472.873	100.38
473.092	77.38
473.311	77.38
473.53	68.38
473.749	93.38
473.968	91.38
474.187	89.38
474.406	102.38
474.625	81.38
474.844	88.38
475.063	91.38
475.282	89.38
475.501	94.38
475.72	92.38
475.939	83.38
476.158	72.38
476.377	72.38
476.596	88.38
476.814	92.38
477.033	95.38
477.252	89.38
477.471	88.38
477.69	89.38
477.908	87.38
478.127	90.38
478.346	84.38
478.564	87.38
478.783	92.38
479.002	92.38
479.22	101.38
479.439	103.38
479.658	95.38
479.876	82.38
480.095	85.38
480.313	106.38
480.532	85.38
480.751	99.38
480.969	102.38
481.188	153.38
481.406	139.38
481.624	110.38
481.843	88.38
482.061	89.38
482.28	84.38
482.498	106.38
482.717	78.38
482.935	62.38
483.153	77.38
483.372	100.38
483.59	102.38
483.808	96.38
484.027	96.38
484.245	88.38
484.463	94.38
484.681	93.38
484.9	93.38
485.118	93.38
485.336	95.38
485.554	98.38
485.772	95.38
485.99	93.38
486.209	110.38
486.427	105.38
486.645	87.38
486.863	93.38
487.081	100.38
487.299	100.38
487.517	91.38
487.735	97.38
487.953	84.38
488.171	84.38
488.389	103.38
488.607	120.38
488.825	118.38
489.043	89.38
489.261	97.38
489.479	84.38
489.696	99.38
489.914	83.38
490.132	103.38
490.35	92.38
490.568	102.38
490.786	102.38
491.003	79.38
491.221	88.38
491.439	75.38
491.657	92.38
491.874	84.38
492.092	82.38
492.31	87.38
492.527	93.38
492.745	104.38
492.963	89.38
493.18	100.38
493.398	98.38
493.615	100.38
493.833	90.38
494.05	89.38
494.268	84.38
494.485	94.38
494.703	99.38
494.92	84.38
495.138	100.38
495.355	83.38
495.573	99.38
495.79	82.38
496.008	84.38
496.225	93.38
496.442	94.38
496.66	97.38
496.877	95.38
497.094	81.38
497.312	71.38
497.529	81.38
497.746	86.38
497.963	87.38
498.181	98.38
498.398	73.38
498.615	101.38
498.832	88.38
499.049	93.38
499.267	85.38
499.484	98.38
499.701	95.38
499.918	95.38
500.135	82.38
500.352	84.38
500.569	99.38
500.786	95.38
501.003	95.38
501.22	87.38
501.437	94.38
501.654	89.38
501.871	96.38
502.088	96.38
502.305	99.38
502.522	92.38
502.739	105.38
502.956	91.38
503.172	95.38
503.389	93.38
503.606	101.38
503.823	100.38
504.04	92.38
504.256	85.38
504.473	100.38
504.69	100.38
504.907	82.38
505.123	79.38
505.34	89.38
505.557	72.38
505.773	96.38
505.99	110.38
506.207	91.38
506.423	87.38
506.64	92.38
506.856	96.38
507.073	90.38
507.289	100.38
507.506	95.38
507.722	106.38
507.939	97.38
508.155	86.38
508.372	77.38
508.588	89.38
508.805	84.38
509.021	94.38
509.238	98.38
509.454	96.38
509.67	85.38
509.887	103.38
510.103	101.38
510.319	159.38
510.536	497.38
510.752	1462.38
510.968	450.38
511.184	131.38
511.401	106.38
511.617	90.38
511.833	104.38
512.049	92.38
512.265	102.38
512.481	99.38
512.698	79.38
512.914	102.38
513.13	92.38
513.346	89.38
513.562	95.38
513.778	97.38
513.994	102.38
514.21	92.38
514.426	95.38
514.642	109.38
514.858	104.38
515.074	137.38
515.29	273.38
515.506	824.38
515.721	354.38
515.937	122.38
516.153	95.38
