Data from Uncirc_2009_H10_HRD10591_00078.txt Node
Date: Wed Jan 03 10:12:17 EST 2024
User: Yrep
Spectrometer: HR+D1059
Trigger mode: 1
Integration Time (sec): 1.000000E-1
Scans to average: 1
Electric dark correction enabled: true
Nonlinearity correction enabled: false
Boxcar width: 0
XAxis mode: Wavelengths
Number of Pixels in Spectrum: 2048
>>>>>Begin Spectral Data<<<<<
223.165	-13.44
223.4	-13.44
223.635	-13.44
223.869	-13.44
224.104	-27.44
224.338	-20.44
224.573	-21.44
224.808	0.56
225.042	-7.44
225.277	-1.44
225.511	-9.44
225.746	1.56
225.98	4.56
226.215	10.56
226.449	18.56
226.683	29.56
226.918	22.56
227.152	26.56
227.387	36.56
227.621	33.56
227.856	50.56
228.09	50.56
228.324	42.56
228.559	38.56
228.793	43.56
229.027	71.56
229.262	69.56
229.496	65.56
229.73	74.56
229.964	81.56
230.199	69.56
230.433	76.56
230.667	63.56
230.901	59.56
231.136	67.56
231.37	66.56
231.604	59.56
231.838	91.56
232.072	85.56
232.306	84.56
232.541	68.56
232.775	78.56
233.009	69.56
233.243	84.56
233.477	84.56
233.711	80.56
233.945	86.56
234.179	82.56
234.413	72.56
234.647	64.56
234.881	77.56
235.115	78.56
235.349	70.56
235.583	74.56
235.817	72.56
236.051	81.56
236.285	76.56
236.519	82.56
236.753	74.56
236.987	74.56
237.221	61.56
237.455	82.56
237.689	92.56
237.922	75.56
238.156	76.56
238.39	69.56
238.624	71.56
238.858	74.56
239.091	69.56
239.325	66.56
239.559	73.56
239.793	64.56
240.027	82.56
240.26	57.56
240.494	74.56
240.728	78.56
240.961	71.56
241.195	89.56
241.429	71.56
241.662	73.56
241.896	67.56
242.13	82.56
242.363	83.56
242.597	86.56
242.83	90.56
243.064	73.56
243.298	79.56
243.531	77.56
243.765	73.56
243.998	72.56
244.232	75.56
244.465	69.56
244.699	82.56
244.932	72.56
245.166	78.56
245.399	73.56
245.633	65.56
245.866	76.56
246.099	84.56
246.333	81.56
246.566	75.56
246.8	77.56
247.033	67.56
247.266	52.56
247.5	83.56
247.733	72.56
247.966	92.56
248.2	69.56
248.433	75.56
248.666	85.56
248.899	67.56
249.133	74.56
249.366	95.56
249.599	93.56
249.832	83.56
250.066	73.56
250.299	83.56
250.532	87.56
250.765	80.56
250.998	91.56
251.231	83.56
251.465	67.56
251.698	69.56
251.931	84.56
252.164	80.56
252.397	72.56
252.63	79.56
252.863	59.56
253.096	81.56
253.329	79.56
253.562	87.56
253.795	68.56
254.028	80.56
254.261	72.56
254.494	76.56
254.727	53.56
254.96	79.56
255.193	74.56
255.426	79.56
255.659	75.56
255.892	74.56
256.124	73.56
256.357	82.56
256.59	86.56
256.823	88.56
257.056	76.56
257.289	72.56
257.521	62.56
257.754	73.56
257.987	83.56
258.22	76.56
258.452	84.56
258.685	80.56
258.918	67.56
259.151	68.56
259.383	80.56
259.616	81.56
259.849	86.56
260.081	76.56
260.314	82.56
260.547	76.56
260.779	82.56
261.012	75.56
261.244	78.56
261.477	88.56
261.71	84.56
261.942	108.56
262.175	95.56
262.407	93.56
262.64	93.56
262.872	78.56
263.105	60.56
263.337	83.56
263.57	80.56
263.802	77.56
264.035	81.56
264.267	78.56
264.499	91.56
264.732	84.56
264.964	76.56
265.197	72.56
265.429	66.56
265.661	84.56
265.894	81.56
266.126	85.56
266.358	75.56
266.591	66.56
266.823	89.56
267.055	82.56
267.287	82.56
267.52	77.56
267.752	85.56
267.984	79.56
268.216	73.56
268.448	102.56
268.681	73.56
268.913	85.56
269.145	85.56
269.377	86.56
269.609	78.56
269.841	86.56
270.073	79.56
270.306	66.56
270.538	90.56
270.77	97.56
271.002	75.56
271.234	95.56
271.466	93.56
271.698	78.56
271.93	88.56
272.162	78.56
272.394	88.56
272.626	80.56
272.858	69.56
273.09	77.56
273.322	83.56
273.553	82.56
273.785	78.56
274.017	84.56
274.249	82.56
274.481	83.56
274.713	81.56
274.945	78.56
275.176	92.56
275.408	85.56
275.64	88.56
275.872	75.56
276.104	70.56
276.335	78.56
276.567	96.56
276.799	92.56
277.031	85.56
277.262	87.56
277.494	95.56
277.726	82.56
277.957	81.56
278.189	87.56
278.421	88.56
278.652	83.56
278.884	71.56
279.115	85.56
279.347	93.56
279.579	71.56
279.81	85.56
280.042	77.56
280.273	88.56
280.505	84.56
280.736	87.56
280.968	88.56
281.199	82.56
281.431	80.56
281.662	78.56
281.894	90.56
282.125	92.56
282.356	106.56
282.588	112.56
282.819	102.56
283.051	92.56
283.282	83.56
283.513	79.56
283.745	76.56
283.976	104.56
284.207	104.56
284.439	95.56
284.67	86.56
284.901	83.56
285.132	79.56
285.364	86.56
285.595	85.56
285.826	84.56
286.057	96.56
286.288	104.56
286.52	106.56
286.751	84.56
286.982	94.56
287.213	77.56
287.444	77.56
287.675	83.56
287.906	72.56
288.138	88.56
288.369	75.56
288.6	58.56
288.831	71.56
289.062	79.56
289.293	79.56
289.524	88.56
289.755	87.56
289.986	83.56
290.217	86.56
290.448	81.56
290.679	90.56
290.91	83.56
291.141	76.56
291.371	81.56
291.602	82.56
291.833	84.56
292.064	90.56
292.295	83.56
292.526	94.56
292.757	95.56
292.987	82.56
293.218	72.56
293.449	79.56
293.68	76.56
293.91	90.56
294.141	87.56
294.372	86.56
294.603	79.56
294.833	98.56
295.064	84.56
295.295	85.56
295.525	78.56
295.756	96.56
295.987	85.56
296.217	109.56
296.448	97.56
296.679	98.56
296.909	91.56
297.14	77.56
297.37	85.56
297.601	88.56
297.831	85.56
298.062	84.56
298.292	86.56
298.523	85.56
298.753	89.56
298.984	83.56
299.214	74.56
299.445	91.56
299.675	85.56
299.905	81.56
300.136	86.56
300.366	79.56
300.597	104.56
300.827	105.56
301.057	100.56
301.288	92.56
301.518	96.56
301.748	99.56
301.979	96.56
302.209	89.56
302.439	78.56
302.669	89.56
302.9	88.56
303.13	84.56
303.36	97.56
303.59	119.56
303.82	108.56
304.051	105.56
304.281	79.56
304.511	93.56
304.741	75.56
304.971	84.56
305.201	94.56
305.431	94.56
305.661	77.56
305.891	87.56
306.121	99.56
306.352	105.56
306.582	94.56
306.812	88.56
307.042	82.56
307.272	86.56
307.502	84.56
307.731	78.56
307.961	96.56
308.191	86.56
308.421	68.56
308.651	98.56
308.881	86.56
309.111	85.56
309.341	90.56
309.571	80.56
309.8	83.56
310.03	83.56
310.26	98.56
310.49	88.56
310.72	86.56
310.949	92.56
311.179	90.56
311.409	92.56
311.639	93.56
311.868	80.56
312.098	93.56
312.328	85.56
312.557	80.56
312.787	95.56
313.017	84.56
313.246	83.56
313.476	71.56
313.706	92.56
313.935	88.56
314.165	95.56
314.394	90.56
314.624	102.56
314.853	88.56
315.083	87.56
315.312	99.56
315.542	93.56
315.771	89.56
316.001	81.56
316.23	88.56
316.46	78.56
316.689	90.56
316.919	98.56
317.148	88.56
317.377	117.56
317.607	134.56
317.836	109.56
318.065	91.56
318.295	81.56
318.524	84.56
318.753	74.56
318.983	86.56
319.212	97.56
319.441	103.56
319.67	100.56
319.9	91.56
320.129	81.56
320.358	80.56
320.587	93.56
320.816	93.56
321.046	93.56
321.275	91.56
321.504	102.56
321.733	93.56
321.962	97.56
322.191	92.56
322.42	101.56
322.649	115.56
322.878	90.56
323.108	94.56
323.337	108.56
323.566	123.56
323.795	147.56
324.024	176.56
324.253	341.56
324.482	669.56
324.71	1377.56
324.939	1836.56
325.168	682.56
325.397	202.56
325.626	132.56
325.855	132.56
326.084	132.56
326.313	148.56
326.542	161.56
326.77	195.56
326.999	378.56
327.228	784.56
327.457	1445.56
327.686	1160.56
327.914	298.56
328.143	172.56
328.372	130.56
328.6	101.56
328.829	109.56
329.058	99.56
329.287	103.56
329.515	102.56
329.744	85.56
329.972	97.56
330.201	96.56
330.43	105.56
330.658	114.56
330.887	112.56
331.115	105.56
331.344	112.56
331.572	78.56
331.801	104.56
332.03	89.56
332.258	80.56
332.486	96.56
332.715	102.56
332.943	104.56
333.172	93.56
333.4	101.56
333.629	101.56
333.857	104.56
334.085	104.56
334.314	94.56
334.542	112.56
334.771	110.56
334.999	112.56
335.227	77.56
335.455	93.56
335.684	85.56
335.912	85.56
336.14	101.56
336.369	80.56
336.597	103.56
336.825	73.56
337.053	83.56
337.281	102.56
337.51	80.56
337.738	95.56
337.966	85.56
338.194	90.56
338.422	81.56
338.65	79.56
338.878	97.56
339.106	86.56
339.334	99.56
339.562	76.56
339.79	86.56
340.018	87.56
340.246	96.56
340.474	97.56
340.702	90.56
340.93	86.56
341.158	78.56
341.386	85.56
341.614	89.56
341.842	92.56
342.07	86.56
342.298	93.56
342.526	72.56
342.754	87.56
342.981	81.56
343.209	100.56
343.437	91.56
343.665	100.56
343.893	83.56
344.12	86.56
344.348	90.56
344.576	78.56
344.804	98.56
345.031	89.56
345.259	96.56
345.487	104.56
345.714	101.56
345.942	88.56
346.17	93.56
346.397	90.56
346.625	93.56
346.853	84.56
347.08	76.56
347.308	85.56
347.535	87.56
347.763	98.56
347.99	97.56
348.218	89.56
348.445	98.56
348.673	96.56
348.9	77.56
349.128	93.56
349.355	84.56
349.583	79.56
349.81	88.56
350.037	95.56
350.265	93.56
350.492	96.56
350.72	90.56
350.947	100.56
351.174	105.56
351.402	87.56
351.629	100.56
351.856	94.56
352.083	96.56
352.311	92.56
352.538	102.56
352.765	99.56
352.992	104.56
353.22	94.56
353.447	94.56
353.674	86.56
353.901	93.56
354.128	96.56
354.355	100.56
354.583	91.56
354.81	89.56
355.037	93.56
355.264	92.56
355.491	95.56
355.718	83.56
355.945	72.56
356.172	99.56
356.399	96.56
356.626	93.56
356.853	102.56
357.08	92.56
357.307	102.56
357.534	92.56
357.761	94.56
357.988	93.56
358.215	94.56
358.441	89.56
358.668	84.56
358.895	90.56
359.122	97.56
359.349	85.56
359.576	86.56
359.802	89.56
360.029	101.56
360.256	104.56
360.483	77.56
360.709	80.56
360.936	98.56
361.163	84.56
361.39	85.56
361.616	85.56
361.843	78.56
362.07	100.56
362.296	86.56
362.523	75.56
362.749	90.56
362.976	82.56
363.203	82.56
363.429	88.56
363.656	96.56
363.882	81.56
364.109	87.56
364.335	97.56
364.562	75.56
364.788	93.56
365.015	98.56
365.241	84.56
365.468	98.56
365.694	94.56
365.92	89.56
366.147	91.56
366.373	95.56
366.599	88.56
366.826	84.56
367.052	84.56
367.278	85.56
367.505	89.56
367.731	77.56
367.957	96.56
368.184	74.56
368.41	88.56
368.636	94.56
368.862	115.56
369.089	90.56
369.315	84.56
369.541	81.56
369.767	86.56
369.993	83.56
370.219	87.56
370.445	81.56
370.672	84.56
370.898	89.56
371.124	82.56
371.35	100.56
371.576	87.56
371.802	81.56
372.028	75.56
372.254	83.56
372.48	97.56
372.706	92.56
372.932	80.56
373.158	91.56
373.384	101.56
373.61	99.56
373.835	94.56
374.061	85.56
374.287	83.56
374.513	80.56
374.739	77.56
374.965	79.56
375.191	78.56
375.416	90.56
375.642	81.56
375.868	70.56
376.094	83.56
376.319	73.56
376.545	82.56
376.771	105.56
376.997	74.56
377.222	82.56
377.448	71.56
377.674	76.56
377.899	83.56
378.125	81.56
378.35	75.56
378.576	78.56
378.802	99.56
379.027	90.56
379.253	86.56
379.478	105.56
379.704	81.56
379.929	97.56
380.155	101.56
380.38	100.56
380.606	103.56
380.831	95.56
381.057	75.56
381.282	90.56
381.507	91.56
381.733	76.56
381.958	85.56
382.184	87.56
382.409	84.56
382.634	92.56
382.86	90.56
383.085	107.56
383.31	80.56
383.535	99.56
383.761	87.56
383.986	84.56
384.211	93.56
384.436	104.56
384.662	103.56
384.887	84.56
385.112	101.56
385.337	96.56
385.562	95.56
385.787	85.56
386.013	92.56
386.238	95.56
386.463	86.56
386.688	105.56
386.913	92.56
387.138	92.56
387.363	96.56
387.588	78.56
387.813	102.56
388.038	93.56
388.263	92.56
388.488	89.56
388.713	98.56
388.938	94.56
389.163	105.56
389.387	89.56
389.612	87.56
389.837	98.56
390.062	99.56
390.287	96.56
390.512	83.56
390.736	80.56
390.961	99.56
391.186	81.56
391.411	96.56
391.636	88.56
391.86	77.56
392.085	87.56
392.31	79.56
392.534	83.56
392.759	77.56
392.984	84.56
393.208	89.56
393.433	96.56
393.658	80.56
393.882	81.56
394.107	81.56
394.331	83.56
394.556	85.56
394.78	78.56
395.005	61.56
395.229	99.56
395.454	80.56
395.678	77.56
395.903	82.56
396.127	83.56
396.352	97.56
396.576	100.56
396.801	84.56
397.025	83.56
397.249	77.56
397.474	94.56
397.698	96.56
397.922	92.56
398.147	93.56
398.371	79.56
398.595	76.56
398.82	76.56
399.044	93.56
399.268	90.56
399.492	75.56
399.717	91.56
399.941	83.56
400.165	85.56
400.389	78.56
400.613	76.56
400.837	92.56
401.062	83.56
401.286	75.56
401.51	87.56
401.734	81.56
401.958	90.56
402.182	106.56
402.406	139.56
402.63	94.56
402.854	103.56
403.078	82.56
403.302	83.56
403.526	72.56
403.75	66.56
403.974	72.56
404.198	89.56
404.422	81.56
404.645	81.56
404.869	90.56
405.093	92.56
405.317	91.56
405.541	95.56
405.765	93.56
405.988	89.56
406.212	140.56
406.436	171.56
406.66	113.56
406.883	85.56
407.107	95.56
407.331	92.56
407.555	86.56
407.778	91.56
408.002	91.56
408.226	91.56
408.449	92.56
408.673	89.56
408.896	101.56
409.12	75.56
409.344	86.56
409.567	85.56
409.791	96.56
410.014	92.56
410.238	89.56
410.461	84.56
410.685	93.56
410.908	91.56
411.132	96.56
411.355	90.56
411.578	65.56
411.802	91.56
412.025	98.56
412.249	89.56
412.472	92.56
412.695	100.56
412.919	81.56
413.142	77.56
413.365	85.56
413.589	97.56
413.812	79.56
414.035	87.56
414.258	94.56
414.482	87.56
414.705	85.56
414.928	87.56
415.151	92.56
415.374	85.56
415.597	75.56
415.821	75.56
416.044	91.56
416.267	78.56
416.49	92.56
416.713	82.56
416.936	82.56
417.159	78.56
417.382	67.56
417.605	81.56
417.828	77.56
418.051	75.56
418.274	83.56
418.497	69.56
418.72	81.56
418.943	75.56
419.166	74.56
419.389	82.56
419.611	91.56
419.834	85.56
420.057	80.56
420.28	82.56
420.503	84.56
420.726	70.56
420.948	90.56
421.171	106.56
421.394	81.56
421.617	89.56
421.839	73.56
422.062	82.56
422.285	89.56
422.507	102.56
422.73	97.56
422.953	89.56
423.175	86.56
423.398	86.56
423.621	86.56
423.843	92.56
424.066	82.56
424.288	81.56
424.511	85.56
424.733	76.56
424.956	89.56
425.178	97.56
425.401	87.56
425.623	88.56
425.846	74.56
426.068	75.56
426.291	93.56
426.513	81.56
426.735	84.56
426.958	98.56
427.18	108.56
427.402	103.56
427.625	126.56
427.847	113.56
428.069	97.56
428.292	92.56
428.514	76.56
428.736	82.56
428.958	77.56
429.181	84.56
429.403	86.56
429.625	82.56
429.847	90.56
430.069	73.56
430.292	85.56
430.514	86.56
430.736	81.56
430.958	90.56
431.18	73.56
431.402	86.56
431.624	80.56
431.846	80.56
432.068	83.56
432.29	91.56
432.512	81.56
432.734	72.56
432.956	70.56
433.178	92.56
433.4	85.56
433.622	73.56
433.844	81.56
434.066	84.56
434.287	79.56
434.509	98.56
434.731	87.56
434.953	75.56
435.175	83.56
435.397	81.56
435.618	97.56
435.84	105.56
436.062	94.56
436.284	93.56
436.505	89.56
436.727	94.56
436.949	111.56
437.17	86.56
437.392	74.56
437.614	86.56
437.835	96.56
438.057	104.56
438.278	112.56
438.5	94.56
438.721	106.56
438.943	85.56
439.165	91.56
439.386	89.56
439.608	87.56
439.829	96.56
440.05	100.56
440.272	114.56
440.493	86.56
440.715	90.56
440.936	91.56
441.158	75.56
441.379	77.56
441.6	83.56
441.822	89.56
442.043	94.56
442.264	82.56
442.486	86.56
442.707	103.56
442.928	88.56
443.149	102.56
443.371	121.56
443.592	101.56
443.813	97.56
444.034	104.56
444.255	83.56
444.476	81.56
444.698	76.56
444.919	82.56
445.14	120.56
445.361	114.56
445.582	96.56
445.803	96.56
446.024	107.56
446.245	113.56
446.466	100.56
446.687	86.56
446.908	79.56
447.129	76.56
447.35	76.56
447.571	86.56
447.792	90.56
448.013	94.56
448.234	88.56
448.455	86.56
448.675	109.56
448.896	116.56
449.117	103.56
449.338	94.56
449.559	120.56
449.779	116.56
450	93.56
450.221	88.56
450.442	81.56
450.662	92.56
450.883	102.56
451.104	90.56
451.324	99.56
451.545	78.56
451.766	83.56
451.986	83.56
452.207	84.56
452.428	83.56
452.648	100.56
452.869	92.56
453.089	120.56
453.31	107.56
453.53	83.56
453.751	89.56
453.971	97.56
454.192	102.56
454.412	99.56
454.633	85.56
454.853	86.56
455.073	84.56
455.294	88.56
455.514	91.56
455.734	75.56
455.955	82.56
456.175	86.56
456.395	84.56
456.616	76.56
456.836	72.56
457.056	78.56
457.276	81.56
457.497	76.56
457.717	81.56
457.937	78.56
458.157	81.56
458.377	81.56
458.598	95.56
458.818	125.56
459.038	128.56
459.258	108.56
459.478	78.56
459.698	78.56
459.918	92.56
460.138	76.56
460.358	73.56
460.578	71.56
460.798	84.56
461.018	96.56
461.238	88.56
461.458	79.56
461.678	94.56
461.898	83.56
462.118	93.56
462.338	84.56
462.558	84.56
462.777	89.56
462.997	83.56
463.217	90.56
463.437	82.56
463.657	78.56
463.876	86.56
464.096	74.56
464.316	86.56
464.536	86.56
464.755	91.56
464.975	92.56
465.195	129.56
465.414	133.56
465.634	73.56
465.854	84.56
466.073	81.56
466.293	80.56
466.512	64.56
466.732	78.56
466.951	81.56
467.171	88.56
467.391	85.56
467.61	88.56
467.829	100.56
468.049	104.56
468.268	94.56
468.488	85.56
468.707	67.56
468.927	85.56
469.146	73.56
469.365	74.56
469.585	84.56
469.804	82.56
470.023	73.56
470.243	92.56
470.462	103.56
470.681	100.56
470.901	88.56
471.12	81.56
471.339	72.56
471.558	77.56
471.777	88.56
471.997	94.56
472.216	102.56
472.435	138.56
472.654	91.56
472.873	83.56
473.092	84.56
473.311	79.56
473.53	85.56
473.749	85.56
473.968	100.56
474.187	87.56
474.406	83.56
474.625	91.56
474.844	95.56
475.063	83.56
475.282	84.56
475.501	84.56
475.72	87.56
475.939	73.56
476.158	80.56
476.377	71.56
476.596	67.56
476.814	91.56
477.033	93.56
477.252	86.56
477.471	89.56
477.69	84.56
477.908	92.56
478.127	84.56
478.346	79.56
478.564	77.56
478.783	87.56
479.002	98.56
479.22	91.56
479.439	92.56
479.658	96.56
479.876	78.56
480.095	81.56
480.313	87.56
480.532	80.56
480.751	82.56
480.969	100.56
481.188	168.56
481.406	130.56
481.624	90.56
481.843	84.56
482.061	83.56
482.28	83.56
482.498	76.56
482.717	85.56
482.935	88.56
483.153	83.56
483.372	83.56
483.59	75.56
483.808	91.56
484.027	91.56
484.245	87.56
484.463	84.56
484.681	88.56
484.9	79.56
485.118	101.56
485.336	83.56
485.554	87.56
485.772	95.56
485.99	96.56
486.209	114.56
486.427	97.56
486.645	93.56
486.863	109.56
487.081	93.56
487.299	98.56
487.517	99.56
487.735	98.56
487.953	79.56
488.171	88.56
488.389	99.56
488.607	75.56
488.825	73.56
489.043	91.56
489.261	81.56
489.479	75.56
489.696	82.56
489.914	98.56
490.132	81.56
490.35	76.56
490.568	68.56
490.786	96.56
491.003	86.56
491.221	89.56
491.439	89.56
491.657	87.56
491.874	93.56
492.092	80.56
492.31	85.56
492.527	78.56
492.745	85.56
492.963	94.56
493.18	94.56
493.398	86.56
493.615	93.56
493.833	86.56
494.05	86.56
494.268	78.56
494.485	100.56
494.703	94.56
494.92	106.56
495.138	78.56
495.355	93.56
495.573	91.56
495.79	97.56
496.008	75.56
496.225	98.56
496.442	92.56
496.66	84.56
496.877	91.56
497.094	84.56
497.312	79.56
497.529	74.56
497.746	74.56
497.963	89.56
498.181	80.56
498.398	92.56
498.615	100.56
498.832	98.56
499.049	102.56
499.267	84.56
499.484	78.56
499.701	88.56
499.918	87.56
500.135	80.56
500.352	82.56
500.569	92.56
500.786	75.56
501.003	95.56
501.22	90.56
501.437	83.56
501.654	92.56
501.871	89.56
502.088	89.56
502.305	96.56
502.522	89.56
502.739	90.56
502.956	85.56
503.172	70.56
503.389	88.56
503.606	93.56
503.823	88.56
504.04	94.56
504.256	94.56
504.473	88.56
504.69	76.56
504.907	82.56
505.123	88.56
505.34	85.56
505.557	86.56
505.773	91.56
505.99	95.56
506.207	84.56
506.423	92.56
506.64	85.56
506.856	78.56
507.073	81.56
507.289	79.56
507.506	89.56
507.722	91.56
507.939	90.56
508.155	83.56
508.372	91.56
508.588	78.56
508.805	89.56
509.021	85.56
509.238	104.56
509.454	104.56
509.67	92.56
509.887	116.56
510.103	102.56
510.319	165.56
510.536	578.56
510.752	1747.56
510.968	514.56
511.184	140.56
511.401	107.56
511.617	82.56
511.833	69.56
512.049	90.56
512.265	87.56
512.481	93.56
512.698	83.56
512.914	89.56
513.13	92.56
513.346	88.56
513.562	92.56
513.778	89.56
513.994	90.56
514.21	96.56
514.426	90.56
514.642	120.56
514.858	105.56
515.074	129.56
515.29	322.56
515.506	1003.56
515.721	378.56
515.937	125.56
516.153	96.56
516.369	96.56
516.585	89.56
516.801	86.56
517.016	87.56
517.232	100.56
517.448	93.56
