Data from Uncirc_2009_H10_HRD10591_00052.txt Node
Date: Wed Jan 03 10:12:12 EST 2024
User: Yrep
Spectrometer: HR+D1059
Trigger mode: 1
Integration Time (sec): 1.000000E-1
Scans to average: 1
Electric dark correction enabled: true
Nonlinearity correction enabled: false
Boxcar width: 0
XAxis mode: Wavelengths
Number of Pixels in Spectrum: 2048
>>>>>Begin Spectral Data<<<<<
223.165	-15.5
223.4	-15.5
223.635	-15.5
223.869	-19.5
224.104	-28.5
224.338	-26.5
224.573	-14.5
224.808	-2.5
225.042	3.5
225.277	-3.5
225.511	-8.5
225.746	-1.5
225.98	6.5
226.215	8.5
226.449	11.5
226.683	18.5
226.918	38.5
227.152	33.5
227.387	41.5
227.621	36.5
227.856	47.5
228.09	57.5
228.324	55.5
228.559	64.5
228.793	49.5
229.027	61.5
229.262	70.5
229.496	70.5
229.73	81.5
229.964	80.5
230.199	73.5
230.433	68.5
230.667	76.5
230.901	77.5
231.136	81.5
231.37	77.5
231.604	77.5
231.838	76.5
232.072	76.5
232.306	80.5
232.541	97.5
232.775	78.5
233.009	81.5
233.243	60.5
233.477	77.5
233.711	83.5
233.945	76.5
234.179	64.5
234.413	69.5
234.647	85.5
234.881	80.5
235.115	69.5
235.349	88.5
235.583	86.5
235.817	78.5
236.051	81.5
236.285	80.5
236.519	69.5
236.753	88.5
236.987	74.5
237.221	85.5
237.455	80.5
237.689	94.5
237.922	71.5
238.156	72.5
238.39	82.5
238.624	67.5
238.858	74.5
239.091	78.5
239.325	74.5
239.559	67.5
239.793	79.5
240.027	75.5
240.26	86.5
240.494	69.5
240.728	76.5
240.961	68.5
241.195	77.5
241.429	73.5
241.662	81.5
241.896	69.5
242.13	84.5
242.363	76.5
242.597	75.5
242.83	87.5
243.064	67.5
243.298	79.5
243.531	66.5
243.765	72.5
243.998	87.5
244.232	91.5
244.465	66.5
244.699	69.5
244.932	83.5
245.166	78.5
245.399	72.5
245.633	82.5
245.866	77.5
246.099	75.5
246.333	72.5
246.566	76.5
246.8	73.5
247.033	78.5
247.266	91.5
247.5	68.5
247.733	67.5
247.966	79.5
248.2	81.5
248.433	84.5
248.666	83.5
248.899	91.5
249.133	84.5
249.366	93.5
249.599	84.5
249.832	91.5
250.066	72.5
250.299	80.5
250.532	76.5
250.765	92.5
250.998	81.5
251.231	85.5
251.465	85.5
251.698	76.5
251.931	71.5
252.164	76.5
252.397	85.5
252.63	78.5
252.863	66.5
253.096	95.5
253.329	92.5
253.562	87.5
253.795	75.5
254.028	75.5
254.261	91.5
254.494	73.5
254.727	81.5
254.96	95.5
255.193	75.5
255.426	82.5
255.659	81.5
255.892	74.5
256.124	74.5
256.357	93.5
256.59	89.5
256.823	87.5
257.056	81.5
257.289	87.5
257.521	87.5
257.754	74.5
257.987	67.5
258.22	55.5
258.452	87.5
258.685	67.5
258.918	73.5
259.151	75.5
259.383	77.5
259.616	69.5
259.849	78.5
260.081	80.5
260.314	73.5
260.547	72.5
260.779	78.5
261.012	75.5
261.244	66.5
261.477	72.5
261.71	92.5
261.942	91.5
262.175	94.5
262.407	91.5
262.64	91.5
262.872	87.5
263.105	81.5
263.337	83.5
263.57	86.5
263.802	75.5
264.035	89.5
264.267	83.5
264.499	76.5
264.732	90.5
264.964	70.5
265.197	73.5
265.429	83.5
265.661	87.5
265.894	78.5
266.126	75.5
266.358	87.5
266.591	88.5
266.823	70.5
267.055	70.5
267.287	93.5
267.52	89.5
267.752	84.5
267.984	83.5
268.216	72.5
268.448	88.5
268.681	86.5
268.913	84.5
269.145	71.5
269.377	90.5
269.609	71.5
269.841	80.5
270.073	99.5
270.306	84.5
270.538	80.5
270.77	81.5
271.002	94.5
271.234	85.5
271.466	94.5
271.698	102.5
271.93	70.5
272.162	72.5
272.394	84.5
272.626	89.5
272.858	77.5
273.09	83.5
273.322	88.5
273.553	91.5
273.785	76.5
274.017	84.5
274.249	93.5
274.481	79.5
274.713	80.5
274.945	100.5
275.176	91.5
275.408	85.5
275.64	92.5
275.872	97.5
276.104	100.5
276.335	92.5
276.567	90.5
276.799	87.5
277.031	88.5
277.262	74.5
277.494	90.5
277.726	91.5
277.957	88.5
278.189	76.5
278.421	78.5
278.652	88.5
278.884	88.5
279.115	79.5
279.347	73.5
279.579	85.5
279.81	83.5
280.042	96.5
280.273	81.5
280.505	89.5
280.736	85.5
280.968	77.5
281.199	84.5
281.431	84.5
281.662	81.5
281.894	83.5
282.125	89.5
282.356	90.5
282.588	117.5
282.819	92.5
283.051	77.5
283.282	77.5
283.513	97.5
283.745	80.5
283.976	97.5
284.207	116.5
284.439	98.5
284.67	87.5
284.901	87.5
285.132	84.5
285.364	83.5
285.595	94.5
285.826	88.5
286.057	93.5
286.288	84.5
286.52	80.5
286.751	81.5
286.982	79.5
287.213	78.5
287.444	96.5
287.675	88.5
287.906	100.5
288.138	82.5
288.369	85.5
288.6	82.5
288.831	79.5
289.062	93.5
289.293	77.5
289.524	84.5
289.755	90.5
289.986	83.5
290.217	104.5
290.448	80.5
290.679	82.5
290.91	84.5
291.141	79.5
291.371	80.5
291.602	81.5
291.833	90.5
292.064	86.5
292.295	75.5
292.526	85.5
292.757	86.5
292.987	85.5
293.218	91.5
293.449	89.5
293.68	93.5
293.91	89.5
294.141	88.5
294.372	76.5
294.603	69.5
294.833	87.5
295.064	91.5
295.295	85.5
295.525	102.5
295.756	85.5
295.987	107.5
296.217	119.5
296.448	104.5
296.679	92.5
296.909	84.5
297.14	86.5
297.37	101.5
297.601	89.5
297.831	89.5
298.062	101.5
298.292	74.5
298.523	77.5
298.753	85.5
298.984	99.5
299.214	88.5
299.445	99.5
299.675	89.5
299.905	84.5
300.136	92.5
300.366	88.5
300.597	88.5
300.827	95.5
301.057	105.5
301.288	98.5
301.518	91.5
301.748	99.5
301.979	106.5
302.209	81.5
302.439	80.5
302.669	88.5
302.9	97.5
303.13	102.5
303.36	89.5
303.59	102.5
303.82	87.5
304.051	100.5
304.281	79.5
304.511	92.5
304.741	81.5
304.971	80.5
305.201	92.5
305.431	86.5
305.661	90.5
305.891	89.5
306.121	99.5
306.352	86.5
306.582	94.5
306.812	81.5
307.042	86.5
307.272	103.5
307.502	99.5
307.731	105.5
307.961	85.5
308.191	83.5
308.421	84.5
308.651	92.5
308.881	87.5
309.111	83.5
309.341	97.5
309.571	100.5
309.8	96.5
310.03	84.5
310.26	108.5
310.49	91.5
310.72	85.5
310.949	98.5
311.179	85.5
311.409	77.5
311.639	80.5
311.868	90.5
312.098	93.5
312.328	87.5
312.557	95.5
312.787	99.5
313.017	105.5
313.246	86.5
313.476	75.5
313.706	85.5
313.935	95.5
314.165	91.5
314.394	99.5
314.624	80.5
314.853	95.5
315.083	87.5
315.312	87.5
315.542	88.5
315.771	91.5
316.001	84.5
316.23	95.5
316.46	76.5
316.689	94.5
316.919	95.5
317.148	95.5
317.377	106.5
317.607	110.5
317.836	100.5
318.065	80.5
318.295	81.5
318.524	95.5
318.753	92.5
318.983	77.5
319.212	101.5
319.441	88.5
319.67	103.5
319.9	93.5
320.129	101.5
320.358	86.5
320.587	81.5
320.816	95.5
321.046	75.5
321.275	93.5
321.504	91.5
321.733	104.5
321.962	85.5
322.191	94.5
322.42	92.5
322.649	116.5
322.878	109.5
323.108	120.5
323.337	104.5
323.566	124.5
323.795	146.5
324.024	170.5
324.253	329.5
324.482	664.5
324.71	1361.5
324.939	1771.5
325.168	668.5
325.397	208.5
325.626	127.5
325.855	123.5
326.084	110.5
326.313	127.5
326.542	161.5
326.77	215.5
326.999	406.5
327.228	787.5
327.457	1413.5
327.686	1102.5
327.914	324.5
328.143	166.5
328.372	122.5
328.6	98.5
328.829	108.5
329.058	103.5
329.287	112.5
329.515	102.5
329.744	96.5
329.972	107.5
330.201	113.5
330.43	119.5
330.658	104.5
330.887	111.5
331.115	106.5
331.344	87.5
331.572	83.5
331.801	80.5
332.03	91.5
332.258	95.5
332.486	90.5
332.715	98.5
332.943	92.5
333.172	101.5
333.4	96.5
333.629	102.5
333.857	82.5
334.085	87.5
334.314	108.5
334.542	101.5
334.771	111.5
334.999	99.5
335.227	92.5
335.455	96.5
335.684	87.5
335.912	99.5
336.14	88.5
336.369	88.5
336.597	90.5
336.825	101.5
337.053	87.5
337.281	93.5
337.51	87.5
337.738	91.5
337.966	80.5
338.194	74.5
338.422	96.5
338.65	88.5
338.878	91.5
339.106	92.5
339.334	85.5
339.562	94.5
339.79	86.5
340.018	88.5
340.246	94.5
340.474	87.5
340.702	92.5
340.93	82.5
341.158	99.5
341.386	87.5
341.614	84.5
341.842	96.5
342.07	81.5
342.298	93.5
342.526	97.5
342.754	79.5
342.981	102.5
343.209	90.5
343.437	95.5
343.665	83.5
343.893	92.5
344.12	71.5
344.348	98.5
344.576	91.5
344.804	100.5
345.031	89.5
345.259	95.5
345.487	94.5
345.714	99.5
345.942	86.5
346.17	95.5
346.397	80.5
346.625	82.5
346.853	100.5
347.08	77.5
347.308	76.5
347.535	98.5
347.763	83.5
347.99	96.5
348.218	94.5
348.445	100.5
348.673	100.5
348.9	104.5
349.128	97.5
349.355	80.5
349.583	78.5
349.81	82.5
350.037	77.5
350.265	104.5
350.492	90.5
350.72	82.5
350.947	112.5
351.174	107.5
351.402	100.5
351.629	89.5
351.856	92.5
352.083	109.5
352.311	94.5
352.538	98.5
352.765	91.5
352.992	111.5
353.22	120.5
353.447	103.5
353.674	106.5
353.901	95.5
354.128	97.5
354.355	101.5
354.583	96.5
354.81	112.5
355.037	98.5
355.264	95.5
355.491	84.5
355.718	101.5
355.945	88.5
356.172	106.5
356.399	85.5
356.626	85.5
356.853	94.5
357.08	101.5
357.307	94.5
357.534	79.5
357.761	99.5
357.988	98.5
358.215	92.5
358.441	90.5
358.668	99.5
358.895	99.5
359.122	93.5
359.349	102.5
359.576	98.5
359.802	97.5
360.029	95.5
360.256	89.5
360.483	95.5
360.709	89.5
360.936	110.5
361.163	104.5
361.39	92.5
361.616	95.5
361.843	95.5
362.07	97.5
362.296	83.5
362.523	93.5
362.749	95.5
362.976	83.5
363.203	76.5
363.429	85.5
363.656	107.5
363.882	83.5
364.109	78.5
364.335	88.5
364.562	91.5
364.788	78.5
365.015	80.5
365.241	95.5
365.468	93.5
365.694	100.5
365.92	92.5
366.147	88.5
366.373	87.5
366.599	93.5
366.826	92.5
367.052	95.5
367.278	93.5
367.505	89.5
367.731	93.5
367.957	83.5
368.184	90.5
368.41	96.5
368.636	101.5
368.862	103.5
369.089	95.5
369.315	88.5
369.541	88.5
369.767	90.5
369.993	86.5
370.219	85.5
370.445	94.5
370.672	100.5
370.898	79.5
371.124	97.5
371.35	87.5
371.576	78.5
371.802	78.5
372.028	94.5
372.254	80.5
372.48	90.5
372.706	89.5
372.932	84.5
373.158	94.5
373.384	87.5
373.61	94.5
373.835	79.5
374.061	88.5
374.287	89.5
374.513	81.5
374.739	79.5
374.965	96.5
375.191	85.5
375.416	88.5
375.642	92.5
375.868	93.5
376.094	101.5
376.319	96.5
376.545	84.5
376.771	85.5
376.997	86.5
377.222	87.5
377.448	92.5
377.674	92.5
377.899	79.5
378.125	78.5
378.35	99.5
378.576	88.5
378.802	91.5
379.027	78.5
379.253	96.5
379.478	86.5
379.704	100.5
379.929	96.5
380.155	97.5
380.38	107.5
380.606	85.5
380.831	87.5
381.057	81.5
381.282	92.5
381.507	80.5
381.733	90.5
381.958	99.5
382.184	93.5
382.409	100.5
382.634	96.5
382.86	100.5
383.085	97.5
383.31	86.5
383.535	96.5
383.761	100.5
383.986	97.5
384.211	98.5
384.436	91.5
384.662	96.5
384.887	86.5
385.112	78.5
385.337	109.5
385.562	106.5
385.787	108.5
386.013	98.5
386.238	105.5
386.463	119.5
386.688	98.5
386.913	87.5
387.138	90.5
387.363	91.5
387.588	81.5
387.813	107.5
388.038	103.5
388.263	110.5
388.488	87.5
388.713	106.5
388.938	92.5
389.163	88.5
389.387	91.5
389.612	93.5
389.837	87.5
390.062	89.5
390.287	92.5
390.512	95.5
390.736	89.5
390.961	89.5
391.186	101.5
391.411	102.5
391.636	89.5
391.86	83.5
392.085	91.5
392.31	82.5
392.534	89.5
392.759	91.5
392.984	91.5
393.208	76.5
393.433	77.5
393.658	80.5
393.882	95.5
394.107	87.5
394.331	88.5
394.556	88.5
394.78	85.5
395.005	95.5
395.229	88.5
395.454	79.5
395.678	81.5
395.903	77.5
396.127	87.5
396.352	87.5
396.576	81.5
396.801	87.5
397.025	77.5
397.249	84.5
397.474	84.5
397.698	92.5
397.922	77.5
398.147	94.5
398.371	92.5
398.595	68.5
398.82	90.5
399.044	83.5
399.268	80.5
399.492	95.5
399.717	88.5
399.941	94.5
400.165	100.5
400.389	80.5
400.613	85.5
400.837	98.5
401.062	99.5
401.286	83.5
401.51	97.5
401.734	99.5
401.958	92.5
402.182	99.5
402.406	119.5
402.63	94.5
402.854	89.5
403.078	91.5
403.302	82.5
403.526	89.5
403.75	91.5
403.974	85.5
404.198	88.5
404.422	76.5
404.645	95.5
404.869	77.5
405.093	96.5
405.317	101.5
405.541	91.5
405.765	86.5
405.988	102.5
406.212	144.5
406.436	163.5
406.66	123.5
406.883	91.5
407.107	91.5
407.331	87.5
407.555	85.5
407.778	97.5
408.002	99.5
408.226	84.5
408.449	89.5
408.673	97.5
408.896	101.5
409.12	75.5
409.344	83.5
409.567	80.5
409.791	102.5
410.014	92.5
410.238	80.5
410.461	77.5
410.685	113.5
410.908	101.5
411.132	96.5
411.355	80.5
411.578	96.5
411.802	89.5
412.025	93.5
412.249	79.5
412.472	89.5
412.695	96.5
412.919	93.5
413.142	92.5
413.365	85.5
413.589	73.5
413.812	87.5
414.035	81.5
414.258	89.5
414.482	91.5
414.705	95.5
414.928	69.5
415.151	90.5
415.374	94.5
415.597	73.5
415.821	99.5
416.044	85.5
416.267	96.5
416.49	77.5
416.713	83.5
416.936	90.5
417.159	92.5
417.382	92.5
417.605	80.5
417.828	93.5
418.051	99.5
418.274	83.5
418.497	92.5
418.72	85.5
418.943	86.5
419.166	91.5
419.389	92.5
419.611	77.5
419.834	92.5
420.057	78.5
420.28	84.5
420.503	83.5
420.726	81.5
420.948	92.5
421.171	86.5
421.394	85.5
421.617	99.5
421.839	91.5
422.062	88.5
422.285	87.5
422.507	85.5
422.73	89.5
422.953	88.5
423.175	77.5
423.398	97.5
423.621	102.5
423.843	70.5
424.066	78.5
424.288	89.5
424.511	92.5
424.733	99.5
424.956	107.5
425.178	89.5
425.401	85.5
425.623	77.5
425.846	91.5
426.068	78.5
426.291	94.5
426.513	72.5
426.735	93.5
426.958	94.5
427.18	95.5
427.402	111.5
427.625	125.5
427.847	92.5
428.069	107.5
428.292	79.5
428.514	81.5
428.736	74.5
428.958	82.5
429.181	76.5
429.403	91.5
429.625	83.5
429.847	84.5
430.069	95.5
430.292	75.5
430.514	91.5
430.736	86.5
430.958	85.5
431.18	84.5
431.402	83.5
431.624	93.5
431.846	85.5
432.068	95.5
432.29	85.5
432.512	87.5
432.734	64.5
432.956	82.5
433.178	85.5
433.4	94.5
433.622	84.5
433.844	83.5
434.066	94.5
434.287	108.5
434.509	93.5
434.731	93.5
434.953	90.5
435.175	77.5
435.397	85.5
435.618	80.5
435.84	76.5
436.062	98.5
436.284	96.5
436.505	88.5
436.727	99.5
436.949	93.5
437.17	91.5
437.392	90.5
437.614	86.5
437.835	93.5
438.057	94.5
438.278	91.5
438.5	100.5
438.721	110.5
438.943	93.5
439.165	106.5
439.386	85.5
439.608	86.5
439.829	101.5
440.05	103.5
440.272	126.5
440.493	98.5
440.715	83.5
440.936	77.5
441.158	82.5
441.379	77.5
441.6	91.5
441.822	79.5
442.043	84.5
442.264	97.5
442.486	87.5
442.707	80.5
442.928	79.5
443.149	107.5
443.371	124.5
443.592	103.5
443.813	92.5
444.034	98.5
444.255	90.5
444.476	91.5
444.698	87.5
444.919	83.5
445.14	116.5
445.361	115.5
445.582	96.5
445.803	115.5
446.024	124.5
446.245	95.5
446.466	92.5
446.687	85.5
446.908	75.5
447.129	93.5
447.35	87.5
447.571	94.5
447.792	88.5
448.013	99.5
448.234	100.5
448.455	95.5
448.675	107.5
448.896	115.5
449.117	83.5
449.338	97.5
449.559	115.5
449.779	111.5
450	91.5
450.221	89.5
450.442	71.5
450.662	85.5
450.883	103.5
451.104	91.5
451.324	84.5
451.545	80.5
451.766	78.5
451.986	84.5
452.207	92.5
452.428	78.5
452.648	94.5
452.869	95.5
453.089	88.5
453.31	97.5
453.53	105.5
453.751	95.5
453.971	96.5
454.192	92.5
454.412	92.5
454.633	97.5
454.853	78.5
455.073	81.5
455.294	76.5
455.514	91.5
455.734	85.5
455.955	84.5
456.175	79.5
456.395	82.5
456.616	93.5
456.836	87.5
457.056	76.5
457.276	74.5
457.497	92.5
457.717	75.5
457.937	78.5
458.157	63.5
458.377	87.5
458.598	100.5
458.818	120.5
459.038	106.5
459.258	106.5
459.478	79.5
459.698	88.5
459.918	77.5
460.138	75.5
460.358	79.5
460.578	83.5
460.798	87.5
461.018	87.5
461.238	62.5
461.458	68.5
461.678	77.5
461.898	98.5
462.118	88.5
462.338	88.5
462.558	92.5
462.777	86.5
462.997	80.5
463.217	83.5
463.437	84.5
463.657	83.5
463.876	80.5
464.096	90.5
464.316	81.5
464.536	84.5
464.755	112.5
464.975	100.5
465.195	133.5
465.414	117.5
465.634	77.5
465.854	87.5
466.073	97.5
466.293	79.5
466.512	90.5
466.732	66.5
466.951	95.5
467.171	98.5
467.391	84.5
467.61	94.5
467.829	98.5
468.049	85.5
468.268	96.5
468.488	87.5
468.707	92.5
468.927	81.5
469.146	91.5
469.365	88.5
469.585	87.5
469.804	100.5
470.023	85.5
470.243	87.5
470.462	88.5
470.681	95.5
470.901	98.5
471.12	68.5
471.339	87.5
471.558	78.5
471.777	75.5
471.997	93.5
472.216	105.5
472.435	127.5
472.654	87.5
472.873	87.5
473.092	91.5
473.311	82.5
473.53	75.5
473.749	85.5
473.968	100.5
474.187	88.5
474.406	93.5
474.625	88.5
474.844	90.5
475.063	97.5
475.282	95.5
475.501	68.5
475.72	89.5
475.939	98.5
476.158	86.5
476.377	84.5
476.596	71.5
476.814	92.5
477.033	83.5
477.252	89.5
477.471	76.5
477.69	84.5
477.908	88.5
478.127	80.5
478.346	80.5
478.564	86.5
478.783	93.5
479.002	95.5
479.22	88.5
479.439	95.5
479.658	84.5
479.876	92.5
480.095	83.5
480.313	81.5
480.532	82.5
480.751	83.5
480.969	99.5
481.188	151.5
481.406	116.5
481.624	89.5
481.843	83.5
482.061	94.5
482.28	92.5
482.498	94.5
482.717	82.5
482.935	87.5
483.153	95.5
483.372	90.5
483.59	86.5
483.808	93.5
484.027	84.5
484.245	76.5
484.463	91.5
484.681	81.5
484.9	91.5
485.118	87.5
485.336	91.5
485.554	85.5
485.772	119.5
485.99	104.5
486.209	94.5
486.427	98.5
486.645	107.5
486.863	105.5
487.081	80.5
487.299	94.5
487.517	99.5
487.735	87.5
487.953	86.5
488.171	86.5
488.389	102.5
488.607	94.5
488.825	78.5
489.043	90.5
489.261	98.5
489.479	84.5
489.696	94.5
489.914	87.5
490.132	90.5
490.35	90.5
490.568	82.5
490.786	79.5
491.003	83.5
491.221	92.5
491.439	89.5
491.657	93.5
491.874	89.5
492.092	93.5
492.31	91.5
492.527	79.5
492.745	88.5
492.963	81.5
493.18	83.5
493.398	69.5
493.615	90.5
493.833	84.5
494.05	85.5
494.268	92.5
494.485	90.5
494.703	92.5
494.92	86.5
495.138	96.5
495.355	84.5
495.573	103.5
495.79	94.5
496.008	77.5
496.225	87.5
496.442	72.5
496.66	92.5
496.877	80.5
497.094	85.5
497.312	98.5
497.529	80.5
497.746	93.5
497.963	98.5
498.181	95.5
498.398	92.5
498.615	102.5
498.832	84.5
499.049	90.5
499.267	85.5
499.484	83.5
499.701	85.5
499.918	75.5
500.135	79.5
500.352	88.5
500.569	87.5
500.786	96.5
501.003	78.5
501.22	81.5
501.437	83.5
501.654	77.5
501.871	96.5
502.088	97.5
502.305	93.5
502.522	86.5
502.739	96.5
502.956	94.5
503.172	94.5
503.389	84.5
503.606	86.5
503.823	90.5
504.04	80.5
504.256	87.5
504.473	93.5
504.69	75.5
504.907	81.5
505.123	95.5
505.34	81.5
505.557	98.5
505.773	91.5
505.99	92.5
506.207	99.5
506.423	78.5
506.64	85.5
506.856	79.5
507.073	92.5
507.289	84.5
507.506	96.5
507.722	89.5
507.939	107.5
508.155	75.5
508.372	91.5
508.588	73.5
508.805	84.5
509.021	81.5
509.238	86.5
509.454	90.5
509.67	91.5
509.887	103.5
510.103	101.5
510.319	173.5
510.536	527.5
510.752	1557.5
510.968	471.5
511.184	129.5
511.401	109.5
511.617	96.5
511.833	82.5
512.049	96.5
512.265	71.5
512.481	80.5
512.698	76.5
512.914	87.5
513.13	93.5
513.346	90.5
513.562	85.5
513.778	105.5
513.994	97.5
514.21	92.5
514.426	104.5
514.642	115.5
514.858	94.5
515.074	143.5
515.29	295.5
515.506	887.5
515.721	374.5
515.937	125.5
516.153	115.5
516.369	94.5
516.585	87.5
516.801	81.5
517.016	93.5
517.232	86.5
517.448	84.5
517.664	90.5
517.879	83.5
518.095	85.5
518.311	72.5
518.527	90.5
518.742	100.5
518.958	87.5
519.173	91.5
519.389	104.5
519.605	97.5
519.82	94.5
520.036	96.5
520.251	102.5
520.467	106.5
520.682	98.5
520.898	89.5
521.113	93.5
521.329	116.5
521.544	145.5
521.76	377.5
521.975	1447.5
522.19	905.5
522.406	225.5
522.621	116.5
522.836	86.5
523.052	90.5
523.267	87.5
523.482	91.5
523.698	88.5
523.913	102.5
524.128	92.5
524.343	98.5
524.559	107.5
524.774	86.5
524.989	79.5
525.204	96.5
525.419	86.5
525.634	95.5
525.849	84.5
526.064	93.5
526.28	87.5
526.495	87.5
526.71	81.5
526.925	97.5
527.14	91.5
527.355	80.5
527.57	86.5
527.785	89.5
527.999	79.5
528.214	89.5
528.429	85.5
528.644	95.5
528.859	84.5
529.074	85.5
529.289	110.5
529.503	137.5
529.718	107.5
529.933	89.5
530.148	85.5
530.363	101.5
530.577	95.5
530.792	86.5
531.007	93.5
531.221	91.5
531.436	92.5
531.651	83.5
531.865	84.5
532.08	86.5
532.295	80.5
532.509	80.5
532.724	68.5
532.938	91.5
533.153	85.5
533.367	100.5
533.582	86.5
533.796	102.5
534.011	85.5
534.225	64.5
534.44	96.5
534.654	89.5
534.868	101.5
535.083	100.5
535.297	95.5
535.511	85.5
535.726	104.5
535.94	92.5
536.154	90.5
536.369	85.5
536.583	93.5
536.797	92.5
537.011	86.5
537.225	79.5
