Data from Uncirc_2009_H10_HRD10591_00076.txt Node
Date: Wed Jan 03 10:12:17 EST 2024
User: Yrep
Spectrometer: HR+D1059
Trigger mode: 1
Integration Time (sec): 1.000000E-1
Scans to average: 1
Electric dark correction enabled: true
Nonlinearity correction enabled: false
Boxcar width: 0
XAxis mode: Wavelengths
Number of Pixels in Spectrum: 2048
>>>>>Begin Spectral Data<<<<<
223.165	-4.44
223.4	-4.44
223.635	-4.44
223.869	-22.44
224.104	-26.44
224.338	-18.44
224.573	-3.44
224.808	-16.44
225.042	-9.44
225.277	-5.44
225.511	-9.44
225.746	-1.44
225.98	2.56
226.215	12.56
226.449	23.56
226.683	24.56
226.918	19.56
227.152	34.56
227.387	33.56
227.621	38.56
227.856	45.56
228.09	43.56
228.324	51.56
228.559	62.56
228.793	45.56
229.027	68.56
229.262	69.56
229.496	77.56
229.73	79.56
229.964	77.56
230.199	62.56
230.433	74.56
230.667	69.56
230.901	70.56
231.136	76.56
231.37	100.56
231.604	79.56
231.838	79.56
232.072	89.56
232.306	70.56
232.541	82.56
232.775	72.56
233.009	72.56
233.243	67.56
233.477	76.56
233.711	75.56
233.945	72.56
234.179	85.56
234.413	65.56
234.647	87.56
234.881	79.56
235.115	71.56
235.349	80.56
235.583	80.56
235.817	86.56
236.051	71.56
236.285	78.56
236.519	83.56
236.753	64.56
236.987	93.56
237.221	80.56
237.455	84.56
237.689	87.56
237.922	85.56
238.156	83.56
238.39	59.56
238.624	71.56
238.858	67.56
239.091	72.56
239.325	84.56
239.559	81.56
239.793	73.56
240.027	79.56
240.26	64.56
240.494	72.56
240.728	77.56
240.961	79.56
241.195	82.56
241.429	68.56
241.662	79.56
241.896	53.56
242.13	69.56
242.363	68.56
242.597	82.56
242.83	70.56
243.064	71.56
243.298	78.56
243.531	66.56
243.765	72.56
243.998	76.56
244.232	85.56
244.465	61.56
244.699	68.56
244.932	85.56
245.166	76.56
245.399	89.56
245.633	78.56
245.866	76.56
246.099	81.56
246.333	78.56
246.566	78.56
246.8	66.56
247.033	71.56
247.266	63.56
247.5	72.56
247.733	78.56
247.966	75.56
248.2	78.56
248.433	74.56
248.666	72.56
248.899	82.56
249.133	86.56
249.366	91.56
249.599	82.56
249.832	66.56
250.066	73.56
250.299	90.56
250.532	63.56
250.765	80.56
250.998	68.56
251.231	76.56
251.465	86.56
251.698	69.56
251.931	69.56
252.164	76.56
252.397	86.56
252.63	81.56
252.863	83.56
253.096	75.56
253.329	80.56
253.562	79.56
253.795	81.56
254.028	92.56
254.261	71.56
254.494	70.56
254.727	78.56
254.96	75.56
255.193	75.56
255.426	83.56
255.659	78.56
255.892	73.56
256.124	69.56
256.357	66.56
256.59	82.56
256.823	90.56
257.056	67.56
257.289	97.56
257.521	71.56
257.754	62.56
257.987	83.56
258.22	76.56
258.452	72.56
258.685	88.56
258.918	76.56
259.151	76.56
259.383	68.56
259.616	80.56
259.849	76.56
260.081	81.56
260.314	68.56
260.547	87.56
260.779	91.56
261.012	84.56
261.244	86.56
261.477	95.56
261.71	92.56
261.942	107.56
262.175	103.56
262.407	76.56
262.64	71.56
262.872	80.56
263.105	69.56
263.337	86.56
263.57	76.56
263.802	83.56
264.035	77.56
264.267	81.56
264.499	82.56
264.732	92.56
264.964	85.56
265.197	82.56
265.429	82.56
265.661	75.56
265.894	83.56
266.126	77.56
266.358	81.56
266.591	75.56
266.823	81.56
267.055	93.56
267.287	70.56
267.52	81.56
267.752	88.56
267.984	86.56
268.216	74.56
268.448	78.56
268.681	86.56
268.913	95.56
269.145	89.56
269.377	85.56
269.609	74.56
269.841	82.56
270.073	73.56
270.306	87.56
270.538	79.56
270.77	82.56
271.002	106.56
271.234	74.56
271.466	75.56
271.698	92.56
271.93	76.56
272.162	86.56
272.394	76.56
272.626	79.56
272.858	84.56
273.09	92.56
273.322	79.56
273.553	92.56
273.785	84.56
274.017	79.56
274.249	86.56
274.481	78.56
274.713	84.56
274.945	74.56
275.176	66.56
275.408	88.56
275.64	69.56
275.872	87.56
276.104	78.56
276.335	92.56
276.567	105.56
276.799	90.56
277.031	89.56
277.262	91.56
277.494	77.56
277.726	86.56
277.957	88.56
278.189	91.56
278.421	78.56
278.652	82.56
278.884	83.56
279.115	88.56
279.347	79.56
279.579	94.56
279.81	88.56
280.042	81.56
280.273	80.56
280.505	90.56
280.736	94.56
280.968	78.56
281.199	79.56
281.431	70.56
281.662	86.56
281.894	89.56
282.125	85.56
282.356	101.56
282.588	122.56
282.819	84.56
283.051	85.56
283.282	88.56
283.513	86.56
283.745	91.56
283.976	103.56
284.207	94.56
284.439	77.56
284.67	85.56
284.901	80.56
285.132	75.56
285.364	71.56
285.595	93.56
285.826	78.56
286.057	93.56
286.288	100.56
286.52	100.56
286.751	79.56
286.982	89.56
287.213	88.56
287.444	74.56
287.675	93.56
287.906	69.56
288.138	93.56
288.369	97.56
288.6	94.56
288.831	77.56
289.062	89.56
289.293	86.56
289.524	107.56
289.755	84.56
289.986	86.56
290.217	75.56
290.448	88.56
290.679	85.56
290.91	84.56
291.141	71.56
291.371	85.56
291.602	85.56
291.833	98.56
292.064	82.56
292.295	80.56
292.526	101.56
292.757	101.56
292.987	93.56
293.218	89.56
293.449	77.56
293.68	84.56
293.91	91.56
294.141	93.56
294.372	75.56
294.603	79.56
294.833	98.56
295.064	89.56
295.295	83.56
295.525	79.56
295.756	95.56
295.987	105.56
296.217	123.56
296.448	115.56
296.679	98.56
296.909	98.56
297.14	100.56
297.37	84.56
297.601	81.56
297.831	88.56
298.062	91.56
298.292	99.56
298.523	84.56
298.753	89.56
298.984	70.56
299.214	79.56
299.445	91.56
299.675	90.56
299.905	84.56
300.136	86.56
300.366	85.56
300.597	84.56
300.827	103.56
301.057	99.56
301.288	110.56
301.518	94.56
301.748	94.56
301.979	97.56
302.209	94.56
302.439	75.56
302.669	97.56
302.9	87.56
303.13	102.56
303.36	84.56
303.59	117.56
303.82	106.56
304.051	89.56
304.281	90.56
304.511	87.56
304.741	87.56
304.971	67.56
305.201	86.56
305.431	91.56
305.661	94.56
305.891	87.56
306.121	87.56
306.352	91.56
306.582	85.56
306.812	99.56
307.042	79.56
307.272	80.56
307.502	102.56
307.731	93.56
307.961	88.56
308.191	79.56
308.421	90.56
308.651	87.56
308.881	106.56
309.111	83.56
309.341	95.56
309.571	98.56
309.8	93.56
310.03	94.56
310.26	95.56
310.49	94.56
310.72	101.56
310.949	97.56
311.179	96.56
311.409	82.56
311.639	86.56
311.868	85.56
312.098	84.56
312.328	91.56
312.557	92.56
312.787	107.56
313.017	101.56
313.246	97.56
313.476	92.56
313.706	89.56
313.935	81.56
314.165	93.56
314.394	72.56
314.624	99.56
314.853	100.56
315.083	88.56
315.312	84.56
315.542	75.56
315.771	109.56
316.001	90.56
316.23	85.56
316.46	93.56
316.689	93.56
316.919	86.56
317.148	97.56
317.377	97.56
317.607	126.56
317.836	102.56
318.065	99.56
318.295	82.56
318.524	92.56
318.753	94.56
318.983	84.56
319.212	98.56
319.441	96.56
319.67	100.56
319.9	77.56
320.129	75.56
320.358	96.56
320.587	87.56
320.816	96.56
321.046	90.56
321.275	94.56
321.504	91.56
321.733	99.56
321.962	95.56
322.191	89.56
322.42	92.56
322.649	114.56
322.878	104.56
323.108	112.56
323.337	101.56
323.566	119.56
323.795	134.56
324.024	178.56
324.253	326.56
324.482	652.56
324.71	1309.56
324.939	1739.56
325.168	629.56
325.397	214.56
325.626	143.56
325.855	123.56
326.084	122.56
326.313	141.56
326.542	152.56
326.77	205.56
326.999	371.56
327.228	794.56
327.457	1333.56
327.686	1096.56
327.914	299.56
328.143	154.56
328.372	128.56
328.6	108.56
328.829	106.56
329.058	110.56
329.287	115.56
329.515	96.56
329.744	90.56
329.972	104.56
330.201	102.56
330.43	106.56
330.658	99.56
330.887	92.56
331.115	101.56
331.344	95.56
331.572	92.56
331.801	96.56
332.03	87.56
332.258	98.56
332.486	87.56
332.715	90.56
332.943	91.56
333.172	92.56
333.4	98.56
333.629	98.56
333.857	98.56
334.085	97.56
334.314	115.56
334.542	103.56
334.771	115.56
334.999	105.56
335.227	96.56
335.455	86.56
335.684	91.56
335.912	90.56
336.14	91.56
336.369	101.56
336.597	103.56
336.825	100.56
337.053	89.56
337.281	95.56
337.51	82.56
337.738	89.56
337.966	84.56
338.194	85.56
338.422	93.56
338.65	95.56
338.878	94.56
339.106	83.56
339.334	88.56
339.562	85.56
339.79	91.56
340.018	82.56
340.246	74.56
340.474	90.56
340.702	84.56
340.93	92.56
341.158	85.56
341.386	89.56
341.614	85.56
341.842	86.56
342.07	85.56
342.298	86.56
342.526	90.56
342.754	79.56
342.981	84.56
343.209	84.56
343.437	88.56
343.665	73.56
343.893	89.56
344.12	92.56
344.348	101.56
344.576	97.56
344.804	79.56
345.031	91.56
345.259	97.56
345.487	98.56
345.714	89.56
345.942	96.56
346.17	80.56
346.397	72.56
346.625	88.56
346.853	93.56
347.08	91.56
347.308	84.56
347.535	100.56
347.763	85.56
347.99	87.56
348.218	91.56
348.445	91.56
348.673	89.56
348.9	102.56
349.128	86.56
349.355	99.56
349.583	92.56
349.81	88.56
350.037	99.56
350.265	96.56
350.492	82.56
350.72	80.56
350.947	110.56
351.174	93.56
351.402	91.56
351.629	102.56
351.856	99.56
352.083	94.56
352.311	104.56
352.538	93.56
352.765	102.56
352.992	106.56
353.22	95.56
353.447	79.56
353.674	96.56
353.901	90.56
354.128	107.56
354.355	91.56
354.583	96.56
354.81	90.56
355.037	86.56
355.264	87.56
355.491	85.56
355.718	81.56
355.945	96.56
356.172	83.56
356.399	91.56
356.626	77.56
356.853	97.56
357.08	94.56
357.307	90.56
357.534	96.56
357.761	98.56
357.988	78.56
358.215	88.56
358.441	89.56
358.668	88.56
358.895	80.56
359.122	76.56
359.349	92.56
359.576	96.56
359.802	92.56
360.029	95.56
360.256	88.56
360.483	82.56
360.709	86.56
360.936	93.56
361.163	83.56
361.39	87.56
361.616	96.56
361.843	92.56
362.07	94.56
362.296	87.56
362.523	92.56
362.749	81.56
362.976	92.56
363.203	88.56
363.429	92.56
363.656	107.56
363.882	72.56
364.109	75.56
364.335	96.56
364.562	81.56
364.788	82.56
365.015	80.56
365.241	87.56
365.468	97.56
365.694	100.56
365.92	94.56
366.147	78.56
366.373	92.56
366.599	86.56
366.826	102.56
367.052	90.56
367.278	92.56
367.505	81.56
367.731	90.56
367.957	83.56
368.184	93.56
368.41	104.56
368.636	92.56
368.862	102.56
369.089	92.56
369.315	94.56
369.541	95.56
369.767	90.56
369.993	80.56
370.219	92.56
370.445	87.56
370.672	87.56
370.898	67.56
371.124	90.56
371.35	84.56
371.576	79.56
371.802	82.56
372.028	84.56
372.254	91.56
372.48	86.56
372.706	86.56
372.932	85.56
373.158	84.56
373.384	87.56
373.61	84.56
373.835	93.56
374.061	88.56
374.287	77.56
374.513	85.56
374.739	90.56
374.965	79.56
375.191	79.56
375.416	89.56
375.642	88.56
375.868	86.56
376.094	100.56
376.319	89.56
376.545	86.56
376.771	85.56
376.997	97.56
377.222	96.56
377.448	86.56
377.674	85.56
377.899	101.56
378.125	89.56
378.35	73.56
378.576	105.56
378.802	102.56
379.027	92.56
379.253	92.56
379.478	88.56
379.704	105.56
379.929	98.56
380.155	93.56
380.38	93.56
380.606	95.56
380.831	83.56
381.057	91.56
381.282	103.56
381.507	89.56
381.733	98.56
381.958	95.56
382.184	97.56
382.409	105.56
382.634	90.56
382.86	92.56
383.085	92.56
383.31	86.56
383.535	89.56
383.761	106.56
383.986	87.56
384.211	108.56
384.436	82.56
384.662	106.56
384.887	95.56
385.112	100.56
385.337	101.56
385.562	99.56
385.787	107.56
386.013	105.56
386.238	93.56
386.463	104.56
386.688	103.56
386.913	110.56
387.138	97.56
387.363	88.56
387.588	105.56
387.813	103.56
388.038	89.56
388.263	112.56
388.488	110.56
388.713	100.56
388.938	95.56
389.163	104.56
389.387	93.56
389.612	87.56
389.837	91.56
390.062	95.56
390.287	89.56
390.512	99.56
390.736	106.56
390.961	94.56
391.186	95.56
391.411	93.56
391.636	110.56
391.86	90.56
392.085	68.56
392.31	71.56
392.534	75.56
392.759	91.56
392.984	91.56
393.208	78.56
393.433	74.56
393.658	87.56
393.882	70.56
394.107	73.56
394.331	84.56
394.556	73.56
394.78	85.56
395.005	75.56
395.229	85.56
395.454	90.56
395.678	75.56
395.903	86.56
396.127	84.56
396.352	83.56
396.576	76.56
396.801	68.56
397.025	71.56
397.249	86.56
397.474	79.56
397.698	91.56
397.922	72.56
398.147	82.56
398.371	87.56
398.595	81.56
398.82	72.56
399.044	88.56
399.268	90.56
399.492	74.56
399.717	84.56
399.941	79.56
400.165	94.56
400.389	86.56
400.613	90.56
400.837	81.56
401.062	94.56
401.286	76.56
401.51	71.56
401.734	85.56
401.958	80.56
402.182	110.56
402.406	108.56
402.63	89.56
402.854	94.56
403.078	90.56
403.302	89.56
403.526	88.56
403.75	96.56
403.974	91.56
404.198	75.56
404.422	80.56
404.645	77.56
404.869	92.56
405.093	90.56
405.317	106.56
405.541	92.56
405.765	88.56
405.988	98.56
406.212	141.56
406.436	157.56
406.66	114.56
406.883	94.56
407.107	92.56
407.331	85.56
407.555	80.56
407.778	76.56
408.002	86.56
408.226	96.56
408.449	81.56
408.673	88.56
408.896	93.56
409.12	84.56
409.344	90.56
409.567	72.56
409.791	77.56
410.014	96.56
410.238	86.56
410.461	81.56
410.685	95.56
410.908	103.56
411.132	107.56
411.355	89.56
411.578	83.56
411.802	88.56
412.025	73.56
412.249	75.56
412.472	86.56
412.695	92.56
412.919	78.56
413.142	88.56
413.365	86.56
413.589	79.56
413.812	85.56
414.035	105.56
414.258	92.56
414.482	75.56
414.705	75.56
414.928	85.56
415.151	97.56
415.374	88.56
415.597	89.56
415.821	88.56
416.044	86.56
416.267	97.56
416.49	81.56
416.713	84.56
416.936	79.56
417.159	86.56
417.382	80.56
417.605	82.56
417.828	81.56
418.051	87.56
418.274	91.56
418.497	89.56
418.72	86.56
418.943	81.56
419.166	94.56
419.389	95.56
419.611	90.56
419.834	96.56
420.057	93.56
420.28	82.56
420.503	77.56
420.726	91.56
420.948	73.56
421.171	82.56
421.394	72.56
421.617	85.56
421.839	88.56
422.062	90.56
422.285	85.56
422.507	94.56
422.73	94.56
422.953	85.56
423.175	82.56
423.398	90.56
423.621	70.56
423.843	80.56
424.066	80.56
424.288	77.56
424.511	87.56
424.733	86.56
424.956	92.56
425.178	85.56
425.401	97.56
425.623	80.56
425.846	72.56
426.068	96.56
426.291	92.56
426.513	85.56
426.735	93.56
426.958	99.56
427.18	87.56
427.402	124.56
427.625	118.56
427.847	109.56
428.069	90.56
428.292	96.56
428.514	98.56
428.736	92.56
428.958	79.56
429.181	79.56
429.403	95.56
429.625	80.56
429.847	97.56
430.069	87.56
430.292	93.56
430.514	85.56
430.736	61.56
430.958	84.56
431.18	74.56
431.402	81.56
431.624	85.56
431.846	87.56
432.068	85.56
432.29	85.56
432.512	76.56
432.734	76.56
432.956	84.56
433.178	104.56
433.4	87.56
433.622	88.56
433.844	80.56
434.066	93.56
434.287	71.56
434.509	91.56
434.731	93.56
434.953	83.56
435.175	79.56
435.397	76.56
435.618	92.56
435.84	86.56
436.062	94.56
436.284	99.56
436.505	99.56
436.727	86.56
436.949	78.56
437.17	95.56
437.392	95.56
437.614	85.56
437.835	88.56
438.057	103.56
438.278	91.56
438.5	89.56
438.721	99.56
438.943	90.56
439.165	106.56
439.386	82.56
439.608	82.56
439.829	90.56
440.05	100.56
440.272	99.56
440.493	90.56
440.715	95.56
440.936	80.56
441.158	91.56
441.379	90.56
441.6	76.56
441.822	94.56
442.043	90.56
442.264	76.56
442.486	93.56
442.707	83.56
442.928	88.56
443.149	110.56
443.371	114.56
443.592	76.56
443.813	94.56
444.034	110.56
444.255	90.56
444.476	80.56
444.698	85.56
444.919	79.56
445.14	137.56
445.361	125.56
445.582	114.56
445.803	107.56
446.024	104.56
446.245	106.56
446.466	79.56
446.687	86.56
446.908	94.56
447.129	87.56
447.35	101.56
447.571	89.56
447.792	86.56
448.013	83.56
448.234	97.56
448.455	91.56
448.675	115.56
448.896	106.56
449.117	85.56
449.338	95.56
449.559	110.56
449.779	88.56
450	89.56
450.221	79.56
450.442	82.56
450.662	98.56
450.883	93.56
451.104	87.56
451.324	87.56
451.545	74.56
451.766	86.56
451.986	95.56
452.207	98.56
452.428	87.56
452.648	82.56
452.869	93.56
453.089	100.56
453.31	92.56
453.53	79.56
453.751	79.56
453.971	91.56
454.192	94.56
454.412	78.56
454.633	91.56
454.853	72.56
455.073	74.56
455.294	87.56
455.514	91.56
455.734	80.56
455.955	87.56
456.175	78.56
456.395	79.56
456.616	80.56
456.836	93.56
457.056	68.56
457.276	81.56
457.497	78.56
457.717	76.56
457.937	90.56
458.157	98.56
458.377	95.56
458.598	95.56
458.818	118.56
459.038	132.56
459.258	79.56
459.478	92.56
459.698	77.56
459.918	85.56
460.138	92.56
460.358	103.56
460.578	90.56
460.798	79.56
461.018	97.56
461.238	69.56
461.458	90.56
461.678	88.56
461.898	88.56
462.118	90.56
462.338	92.56
462.558	99.56
462.777	81.56
462.997	79.56
463.217	83.56
463.437	101.56
463.657	94.56
463.876	86.56
464.096	85.56
464.316	92.56
464.536	85.56
464.755	78.56
464.975	92.56
465.195	126.56
465.414	114.56
465.634	87.56
465.854	83.56
466.073	87.56
466.293	83.56
466.512	96.56
466.732	89.56
466.951	80.56
467.171	90.56
467.391	80.56
467.61	89.56
467.829	89.56
468.049	85.56
468.268	108.56
468.488	77.56
468.707	73.56
468.927	99.56
469.146	87.56
469.365	84.56
469.585	72.56
469.804	86.56
470.023	87.56
470.243	102.56
470.462	90.56
470.681	98.56
470.901	80.56
471.12	68.56
471.339	81.56
471.558	70.56
471.777	83.56
471.997	95.56
472.216	99.56
472.435	111.56
472.654	90.56
472.873	92.56
473.092	86.56
473.311	83.56
473.53	89.56
473.749	85.56
473.968	78.56
474.187	86.56
474.406	89.56
474.625	76.56
474.844	90.56
475.063	80.56
475.282	92.56
475.501	72.56
475.72	76.56
475.939	86.56
476.158	90.56
476.377	85.56
476.596	94.56
476.814	88.56
477.033	90.56
477.252	92.56
477.471	84.56
477.69	86.56
477.908	85.56
478.127	84.56
478.346	79.56
478.564	92.56
478.783	95.56
479.002	90.56
479.22	95.56
479.439	87.56
479.658	98.56
479.876	87.56
480.095	84.56
480.313	87.56
480.532	101.56
480.751	92.56
480.969	103.56
481.188	150.56
481.406	122.56
481.624	89.56
481.843	88.56
482.061	80.56
482.28	94.56
482.498	90.56
482.717	88.56
482.935	80.56
483.153	94.56
483.372	86.56
483.59	89.56
483.808	92.56
484.027	75.56
484.245	81.56
484.463	71.56
484.681	93.56
484.9	94.56
485.118	74.56
485.336	91.56
485.554	85.56
485.772	87.56
485.99	98.56
486.209	98.56
486.427	108.56
486.645	90.56
486.863	104.56
487.081	96.56
487.299	100.56
487.517	97.56
487.735	94.56
487.953	88.56
488.171	91.56
488.389	99.56
488.607	102.56
488.825	87.56
489.043	84.56
489.261	88.56
489.479	76.56
489.696	88.56
489.914	74.56
490.132	79.56
490.35	90.56
490.568	84.56
490.786	84.56
491.003	80.56
491.221	85.56
491.439	81.56
491.657	87.56
491.874	80.56
492.092	87.56
492.31	90.56
492.527	84.56
492.745	87.56
492.963	75.56
493.18	92.56
493.398	80.56
493.615	88.56
493.833	77.56
494.05	84.56
494.268	88.56
494.485	95.56
494.703	81.56
494.92	84.56
495.138	78.56
495.355	98.56
495.573	66.56
495.79	85.56
496.008	88.56
496.225	83.56
496.442	104.56
496.66	95.56
496.877	102.56
497.094	83.56
497.312	90.56
497.529	85.56
497.746	86.56
497.963	99.56
498.181	95.56
498.398	90.56
498.615	89.56
498.832	100.56
499.049	99.56
499.267	104.56
499.484	82.56
499.701	84.56
499.918	100.56
500.135	85.56
500.352	80.56
500.569	98.56
500.786	78.56
501.003	76.56
501.22	83.56
501.437	91.56
501.654	93.56
501.871	90.56
502.088	89.56
502.305	94.56
502.522	84.56
502.739	91.56
502.956	83.56
503.172	88.56
503.389	90.56
503.606	74.56
503.823	89.56
504.04	76.56
504.256	84.56
504.473	89.56
504.69	85.56
504.907	89.56
505.123	89.56
505.34	85.56
505.557	73.56
505.773	87.56
505.99	93.56
506.207	74.56
506.423	78.56
506.64	89.56
506.856	86.56
507.073	74.56
507.289	93.56
507.506	99.56
507.722	85.56
507.939	93.56
508.155	88.56
508.372	94.56
508.588	76.56
508.805	86.56
509.021	89.56
509.238	95.56
509.454	100.56
509.67	94.56
509.887	107.56
510.103	107.56
510.319	170.56
510.536	508.56
510.752	1556.56
510.968	468.56
511.184	141.56
511.401	99.56
511.617	82.56
511.833	97.56
512.049	89.56
512.265	90.56
512.481	84.56
512.698	90.56
512.914	77.56
513.13	85.56
513.346	79.56
513.562	89.56
513.778	83.56
513.994	81.56
514.21	91.56
514.426	104.56
514.642	117.56
514.858	98.56
515.074	134.56
515.29	303.56
515.506	880.56
515.721	351.56
515.937	122.56
516.153	96.56
516.369	89.56
516.585	80.56
516.801	80.56
517.016	83.56
517.232	87.56
517.448	80.56
517.664	72.56
