Data from Uncirc_2009_H10_HRD10591_00031.txt Node
Date: Wed Jan 03 10:12:08 EST 2024
User: Yrep
Spectrometer: HR+D1059
Trigger mode: 1
Integration Time (sec): 1.000000E-1
Scans to average: 1
Electric dark correction enabled: true
Nonlinearity correction enabled: false
Boxcar width: 0
XAxis mode: Wavelengths
Number of Pixels in Spectrum: 2048
>>>>>Begin Spectral Data<<<<<
223.165	-9.06
223.4	-9.06
223.635	-9.06
223.869	-9.06
224.104	-9.06
224.338	-22.06
224.573	-22.06
224.808	-9.06
225.042	-8.06
225.277	-8.06
225.511	-12.06
225.746	2.94
225.98	14.94
226.215	4.94
226.449	8.94
226.683	19.94
226.918	15.94
227.152	40.94
227.387	36.94
227.621	48.94
227.856	43.94
228.09	32.94
228.324	53.94
228.559	64.94
228.793	57.94
229.027	73.94
229.262	55.94
229.496	70.94
229.73	80.94
229.964	81.94
230.199	77.94
230.433	64.94
230.667	76.94
230.901	78.94
231.136	70.94
231.37	84.94
231.604	90.94
231.838	82.94
232.072	81.94
232.306	77.94
232.541	77.94
232.775	77.94
233.009	78.94
233.243	76.94
233.477	84.94
233.711	84.94
233.945	77.94
234.179	81.94
234.413	80.94
234.647	82.94
234.881	81.94
235.115	87.94
235.349	81.94
235.583	71.94
235.817	79.94
236.051	72.94
236.285	73.94
236.519	93.94
236.753	62.94
236.987	81.94
237.221	98.94
237.455	63.94
237.689	92.94
237.922	86.94
238.156	72.94
238.39	76.94
238.624	64.94
238.858	77.94
239.091	76.94
239.325	76.94
239.559	87.94
239.793	74.94
240.027	82.94
240.26	68.94
240.494	68.94
240.728	70.94
240.961	79.94
241.195	83.94
241.429	81.94
241.662	80.94
241.896	78.94
242.13	82.94
242.363	78.94
242.597	58.94
242.83	82.94
243.064	76.94
243.298	76.94
243.531	72.94
243.765	66.94
243.998	65.94
244.232	76.94
244.465	80.94
244.699	76.94
244.932	68.94
245.166	79.94
245.399	57.94
245.633	83.94
245.866	82.94
246.099	67.94
246.333	80.94
246.566	81.94
246.8	91.94
247.033	83.94
247.266	88.94
247.5	68.94
247.733	67.94
247.966	81.94
248.2	88.94
248.433	72.94
248.666	77.94
248.899	84.94
249.133	98.94
249.366	96.94
249.599	89.94
249.832	89.94
250.066	89.94
250.299	79.94
250.532	75.94
250.765	84.94
250.998	71.94
251.231	76.94
251.465	79.94
251.698	81.94
251.931	73.94
252.164	81.94
252.397	73.94
252.63	72.94
252.863	79.94
253.096	82.94
253.329	78.94
253.562	78.94
253.795	81.94
254.028	81.94
254.261	87.94
254.494	86.94
254.727	91.94
254.96	86.94
255.193	73.94
255.426	77.94
255.659	80.94
255.892	69.94
256.124	67.94
256.357	82.94
256.59	79.94
256.823	71.94
257.056	64.94
257.289	57.94
257.521	96.94
257.754	77.94
257.987	73.94
258.22	79.94
258.452	94.94
258.685	89.94
258.918	83.94
259.151	83.94
259.383	92.94
259.616	85.94
259.849	80.94
260.081	68.94
260.314	89.94
260.547	74.94
260.779	91.94
261.012	94.94
261.244	90.94
261.477	95.94
261.71	80.94
261.942	93.94
262.175	104.94
262.407	74.94
262.64	78.94
262.872	89.94
263.105	90.94
263.337	70.94
263.57	79.94
263.802	91.94
264.035	76.94
264.267	83.94
264.499	94.94
264.732	86.94
264.964	86.94
265.197	92.94
265.429	78.94
265.661	74.94
265.894	83.94
266.126	68.94
266.358	85.94
266.591	97.94
266.823	78.94
267.055	78.94
267.287	81.94
267.52	78.94
267.752	77.94
267.984	85.94
268.216	80.94
268.448	84.94
268.681	69.94
268.913	85.94
269.145	86.94
269.377	80.94
269.609	75.94
269.841	74.94
270.073	85.94
270.306	76.94
270.538	87.94
270.77	94.94
271.002	89.94
271.234	74.94
271.466	94.94
271.698	76.94
271.93	86.94
272.162	84.94
272.394	92.94
272.626	80.94
272.858	87.94
273.09	91.94
273.322	93.94
273.553	71.94
273.785	93.94
274.017	96.94
274.249	82.94
274.481	93.94
274.713	79.94
274.945	79.94
275.176	87.94
275.408	74.94
275.64	74.94
275.872	77.94
276.104	90.94
276.335	86.94
276.567	92.94
276.799	85.94
277.031	104.94
277.262	86.94
277.494	95.94
277.726	82.94
277.957	91.94
278.189	85.94
278.421	85.94
278.652	101.94
278.884	84.94
279.115	89.94
279.347	87.94
279.579	97.94
279.81	85.94
280.042	83.94
280.273	91.94
280.505	85.94
280.736	86.94
280.968	81.94
281.199	72.94
281.431	73.94
281.662	77.94
281.894	84.94
282.125	100.94
282.356	111.94
282.588	125.94
282.819	103.94
283.051	76.94
283.282	83.94
283.513	99.94
283.745	99.94
283.976	78.94
284.207	94.94
284.439	91.94
284.67	89.94
284.901	88.94
285.132	101.94
285.364	72.94
285.595	96.94
285.826	96.94
286.057	89.94
286.288	91.94
286.52	102.94
286.751	81.94
286.982	89.94
287.213	90.94
287.444	80.94
287.675	95.94
287.906	86.94
288.138	93.94
288.369	67.94
288.6	84.94
288.831	88.94
289.062	91.94
289.293	89.94
289.524	82.94
289.755	73.94
289.986	92.94
290.217	82.94
290.448	84.94
290.679	72.94
290.91	74.94
291.141	65.94
291.371	81.94
291.602	72.94
291.833	82.94
292.064	93.94
292.295	83.94
292.526	84.94
292.757	88.94
292.987	86.94
293.218	81.94
293.449	95.94
293.68	101.94
293.91	79.94
294.141	103.94
294.372	87.94
294.603	102.94
294.833	74.94
295.064	81.94
295.295	82.94
295.525	84.94
295.756	94.94
295.987	103.94
296.217	126.94
296.448	92.94
296.679	81.94
296.909	86.94
297.14	79.94
297.37	79.94
297.601	100.94
297.831	91.94
298.062	90.94
298.292	88.94
298.523	91.94
298.753	88.94
298.984	86.94
299.214	80.94
299.445	84.94
299.675	79.94
299.905	96.94
300.136	86.94
300.366	91.94
300.597	101.94
300.827	97.94
301.057	97.94
301.288	99.94
301.518	99.94
301.748	93.94
301.979	97.94
302.209	89.94
302.439	85.94
302.669	84.94
302.9	93.94
303.13	91.94
303.36	93.94
303.59	117.94
303.82	100.94
304.051	101.94
304.281	83.94
304.511	85.94
304.741	82.94
304.971	82.94
305.201	80.94
305.431	80.94
305.661	90.94
305.891	93.94
306.121	86.94
306.352	88.94
306.582	93.94
306.812	87.94
307.042	75.94
307.272	92.94
307.502	81.94
307.731	96.94
307.961	83.94
308.191	89.94
308.421	91.94
308.651	96.94
308.881	90.94
309.111	99.94
309.341	92.94
309.571	93.94
309.8	95.94
310.03	85.94
310.26	95.94
310.49	90.94
310.72	96.94
310.949	90.94
311.179	89.94
311.409	97.94
311.639	102.94
311.868	80.94
312.098	107.94
312.328	90.94
312.557	100.94
312.787	100.94
313.017	89.94
313.246	75.94
313.476	89.94
313.706	97.94
313.935	95.94
314.165	94.94
314.394	109.94
314.624	97.94
314.853	95.94
315.083	85.94
315.312	85.94
315.542	78.94
315.771	91.94
316.001	86.94
316.23	89.94
316.46	83.94
316.689	90.94
316.919	100.94
317.148	92.94
317.377	86.94
317.607	121.94
317.836	89.94
318.065	78.94
318.295	88.94
318.524	86.94
318.753	95.94
318.983	97.94
319.212	88.94
319.441	102.94
319.67	104.94
319.9	98.94
320.129	86.94
320.358	94.94
320.587	89.94
320.816	92.94
321.046	92.94
321.275	91.94
321.504	81.94
321.733	92.94
321.962	95.94
322.191	102.94
322.42	105.94
322.649	108.94
322.878	109.94
323.108	113.94
323.337	108.94
323.566	119.94
323.795	151.94
324.024	189.94
324.253	347.94
324.482	720.94
324.71	1434.94
324.939	1897.94
325.168	686.94
325.397	214.94
325.626	142.94
325.855	124.94
326.084	124.94
326.313	152.94
326.542	178.94
326.77	214.94
326.999	411.94
327.228	858.94
327.457	1492.94
327.686	1167.94
327.914	308.94
328.143	166.94
328.372	132.94
328.6	98.94
328.829	104.94
329.058	112.94
329.287	118.94
329.515	107.94
329.744	91.94
329.972	99.94
330.201	114.94
330.43	108.94
330.658	110.94
330.887	118.94
331.115	95.94
331.344	86.94
331.572	103.94
331.801	92.94
332.03	106.94
332.258	86.94
332.486	92.94
332.715	93.94
332.943	81.94
333.172	91.94
333.4	101.94
333.629	107.94
333.857	100.94
334.085	101.94
334.314	111.94
334.542	117.94
334.771	122.94
334.999	92.94
335.227	98.94
335.455	96.94
335.684	95.94
335.912	98.94
336.14	106.94
336.369	79.94
336.597	108.94
336.825	88.94
337.053	94.94
337.281	88.94
337.51	92.94
337.738	91.94
337.966	95.94
338.194	104.94
338.422	101.94
338.65	95.94
338.878	94.94
339.106	106.94
339.334	88.94
339.562	93.94
339.79	82.94
340.018	103.94
340.246	89.94
340.474	108.94
340.702	95.94
340.93	81.94
341.158	78.94
341.386	89.94
341.614	95.94
341.842	101.94
342.07	113.94
342.298	90.94
342.526	84.94
342.754	88.94
342.981	81.94
343.209	80.94
343.437	88.94
343.665	90.94
343.893	93.94
344.12	97.94
344.348	80.94
344.576	102.94
344.804	91.94
345.031	88.94
345.259	97.94
345.487	93.94
345.714	89.94
345.942	98.94
346.17	101.94
346.397	91.94
346.625	79.94
346.853	87.94
347.08	91.94
347.308	82.94
347.535	82.94
347.763	96.94
347.99	92.94
348.218	91.94
348.445	85.94
348.673	94.94
348.9	90.94
349.128	91.94
349.355	94.94
349.583	97.94
349.81	77.94
350.037	97.94
350.265	86.94
350.492	87.94
350.72	104.94
350.947	100.94
351.174	107.94
351.402	101.94
351.629	94.94
351.856	96.94
352.083	102.94
352.311	91.94
352.538	99.94
352.765	97.94
352.992	106.94
353.22	106.94
353.447	104.94
353.674	91.94
353.901	86.94
354.128	104.94
354.355	100.94
354.583	96.94
354.81	94.94
355.037	77.94
355.264	90.94
355.491	79.94
355.718	85.94
355.945	91.94
356.172	93.94
356.399	74.94
356.626	92.94
356.853	94.94
357.08	94.94
357.307	89.94
357.534	86.94
357.761	111.94
357.988	76.94
358.215	71.94
358.441	75.94
358.668	92.94
358.895	71.94
359.122	76.94
359.349	108.94
359.576	99.94
359.802	100.94
360.029	94.94
360.256	96.94
360.483	87.94
360.709	93.94
360.936	87.94
361.163	92.94
361.39	79.94
361.616	101.94
361.843	93.94
362.07	101.94
362.296	97.94
362.523	90.94
362.749	98.94
362.976	79.94
363.203	91.94
363.429	89.94
363.656	92.94
363.882	81.94
364.109	85.94
364.335	103.94
364.562	78.94
364.788	90.94
365.015	94.94
365.241	88.94
365.468	101.94
365.694	119.94
365.92	96.94
366.147	85.94
366.373	94.94
366.599	88.94
366.826	100.94
367.052	94.94
367.278	80.94
367.505	76.94
367.731	94.94
367.957	77.94
368.184	95.94
368.41	99.94
368.636	100.94
368.862	103.94
369.089	96.94
369.315	86.94
369.541	78.94
369.767	98.94
369.993	83.94
370.219	88.94
370.445	87.94
370.672	85.94
370.898	81.94
371.124	92.94
371.35	95.94
371.576	83.94
371.802	82.94
372.028	81.94
372.254	85.94
372.48	81.94
372.706	100.94
372.932	102.94
373.158	85.94
373.384	90.94
373.61	81.94
373.835	79.94
374.061	82.94
374.287	75.94
374.513	88.94
374.739	96.94
374.965	92.94
375.191	72.94
375.416	82.94
375.642	79.94
375.868	88.94
376.094	96.94
376.319	92.94
376.545	79.94
376.771	83.94
376.997	90.94
377.222	93.94
377.448	87.94
377.674	81.94
377.899	80.94
378.125	90.94
378.35	95.94
378.576	83.94
378.802	85.94
379.027	84.94
379.253	91.94
379.478	91.94
379.704	84.94
379.929	89.94
380.155	102.94
380.38	97.94
380.606	98.94
380.831	77.94
381.057	109.94
381.282	90.94
381.507	95.94
381.733	106.94
381.958	86.94
382.184	93.94
382.409	91.94
382.634	105.94
382.86	96.94
383.085	110.94
383.31	96.94
383.535	95.94
383.761	116.94
383.986	103.94
384.211	95.94
384.436	93.94
384.662	101.94
384.887	113.94
385.112	106.94
385.337	105.94
385.562	102.94
385.787	109.94
386.013	116.94
386.238	123.94
386.463	114.94
386.688	117.94
386.913	95.94
387.138	102.94
387.363	104.94
387.588	89.94
387.813	109.94
388.038	95.94
388.263	110.94
388.488	106.94
388.713	102.94
388.938	84.94
389.163	90.94
389.387	85.94
389.612	72.94
389.837	81.94
390.062	96.94
390.287	99.94
390.512	101.94
390.736	90.94
390.961	82.94
391.186	89.94
391.411	97.94
391.636	79.94
391.86	89.94
392.085	103.94
392.31	89.94
392.534	75.94
392.759	90.94
392.984	77.94
393.208	90.94
393.433	87.94
393.658	88.94
393.882	67.94
394.107	81.94
394.331	92.94
394.556	74.94
394.78	88.94
395.005	102.94
395.229	77.94
395.454	88.94
395.678	81.94
395.903	94.94
396.127	94.94
396.352	87.94
396.576	92.94
396.801	91.94
397.025	86.94
397.249	71.94
397.474	81.94
397.698	82.94
397.922	90.94
398.147	94.94
398.371	85.94
398.595	73.94
398.82	87.94
399.044	97.94
399.268	87.94
399.492	98.94
399.717	93.94
399.941	79.94
400.165	90.94
400.389	94.94
400.613	89.94
400.837	95.94
401.062	106.94
401.286	91.94
401.51	90.94
401.734	87.94
401.958	90.94
402.182	123.94
402.406	129.94
402.63	118.94
402.854	86.94
403.078	94.94
403.302	87.94
403.526	72.94
403.75	94.94
403.974	95.94
404.198	80.94
404.422	82.94
404.645	103.94
404.869	84.94
405.093	93.94
405.317	87.94
405.541	106.94
405.765	101.94
405.988	126.94
406.212	145.94
406.436	167.94
406.66	123.94
406.883	101.94
407.107	84.94
407.331	87.94
407.555	87.94
407.778	93.94
408.002	80.94
408.226	81.94
408.449	97.94
408.673	84.94
408.896	86.94
409.12	89.94
409.344	95.94
409.567	91.94
409.791	76.94
410.014	100.94
410.238	96.94
410.461	75.94
410.685	95.94
410.908	97.94
411.132	110.94
411.355	89.94
411.578	105.94
411.802	88.94
412.025	107.94
412.249	82.94
412.472	97.94
412.695	97.94
412.919	87.94
413.142	88.94
413.365	96.94
413.589	98.94
413.812	92.94
414.035	87.94
414.258	87.94
414.482	88.94
414.705	81.94
414.928	89.94
415.151	89.94
415.374	106.94
415.597	93.94
415.821	84.94
416.044	93.94
416.267	85.94
416.49	85.94
416.713	90.94
416.936	82.94
417.159	83.94
417.382	83.94
417.605	93.94
417.828	84.94
418.051	99.94
418.274	83.94
418.497	96.94
418.72	100.94
418.943	73.94
419.166	82.94
419.389	87.94
419.611	91.94
419.834	78.94
420.057	108.94
420.28	84.94
420.503	74.94
420.726	81.94
420.948	73.94
421.171	92.94
421.394	84.94
421.617	107.94
421.839	91.94
422.062	83.94
422.285	100.94
422.507	102.94
422.73	96.94
422.953	95.94
423.175	86.94
423.398	86.94
423.621	89.94
423.843	88.94
424.066	91.94
424.288	100.94
424.511	79.94
424.733	95.94
424.956	96.94
425.178	90.94
425.401	100.94
425.623	88.94
425.846	89.94
426.068	80.94
426.291	88.94
426.513	78.94
426.735	89.94
426.958	86.94
427.18	110.94
427.402	122.94
427.625	147.94
427.847	111.94
428.069	92.94
428.292	105.94
428.514	80.94
428.736	90.94
428.958	81.94
429.181	79.94
429.403	84.94
429.625	83.94
429.847	93.94
430.069	87.94
430.292	89.94
430.514	91.94
430.736	78.94
430.958	75.94
431.18	92.94
431.402	94.94
431.624	95.94
431.846	89.94
432.068	73.94
432.29	88.94
432.512	99.94
432.734	87.94
432.956	95.94
433.178	102.94
433.4	108.94
433.622	98.94
433.844	97.94
434.066	94.94
434.287	99.94
434.509	82.94
434.731	90.94
434.953	87.94
435.175	102.94
435.397	103.94
435.618	87.94
435.84	85.94
436.062	110.94
436.284	108.94
436.505	89.94
436.727	101.94
436.949	85.94
437.17	97.94
437.392	92.94
437.614	76.94
437.835	88.94
438.057	112.94
438.278	101.94
438.5	97.94
438.721	106.94
438.943	92.94
439.165	101.94
439.386	90.94
439.608	84.94
439.829	92.94
440.05	94.94
440.272	122.94
440.493	90.94
440.715	86.94
440.936	91.94
441.158	97.94
441.379	84.94
441.6	78.94
441.822	100.94
442.043	89.94
442.264	88.94
442.486	92.94
442.707	84.94
442.928	105.94
443.149	108.94
443.371	108.94
443.592	117.94
443.813	116.94
444.034	107.94
444.255	85.94
444.476	90.94
444.698	88.94
444.919	90.94
445.14	122.94
445.361	112.94
445.582	105.94
445.803	111.94
446.024	116.94
446.245	121.94
446.466	102.94
446.687	88.94
446.908	87.94
447.129	80.94
447.35	77.94
447.571	80.94
447.792	102.94
448.013	88.94
448.234	101.94
448.455	90.94
448.675	103.94
448.896	101.94
449.117	84.94
449.338	100.94
449.559	109.94
449.779	123.94
450	80.94
450.221	90.94
450.442	82.94
450.662	84.94
450.883	103.94
451.104	110.94
451.324	94.94
451.545	92.94
451.766	87.94
451.986	91.94
452.207	88.94
452.428	93.94
452.648	84.94
452.869	105.94
453.089	104.94
453.31	113.94
453.53	84.94
453.751	83.94
453.971	97.94
454.192	104.94
454.412	75.94
454.633	82.94
454.853	96.94
455.073	81.94
455.294	97.94
455.514	97.94
455.734	82.94
455.955	83.94
456.175	93.94
456.395	94.94
456.616	89.94
456.836	70.94
457.056	77.94
457.276	72.94
457.497	72.94
457.717	75.94
457.937	87.94
458.157	89.94
458.377	101.94
458.598	93.94
458.818	127.94
459.038	135.94
459.258	109.94
459.478	88.94
459.698	68.94
459.918	106.94
460.138	93.94
460.358	80.94
460.578	81.94
460.798	85.94
461.018	80.94
461.238	95.94
461.458	72.94
461.678	78.94
461.898	77.94
462.118	81.94
462.338	91.94
462.558	101.94
462.777	87.94
462.997	88.94
463.217	83.94
463.437	66.94
463.657	79.94
463.876	86.94
464.096	89.94
464.316	92.94
464.536	92.94
464.755	97.94
464.975	101.94
465.195	138.94
465.414	121.94
465.634	109.94
465.854	79.94
466.073	90.94
466.293	93.94
466.512	82.94
466.732	73.94
466.951	82.94
467.171	86.94
467.391	98.94
467.61	88.94
467.829	96.94
468.049	96.94
468.268	95.94
468.488	85.94
468.707	90.94
468.927	92.94
469.146	93.94
469.365	83.94
469.585	75.94
469.804	83.94
470.023	93.94
470.243	87.94
470.462	97.94
470.681	89.94
470.901	83.94
471.12	93.94
471.339	87.94
471.558	80.94
471.777	87.94
471.997	91.94
472.216	99.94
472.435	120.94
472.654	102.94
472.873	84.94
473.092	95.94
473.311	90.94
473.53	82.94
473.749	97.94
473.968	94.94
474.187	92.94
474.406	89.94
474.625	79.94
474.844	96.94
475.063	73.94
475.282	104.94
475.501	93.94
475.72	102.94
475.939	80.94
476.158	69.94
476.377	86.94
476.596	82.94
476.814	77.94
477.033	79.94
477.252	80.94
477.471	62.94
477.69	97.94
477.908	89.94
478.127	95.94
478.346	95.94
478.564	88.94
478.783	92.94
479.002	80.94
479.22	92.94
479.439	90.94
479.658	100.94
479.876	97.94
480.095	87.94
480.313	81.94
480.532	86.94
480.751	81.94
480.969	107.94
481.188	156.94
481.406	123.94
481.624	93.94
481.843	86.94
482.061	81.94
482.28	89.94
482.498	75.94
482.717	77.94
482.935	90.94
483.153	82.94
483.372	91.94
483.59	78.94
483.808	91.94
484.027	97.94
484.245	89.94
484.463	89.94
484.681	110.94
484.9	91.94
485.118	93.94
485.336	78.94
485.554	87.94
485.772	101.94
485.99	89.94
486.209	104.94
486.427	88.94
486.645	114.94
486.863	80.94
487.081	94.94
487.299	107.94
487.517	96.94
487.735	96.94
487.953	89.94
488.171	96.94
488.389	89.94
488.607	90.94
488.825	80.94
489.043	88.94
489.261	96.94
489.479	83.94
489.696	90.94
489.914	78.94
490.132	87.94
490.35	84.94
490.568	95.94
490.786	78.94
491.003	96.94
491.221	94.94
491.439	90.94
491.657	81.94
491.874	82.94
492.092	91.94
492.31	94.94
492.527	88.94
492.745	86.94
492.963	97.94
493.18	82.94
493.398	82.94
493.615	109.94
493.833	100.94
494.05	92.94
494.268	92.94
494.485	90.94
494.703	75.94
494.92	72.94
495.138	85.94
495.355	81.94
495.573	99.94
495.79	94.94
496.008	80.94
496.225	95.94
496.442	90.94
496.66	84.94
496.877	93.94
497.094	104.94
497.312	86.94
497.529	81.94
497.746	90.94
497.963	85.94
498.181	92.94
498.398	92.94
498.615	106.94
498.832	87.94
499.049	108.94
499.267	80.94
499.484	88.94
499.701	93.94
499.918	98.94
500.135	84.94
500.352	98.94
500.569	93.94
500.786	88.94
501.003	103.94
501.22	97.94
501.437	86.94
501.654	90.94
501.871	102.94
502.088	102.94
502.305	102.94
502.522	96.94
502.739	78.94
502.956	85.94
503.172	96.94
503.389	98.94
503.606	85.94
503.823	108.94
504.04	92.94
504.256	91.94
504.473	115.94
504.69	87.94
504.907	89.94
505.123	85.94
505.34	87.94
505.557	74.94
505.773	76.94
505.99	91.94
506.207	96.94
506.423	99.94
506.64	89.94
506.856	77.94
507.073	80.94
507.289	97.94
507.506	88.94
507.722	98.94
507.939	103.94
508.155	89.94
508.372	87.94
508.588	96.94
508.805	88.94
509.021	96.94
509.238	99.94
509.454	97.94
509.67	95.94
509.887	92.94
510.103	118.94
510.319	176.94
510.536	593.94
510.752	1807.94
510.968	518.94
511.184	135.94
511.401	104.94
511.617	100.94
511.833	86.94
512.049	84.94
512.265	80.94
512.481	91.94
512.698	88.94
512.914	88.94
513.13	84.94
513.346	92.94
513.562	98.94
513.778	97.94
513.994	89.94
514.21	87.94
514.426	110.94
514.642	132.94
514.858	93.94
515.074	157.94
515.29	319.94
515.506	1032.94
515.721	401.94
515.937	139.94
516.153	90.94
516.369	88.94
516.585	90.94
