Data from Uncirc_2009_H10_HRD10591_00091.txt Node
Date: Wed Jan 03 10:12:20 EST 2024
User: Yrep
Spectrometer: HR+D1059
Trigger mode: 1
Integration Time (sec): 1.000000E-1
Scans to average: 1
Electric dark correction enabled: true
Nonlinearity correction enabled: false
Boxcar width: 0
XAxis mode: Wavelengths
Number of Pixels in Spectrum: 2048
>>>>>Begin Spectral Data<<<<<
223.165	-7.69
223.4	-7.69
223.635	-7.69
223.869	-18.69
224.104	-14.69
224.338	-26.69
224.573	-16.69
224.808	-21.69
225.042	3.31
225.277	3.31
225.511	-18.69
225.746	-15.69
225.98	10.31
226.215	13.31
226.449	18.31
226.683	18.31
226.918	24.31
227.152	49.31
227.387	46.31
227.621	50.31
227.856	51.31
228.09	41.31
228.324	51.31
228.559	79.31
228.793	59.31
229.027	74.31
229.262	64.31
229.496	71.31
229.73	69.31
229.964	75.31
230.199	78.31
230.433	82.31
230.667	82.31
230.901	72.31
231.136	76.31
231.37	84.31
231.604	84.31
231.838	80.31
232.072	80.31
232.306	87.31
232.541	91.31
232.775	87.31
233.009	94.31
233.243	85.31
233.477	88.31
233.711	68.31
233.945	76.31
234.179	75.31
234.413	88.31
234.647	81.31
234.881	87.31
235.115	102.31
235.349	95.31
235.583	85.31
235.817	72.31
236.051	80.31
236.285	71.31
236.519	83.31
236.753	77.31
236.987	81.31
237.221	81.31
237.455	68.31
237.689	82.31
237.922	89.31
238.156	83.31
238.39	80.31
238.624	89.31
238.858	87.31
239.091	80.31
239.325	98.31
239.559	87.31
239.793	80.31
240.027	72.31
240.26	83.31
240.494	86.31
240.728	76.31
240.961	71.31
241.195	85.31
241.429	89.31
241.662	83.31
241.896	73.31
242.13	89.31
242.363	85.31
242.597	92.31
242.83	82.31
243.064	80.31
243.298	94.31
243.531	75.31
243.765	87.31
243.998	83.31
244.232	80.31
244.465	87.31
244.699	73.31
244.932	88.31
245.166	89.31
245.399	89.31
245.633	82.31
245.866	76.31
246.099	91.31
246.333	80.31
246.566	81.31
246.8	83.31
247.033	64.31
247.266	80.31
247.5	84.31
247.733	75.31
247.966	86.31
248.2	86.31
248.433	81.31
248.666	81.31
248.899	92.31
249.133	79.31
249.366	100.31
249.599	93.31
249.832	83.31
250.066	92.31
250.299	80.31
250.532	76.31
250.765	76.31
250.998	77.31
251.231	81.31
251.465	90.31
251.698	93.31
251.931	73.31
252.164	87.31
252.397	91.31
252.63	71.31
252.863	62.31
253.096	80.31
253.329	93.31
253.562	85.31
253.795	91.31
254.028	95.31
254.261	78.31
254.494	75.31
254.727	81.31
254.96	85.31
255.193	88.31
255.426	76.31
255.659	83.31
255.892	90.31
256.124	93.31
256.357	82.31
256.59	80.31
256.823	96.31
257.056	83.31
257.289	81.31
257.521	91.31
257.754	90.31
257.987	93.31
258.22	85.31
258.452	82.31
258.685	79.31
258.918	93.31
259.151	80.31
259.383	94.31
259.616	75.31
259.849	86.31
260.081	69.31
260.314	73.31
260.547	84.31
260.779	88.31
261.012	87.31
261.244	86.31
261.477	89.31
261.71	81.31
261.942	91.31
262.175	106.31
262.407	96.31
262.64	90.31
262.872	79.31
263.105	68.31
263.337	69.31
263.57	86.31
263.802	75.31
264.035	77.31
264.267	83.31
264.499	98.31
264.732	93.31
264.964	98.31
265.197	93.31
265.429	75.31
265.661	79.31
265.894	80.31
266.126	89.31
266.358	83.31
266.591	90.31
266.823	88.31
267.055	87.31
267.287	72.31
267.52	96.31
267.752	95.31
267.984	103.31
268.216	85.31
268.448	91.31
268.681	100.31
268.913	77.31
269.145	83.31
269.377	90.31
269.609	85.31
269.841	77.31
270.073	89.31
270.306	80.31
270.538	89.31
270.77	100.31
271.002	77.31
271.234	80.31
271.466	87.31
271.698	88.31
271.93	96.31
272.162	90.31
272.394	96.31
272.626	87.31
272.858	83.31
273.09	95.31
273.322	84.31
273.553	84.31
273.785	88.31
274.017	59.31
274.249	94.31
274.481	88.31
274.713	84.31
274.945	91.31
275.176	91.31
275.408	85.31
275.64	83.31
275.872	91.31
276.104	93.31
276.335	90.31
276.567	98.31
276.799	107.31
277.031	91.31
277.262	105.31
277.494	91.31
277.726	93.31
277.957	78.31
278.189	85.31
278.421	76.31
278.652	80.31
278.884	97.31
279.115	89.31
279.347	97.31
279.579	83.31
279.81	87.31
280.042	105.31
280.273	79.31
280.505	89.31
280.736	84.31
280.968	85.31
281.199	96.31
281.431	96.31
281.662	102.31
281.894	92.31
282.125	93.31
282.356	97.31
282.588	107.31
282.819	102.31
283.051	90.31
283.282	85.31
283.513	84.31
283.745	97.31
283.976	96.31
284.207	103.31
284.439	99.31
284.67	93.31
284.901	90.31
285.132	76.31
285.364	81.31
285.595	85.31
285.826	83.31
286.057	85.31
286.288	93.31
286.52	111.31
286.751	95.31
286.982	91.31
287.213	105.31
287.444	89.31
287.675	89.31
287.906	94.31
288.138	98.31
288.369	85.31
288.6	75.31
288.831	95.31
289.062	90.31
289.293	100.31
289.524	100.31
289.755	80.31
289.986	95.31
290.217	89.31
290.448	71.31
290.679	95.31
290.91	100.31
291.141	84.31
291.371	101.31
291.602	99.31
291.833	91.31
292.064	88.31
292.295	82.31
292.526	92.31
292.757	92.31
292.987	88.31
293.218	98.31
293.449	87.31
293.68	76.31
293.91	84.31
294.141	85.31
294.372	91.31
294.603	95.31
294.833	100.31
295.064	97.31
295.295	95.31
295.525	77.31
295.756	95.31
295.987	112.31
296.217	112.31
296.448	107.31
296.679	96.31
296.909	74.31
297.14	92.31
297.37	98.31
297.601	95.31
297.831	99.31
298.062	97.31
298.292	88.31
298.523	92.31
298.753	95.31
298.984	95.31
299.214	93.31
299.445	93.31
299.675	83.31
299.905	103.31
300.136	85.31
300.366	93.31
300.597	92.31
300.827	95.31
301.057	101.31
301.288	95.31
301.518	96.31
301.748	95.31
301.979	103.31
302.209	99.31
302.439	86.31
302.669	99.31
302.9	86.31
303.13	108.31
303.36	99.31
303.59	118.31
303.82	98.31
304.051	88.31
304.281	90.31
304.511	92.31
304.741	93.31
304.971	88.31
305.201	93.31
305.431	102.31
305.661	98.31
305.891	92.31
306.121	93.31
306.352	104.31
306.582	86.31
306.812	76.31
307.042	98.31
307.272	100.31
307.502	100.31
307.731	106.31
307.961	95.31
308.191	87.31
308.421	95.31
308.651	85.31
308.881	93.31
309.111	92.31
309.341	96.31
309.571	100.31
309.8	91.31
310.03	92.31
310.26	95.31
310.49	109.31
310.72	87.31
310.949	110.31
311.179	90.31
311.409	94.31
311.639	93.31
311.868	84.31
312.098	98.31
312.328	96.31
312.557	100.31
312.787	112.31
313.017	104.31
313.246	99.31
313.476	104.31
313.706	89.31
313.935	108.31
314.165	88.31
314.394	101.31
314.624	104.31
314.853	98.31
315.083	98.31
315.312	97.31
315.542	94.31
315.771	81.31
316.001	95.31
316.23	96.31
316.46	109.31
316.689	97.31
316.919	95.31
317.148	102.31
317.377	108.31
317.607	129.31
317.836	99.31
318.065	95.31
318.295	105.31
318.524	83.31
318.753	84.31
318.983	90.31
319.212	108.31
319.441	101.31
319.67	85.31
319.9	78.31
320.129	85.31
320.358	96.31
320.587	92.31
320.816	90.31
321.046	92.31
321.275	98.31
321.504	96.31
321.733	103.31
321.962	85.31
322.191	90.31
322.42	90.31
322.649	95.31
322.878	104.31
323.108	107.31
323.337	103.31
323.566	113.31
323.795	153.31
324.024	186.31
324.253	315.31
324.482	653.31
324.71	1338.31
324.939	1727.31
325.168	669.31
325.397	222.31
325.626	139.31
325.855	126.31
326.084	134.31
326.313	144.31
326.542	152.31
326.77	216.31
326.999	402.31
327.228	778.31
327.457	1388.31
327.686	1096.31
327.914	304.31
328.143	147.31
328.372	133.31
328.6	117.31
328.829	101.31
329.058	107.31
329.287	100.31
329.515	108.31
329.744	109.31
329.972	107.31
330.201	96.31
330.43	103.31
330.658	109.31
330.887	107.31
331.115	114.31
331.344	99.31
331.572	102.31
331.801	106.31
332.03	105.31
332.258	106.31
332.486	90.31
332.715	95.31
332.943	103.31
333.172	96.31
333.4	87.31
333.629	105.31
333.857	107.31
334.085	113.31
334.314	108.31
334.542	119.31
334.771	121.31
334.999	98.31
335.227	87.31
335.455	98.31
335.684	97.31
335.912	96.31
336.14	99.31
336.369	88.31
336.597	96.31
336.825	87.31
337.053	87.31
337.281	105.31
337.51	96.31
337.738	101.31
337.966	100.31
338.194	92.31
338.422	102.31
338.65	84.31
338.878	98.31
339.106	79.31
339.334	90.31
339.562	79.31
339.79	93.31
340.018	90.31
340.246	73.31
340.474	81.31
340.702	106.31
340.93	85.31
341.158	91.31
341.386	99.31
341.614	88.31
341.842	82.31
342.07	90.31
342.298	87.31
342.526	100.31
342.754	90.31
342.981	89.31
343.209	85.31
343.437	100.31
343.665	85.31
343.893	88.31
344.12	95.31
344.348	112.31
344.576	93.31
344.804	91.31
345.031	103.31
345.259	92.31
345.487	90.31
345.714	94.31
345.942	92.31
346.17	84.31
346.397	85.31
346.625	93.31
346.853	94.31
347.08	84.31
347.308	98.31
347.535	105.31
347.763	108.31
347.99	97.31
348.218	112.31
348.445	109.31
348.673	101.31
348.9	93.31
349.128	93.31
349.355	95.31
349.583	85.31
349.81	96.31
350.037	89.31
350.265	103.31
350.492	94.31
350.72	104.31
350.947	84.31
351.174	99.31
351.402	97.31
351.629	95.31
351.856	105.31
352.083	104.31
352.311	101.31
352.538	106.31
352.765	110.31
352.992	105.31
353.22	112.31
353.447	85.31
353.674	106.31
353.901	94.31
354.128	100.31
354.355	91.31
354.583	99.31
354.81	88.31
355.037	85.31
355.264	97.31
355.491	101.31
355.718	82.31
355.945	100.31
356.172	98.31
356.399	113.31
356.626	78.31
356.853	91.31
357.08	94.31
357.307	111.31
357.534	75.31
357.761	85.31
357.988	96.31
358.215	114.31
358.441	100.31
358.668	89.31
358.895	93.31
359.122	92.31
359.349	83.31
359.576	88.31
359.802	103.31
360.029	94.31
360.256	106.31
360.483	97.31
360.709	74.31
360.936	105.31
361.163	96.31
361.39	94.31
361.616	95.31
361.843	95.31
362.07	93.31
362.296	117.31
362.523	78.31
362.749	89.31
362.976	84.31
363.203	84.31
363.429	83.31
363.656	108.31
363.882	90.31
364.109	89.31
364.335	98.31
364.562	83.31
364.788	94.31
365.015	94.31
365.241	91.31
365.468	99.31
365.694	105.31
365.92	96.31
366.147	86.31
366.373	98.31
366.599	93.31
366.826	96.31
367.052	92.31
367.278	91.31
367.505	99.31
367.731	97.31
367.957	89.31
368.184	96.31
368.41	100.31
368.636	100.31
368.862	98.31
369.089	90.31
369.315	96.31
369.541	92.31
369.767	95.31
369.993	96.31
370.219	104.31
370.445	88.31
370.672	91.31
370.898	89.31
371.124	89.31
371.35	90.31
371.576	97.31
371.802	90.31
372.028	108.31
372.254	91.31
372.48	90.31
372.706	90.31
372.932	95.31
373.158	94.31
373.384	100.31
373.61	91.31
373.835	105.31
374.061	91.31
374.287	75.31
374.513	96.31
374.739	91.31
374.965	92.31
375.191	91.31
375.416	90.31
375.642	91.31
375.868	82.31
376.094	89.31
376.319	100.31
376.545	102.31
376.771	98.31
376.997	96.31
377.222	100.31
377.448	86.31
377.674	98.31
377.899	91.31
378.125	97.31
378.35	72.31
378.576	91.31
378.802	89.31
379.027	93.31
379.253	90.31
379.478	85.31
379.704	95.31
379.929	101.31
380.155	84.31
380.38	102.31
380.606	91.31
380.831	106.31
381.057	104.31
381.282	97.31
381.507	82.31
381.733	86.31
381.958	83.31
382.184	106.31
382.409	99.31
382.634	96.31
382.86	100.31
383.085	94.31
383.31	105.31
383.535	103.31
383.761	108.31
383.986	108.31
384.211	88.31
384.436	100.31
384.662	98.31
384.887	89.31
385.112	91.31
385.337	106.31
385.562	107.31
385.787	93.31
386.013	111.31
386.238	115.31
386.463	97.31
386.688	106.31
386.913	95.31
387.138	106.31
387.363	105.31
387.588	100.31
387.813	95.31
388.038	88.31
388.263	99.31
388.488	98.31
388.713	102.31
388.938	99.31
389.163	102.31
389.387	92.31
389.612	104.31
389.837	88.31
390.062	93.31
390.287	94.31
390.512	91.31
390.736	109.31
390.961	105.31
391.186	103.31
391.411	104.31
391.636	98.31
391.86	83.31
392.085	95.31
392.31	91.31
392.534	91.31
392.759	98.31
392.984	85.31
393.208	91.31
393.433	95.31
393.658	88.31
393.882	88.31
394.107	95.31
394.331	80.31
394.556	89.31
394.78	79.31
395.005	89.31
395.229	81.31
395.454	81.31
395.678	90.31
395.903	89.31
396.127	93.31
396.352	104.31
396.576	86.31
396.801	104.31
397.025	93.31
397.249	92.31
397.474	82.31
397.698	93.31
397.922	88.31
398.147	96.31
398.371	96.31
398.595	78.31
398.82	89.31
399.044	92.31
399.268	90.31
399.492	81.31
399.717	103.31
399.941	90.31
400.165	93.31
400.389	93.31
400.613	96.31
400.837	89.31
401.062	86.31
401.286	100.31
401.51	84.31
401.734	92.31
401.958	87.31
402.182	110.31
402.406	125.31
402.63	116.31
402.854	91.31
403.078	89.31
403.302	75.31
403.526	97.31
403.75	94.31
403.974	99.31
404.198	96.31
404.422	101.31
404.645	79.31
404.869	97.31
405.093	83.31
405.317	98.31
405.541	96.31
405.765	97.31
405.988	105.31
406.212	145.31
406.436	173.31
406.66	119.31
406.883	89.31
407.107	93.31
407.331	82.31
407.555	105.31
407.778	96.31
408.002	79.31
408.226	80.31
408.449	84.31
408.673	96.31
408.896	95.31
409.12	80.31
409.344	86.31
409.567	101.31
409.791	93.31
410.014	106.31
410.238	84.31
410.461	93.31
410.685	99.31
410.908	101.31
411.132	92.31
411.355	89.31
411.578	79.31
411.802	93.31
412.025	94.31
412.249	95.31
412.472	91.31
412.695	85.31
412.919	86.31
413.142	93.31
413.365	104.31
413.589	87.31
413.812	94.31
414.035	88.31
414.258	81.31
414.482	84.31
414.705	93.31
414.928	106.31
415.151	87.31
415.374	109.31
415.597	86.31
415.821	95.31
416.044	86.31
416.267	95.31
416.49	91.31
416.713	88.31
416.936	89.31
417.159	85.31
417.382	96.31
417.605	96.31
417.828	82.31
418.051	98.31
418.274	80.31
418.497	80.31
418.72	90.31
418.943	89.31
419.166	89.31
419.389	92.31
419.611	93.31
419.834	77.31
420.057	97.31
420.28	94.31
420.503	84.31
420.726	84.31
420.948	81.31
421.171	84.31
421.394	101.31
421.617	102.31
421.839	83.31
422.062	88.31
422.285	84.31
422.507	98.31
422.73	71.31
422.953	79.31
423.175	94.31
423.398	105.31
423.621	87.31
423.843	91.31
424.066	98.31
424.288	84.31
424.511	96.31
424.733	95.31
424.956	109.31
425.178	96.31
425.401	103.31
425.623	105.31
425.846	96.31
426.068	96.31
426.291	77.31
426.513	85.31
426.735	82.31
426.958	94.31
427.18	109.31
427.402	137.31
427.625	142.31
427.847	110.31
428.069	107.31
428.292	97.31
428.514	96.31
428.736	90.31
428.958	77.31
429.181	90.31
429.403	103.31
429.625	91.31
429.847	93.31
430.069	92.31
430.292	84.31
430.514	92.31
430.736	89.31
430.958	96.31
431.18	88.31
431.402	82.31
431.624	91.31
431.846	95.31
432.068	84.31
432.29	82.31
432.512	96.31
432.734	76.31
432.956	87.31
433.178	97.31
433.4	101.31
433.622	77.31
433.844	95.31
434.066	93.31
434.287	89.31
434.509	84.31
434.731	84.31
434.953	91.31
435.175	92.31
435.397	86.31
435.618	90.31
435.84	105.31
436.062	109.31
436.284	93.31
436.505	110.31
436.727	93.31
436.949	89.31
437.17	73.31
437.392	91.31
437.614	77.31
437.835	97.31
438.057	112.31
438.278	102.31
438.5	104.31
438.721	102.31
438.943	105.31
439.165	95.31
439.386	94.31
439.608	98.31
439.829	98.31
440.05	98.31
440.272	113.31
440.493	99.31
440.715	83.31
440.936	83.31
441.158	84.31
441.379	86.31
441.6	88.31
441.822	104.31
442.043	88.31
442.264	89.31
442.486	103.31
442.707	103.31
442.928	103.31
443.149	114.31
443.371	117.31
443.592	107.31
443.813	124.31
444.034	107.31
444.255	101.31
444.476	103.31
444.698	86.31
444.919	104.31
445.14	117.31
445.361	100.31
445.582	112.31
445.803	126.31
446.024	103.31
446.245	121.31
446.466	105.31
446.687	92.31
446.908	89.31
447.129	93.31
447.35	80.31
447.571	99.31
447.792	91.31
448.013	88.31
448.234	118.31
448.455	94.31
448.675	100.31
448.896	101.31
449.117	107.31
449.338	74.31
449.559	116.31
449.779	125.31
450	104.31
450.221	93.31
450.442	85.31
450.662	85.31
450.883	95.31
451.104	96.31
451.324	89.31
451.545	89.31
451.766	85.31
451.986	97.31
452.207	100.31
452.428	95.31
452.648	96.31
452.869	117.31
453.089	120.31
453.31	94.31
453.53	90.31
453.751	90.31
453.971	97.31
454.192	102.31
454.412	90.31
454.633	78.31
454.853	88.31
455.073	97.31
455.294	90.31
455.514	98.31
455.734	83.31
455.955	96.31
456.175	84.31
456.395	81.31
456.616	87.31
456.836	83.31
457.056	76.31
457.276	106.31
457.497	91.31
457.717	100.31
457.937	92.31
458.157	88.31
458.377	79.31
458.598	100.31
458.818	104.31
459.038	129.31
459.258	110.31
459.478	96.31
459.698	79.31
459.918	85.31
460.138	99.31
460.358	91.31
460.578	89.31
460.798	82.31
461.018	90.31
461.238	83.31
461.458	87.31
461.678	84.31
461.898	98.31
462.118	95.31
462.338	76.31
462.558	99.31
462.777	88.31
462.997	100.31
463.217	83.31
463.437	93.31
463.657	83.31
463.876	95.31
464.096	89.31
464.316	82.31
464.536	93.31
464.755	84.31
464.975	102.31
465.195	120.31
465.414	127.31
465.634	87.31
465.854	93.31
466.073	84.31
466.293	89.31
466.512	91.31
466.732	88.31
466.951	97.31
467.171	91.31
467.391	95.31
467.61	88.31
467.829	89.31
468.049	106.31
468.268	98.31
468.488	105.31
468.707	90.31
468.927	91.31
469.146	89.31
469.365	88.31
469.585	72.31
469.804	92.31
470.023	96.31
470.243	88.31
470.462	88.31
470.681	94.31
470.901	90.31
471.12	89.31
471.339	95.31
471.558	94.31
471.777	84.31
471.997	104.31
472.216	100.31
472.435	125.31
472.654	102.31
472.873	90.31
473.092	103.31
473.311	90.31
473.53	105.31
473.749	89.31
473.968	89.31
474.187	98.31
474.406	103.31
474.625	81.31
474.844	100.31
475.063	83.31
475.282	88.31
475.501	77.31
475.72	92.31
475.939	94.31
476.158	85.31
476.377	76.31
476.596	82.31
476.814	101.31
477.033	98.31
477.252	103.31
477.471	94.31
477.69	83.31
477.908	86.31
478.127	103.31
478.346	87.31
478.564	93.31
478.783	92.31
479.002	95.31
479.22	102.31
479.439	104.31
479.658	109.31
479.876	92.31
480.095	87.31
480.313	93.31
480.532	92.31
480.751	97.31
480.969	104.31
481.188	156.31
481.406	136.31
481.624	97.31
481.843	96.31
482.061	92.31
482.28	95.31
482.498	93.31
482.717	93.31
482.935	90.31
483.153	88.31
483.372	87.31
483.59	80.31
483.808	107.31
484.027	94.31
484.245	87.31
484.463	108.31
484.681	89.31
484.9	102.31
485.118	88.31
485.336	96.31
485.554	90.31
485.772	98.31
485.99	91.31
486.209	99.31
486.427	98.31
486.645	113.31
486.863	103.31
487.081	92.31
487.299	90.31
487.517	86.31
487.735	96.31
487.953	100.31
488.171	105.31
488.389	108.31
488.607	76.31
488.825	96.31
489.043	96.31
489.261	93.31
489.479	88.31
489.696	101.31
489.914	95.31
490.132	109.31
490.35	89.31
490.568	101.31
490.786	105.31
491.003	87.31
491.221	94.31
491.439	105.31
491.657	96.31
491.874	100.31
492.092	90.31
492.31	94.31
492.527	91.31
492.745	94.31
492.963	97.31
493.18	80.31
493.398	90.31
493.615	93.31
493.833	86.31
494.05	88.31
494.268	92.31
494.485	100.31
494.703	99.31
494.92	76.31
495.138	83.31
495.355	113.31
495.573	83.31
495.79	93.31
496.008	100.31
496.225	93.31
496.442	90.31
496.66	107.31
496.877	103.31
497.094	90.31
497.312	107.31
497.529	84.31
497.746	76.31
497.963	99.31
498.181	91.31
498.398	82.31
498.615	107.31
498.832	108.31
499.049	90.31
499.267	96.31
499.484	89.31
499.701	96.31
499.918	97.31
500.135	97.31
500.352	83.31
500.569	88.31
500.786	86.31
501.003	97.31
501.22	105.31
501.437	91.31
501.654	87.31
501.871	96.31
502.088	111.31
502.305	86.31
502.522	102.31
502.739	98.31
502.956	97.31
503.172	112.31
503.389	92.31
503.606	104.31
503.823	85.31
504.04	87.31
504.256	92.31
504.473	85.31
504.69	95.31
504.907	92.31
505.123	104.31
505.34	86.31
505.557	102.31
505.773	96.31
505.99	90.31
506.207	90.31
506.423	93.31
506.64	89.31
506.856	79.31
507.073	91.31
507.289	86.31
507.506	95.31
507.722	103.31
507.939	112.31
508.155	101.31
508.372	90.31
508.588	85.31
508.805	91.31
509.021	104.31
509.238	89.31
509.454	109.31
509.67	113.31
509.887	100.31
510.103	122.31
510.319	184.31
510.536	541.31
510.752	1579.31
510.968	475.31
511.184	136.31
511.401	108.31
511.617	91.31
511.833	98.31
512.049	92.31
512.265	96.31
512.481	92.31
512.698	99.31
512.914	90.31
513.13	106.31
513.346	90.31
513.562	106.31
513.778	89.31
513.994	100.31
514.21	84.31
514.426	108.31
514.642	120.31
514.858	112.31
515.074	110.31
515.29	297.31
515.506	943.31
