Data from Uncirc_2009_H10_HRD10591_00094.txt Node
Date: Wed Jan 03 10:12:20 EST 2024
User: Yrep
Spectrometer: HR+D1059
Trigger mode: 1
Integration Time (sec): 1.000000E-1
Scans to average: 1
Electric dark correction enabled: true
Nonlinearity correction enabled: false
Boxcar width: 0
XAxis mode: Wavelengths
Number of Pixels in Spectrum: 2048
>>>>>Begin Spectral Data<<<<<
223.165	-5.38
223.4	-5.38
223.635	-5.38
223.869	-16.38
224.104	-22.38
224.338	-20.38
224.573	-8.38
224.808	-17.38
225.042	-15.38
225.277	-13.38
225.511	0.62
225.746	6.62
225.98	0.62
226.215	-8.38
226.449	13.62
226.683	33.62
226.918	36.62
227.152	35.62
227.387	20.62
227.621	26.62
227.856	44.62
228.09	39.62
228.324	60.62
228.559	56.62
228.793	41.62
229.027	53.62
229.262	79.62
229.496	69.62
229.73	73.62
229.964	81.62
230.199	77.62
230.433	72.62
230.667	64.62
230.901	73.62
231.136	87.62
231.37	72.62
231.604	81.62
231.838	75.62
232.072	83.62
232.306	75.62
232.541	86.62
232.775	85.62
233.009	69.62
233.243	92.62
233.477	79.62
233.711	69.62
233.945	82.62
234.179	87.62
234.413	91.62
234.647	75.62
234.881	63.62
235.115	66.62
235.349	81.62
235.583	69.62
235.817	83.62
236.051	79.62
236.285	79.62
236.519	79.62
236.753	82.62
236.987	84.62
237.221	79.62
237.455	88.62
237.689	71.62
237.922	82.62
238.156	77.62
238.39	63.62
238.624	80.62
238.858	87.62
239.091	83.62
239.325	91.62
239.559	84.62
239.793	72.62
240.027	81.62
240.26	70.62
240.494	83.62
240.728	81.62
240.961	70.62
241.195	77.62
241.429	77.62
241.662	69.62
241.896	73.62
242.13	78.62
242.363	86.62
242.597	76.62
242.83	92.62
243.064	75.62
243.298	76.62
243.531	76.62
243.765	70.62
243.998	76.62
244.232	87.62
244.465	86.62
244.699	75.62
244.932	77.62
245.166	75.62
245.399	86.62
245.633	71.62
245.866	85.62
246.099	76.62
246.333	76.62
246.566	85.62
246.8	80.62
247.033	82.62
247.266	92.62
247.5	79.62
247.733	84.62
247.966	96.62
248.2	64.62
248.433	78.62
248.666	86.62
248.899	65.62
249.133	74.62
249.366	95.62
249.599	88.62
249.832	82.62
250.066	92.62
250.299	89.62
250.532	96.62
250.765	73.62
250.998	74.62
251.231	75.62
251.465	78.62
251.698	65.62
251.931	74.62
252.164	82.62
252.397	80.62
252.63	76.62
252.863	80.62
253.096	77.62
253.329	81.62
253.562	82.62
253.795	64.62
254.028	85.62
254.261	84.62
254.494	66.62
254.727	80.62
254.96	81.62
255.193	87.62
255.426	89.62
255.659	73.62
255.892	88.62
256.124	72.62
256.357	84.62
256.59	86.62
256.823	71.62
257.056	80.62
257.289	80.62
257.521	85.62
257.754	68.62
257.987	66.62
258.22	89.62
258.452	75.62
258.685	88.62
258.918	77.62
259.151	76.62
259.383	92.62
259.616	80.62
259.849	85.62
260.081	80.62
260.314	81.62
260.547	84.62
260.779	83.62
261.012	80.62
261.244	90.62
261.477	90.62
261.71	86.62
261.942	90.62
262.175	91.62
262.407	79.62
262.64	89.62
262.872	77.62
263.105	90.62
263.337	75.62
263.57	78.62
263.802	82.62
264.035	87.62
264.267	80.62
264.499	76.62
264.732	89.62
264.964	90.62
265.197	82.62
265.429	82.62
265.661	83.62
265.894	76.62
266.126	86.62
266.358	91.62
266.591	73.62
266.823	74.62
267.055	82.62
267.287	73.62
267.52	92.62
267.752	67.62
267.984	94.62
268.216	72.62
268.448	90.62
268.681	84.62
268.913	94.62
269.145	79.62
269.377	84.62
269.609	76.62
269.841	77.62
270.073	83.62
270.306	86.62
270.538	87.62
270.77	90.62
271.002	85.62
271.234	82.62
271.466	84.62
271.698	80.62
271.93	73.62
272.162	74.62
272.394	85.62
272.626	89.62
272.858	84.62
273.09	93.62
273.322	96.62
273.553	72.62
273.785	79.62
274.017	79.62
274.249	77.62
274.481	77.62
274.713	86.62
274.945	70.62
275.176	80.62
275.408	81.62
275.64	82.62
275.872	82.62
276.104	75.62
276.335	88.62
276.567	89.62
276.799	111.62
277.031	95.62
277.262	86.62
277.494	90.62
277.726	88.62
277.957	94.62
278.189	87.62
278.421	94.62
278.652	87.62
278.884	89.62
279.115	79.62
279.347	80.62
279.579	87.62
279.81	89.62
280.042	81.62
280.273	76.62
280.505	90.62
280.736	98.62
280.968	96.62
281.199	80.62
281.431	82.62
281.662	83.62
281.894	77.62
282.125	79.62
282.356	101.62
282.588	120.62
282.819	96.62
283.051	84.62
283.282	90.62
283.513	77.62
283.745	101.62
283.976	89.62
284.207	93.62
284.439	94.62
284.67	78.62
284.901	87.62
285.132	92.62
285.364	90.62
285.595	66.62
285.826	89.62
286.057	96.62
286.288	80.62
286.52	93.62
286.751	82.62
286.982	98.62
287.213	78.62
287.444	76.62
287.675	72.62
287.906	82.62
288.138	78.62
288.369	85.62
288.6	92.62
288.831	95.62
289.062	83.62
289.293	88.62
289.524	85.62
289.755	79.62
289.986	82.62
290.217	76.62
290.448	89.62
290.679	84.62
290.91	86.62
291.141	78.62
291.371	94.62
291.602	90.62
291.833	82.62
292.064	83.62
292.295	105.62
292.526	62.62
292.757	96.62
292.987	100.62
293.218	85.62
293.449	88.62
293.68	94.62
293.91	97.62
294.141	85.62
294.372	77.62
294.603	79.62
294.833	95.62
295.064	81.62
295.295	99.62
295.525	92.62
295.756	89.62
295.987	95.62
296.217	109.62
296.448	106.62
296.679	87.62
296.909	94.62
297.14	84.62
297.37	81.62
297.601	90.62
297.831	84.62
298.062	93.62
298.292	101.62
298.523	98.62
298.753	84.62
298.984	81.62
299.214	98.62
299.445	96.62
299.675	87.62
299.905	86.62
300.136	88.62
300.366	91.62
300.597	98.62
300.827	101.62
301.057	100.62
301.288	102.62
301.518	80.62
301.748	93.62
301.979	90.62
302.209	83.62
302.439	87.62
302.669	95.62
302.9	85.62
303.13	97.62
303.36	105.62
303.59	113.62
303.82	93.62
304.051	92.62
304.281	84.62
304.511	90.62
304.741	82.62
304.971	89.62
305.201	91.62
305.431	83.62
305.661	86.62
305.891	87.62
306.121	82.62
306.352	91.62
306.582	99.62
306.812	101.62
307.042	93.62
307.272	84.62
307.502	92.62
307.731	88.62
307.961	77.62
308.191	90.62
308.421	79.62
308.651	93.62
308.881	88.62
309.111	98.62
309.341	89.62
309.571	92.62
309.8	96.62
310.03	90.62
310.26	82.62
310.49	108.62
310.72	102.62
310.949	105.62
311.179	99.62
311.409	87.62
311.639	86.62
311.868	90.62
312.098	97.62
312.328	113.62
312.557	100.62
312.787	96.62
313.017	93.62
313.246	111.62
313.476	90.62
313.706	96.62
313.935	96.62
314.165	96.62
314.394	96.62
314.624	89.62
314.853	99.62
315.083	91.62
315.312	95.62
315.542	90.62
315.771	92.62
316.001	94.62
316.23	90.62
316.46	99.62
316.689	84.62
316.919	89.62
317.148	105.62
317.377	112.62
317.607	114.62
317.836	92.62
318.065	86.62
318.295	101.62
318.524	82.62
318.753	92.62
318.983	91.62
319.212	100.62
319.441	110.62
319.67	101.62
319.9	101.62
320.129	85.62
320.358	99.62
320.587	97.62
320.816	105.62
321.046	104.62
321.275	100.62
321.504	96.62
321.733	89.62
321.962	91.62
322.191	92.62
322.42	98.62
322.649	105.62
322.878	115.62
323.108	103.62
323.337	112.62
323.566	127.62
323.795	133.62
324.024	156.62
324.253	313.62
324.482	678.62
324.71	1353.62
324.939	1771.62
325.168	684.62
325.397	215.62
325.626	127.62
325.855	114.62
326.084	121.62
326.313	148.62
326.542	144.62
326.77	200.62
326.999	374.62
327.228	780.62
327.457	1353.62
327.686	1086.62
327.914	324.62
328.143	159.62
328.372	124.62
328.6	111.62
328.829	108.62
329.058	108.62
329.287	101.62
329.515	94.62
329.744	91.62
329.972	105.62
330.201	101.62
330.43	109.62
330.658	102.62
330.887	121.62
331.115	104.62
331.344	92.62
331.572	119.62
331.801	91.62
332.03	100.62
332.258	106.62
332.486	97.62
332.715	104.62
332.943	86.62
333.172	95.62
333.4	104.62
333.629	102.62
333.857	97.62
334.085	112.62
334.314	106.62
334.542	106.62
334.771	119.62
334.999	91.62
335.227	92.62
335.455	91.62
335.684	91.62
335.912	93.62
336.14	91.62
336.369	93.62
336.597	99.62
336.825	96.62
337.053	80.62
337.281	79.62
337.51	81.62
337.738	87.62
337.966	89.62
338.194	97.62
338.422	99.62
338.65	86.62
338.878	90.62
339.106	86.62
339.334	83.62
339.562	93.62
339.79	79.62
340.018	85.62
340.246	87.62
340.474	93.62
340.702	97.62
340.93	80.62
341.158	73.62
341.386	88.62
341.614	77.62
341.842	100.62
342.07	106.62
342.298	93.62
342.526	101.62
342.754	97.62
342.981	88.62
343.209	98.62
343.437	80.62
343.665	85.62
343.893	92.62
344.12	82.62
344.348	98.62
344.576	92.62
344.804	77.62
345.031	82.62
345.259	87.62
345.487	90.62
345.714	88.62
345.942	95.62
346.17	97.62
346.397	98.62
346.625	98.62
346.853	82.62
347.08	108.62
347.308	79.62
347.535	96.62
347.763	100.62
347.99	96.62
348.218	111.62
348.445	108.62
348.673	92.62
348.9	98.62
349.128	88.62
349.355	95.62
349.583	92.62
349.81	89.62
350.037	112.62
350.265	103.62
350.492	93.62
350.72	101.62
350.947	88.62
351.174	105.62
351.402	109.62
351.629	97.62
351.856	80.62
352.083	90.62
352.311	95.62
352.538	111.62
352.765	108.62
352.992	106.62
353.22	108.62
353.447	92.62
353.674	82.62
353.901	82.62
354.128	102.62
354.355	97.62
354.583	107.62
354.81	95.62
355.037	88.62
355.264	92.62
355.491	95.62
355.718	92.62
355.945	99.62
356.172	93.62
356.399	91.62
356.626	84.62
356.853	87.62
357.08	95.62
357.307	95.62
357.534	90.62
357.761	86.62
357.988	107.62
358.215	100.62
358.441	97.62
358.668	95.62
358.895	98.62
359.122	75.62
359.349	76.62
359.576	88.62
359.802	88.62
360.029	103.62
360.256	98.62
360.483	93.62
360.709	73.62
360.936	95.62
361.163	92.62
361.39	97.62
361.616	99.62
361.843	87.62
362.07	85.62
362.296	84.62
362.523	96.62
362.749	96.62
362.976	88.62
363.203	85.62
363.429	78.62
363.656	83.62
363.882	84.62
364.109	87.62
364.335	81.62
364.562	86.62
364.788	96.62
365.015	84.62
365.241	92.62
365.468	104.62
365.694	97.62
365.92	88.62
366.147	76.62
366.373	92.62
366.599	80.62
366.826	89.62
367.052	90.62
367.278	77.62
367.505	96.62
367.731	95.62
367.957	92.62
368.184	90.62
368.41	97.62
368.636	102.62
368.862	102.62
369.089	91.62
369.315	107.62
369.541	90.62
369.767	97.62
369.993	84.62
370.219	84.62
370.445	77.62
370.672	90.62
370.898	92.62
371.124	91.62
371.35	80.62
371.576	92.62
371.802	78.62
372.028	101.62
372.254	91.62
372.48	90.62
372.706	88.62
372.932	90.62
373.158	82.62
373.384	82.62
373.61	99.62
373.835	89.62
374.061	84.62
374.287	93.62
374.513	93.62
374.739	82.62
374.965	85.62
375.191	100.62
375.416	97.62
375.642	80.62
375.868	79.62
376.094	84.62
376.319	84.62
376.545	99.62
376.771	86.62
376.997	88.62
377.222	93.62
377.448	91.62
377.674	89.62
377.899	82.62
378.125	91.62
378.35	89.62
378.576	92.62
378.802	88.62
379.027	96.62
379.253	82.62
379.478	89.62
379.704	79.62
379.929	102.62
380.155	104.62
380.38	101.62
380.606	91.62
380.831	97.62
381.057	96.62
381.282	103.62
381.507	82.62
381.733	102.62
381.958	93.62
382.184	85.62
382.409	85.62
382.634	85.62
382.86	92.62
383.085	103.62
383.31	107.62
383.535	93.62
383.761	94.62
383.986	94.62
384.211	97.62
384.436	88.62
384.662	111.62
384.887	97.62
385.112	106.62
385.337	95.62
385.562	99.62
385.787	93.62
386.013	103.62
386.238	101.62
386.463	103.62
386.688	100.62
386.913	101.62
387.138	105.62
387.363	94.62
387.588	94.62
387.813	106.62
388.038	104.62
388.263	99.62
388.488	97.62
388.713	106.62
388.938	97.62
389.163	101.62
389.387	98.62
389.612	99.62
389.837	92.62
390.062	79.62
390.287	92.62
390.512	82.62
390.736	85.62
390.961	103.62
391.186	71.62
391.411	111.62
391.636	95.62
391.86	65.62
392.085	79.62
392.31	89.62
392.534	92.62
392.759	94.62
392.984	86.62
393.208	81.62
393.433	87.62
393.658	77.62
393.882	83.62
394.107	104.62
394.331	80.62
394.556	97.62
394.78	80.62
395.005	91.62
395.229	89.62
395.454	91.62
395.678	76.62
395.903	81.62
396.127	91.62
396.352	81.62
396.576	88.62
396.801	94.62
397.025	86.62
397.249	84.62
397.474	90.62
397.698	88.62
397.922	84.62
398.147	80.62
398.371	87.62
398.595	87.62
398.82	65.62
399.044	84.62
399.268	95.62
399.492	84.62
399.717	78.62
399.941	81.62
400.165	102.62
400.389	100.62
400.613	72.62
400.837	85.62
401.062	90.62
401.286	90.62
401.51	95.62
401.734	97.62
401.958	90.62
402.182	104.62
402.406	136.62
402.63	98.62
402.854	93.62
403.078	89.62
403.302	86.62
403.526	86.62
403.75	73.62
403.974	93.62
404.198	102.62
404.422	91.62
404.645	72.62
404.869	86.62
405.093	96.62
405.317	92.62
405.541	95.62
405.765	87.62
405.988	98.62
406.212	141.62
406.436	164.62
406.66	126.62
406.883	87.62
407.107	79.62
407.331	99.62
407.555	95.62
407.778	98.62
408.002	101.62
408.226	86.62
408.449	85.62
408.673	81.62
408.896	84.62
409.12	86.62
409.344	84.62
409.567	92.62
409.791	88.62
410.014	93.62
410.238	95.62
410.461	78.62
410.685	88.62
410.908	102.62
411.132	108.62
411.355	73.62
411.578	98.62
411.802	96.62
412.025	96.62
412.249	79.62
412.472	85.62
412.695	103.62
412.919	85.62
413.142	91.62
413.365	90.62
413.589	106.62
413.812	82.62
414.035	92.62
414.258	85.62
414.482	79.62
414.705	88.62
414.928	96.62
415.151	103.62
415.374	81.62
415.597	95.62
415.821	79.62
416.044	88.62
416.267	86.62
416.49	73.62
416.713	72.62
416.936	105.62
417.159	95.62
417.382	81.62
417.605	97.62
417.828	90.62
418.051	88.62
418.274	96.62
418.497	100.62
418.72	84.62
418.943	100.62
419.166	83.62
419.389	81.62
419.611	90.62
419.834	85.62
420.057	90.62
420.28	98.62
420.503	102.62
420.726	80.62
420.948	91.62
421.171	90.62
421.394	89.62
421.617	83.62
421.839	89.62
422.062	97.62
422.285	82.62
422.507	92.62
422.73	90.62
422.953	95.62
423.175	96.62
423.398	83.62
423.621	84.62
423.843	90.62
424.066	72.62
424.288	79.62
424.511	77.62
424.733	81.62
424.956	95.62
425.178	88.62
425.401	96.62
425.623	91.62
425.846	104.62
426.068	98.62
426.291	92.62
426.513	81.62
426.735	88.62
426.958	82.62
427.18	108.62
427.402	126.62
427.625	149.62
427.847	117.62
428.069	105.62
428.292	83.62
428.514	76.62
428.736	79.62
428.958	94.62
429.181	97.62
429.403	83.62
429.625	79.62
429.847	83.62
430.069	91.62
430.292	91.62
430.514	95.62
430.736	92.62
430.958	80.62
431.18	69.62
431.402	81.62
431.624	81.62
431.846	80.62
432.068	84.62
432.29	77.62
432.512	93.62
432.734	102.62
432.956	75.62
433.178	87.62
433.4	95.62
433.622	82.62
433.844	100.62
434.066	84.62
434.287	73.62
434.509	93.62
434.731	91.62
434.953	78.62
435.175	81.62
435.397	93.62
435.618	94.62
435.84	100.62
436.062	116.62
436.284	90.62
436.505	100.62
436.727	111.62
436.949	96.62
437.17	84.62
437.392	88.62
437.614	99.62
437.835	89.62
438.057	100.62
438.278	103.62
438.5	92.62
438.721	106.62
438.943	92.62
439.165	77.62
439.386	89.62
439.608	83.62
439.829	96.62
440.05	112.62
440.272	125.62
440.493	90.62
440.715	93.62
440.936	90.62
441.158	81.62
441.379	89.62
441.6	84.62
441.822	79.62
442.043	87.62
442.264	89.62
442.486	82.62
442.707	98.62
442.928	94.62
443.149	116.62
443.371	116.62
443.592	98.62
443.813	104.62
444.034	92.62
444.255	88.62
444.476	93.62
444.698	88.62
444.919	76.62
445.14	121.62
445.361	105.62
445.582	99.62
445.803	120.62
446.024	121.62
446.245	127.62
446.466	97.62
446.687	87.62
446.908	102.62
447.129	96.62
447.35	93.62
447.571	98.62
447.792	86.62
448.013	104.62
448.234	100.62
448.455	81.62
448.675	90.62
448.896	92.62
449.117	75.62
449.338	89.62
449.559	105.62
449.779	120.62
450	93.62
450.221	89.62
450.442	82.62
450.662	79.62
450.883	102.62
451.104	95.62
451.324	79.62
451.545	86.62
451.766	74.62
451.986	79.62
452.207	95.62
452.428	95.62
452.648	97.62
452.869	100.62
453.089	105.62
453.31	96.62
453.53	94.62
453.751	94.62
453.971	91.62
454.192	97.62
454.412	82.62
454.633	101.62
454.853	84.62
455.073	98.62
455.294	95.62
455.514	85.62
455.734	92.62
455.955	95.62
456.175	88.62
456.395	78.62
456.616	74.62
456.836	72.62
457.056	94.62
457.276	81.62
457.497	75.62
457.717	71.62
457.937	74.62
458.157	87.62
458.377	89.62
458.598	84.62
458.818	111.62
459.038	129.62
459.258	124.62
459.478	93.62
459.698	78.62
459.918	96.62
460.138	90.62
460.358	85.62
460.578	89.62
460.798	83.62
461.018	88.62
461.238	68.62
461.458	86.62
461.678	84.62
461.898	96.62
462.118	78.62
462.338	99.62
462.558	76.62
462.777	82.62
462.997	88.62
463.217	90.62
463.437	86.62
463.657	79.62
463.876	86.62
464.096	85.62
464.316	103.62
464.536	95.62
464.755	101.62
464.975	98.62
465.195	127.62
465.414	123.62
465.634	94.62
465.854	92.62
466.073	89.62
466.293	94.62
466.512	80.62
466.732	87.62
466.951	84.62
467.171	97.62
467.391	79.62
467.61	76.62
467.829	75.62
468.049	94.62
468.268	90.62
468.488	88.62
468.707	100.62
468.927	94.62
469.146	107.62
469.365	75.62
469.585	87.62
469.804	82.62
470.023	96.62
470.243	84.62
470.462	108.62
470.681	92.62
470.901	89.62
471.12	87.62
471.339	103.62
471.558	81.62
471.777	73.62
471.997	100.62
472.216	88.62
472.435	113.62
472.654	97.62
472.873	88.62
473.092	84.62
473.311	97.62
473.53	81.62
473.749	78.62
473.968	78.62
474.187	95.62
474.406	86.62
474.625	87.62
474.844	87.62
475.063	97.62
475.282	82.62
475.501	86.62
475.72	69.62
475.939	80.62
476.158	87.62
476.377	80.62
476.596	86.62
476.814	96.62
477.033	90.62
477.252	92.62
477.471	89.62
477.69	84.62
477.908	78.62
478.127	82.62
478.346	94.62
478.564	91.62
478.783	101.62
479.002	93.62
479.22	75.62
479.439	97.62
479.658	90.62
479.876	90.62
480.095	77.62
480.313	87.62
480.532	102.62
480.751	94.62
480.969	97.62
481.188	156.62
481.406	121.62
481.624	97.62
481.843	90.62
482.061	80.62
482.28	76.62
482.498	74.62
482.717	99.62
482.935	75.62
483.153	93.62
483.372	93.62
483.59	80.62
483.808	72.62
484.027	105.62
484.245	91.62
484.463	76.62
484.681	97.62
484.9	104.62
485.118	87.62
485.336	92.62
485.554	96.62
485.772	100.62
485.99	105.62
486.209	109.62
486.427	100.62
486.645	93.62
486.863	104.62
487.081	94.62
487.299	110.62
487.517	92.62
487.735	84.62
487.953	88.62
488.171	81.62
488.389	96.62
488.607	94.62
488.825	82.62
489.043	93.62
489.261	90.62
489.479	92.62
489.696	94.62
489.914	87.62
490.132	86.62
490.35	89.62
490.568	73.62
490.786	90.62
491.003	85.62
491.221	84.62
491.439	89.62
491.657	81.62
491.874	80.62
492.092	92.62
492.31	86.62
492.527	82.62
492.745	97.62
492.963	79.62
493.18	63.62
493.398	94.62
493.615	98.62
493.833	84.62
494.05	83.62
494.268	96.62
494.485	87.62
494.703	74.62
494.92	86.62
495.138	72.62
495.355	81.62
495.573	88.62
495.79	86.62
496.008	92.62
496.225	97.62
496.442	89.62
496.66	90.62
496.877	81.62
497.094	88.62
497.312	77.62
497.529	96.62
497.746	92.62
497.963	88.62
498.181	94.62
498.398	100.62
498.615	97.62
498.832	93.62
499.049	96.62
499.267	90.62
499.484	87.62
499.701	76.62
499.918	100.62
500.135	94.62
500.352	84.62
500.569	87.62
500.786	77.62
501.003	82.62
501.22	97.62
501.437	102.62
501.654	92.62
501.871	85.62
502.088	103.62
502.305	89.62
502.522	91.62
502.739	76.62
502.956	77.62
503.172	96.62
503.389	97.62
503.606	94.62
503.823	92.62
504.04	85.62
504.256	78.62
504.473	87.62
504.69	80.62
504.907	99.62
505.123	77.62
505.34	86.62
505.557	84.62
505.773	90.62
505.99	82.62
506.207	88.62
506.423	86.62
506.64	84.62
506.856	95.62
507.073	84.62
507.289	90.62
507.506	82.62
507.722	88.62
507.939	87.62
508.155	91.62
508.372	98.62
508.588	85.62
508.805	100.62
509.021	100.62
509.238	95.62
509.454	90.62
509.67	109.62
509.887	118.62
510.103	125.62
510.319	164.62
510.536	524.62
510.752	1579.62
510.968	474.62
511.184	123.62
511.401	106.62
511.617	94.62
511.833	96.62
512.049	93.62
512.265	92.62
512.481	81.62
512.698	107.62
512.914	84.62
513.13	81.62
513.346	92.62
513.562	107.62
513.778	88.62
513.994	100.62
514.21	86.62
514.426	109.62
514.642	120.62
514.858	114.62
515.074	129.62
515.29	309.62
515.506	912.62
515.721	376.62
515.937	125.62
516.153	112.62
516.369	94.62
516.585	88.62
516.801	101.62
