Data from Uncirc_2009_H10_HRD10591_00095.txt Node
Date: Wed Jan 03 10:12:20 EST 2024
User: Yrep
Spectrometer: HR+D1059
Trigger mode: 1
Integration Time (sec): 1.000000E-1
Scans to average: 1
Electric dark correction enabled: true
Nonlinearity correction enabled: false
Boxcar width: 0
XAxis mode: Wavelengths
Number of Pixels in Spectrum: 2048
>>>>>Begin Spectral Data<<<<<
223.165	-14.44
223.4	-14.44
223.635	-14.44
223.869	-20.44
224.104	-14.44
224.338	-13.44
224.573	-8.44
224.808	-10.44
225.042	-8.44
225.277	-8.44
225.511	12.56
225.746	-2.44
225.98	3.56
226.215	2.56
226.449	16.56
226.683	23.56
226.918	16.56
227.152	25.56
227.387	46.56
227.621	34.56
227.856	49.56
228.09	51.56
228.324	58.56
228.559	57.56
228.793	52.56
229.027	60.56
229.262	70.56
229.496	73.56
229.73	77.56
229.964	78.56
230.199	76.56
230.433	83.56
230.667	80.56
230.901	64.56
231.136	75.56
231.37	89.56
231.604	85.56
231.838	82.56
232.072	90.56
232.306	96.56
232.541	91.56
232.775	85.56
233.009	87.56
233.243	82.56
233.477	86.56
233.711	79.56
233.945	85.56
234.179	92.56
234.413	89.56
234.647	92.56
234.881	74.56
235.115	76.56
235.349	78.56
235.583	87.56
235.817	67.56
236.051	74.56
236.285	67.56
236.519	67.56
236.753	78.56
236.987	80.56
237.221	76.56
237.455	80.56
237.689	82.56
237.922	69.56
238.156	89.56
238.39	106.56
238.624	86.56
238.858	83.56
239.091	68.56
239.325	83.56
239.559	87.56
239.793	85.56
240.027	95.56
240.26	74.56
240.494	69.56
240.728	85.56
240.961	92.56
241.195	84.56
241.429	81.56
241.662	78.56
241.896	69.56
242.13	69.56
242.363	91.56
242.597	80.56
242.83	90.56
243.064	82.56
243.298	80.56
243.531	82.56
243.765	88.56
243.998	83.56
244.232	80.56
244.465	81.56
244.699	80.56
244.932	76.56
245.166	91.56
245.399	74.56
245.633	81.56
245.866	81.56
246.099	68.56
246.333	85.56
246.566	90.56
246.8	65.56
247.033	80.56
247.266	75.56
247.5	103.56
247.733	83.56
247.966	79.56
248.2	84.56
248.433	66.56
248.666	74.56
248.899	84.56
249.133	92.56
249.366	83.56
249.599	82.56
249.832	94.56
250.066	73.56
250.299	86.56
250.532	83.56
250.765	83.56
250.998	76.56
251.231	101.56
251.465	76.56
251.698	92.56
251.931	101.56
252.164	89.56
252.397	87.56
252.63	66.56
252.863	77.56
253.096	83.56
253.329	92.56
253.562	75.56
253.795	85.56
254.028	92.56
254.261	80.56
254.494	81.56
254.727	91.56
254.96	77.56
255.193	95.56
255.426	79.56
255.659	91.56
255.892	80.56
256.124	88.56
256.357	72.56
256.59	87.56
256.823	70.56
257.056	93.56
257.289	77.56
257.521	80.56
257.754	83.56
257.987	73.56
258.22	95.56
258.452	92.56
258.685	82.56
258.918	88.56
259.151	73.56
259.383	83.56
259.616	79.56
259.849	82.56
260.081	71.56
260.314	83.56
260.547	83.56
260.779	84.56
261.012	96.56
261.244	83.56
261.477	90.56
261.71	101.56
261.942	94.56
262.175	98.56
262.407	88.56
262.64	89.56
262.872	75.56
263.105	79.56
263.337	82.56
263.57	90.56
263.802	90.56
264.035	85.56
264.267	76.56
264.499	90.56
264.732	88.56
264.964	90.56
265.197	80.56
265.429	86.56
265.661	91.56
265.894	99.56
266.126	89.56
266.358	89.56
266.591	96.56
266.823	84.56
267.055	77.56
267.287	74.56
267.52	89.56
267.752	81.56
267.984	85.56
268.216	77.56
268.448	98.56
268.681	83.56
268.913	72.56
269.145	91.56
269.377	95.56
269.609	89.56
269.841	78.56
270.073	82.56
270.306	91.56
270.538	95.56
270.77	95.56
271.002	89.56
271.234	86.56
271.466	86.56
271.698	85.56
271.93	78.56
272.162	81.56
272.394	92.56
272.626	94.56
272.858	88.56
273.09	81.56
273.322	85.56
273.553	83.56
273.785	90.56
274.017	91.56
274.249	78.56
274.481	89.56
274.713	90.56
274.945	87.56
275.176	101.56
275.408	93.56
275.64	98.56
275.872	85.56
276.104	97.56
276.335	84.56
276.567	103.56
276.799	104.56
277.031	98.56
277.262	102.56
277.494	85.56
277.726	98.56
277.957	75.56
278.189	88.56
278.421	96.56
278.652	87.56
278.884	79.56
279.115	87.56
279.347	83.56
279.579	87.56
279.81	88.56
280.042	84.56
280.273	84.56
280.505	97.56
280.736	89.56
280.968	101.56
281.199	93.56
281.431	89.56
281.662	104.56
281.894	83.56
282.125	95.56
282.356	110.56
282.588	111.56
282.819	96.56
283.051	94.56
283.282	79.56
283.513	85.56
283.745	91.56
283.976	83.56
284.207	91.56
284.439	89.56
284.67	97.56
284.901	91.56
285.132	107.56
285.364	89.56
285.595	80.56
285.826	100.56
286.057	94.56
286.288	91.56
286.52	86.56
286.751	94.56
286.982	89.56
287.213	85.56
287.444	87.56
287.675	82.56
287.906	85.56
288.138	89.56
288.369	89.56
288.6	91.56
288.831	87.56
289.062	98.56
289.293	89.56
289.524	84.56
289.755	103.56
289.986	80.56
290.217	79.56
290.448	91.56
290.679	85.56
290.91	87.56
291.141	87.56
291.371	95.56
291.602	101.56
291.833	74.56
292.064	83.56
292.295	96.56
292.526	92.56
292.757	95.56
292.987	97.56
293.218	85.56
293.449	94.56
293.68	95.56
293.91	86.56
294.141	87.56
294.372	91.56
294.603	87.56
294.833	103.56
295.064	101.56
295.295	84.56
295.525	92.56
295.756	90.56
295.987	117.56
296.217	138.56
296.448	119.56
296.679	98.56
296.909	97.56
297.14	102.56
297.37	83.56
297.601	87.56
297.831	92.56
298.062	87.56
298.292	87.56
298.523	96.56
298.753	85.56
298.984	84.56
299.214	104.56
299.445	103.56
299.675	93.56
299.905	87.56
300.136	113.56
300.366	91.56
300.597	96.56
300.827	85.56
301.057	90.56
301.288	100.56
301.518	109.56
301.748	87.56
301.979	85.56
302.209	99.56
302.439	91.56
302.669	82.56
302.9	101.56
303.13	104.56
303.36	110.56
303.59	105.56
303.82	97.56
304.051	100.56
304.281	98.56
304.511	87.56
304.741	92.56
304.971	106.56
305.201	85.56
305.431	87.56
305.661	113.56
305.891	101.56
306.121	88.56
306.352	107.56
306.582	93.56
306.812	102.56
307.042	89.56
307.272	107.56
307.502	85.56
307.731	105.56
307.961	91.56
308.191	88.56
308.421	82.56
308.651	89.56
308.881	84.56
309.111	105.56
309.341	107.56
309.571	100.56
309.8	97.56
310.03	94.56
310.26	101.56
310.49	100.56
310.72	92.56
310.949	89.56
311.179	91.56
311.409	92.56
311.639	94.56
311.868	96.56
312.098	97.56
312.328	106.56
312.557	112.56
312.787	112.56
313.017	90.56
313.246	91.56
313.476	105.56
313.706	88.56
313.935	93.56
314.165	86.56
314.394	85.56
314.624	90.56
314.853	103.56
315.083	88.56
315.312	104.56
315.542	119.56
315.771	90.56
316.001	83.56
316.23	87.56
316.46	104.56
316.689	82.56
316.919	108.56
317.148	97.56
317.377	113.56
317.607	124.56
317.836	120.56
318.065	93.56
318.295	83.56
318.524	102.56
318.753	102.56
318.983	97.56
319.212	104.56
319.441	92.56
319.67	90.56
319.9	94.56
320.129	87.56
320.358	100.56
320.587	108.56
320.816	96.56
321.046	108.56
321.275	95.56
321.504	95.56
321.733	94.56
321.962	95.56
322.191	103.56
322.42	100.56
322.649	101.56
322.878	114.56
323.108	97.56
323.337	113.56
323.566	107.56
323.795	135.56
324.024	156.56
324.253	332.56
324.482	691.56
324.71	1371.56
324.939	1771.56
325.168	653.56
325.397	219.56
325.626	131.56
325.855	115.56
326.084	145.56
326.313	154.56
326.542	166.56
326.77	215.56
326.999	388.56
327.228	766.56
327.457	1391.56
327.686	1117.56
327.914	307.56
328.143	171.56
328.372	155.56
328.6	120.56
328.829	107.56
329.058	124.56
329.287	121.56
329.515	106.56
329.744	95.56
329.972	97.56
330.201	116.56
330.43	116.56
330.658	117.56
330.887	113.56
331.115	105.56
331.344	105.56
331.572	87.56
331.801	98.56
332.03	100.56
332.258	100.56
332.486	107.56
332.715	109.56
332.943	90.56
333.172	94.56
333.4	97.56
333.629	94.56
333.857	109.56
334.085	111.56
334.314	102.56
334.542	132.56
334.771	110.56
334.999	103.56
335.227	96.56
335.455	101.56
335.684	92.56
335.912	103.56
336.14	105.56
336.369	96.56
336.597	112.56
336.825	106.56
337.053	92.56
337.281	88.56
337.51	90.56
337.738	94.56
337.966	89.56
338.194	96.56
338.422	92.56
338.65	108.56
338.878	85.56
339.106	104.56
339.334	87.56
339.562	90.56
339.79	85.56
340.018	97.56
340.246	93.56
340.474	97.56
340.702	90.56
340.93	103.56
341.158	90.56
341.386	88.56
341.614	105.56
341.842	91.56
342.07	100.56
342.298	103.56
342.526	87.56
342.754	98.56
342.981	98.56
343.209	94.56
343.437	98.56
343.665	85.56
343.893	88.56
344.12	105.56
344.348	89.56
344.576	97.56
344.804	96.56
345.031	102.56
345.259	109.56
345.487	88.56
345.714	89.56
345.942	99.56
346.17	96.56
346.397	93.56
346.625	105.56
346.853	99.56
347.08	109.56
347.308	103.56
347.535	87.56
347.763	88.56
347.99	93.56
348.218	88.56
348.445	99.56
348.673	95.56
348.9	89.56
349.128	89.56
349.355	99.56
349.583	76.56
349.81	91.56
350.037	87.56
350.265	103.56
350.492	108.56
350.72	107.56
350.947	86.56
351.174	114.56
351.402	115.56
351.629	92.56
351.856	101.56
352.083	103.56
352.311	103.56
352.538	105.56
352.765	94.56
352.992	113.56
353.22	124.56
353.447	97.56
353.674	96.56
353.901	108.56
354.128	99.56
354.355	103.56
354.583	96.56
354.81	93.56
355.037	88.56
355.264	91.56
355.491	99.56
355.718	81.56
355.945	100.56
356.172	111.56
356.399	99.56
356.626	97.56
356.853	104.56
357.08	98.56
357.307	96.56
357.534	85.56
357.761	96.56
357.988	99.56
358.215	88.56
358.441	81.56
358.668	79.56
358.895	77.56
359.122	96.56
359.349	84.56
359.576	92.56
359.802	94.56
360.029	91.56
360.256	105.56
360.483	96.56
360.709	95.56
360.936	104.56
361.163	86.56
361.39	101.56
361.616	96.56
361.843	93.56
362.07	104.56
362.296	89.56
362.523	90.56
362.749	108.56
362.976	100.56
363.203	91.56
363.429	97.56
363.656	92.56
363.882	87.56
364.109	90.56
364.335	99.56
364.562	98.56
364.788	101.56
365.015	86.56
365.241	95.56
365.468	93.56
365.694	103.56
365.92	105.56
366.147	97.56
366.373	89.56
366.599	91.56
366.826	94.56
367.052	80.56
367.278	102.56
367.505	96.56
367.731	94.56
367.957	87.56
368.184	83.56
368.41	89.56
368.636	96.56
368.862	105.56
369.089	109.56
369.315	92.56
369.541	107.56
369.767	92.56
369.993	99.56
370.219	98.56
370.445	73.56
370.672	93.56
370.898	79.56
371.124	82.56
371.35	91.56
371.576	91.56
371.802	98.56
372.028	88.56
372.254	101.56
372.48	92.56
372.706	96.56
372.932	83.56
373.158	95.56
373.384	95.56
373.61	98.56
373.835	84.56
374.061	84.56
374.287	106.56
374.513	85.56
374.739	85.56
374.965	101.56
375.191	93.56
375.416	93.56
375.642	96.56
375.868	97.56
376.094	88.56
376.319	80.56
376.545	84.56
376.771	84.56
376.997	88.56
377.222	90.56
377.448	90.56
377.674	98.56
377.899	105.56
378.125	100.56
378.35	93.56
378.576	91.56
378.802	85.56
379.027	84.56
379.253	88.56
379.478	95.56
379.704	81.56
379.929	90.56
380.155	104.56
380.38	96.56
380.606	84.56
380.831	91.56
381.057	102.56
381.282	88.56
381.507	92.56
381.733	91.56
381.958	90.56
382.184	101.56
382.409	100.56
382.634	102.56
382.86	95.56
383.085	91.56
383.31	92.56
383.535	104.56
383.761	96.56
383.986	106.56
384.211	100.56
384.436	82.56
384.662	99.56
384.887	87.56
385.112	107.56
385.337	108.56
385.562	99.56
385.787	101.56
386.013	102.56
386.238	95.56
386.463	94.56
386.688	121.56
386.913	98.56
387.138	80.56
387.363	89.56
387.588	100.56
387.813	96.56
388.038	108.56
388.263	114.56
388.488	86.56
388.713	99.56
388.938	95.56
389.163	94.56
389.387	107.56
389.612	96.56
389.837	101.56
390.062	93.56
390.287	80.56
390.512	82.56
390.736	92.56
390.961	92.56
391.186	99.56
391.411	109.56
391.636	94.56
391.86	95.56
392.085	105.56
392.31	90.56
392.534	92.56
392.759	89.56
392.984	82.56
393.208	84.56
393.433	95.56
393.658	96.56
393.882	88.56
394.107	85.56
394.331	88.56
394.556	96.56
394.78	93.56
395.005	94.56
395.229	78.56
395.454	84.56
395.678	90.56
395.903	85.56
396.127	88.56
396.352	95.56
396.576	108.56
396.801	96.56
397.025	82.56
397.249	87.56
397.474	77.56
397.698	101.56
397.922	87.56
398.147	76.56
398.371	83.56
398.595	95.56
398.82	89.56
399.044	94.56
399.268	94.56
399.492	95.56
399.717	85.56
399.941	78.56
400.165	79.56
400.389	82.56
400.613	101.56
400.837	80.56
401.062	92.56
401.286	92.56
401.51	108.56
401.734	83.56
401.958	98.56
402.182	115.56
402.406	126.56
402.63	103.56
402.854	91.56
403.078	83.56
403.302	86.56
403.526	78.56
403.75	76.56
403.974	92.56
404.198	93.56
404.422	80.56
404.645	80.56
404.869	97.56
405.093	88.56
405.317	96.56
405.541	100.56
405.765	85.56
405.988	97.56
406.212	140.56
406.436	162.56
406.66	115.56
406.883	97.56
407.107	86.56
407.331	90.56
407.555	106.56
407.778	93.56
408.002	89.56
408.226	102.56
408.449	89.56
408.673	91.56
408.896	96.56
409.12	89.56
409.344	80.56
409.567	89.56
409.791	101.56
410.014	94.56
410.238	107.56
410.461	87.56
410.685	82.56
410.908	106.56
411.132	117.56
411.355	91.56
411.578	96.56
411.802	102.56
412.025	98.56
412.249	99.56
412.472	94.56
412.695	89.56
412.919	90.56
413.142	89.56
413.365	80.56
413.589	92.56
413.812	89.56
414.035	105.56
414.258	89.56
414.482	102.56
414.705	82.56
414.928	104.56
415.151	103.56
415.374	79.56
415.597	84.56
415.821	93.56
416.044	95.56
416.267	76.56
416.49	94.56
416.713	94.56
416.936	82.56
417.159	85.56
417.382	86.56
417.605	90.56
417.828	89.56
418.051	94.56
418.274	93.56
418.497	97.56
418.72	97.56
418.943	97.56
419.166	103.56
419.389	78.56
419.611	88.56
419.834	77.56
420.057	80.56
420.28	78.56
420.503	95.56
420.726	92.56
420.948	84.56
421.171	96.56
421.394	96.56
421.617	73.56
421.839	94.56
422.062	88.56
422.285	101.56
422.507	94.56
422.73	98.56
422.953	91.56
423.175	90.56
423.398	81.56
423.621	107.56
423.843	94.56
424.066	83.56
424.288	94.56
424.511	85.56
424.733	98.56
424.956	102.56
425.178	90.56
425.401	95.56
425.623	100.56
425.846	105.56
426.068	81.56
426.291	109.56
426.513	96.56
426.735	80.56
426.958	99.56
427.18	99.56
427.402	117.56
427.625	121.56
427.847	124.56
428.069	102.56
428.292	90.56
428.514	77.56
428.736	79.56
428.958	92.56
429.181	99.56
429.403	105.56
429.625	102.56
429.847	99.56
430.069	93.56
430.292	93.56
430.514	107.56
430.736	95.56
430.958	92.56
431.18	71.56
431.402	95.56
431.624	79.56
431.846	80.56
432.068	80.56
432.29	89.56
432.512	100.56
432.734	98.56
432.956	85.56
433.178	89.56
433.4	87.56
433.622	103.56
433.844	83.56
434.066	98.56
434.287	100.56
434.509	85.56
434.731	92.56
434.953	100.56
435.175	100.56
435.397	84.56
435.618	106.56
435.84	101.56
436.062	123.56
436.284	112.56
436.505	93.56
436.727	105.56
436.949	89.56
437.17	84.56
437.392	87.56
437.614	91.56
437.835	94.56
438.057	113.56
438.278	106.56
438.5	93.56
438.721	128.56
438.943	100.56
439.165	89.56
439.386	71.56
439.608	83.56
439.829	90.56
440.05	100.56
440.272	130.56
440.493	96.56
440.715	83.56
440.936	76.56
441.158	89.56
441.379	94.56
441.6	93.56
441.822	93.56
442.043	91.56
442.264	101.56
442.486	99.56
442.707	91.56
442.928	85.56
443.149	119.56
443.371	100.56
443.592	107.56
443.813	106.56
444.034	97.56
444.255	79.56
444.476	80.56
444.698	95.56
444.919	84.56
445.14	142.56
445.361	115.56
445.582	118.56
445.803	131.56
446.024	111.56
446.245	117.56
446.466	95.56
446.687	88.56
446.908	93.56
447.129	97.56
447.35	94.56
447.571	89.56
447.792	88.56
448.013	83.56
448.234	92.56
448.455	103.56
448.675	115.56
448.896	107.56
449.117	100.56
449.338	94.56
449.559	119.56
449.779	126.56
450	92.56
450.221	89.56
450.442	96.56
450.662	110.56
450.883	89.56
451.104	96.56
451.324	101.56
451.545	85.56
451.766	87.56
451.986	85.56
452.207	91.56
452.428	84.56
452.648	92.56
452.869	97.56
453.089	91.56
453.31	116.56
453.53	91.56
453.751	101.56
453.971	85.56
454.192	109.56
454.412	89.56
454.633	86.56
454.853	87.56
455.073	90.56
455.294	99.56
455.514	87.56
455.734	83.56
455.955	81.56
456.175	93.56
456.395	87.56
456.616	74.56
456.836	74.56
457.056	77.56
457.276	81.56
457.497	92.56
457.717	92.56
457.937	82.56
458.157	88.56
458.377	88.56
458.598	97.56
458.818	120.56
459.038	108.56
459.258	109.56
459.478	93.56
459.698	89.56
459.918	96.56
460.138	90.56
460.358	93.56
460.578	96.56
460.798	95.56
461.018	95.56
461.238	85.56
461.458	92.56
461.678	86.56
461.898	99.56
462.118	88.56
462.338	87.56
462.558	85.56
462.777	92.56
462.997	81.56
463.217	92.56
463.437	86.56
463.657	97.56
463.876	97.56
464.096	98.56
464.316	94.56
464.536	104.56
464.755	97.56
464.975	93.56
465.195	123.56
465.414	128.56
465.634	98.56
465.854	99.56
466.073	93.56
466.293	91.56
466.512	87.56
466.732	79.56
466.951	85.56
467.171	100.56
467.391	96.56
467.61	91.56
467.829	95.56
468.049	104.56
468.268	108.56
468.488	93.56
468.707	96.56
468.927	98.56
469.146	90.56
469.365	75.56
469.585	90.56
469.804	101.56
470.023	76.56
470.243	65.56
470.462	110.56
470.681	100.56
470.901	88.56
471.12	90.56
471.339	104.56
471.558	95.56
471.777	85.56
471.997	89.56
472.216	103.56
472.435	122.56
472.654	98.56
472.873	89.56
473.092	84.56
473.311	84.56
473.53	100.56
473.749	88.56
473.968	91.56
474.187	99.56
474.406	89.56
474.625	91.56
474.844	92.56
475.063	94.56
475.282	91.56
475.501	96.56
475.72	99.56
475.939	88.56
476.158	93.56
476.377	89.56
476.596	82.56
476.814	87.56
477.033	96.56
477.252	103.56
477.471	77.56
477.69	85.56
477.908	93.56
478.127	83.56
478.346	81.56
478.564	100.56
478.783	94.56
479.002	100.56
479.22	83.56
479.439	90.56
479.658	90.56
479.876	85.56
480.095	97.56
480.313	96.56
480.532	91.56
480.751	105.56
480.969	112.56
481.188	148.56
481.406	130.56
481.624	98.56
481.843	84.56
482.061	100.56
482.28	100.56
482.498	100.56
482.717	85.56
482.935	80.56
483.153	79.56
483.372	79.56
483.59	100.56
483.808	87.56
484.027	97.56
484.245	92.56
484.463	95.56
484.681	95.56
484.9	96.56
485.118	102.56
485.336	91.56
485.554	90.56
485.772	110.56
485.99	90.56
486.209	96.56
486.427	107.56
486.645	94.56
486.863	96.56
487.081	106.56
487.299	91.56
487.517	104.56
487.735	93.56
487.953	88.56
488.171	96.56
488.389	90.56
488.607	114.56
488.825	95.56
489.043	79.56
489.261	94.56
489.479	95.56
489.696	91.56
489.914	82.56
490.132	88.56
490.35	105.56
490.568	91.56
490.786	95.56
491.003	96.56
491.221	83.56
491.439	82.56
491.657	100.56
491.874	93.56
492.092	93.56
492.31	94.56
492.527	84.56
492.745	92.56
492.963	89.56
493.18	96.56
493.398	92.56
493.615	96.56
493.833	97.56
494.05	91.56
494.268	82.56
494.485	89.56
494.703	83.56
494.92	85.56
495.138	92.56
495.355	85.56
495.573	84.56
495.79	94.56
496.008	90.56
496.225	94.56
496.442	92.56
496.66	95.56
496.877	106.56
497.094	101.56
497.312	77.56
497.529	89.56
497.746	98.56
497.963	99.56
498.181	96.56
498.398	97.56
498.615	96.56
498.832	111.56
499.049	98.56
499.267	92.56
499.484	108.56
499.701	97.56
499.918	90.56
500.135	84.56
500.352	83.56
500.569	82.56
500.786	99.56
501.003	98.56
501.22	100.56
501.437	112.56
501.654	93.56
501.871	95.56
502.088	91.56
502.305	93.56
502.522	107.56
502.739	85.56
502.956	83.56
503.172	95.56
503.389	107.56
503.606	99.56
503.823	91.56
504.04	98.56
504.256	95.56
504.473	81.56
504.69	86.56
504.907	91.56
505.123	107.56
505.34	90.56
505.557	80.56
505.773	100.56
505.99	78.56
506.207	88.56
506.423	68.56
506.64	91.56
506.856	84.56
507.073	86.56
507.289	97.56
507.506	87.56
507.722	100.56
507.939	83.56
508.155	95.56
508.372	99.56
508.588	86.56
508.805	99.56
509.021	97.56
509.238	96.56
509.454	86.56
509.67	92.56
509.887	123.56
510.103	131.56
510.319	159.56
510.536	540.56
510.752	1591.56
510.968	511.56
511.184	135.56
511.401	104.56
511.617	100.56
511.833	87.56
512.049	99.56
512.265	91.56
512.481	86.56
512.698	83.56
512.914	89.56
513.13	100.56
513.346	104.56
513.562	96.56
513.778	100.56
513.994	110.56
514.21	104.56
514.426	88.56
514.642	116.56
514.858	103.56
515.074	142.56
515.29	323.56
515.506	942.56
