Data from Uncirc_2009_H10_HRD10591_00083.txt Node
Date: Wed Jan 03 10:12:18 EST 2024
User: Yrep
Spectrometer: HR+D1059
Trigger mode: 1
Integration Time (sec): 1.000000E-1
Scans to average: 1
Electric dark correction enabled: true
Nonlinearity correction enabled: false
Boxcar width: 0
XAxis mode: Wavelengths
Number of Pixels in Spectrum: 2048
>>>>>Begin Spectral Data<<<<<
223.165	-10.19
223.4	-10.19
223.635	-10.19
223.869	-16.19
224.104	-17.19
224.338	-11.19
224.573	-19.19
224.808	-20.19
225.042	-4.19
225.277	-6.19
225.511	1.81
225.746	9.81
225.98	8.81
226.215	4.81
226.449	13.81
226.683	6.81
226.918	30.81
227.152	27.81
227.387	31.81
227.621	37.81
227.856	47.81
228.09	46.81
228.324	49.81
228.559	49.81
228.793	48.81
229.027	60.81
229.262	62.81
229.496	68.81
229.73	79.81
229.964	87.81
230.199	76.81
230.433	73.81
230.667	64.81
230.901	70.81
231.136	89.81
231.37	71.81
231.604	71.81
231.838	75.81
232.072	82.81
232.306	88.81
232.541	87.81
232.775	81.81
233.009	81.81
233.243	76.81
233.477	80.81
233.711	81.81
233.945	78.81
234.179	88.81
234.413	79.81
234.647	82.81
234.881	73.81
235.115	69.81
235.349	71.81
235.583	69.81
235.817	87.81
236.051	80.81
236.285	70.81
236.519	77.81
236.753	68.81
236.987	73.81
237.221	92.81
237.455	74.81
237.689	74.81
237.922	79.81
238.156	68.81
238.39	81.81
238.624	81.81
238.858	75.81
239.091	65.81
239.325	66.81
239.559	67.81
239.793	72.81
240.027	73.81
240.26	60.81
240.494	81.81
240.728	84.81
240.961	70.81
241.195	82.81
241.429	84.81
241.662	77.81
241.896	82.81
242.13	59.81
242.363	64.81
242.597	78.81
242.83	65.81
243.064	84.81
243.298	65.81
243.531	79.81
243.765	77.81
243.998	80.81
244.232	80.81
244.465	85.81
244.699	81.81
244.932	82.81
245.166	76.81
245.399	73.81
245.633	79.81
245.866	69.81
246.099	76.81
246.333	83.81
246.566	81.81
246.8	81.81
247.033	89.81
247.266	78.81
247.5	85.81
247.733	76.81
247.966	81.81
248.2	69.81
248.433	71.81
248.666	82.81
248.899	71.81
249.133	84.81
249.366	95.81
249.599	97.81
249.832	89.81
250.066	97.81
250.299	85.81
250.532	87.81
250.765	85.81
250.998	79.81
251.231	79.81
251.465	80.81
251.698	83.81
251.931	92.81
252.164	74.81
252.397	79.81
252.63	83.81
252.863	81.81
253.096	76.81
253.329	75.81
253.562	84.81
253.795	86.81
254.028	73.81
254.261	82.81
254.494	62.81
254.727	84.81
254.96	64.81
255.193	67.81
255.426	84.81
255.659	82.81
255.892	76.81
256.124	81.81
256.357	81.81
256.59	70.81
256.823	78.81
257.056	76.81
257.289	81.81
257.521	84.81
257.754	65.81
257.987	81.81
258.22	77.81
258.452	73.81
258.685	62.81
258.918	70.81
259.151	81.81
259.383	67.81
259.616	84.81
259.849	92.81
260.081	81.81
260.314	87.81
260.547	89.81
260.779	82.81
261.012	80.81
261.244	75.81
261.477	75.81
261.71	85.81
261.942	96.81
262.175	107.81
262.407	93.81
262.64	75.81
262.872	63.81
263.105	73.81
263.337	78.81
263.57	80.81
263.802	92.81
264.035	77.81
264.267	85.81
264.499	69.81
264.732	79.81
264.964	86.81
265.197	87.81
265.429	82.81
265.661	73.81
265.894	89.81
266.126	95.81
266.358	75.81
266.591	82.81
266.823	87.81
267.055	67.81
267.287	80.81
267.52	81.81
267.752	85.81
267.984	80.81
268.216	82.81
268.448	69.81
268.681	85.81
268.913	83.81
269.145	74.81
269.377	69.81
269.609	81.81
269.841	80.81
270.073	84.81
270.306	82.81
270.538	72.81
270.77	81.81
271.002	86.81
271.234	78.81
271.466	79.81
271.698	88.81
271.93	90.81
272.162	68.81
272.394	82.81
272.626	87.81
272.858	79.81
273.09	76.81
273.322	87.81
273.553	75.81
273.785	95.81
274.017	69.81
274.249	81.81
274.481	78.81
274.713	95.81
274.945	84.81
275.176	89.81
275.408	82.81
275.64	82.81
275.872	90.81
276.104	92.81
276.335	98.81
276.567	88.81
276.799	94.81
277.031	84.81
277.262	82.81
277.494	75.81
277.726	80.81
277.957	87.81
278.189	89.81
278.421	81.81
278.652	89.81
278.884	90.81
279.115	71.81
279.347	83.81
279.579	92.81
279.81	84.81
280.042	97.81
280.273	72.81
280.505	68.81
280.736	74.81
280.968	83.81
281.199	76.81
281.431	90.81
281.662	81.81
281.894	85.81
282.125	85.81
282.356	111.81
282.588	108.81
282.819	93.81
283.051	85.81
283.282	80.81
283.513	90.81
283.745	84.81
283.976	106.81
284.207	98.81
284.439	79.81
284.67	80.81
284.901	94.81
285.132	85.81
285.364	96.81
285.595	82.81
285.826	87.81
286.057	98.81
286.288	78.81
286.52	96.81
286.751	96.81
286.982	87.81
287.213	78.81
287.444	83.81
287.675	79.81
287.906	88.81
288.138	93.81
288.369	93.81
288.6	90.81
288.831	80.81
289.062	99.81
289.293	76.81
289.524	86.81
289.755	91.81
289.986	76.81
290.217	87.81
290.448	88.81
290.679	103.81
290.91	96.81
291.141	89.81
291.371	84.81
291.602	86.81
291.833	90.81
292.064	81.81
292.295	78.81
292.526	89.81
292.757	92.81
292.987	93.81
293.218	85.81
293.449	89.81
293.68	82.81
293.91	88.81
294.141	80.81
294.372	91.81
294.603	97.81
294.833	84.81
295.064	76.81
295.295	74.81
295.525	93.81
295.756	100.81
295.987	102.81
296.217	112.81
296.448	96.81
296.679	87.81
296.909	99.81
297.14	86.81
297.37	92.81
297.601	85.81
297.831	86.81
298.062	92.81
298.292	81.81
298.523	92.81
298.753	86.81
298.984	86.81
299.214	88.81
299.445	98.81
299.675	85.81
299.905	98.81
300.136	93.81
300.366	88.81
300.597	89.81
300.827	89.81
301.057	101.81
301.288	108.81
301.518	84.81
301.748	82.81
301.979	93.81
302.209	83.81
302.439	98.81
302.669	92.81
302.9	96.81
303.13	90.81
303.36	103.81
303.59	122.81
303.82	111.81
304.051	90.81
304.281	86.81
304.511	94.81
304.741	80.81
304.971	90.81
305.201	101.81
305.431	84.81
305.661	87.81
305.891	92.81
306.121	83.81
306.352	77.81
306.582	113.81
306.812	82.81
307.042	95.81
307.272	92.81
307.502	85.81
307.731	93.81
307.961	97.81
308.191	92.81
308.421	89.81
308.651	85.81
308.881	87.81
309.111	76.81
309.341	91.81
309.571	89.81
309.8	97.81
310.03	98.81
310.26	91.81
310.49	88.81
310.72	84.81
310.949	104.81
311.179	101.81
311.409	92.81
311.639	99.81
311.868	78.81
312.098	86.81
312.328	88.81
312.557	95.81
312.787	92.81
313.017	88.81
313.246	69.81
313.476	75.81
313.706	90.81
313.935	86.81
314.165	92.81
314.394	90.81
314.624	92.81
314.853	95.81
315.083	82.81
315.312	88.81
315.542	88.81
315.771	85.81
316.001	95.81
316.23	90.81
316.46	95.81
316.689	102.81
316.919	86.81
317.148	103.81
317.377	108.81
317.607	117.81
317.836	122.81
318.065	97.81
318.295	98.81
318.524	95.81
318.753	90.81
318.983	93.81
319.212	101.81
319.441	97.81
319.67	105.81
319.9	80.81
320.129	90.81
320.358	109.81
320.587	97.81
320.816	92.81
321.046	102.81
321.275	91.81
321.504	89.81
321.733	78.81
321.962	98.81
322.191	98.81
322.42	108.81
322.649	103.81
322.878	108.81
323.108	117.81
323.337	115.81
323.566	110.81
323.795	122.81
324.024	181.81
324.253	357.81
324.482	700.81
324.71	1470.81
324.939	1917.81
325.168	696.81
325.397	208.81
325.626	151.81
325.855	125.81
326.084	111.81
326.313	156.81
326.542	156.81
326.77	216.81
326.999	401.81
327.228	830.81
327.457	1468.81
327.686	1187.81
327.914	324.81
328.143	176.81
328.372	146.81
328.6	121.81
328.829	108.81
329.058	112.81
329.287	104.81
329.515	86.81
329.744	104.81
329.972	92.81
330.201	101.81
330.43	124.81
330.658	111.81
330.887	108.81
331.115	113.81
331.344	89.81
331.572	96.81
331.801	91.81
332.03	102.81
332.258	95.81
332.486	89.81
332.715	81.81
332.943	113.81
333.172	87.81
333.4	97.81
333.629	88.81
333.857	97.81
334.085	98.81
334.314	105.81
334.542	112.81
334.771	111.81
334.999	97.81
335.227	84.81
335.455	85.81
335.684	89.81
335.912	89.81
336.14	97.81
336.369	94.81
336.597	110.81
336.825	100.81
337.053	101.81
337.281	93.81
337.51	101.81
337.738	95.81
337.966	101.81
338.194	79.81
338.422	88.81
338.65	91.81
338.878	82.81
339.106	88.81
339.334	90.81
339.562	82.81
339.79	87.81
340.018	81.81
340.246	90.81
340.474	102.81
340.702	93.81
340.93	85.81
341.158	91.81
341.386	95.81
341.614	84.81
341.842	92.81
342.07	90.81
342.298	95.81
342.526	87.81
342.754	88.81
342.981	73.81
343.209	86.81
343.437	100.81
343.665	104.81
343.893	89.81
344.12	76.81
344.348	67.81
344.576	89.81
344.804	92.81
345.031	90.81
345.259	101.81
345.487	95.81
345.714	89.81
345.942	100.81
346.17	93.81
346.397	82.81
346.625	94.81
346.853	97.81
347.08	82.81
347.308	90.81
347.535	102.81
347.763	92.81
347.99	93.81
348.218	104.81
348.445	98.81
348.673	93.81
348.9	100.81
349.128	109.81
349.355	80.81
349.583	88.81
349.81	92.81
350.037	101.81
350.265	88.81
350.492	81.81
350.72	81.81
350.947	106.81
351.174	106.81
351.402	88.81
351.629	104.81
351.856	92.81
352.083	101.81
352.311	110.81
352.538	102.81
352.765	92.81
352.992	100.81
353.22	101.81
353.447	86.81
353.674	100.81
353.901	101.81
354.128	89.81
354.355	92.81
354.583	91.81
354.81	102.81
355.037	92.81
355.264	95.81
355.491	94.81
355.718	84.81
355.945	94.81
356.172	89.81
356.399	101.81
356.626	110.81
356.853	104.81
357.08	102.81
357.307	94.81
357.534	91.81
357.761	84.81
357.988	94.81
358.215	90.81
358.441	81.81
358.668	99.81
358.895	82.81
359.122	102.81
359.349	94.81
359.576	85.81
359.802	89.81
360.029	101.81
360.256	103.81
360.483	85.81
360.709	94.81
360.936	90.81
361.163	91.81
361.39	75.81
361.616	103.81
361.843	79.81
362.07	86.81
362.296	87.81
362.523	81.81
362.749	79.81
362.976	86.81
363.203	92.81
363.429	91.81
363.656	98.81
363.882	86.81
364.109	80.81
364.335	90.81
364.562	75.81
364.788	92.81
365.015	87.81
365.241	86.81
365.468	96.81
365.694	96.81
365.92	97.81
366.147	99.81
366.373	89.81
366.599	92.81
366.826	96.81
367.052	85.81
367.278	85.81
367.505	98.81
367.731	108.81
367.957	95.81
368.184	97.81
368.41	96.81
368.636	105.81
368.862	110.81
369.089	111.81
369.315	96.81
369.541	77.81
369.767	90.81
369.993	80.81
370.219	86.81
370.445	71.81
370.672	94.81
370.898	88.81
371.124	82.81
371.35	81.81
371.576	90.81
371.802	98.81
372.028	83.81
372.254	94.81
372.48	82.81
372.706	86.81
372.932	79.81
373.158	80.81
373.384	92.81
373.61	88.81
373.835	83.81
374.061	86.81
374.287	88.81
374.513	84.81
374.739	80.81
374.965	97.81
375.191	96.81
375.416	87.81
375.642	86.81
375.868	104.81
376.094	94.81
376.319	94.81
376.545	107.81
376.771	90.81
376.997	86.81
377.222	89.81
377.448	92.81
377.674	78.81
377.899	88.81
378.125	82.81
378.35	95.81
378.576	101.81
378.802	98.81
379.027	96.81
379.253	96.81
379.478	82.81
379.704	90.81
379.929	109.81
380.155	89.81
380.38	89.81
380.606	92.81
380.831	82.81
381.057	81.81
381.282	109.81
381.507	85.81
381.733	105.81
381.958	93.81
382.184	103.81
382.409	90.81
382.634	87.81
382.86	92.81
383.085	87.81
383.31	88.81
383.535	93.81
383.761	103.81
383.986	91.81
384.211	99.81
384.436	101.81
384.662	90.81
384.887	104.81
385.112	104.81
385.337	97.81
385.562	101.81
385.787	109.81
386.013	94.81
386.238	113.81
386.463	90.81
386.688	99.81
386.913	86.81
387.138	99.81
387.363	88.81
387.588	84.81
387.813	90.81
388.038	100.81
388.263	102.81
388.488	103.81
388.713	100.81
388.938	94.81
389.163	93.81
389.387	89.81
389.612	110.81
389.837	92.81
390.062	88.81
390.287	91.81
390.512	97.81
390.736	90.81
390.961	94.81
391.186	81.81
391.411	92.81
391.636	89.81
391.86	70.81
392.085	74.81
392.31	72.81
392.534	77.81
392.759	87.81
392.984	90.81
393.208	86.81
393.433	70.81
393.658	82.81
393.882	85.81
394.107	78.81
394.331	74.81
394.556	85.81
394.78	88.81
395.005	70.81
395.229	92.81
395.454	84.81
395.678	75.81
395.903	85.81
396.127	89.81
396.352	80.81
396.576	92.81
396.801	98.81
397.025	76.81
397.249	80.81
397.474	78.81
397.698	79.81
397.922	93.81
398.147	81.81
398.371	95.81
398.595	89.81
398.82	92.81
399.044	89.81
399.268	88.81
399.492	79.81
399.717	84.81
399.941	88.81
400.165	98.81
400.389	97.81
400.613	90.81
400.837	89.81
401.062	90.81
401.286	84.81
401.51	72.81
401.734	89.81
401.958	82.81
402.182	107.81
402.406	133.81
402.63	109.81
402.854	95.81
403.078	87.81
403.302	94.81
403.526	94.81
403.75	95.81
403.974	97.81
404.198	94.81
404.422	86.81
404.645	95.81
404.869	96.81
405.093	91.81
405.317	91.81
405.541	109.81
405.765	108.81
405.988	117.81
406.212	146.81
406.436	182.81
406.66	106.81
406.883	96.81
407.107	95.81
407.331	94.81
407.555	103.81
407.778	96.81
408.002	82.81
408.226	82.81
408.449	85.81
408.673	84.81
408.896	86.81
409.12	89.81
409.344	94.81
409.567	90.81
409.791	89.81
410.014	99.81
410.238	89.81
410.461	89.81
410.685	93.81
410.908	115.81
411.132	105.81
411.355	94.81
411.578	85.81
411.802	90.81
412.025	81.81
412.249	86.81
412.472	99.81
412.695	102.81
412.919	94.81
413.142	90.81
413.365	76.81
413.589	91.81
413.812	98.81
414.035	98.81
414.258	95.81
414.482	77.81
414.705	94.81
414.928	82.81
415.151	103.81
415.374	87.81
415.597	80.81
415.821	79.81
416.044	89.81
416.267	96.81
416.49	90.81
416.713	91.81
416.936	87.81
417.159	75.81
417.382	87.81
417.605	82.81
417.828	93.81
418.051	81.81
418.274	88.81
418.497	70.81
418.72	90.81
418.943	80.81
419.166	83.81
419.389	97.81
419.611	99.81
419.834	77.81
420.057	93.81
420.28	88.81
420.503	86.81
420.726	78.81
420.948	82.81
421.171	98.81
421.394	94.81
421.617	94.81
421.839	91.81
422.062	77.81
422.285	85.81
422.507	99.81
422.73	97.81
422.953	86.81
423.175	93.81
423.398	94.81
423.621	92.81
423.843	86.81
424.066	76.81
424.288	93.81
424.511	77.81
424.733	96.81
424.956	85.81
425.178	102.81
425.401	105.81
425.623	89.81
425.846	81.81
426.068	80.81
426.291	89.81
426.513	92.81
426.735	84.81
426.958	100.81
427.18	101.81
427.402	116.81
427.625	128.81
427.847	120.81
428.069	102.81
428.292	93.81
428.514	90.81
428.736	93.81
428.958	79.81
429.181	78.81
429.403	73.81
429.625	81.81
429.847	91.81
430.069	93.81
430.292	82.81
430.514	88.81
430.736	87.81
430.958	85.81
431.18	87.81
431.402	89.81
431.624	88.81
431.846	88.81
432.068	76.81
432.29	78.81
432.512	97.81
432.734	89.81
432.956	100.81
433.178	77.81
433.4	95.81
433.622	89.81
433.844	85.81
434.066	90.81
434.287	86.81
434.509	87.81
434.731	87.81
434.953	95.81
435.175	92.81
435.397	86.81
435.618	81.81
435.84	92.81
436.062	130.81
436.284	90.81
436.505	87.81
436.727	109.81
436.949	92.81
437.17	88.81
437.392	82.81
437.614	81.81
437.835	98.81
438.057	105.81
438.278	99.81
438.5	104.81
438.721	108.81
438.943	100.81
439.165	88.81
439.386	84.81
439.608	88.81
439.829	103.81
440.05	105.81
440.272	127.81
440.493	103.81
440.715	90.81
440.936	75.81
441.158	75.81
441.379	94.81
441.6	95.81
441.822	92.81
442.043	93.81
442.264	98.81
442.486	90.81
442.707	74.81
442.928	95.81
443.149	125.81
443.371	118.81
443.592	92.81
443.813	115.81
444.034	91.81
444.255	81.81
444.476	89.81
444.698	79.81
444.919	82.81
445.14	121.81
445.361	115.81
445.582	90.81
445.803	114.81
446.024	111.81
446.245	130.81
446.466	111.81
446.687	92.81
446.908	79.81
447.129	80.81
447.35	95.81
447.571	95.81
447.792	94.81
448.013	91.81
448.234	94.81
448.455	94.81
448.675	98.81
448.896	119.81
449.117	112.81
449.338	98.81
449.559	124.81
449.779	122.81
450	84.81
450.221	78.81
450.442	91.81
450.662	102.81
450.883	97.81
451.104	96.81
451.324	89.81
451.545	95.81
451.766	90.81
451.986	96.81
452.207	101.81
452.428	100.81
452.648	94.81
452.869	119.81
453.089	102.81
453.31	96.81
453.53	84.81
453.751	88.81
453.971	100.81
454.192	101.81
454.412	86.81
454.633	79.81
454.853	69.81
455.073	79.81
455.294	91.81
455.514	95.81
455.734	80.81
455.955	84.81
456.175	78.81
456.395	84.81
456.616	94.81
456.836	80.81
457.056	88.81
457.276	75.81
457.497	68.81
457.717	75.81
457.937	89.81
458.157	77.81
458.377	82.81
458.598	89.81
458.818	123.81
459.038	128.81
459.258	108.81
459.478	94.81
459.698	85.81
459.918	92.81
460.138	75.81
460.358	88.81
460.578	78.81
460.798	99.81
461.018	97.81
461.238	90.81
461.458	102.81
461.678	93.81
461.898	80.81
462.118	91.81
462.338	84.81
462.558	79.81
462.777	92.81
462.997	105.81
463.217	82.81
463.437	69.81
463.657	81.81
463.876	94.81
464.096	87.81
464.316	90.81
464.536	98.81
464.755	92.81
464.975	86.81
465.195	131.81
465.414	144.81
465.634	97.81
465.854	84.81
466.073	81.81
466.293	86.81
466.512	92.81
466.732	89.81
466.951	79.81
467.171	91.81
467.391	94.81
467.61	90.81
467.829	90.81
468.049	90.81
468.268	88.81
468.488	81.81
468.707	88.81
468.927	94.81
469.146	81.81
469.365	80.81
469.585	94.81
469.804	95.81
470.023	95.81
470.243	103.81
470.462	91.81
470.681	87.81
470.901	81.81
471.12	87.81
471.339	85.81
471.558	99.81
471.777	99.81
471.997	104.81
472.216	122.81
472.435	121.81
472.654	92.81
472.873	94.81
473.092	80.81
473.311	75.81
473.53	80.81
473.749	81.81
473.968	82.81
474.187	99.81
474.406	94.81
474.625	95.81
474.844	87.81
475.063	86.81
475.282	87.81
475.501	96.81
475.72	93.81
475.939	86.81
476.158	81.81
476.377	80.81
476.596	87.81
476.814	85.81
477.033	100.81
477.252	92.81
477.471	79.81
477.69	88.81
477.908	88.81
478.127	101.81
478.346	83.81
478.564	84.81
478.783	88.81
479.002	97.81
479.22	88.81
479.439	100.81
479.658	98.81
479.876	78.81
480.095	98.81
480.313	92.81
480.532	76.81
480.751	87.81
480.969	107.81
481.188	161.81
481.406	120.81
481.624	86.81
481.843	89.81
482.061	98.81
482.28	85.81
482.498	92.81
482.717	93.81
482.935	89.81
483.153	73.81
483.372	71.81
483.59	91.81
483.808	87.81
484.027	79.81
484.245	80.81
484.463	86.81
484.681	109.81
484.9	88.81
485.118	87.81
485.336	88.81
485.554	87.81
485.772	82.81
485.99	85.81
486.209	106.81
486.427	80.81
486.645	105.81
486.863	102.81
487.081	109.81
487.299	81.81
487.517	92.81
487.735	88.81
487.953	106.81
488.171	98.81
488.389	93.81
488.607	94.81
488.825	104.81
489.043	97.81
489.261	97.81
489.479	89.81
489.696	99.81
489.914	92.81
490.132	94.81
490.35	97.81
490.568	78.81
490.786	83.81
491.003	90.81
491.221	89.81
491.439	92.81
491.657	98.81
491.874	98.81
492.092	82.81
492.31	107.81
492.527	105.81
492.745	85.81
492.963	78.81
493.18	80.81
493.398	98.81
493.615	88.81
493.833	86.81
494.05	91.81
494.268	96.81
494.485	85.81
494.703	85.81
494.92	84.81
495.138	100.81
495.355	105.81
495.573	89.81
495.79	92.81
496.008	92.81
496.225	80.81
496.442	86.81
496.66	92.81
496.877	89.81
497.094	89.81
497.312	101.81
497.529	89.81
497.746	81.81
497.963	79.81
498.181	95.81
498.398	97.81
498.615	94.81
498.832	101.81
499.049	98.81
499.267	98.81
499.484	102.81
499.701	84.81
499.918	93.81
500.135	87.81
500.352	102.81
500.569	79.81
500.786	97.81
501.003	103.81
501.22	70.81
501.437	89.81
501.654	84.81
501.871	102.81
502.088	96.81
502.305	82.81
502.522	88.81
502.739	75.81
502.956	95.81
503.172	93.81
503.389	94.81
503.606	86.81
503.823	92.81
504.04	103.81
504.256	101.81
504.473	96.81
504.69	88.81
504.907	96.81
505.123	82.81
505.34	87.81
505.557	90.81
505.773	95.81
505.99	90.81
506.207	94.81
506.423	86.81
506.64	101.81
506.856	93.81
507.073	97.81
507.289	95.81
507.506	92.81
507.722	102.81
507.939	87.81
508.155	96.81
508.372	82.81
508.588	90.81
508.805	93.81
509.021	81.81
509.238	87.81
509.454	94.81
509.67	105.81
509.887	104.81
510.103	142.81
510.319	165.81
510.536	564.81
510.752	1710.81
510.968	502.81
511.184	134.81
511.401	107.81
511.617	88.81
511.833	86.81
512.049	78.81
512.265	96.81
512.481	105.81
512.698	80.81
512.914	88.81
513.13	89.81
513.346	92.81
513.562	101.81
513.778	101.81
513.994	92.81
514.21	97.81
514.426	109.81
514.642	113.81
514.858	115.81
515.074	148.81
515.29	311.81
515.506	982.81
515.721	384.81
515.937	123.81
516.153	103.81
516.369	101.81
516.585	87.81
516.801	82.81
