Data from Uncirc_2009_H10_HRD10591_00043.txt Node
Date: Wed Jan 03 10:12:10 EST 2024
User: Yrep
Spectrometer: HR+D1059
Trigger mode: 1
Integration Time (sec): 1.000000E-1
Scans to average: 1
Electric dark correction enabled: true
Nonlinearity correction enabled: false
Boxcar width: 0
XAxis mode: Wavelengths
Number of Pixels in Spectrum: 2048
>>>>>Begin Spectral Data<<<<<
223.165	-14.12
223.4	-14.12
223.635	-14.12
223.869	-22.12
224.104	-28.12
224.338	-8.12
224.573	-10.12
224.808	-26.12
225.042	-4.12
225.277	-12.12
225.511	-0.12
225.746	13.88
225.98	4.88
226.215	13.88
226.449	12.88
226.683	23.88
226.918	23.88
227.152	31.88
227.387	41.88
227.621	36.88
227.856	34.88
228.09	51.88
228.324	41.88
228.559	53.88
228.793	52.88
229.027	56.88
229.262	53.88
229.496	49.88
229.73	81.88
229.964	68.88
230.199	71.88
230.433	74.88
230.667	78.88
230.901	71.88
231.136	70.88
231.37	73.88
231.604	74.88
231.838	82.88
232.072	81.88
232.306	77.88
232.541	79.88
232.775	70.88
233.009	75.88
233.243	79.88
233.477	85.88
233.711	86.88
233.945	77.88
234.179	82.88
234.413	69.88
234.647	76.88
234.881	78.88
235.115	81.88
235.349	61.88
235.583	82.88
235.817	87.88
236.051	81.88
236.285	71.88
236.519	74.88
236.753	76.88
236.987	83.88
237.221	86.88
237.455	83.88
237.689	84.88
237.922	71.88
238.156	83.88
238.39	69.88
238.624	87.88
238.858	77.88
239.091	67.88
239.325	58.88
239.559	76.88
239.793	75.88
240.027	75.88
240.26	79.88
240.494	77.88
240.728	67.88
240.961	79.88
241.195	67.88
241.429	62.88
241.662	71.88
241.896	73.88
242.13	71.88
242.363	77.88
242.597	75.88
242.83	84.88
243.064	83.88
243.298	78.88
243.531	87.88
243.765	83.88
243.998	75.88
244.232	71.88
244.465	86.88
244.699	73.88
244.932	69.88
245.166	69.88
245.399	73.88
245.633	71.88
245.866	70.88
246.099	70.88
246.333	58.88
246.566	79.88
246.8	81.88
247.033	85.88
247.266	88.88
247.5	64.88
247.733	88.88
247.966	80.88
248.2	83.88
248.433	72.88
248.666	83.88
248.899	96.88
249.133	57.88
249.366	78.88
249.599	86.88
249.832	70.88
250.066	84.88
250.299	90.88
250.532	80.88
250.765	70.88
250.998	86.88
251.231	84.88
251.465	81.88
251.698	82.88
251.931	87.88
252.164	88.88
252.397	88.88
252.63	86.88
252.863	68.88
253.096	93.88
253.329	93.88
253.562	69.88
253.795	64.88
254.028	81.88
254.261	72.88
254.494	81.88
254.727	88.88
254.96	80.88
255.193	76.88
255.426	77.88
255.659	83.88
255.892	82.88
256.124	82.88
256.357	62.88
256.59	87.88
256.823	78.88
257.056	83.88
257.289	86.88
257.521	79.88
257.754	80.88
257.987	75.88
258.22	73.88
258.452	78.88
258.685	85.88
258.918	91.88
259.151	69.88
259.383	81.88
259.616	92.88
259.849	82.88
260.081	82.88
260.314	75.88
260.547	75.88
260.779	82.88
261.012	67.88
261.244	89.88
261.477	83.88
261.71	94.88
261.942	93.88
262.175	104.88
262.407	75.88
262.64	82.88
262.872	70.88
263.105	91.88
263.337	89.88
263.57	87.88
263.802	90.88
264.035	90.88
264.267	79.88
264.499	81.88
264.732	85.88
264.964	79.88
265.197	81.88
265.429	81.88
265.661	95.88
265.894	75.88
266.126	81.88
266.358	93.88
266.591	84.88
266.823	83.88
267.055	82.88
267.287	84.88
267.52	84.88
267.752	76.88
267.984	102.88
268.216	79.88
268.448	87.88
268.681	89.88
268.913	72.88
269.145	59.88
269.377	81.88
269.609	74.88
269.841	74.88
270.073	91.88
270.306	93.88
270.538	84.88
270.77	78.88
271.002	90.88
271.234	74.88
271.466	87.88
271.698	86.88
271.93	82.88
272.162	81.88
272.394	86.88
272.626	78.88
272.858	75.88
273.09	79.88
273.322	85.88
273.553	79.88
273.785	73.88
274.017	86.88
274.249	89.88
274.481	83.88
274.713	73.88
274.945	77.88
275.176	87.88
275.408	83.88
275.64	78.88
275.872	96.88
276.104	89.88
276.335	94.88
276.567	88.88
276.799	94.88
277.031	92.88
277.262	77.88
277.494	79.88
277.726	79.88
277.957	93.88
278.189	72.88
278.421	90.88
278.652	97.88
278.884	89.88
279.115	67.88
279.347	87.88
279.579	66.88
279.81	71.88
280.042	78.88
280.273	88.88
280.505	83.88
280.736	87.88
280.968	84.88
281.199	85.88
281.431	86.88
281.662	83.88
281.894	68.88
282.125	82.88
282.356	108.88
282.588	116.88
282.819	94.88
283.051	91.88
283.282	80.88
283.513	86.88
283.745	78.88
283.976	95.88
284.207	104.88
284.439	79.88
284.67	87.88
284.901	76.88
285.132	74.88
285.364	83.88
285.595	77.88
285.826	77.88
286.057	89.88
286.288	98.88
286.52	90.88
286.751	88.88
286.982	87.88
287.213	83.88
287.444	72.88
287.675	75.88
287.906	87.88
288.138	83.88
288.369	77.88
288.6	83.88
288.831	87.88
289.062	64.88
289.293	79.88
289.524	86.88
289.755	90.88
289.986	70.88
290.217	85.88
290.448	83.88
290.679	83.88
290.91	91.88
291.141	81.88
291.371	87.88
291.602	84.88
291.833	92.88
292.064	90.88
292.295	91.88
292.526	86.88
292.757	84.88
292.987	84.88
293.218	75.88
293.449	95.88
293.68	70.88
293.91	92.88
294.141	88.88
294.372	75.88
294.603	87.88
294.833	84.88
295.064	86.88
295.295	82.88
295.525	92.88
295.756	102.88
295.987	100.88
296.217	89.88
296.448	108.88
296.679	70.88
296.909	84.88
297.14	81.88
297.37	71.88
297.601	76.88
297.831	87.88
298.062	84.88
298.292	87.88
298.523	83.88
298.753	86.88
298.984	77.88
299.214	82.88
299.445	82.88
299.675	95.88
299.905	78.88
300.136	89.88
300.366	100.88
300.597	87.88
300.827	92.88
301.057	102.88
301.288	93.88
301.518	80.88
301.748	92.88
301.979	84.88
302.209	93.88
302.439	100.88
302.669	85.88
302.9	77.88
303.13	95.88
303.36	91.88
303.59	100.88
303.82	95.88
304.051	91.88
304.281	93.88
304.511	80.88
304.741	78.88
304.971	89.88
305.201	77.88
305.431	85.88
305.661	91.88
305.891	102.88
306.121	86.88
306.352	95.88
306.582	88.88
306.812	103.88
307.042	89.88
307.272	92.88
307.502	86.88
307.731	87.88
307.961	79.88
308.191	85.88
308.421	75.88
308.651	83.88
308.881	65.88
309.111	83.88
309.341	84.88
309.571	90.88
309.8	87.88
310.03	106.88
310.26	97.88
310.49	90.88
310.72	91.88
310.949	78.88
311.179	89.88
311.409	85.88
311.639	84.88
311.868	101.88
312.098	85.88
312.328	93.88
312.557	78.88
312.787	91.88
313.017	87.88
313.246	84.88
313.476	74.88
313.706	77.88
313.935	86.88
314.165	87.88
314.394	89.88
314.624	92.88
314.853	85.88
315.083	82.88
315.312	89.88
315.542	82.88
315.771	94.88
316.001	89.88
316.23	77.88
316.46	82.88
316.689	100.88
316.919	94.88
317.148	78.88
317.377	88.88
317.607	120.88
317.836	106.88
318.065	93.88
318.295	88.88
318.524	101.88
318.753	79.88
318.983	78.88
319.212	90.88
319.441	102.88
319.67	105.88
319.9	91.88
320.129	72.88
320.358	85.88
320.587	87.88
320.816	88.88
321.046	84.88
321.275	94.88
321.504	100.88
321.733	89.88
321.962	95.88
322.191	107.88
322.42	110.88
322.649	94.88
322.878	100.88
323.108	97.88
323.337	103.88
323.566	116.88
323.795	143.88
324.024	171.88
324.253	310.88
324.482	641.88
324.71	1305.88
324.939	1708.88
325.168	649.88
325.397	203.88
325.626	126.88
325.855	120.88
326.084	125.88
326.313	137.88
326.542	142.88
326.77	207.88
326.999	365.88
327.228	755.88
327.457	1336.88
327.686	1073.88
327.914	291.88
328.143	147.88
328.372	129.88
328.6	115.88
328.829	115.88
329.058	110.88
329.287	120.88
329.515	110.88
329.744	101.88
329.972	87.88
330.201	85.88
330.43	101.88
330.658	104.88
330.887	113.88
331.115	114.88
331.344	83.88
331.572	97.88
331.801	91.88
332.03	93.88
332.258	87.88
332.486	94.88
332.715	89.88
332.943	88.88
333.172	89.88
333.4	92.88
333.629	94.88
333.857	106.88
334.085	97.88
334.314	103.88
334.542	109.88
334.771	113.88
334.999	108.88
335.227	92.88
335.455	77.88
335.684	86.88
335.912	93.88
336.14	90.88
336.369	94.88
336.597	92.88
336.825	91.88
337.053	90.88
337.281	102.88
337.51	102.88
337.738	76.88
337.966	85.88
338.194	87.88
338.422	97.88
338.65	92.88
338.878	93.88
339.106	94.88
339.334	94.88
339.562	86.88
339.79	77.88
340.018	93.88
340.246	86.88
340.474	92.88
340.702	83.88
340.93	85.88
341.158	92.88
341.386	87.88
341.614	90.88
341.842	91.88
342.07	79.88
342.298	97.88
342.526	101.88
342.754	90.88
342.981	92.88
343.209	93.88
343.437	105.88
343.665	80.88
343.893	91.88
344.12	67.88
344.348	85.88
344.576	66.88
344.804	78.88
345.031	90.88
345.259	77.88
345.487	80.88
345.714	96.88
345.942	92.88
346.17	97.88
346.397	103.88
346.625	81.88
346.853	83.88
347.08	86.88
347.308	95.88
347.535	91.88
347.763	99.88
347.99	99.88
348.218	85.88
348.445	94.88
348.673	104.88
348.9	80.88
349.128	100.88
349.355	100.88
349.583	92.88
349.81	100.88
350.037	98.88
350.265	88.88
350.492	100.88
350.72	87.88
350.947	102.88
351.174	101.88
351.402	103.88
351.629	103.88
351.856	97.88
352.083	99.88
352.311	100.88
352.538	99.88
352.765	89.88
352.992	108.88
353.22	101.88
353.447	79.88
353.674	90.88
353.901	108.88
354.128	99.88
354.355	97.88
354.583	91.88
354.81	76.88
355.037	106.88
355.264	93.88
355.491	93.88
355.718	86.88
355.945	78.88
356.172	90.88
356.399	99.88
356.626	83.88
356.853	100.88
357.08	87.88
357.307	72.88
357.534	100.88
357.761	77.88
357.988	99.88
358.215	95.88
358.441	99.88
358.668	100.88
358.895	80.88
359.122	97.88
359.349	70.88
359.576	99.88
359.802	93.88
360.029	93.88
360.256	98.88
360.483	85.88
360.709	83.88
360.936	92.88
361.163	80.88
361.39	78.88
361.616	80.88
361.843	75.88
362.07	89.88
362.296	88.88
362.523	86.88
362.749	88.88
362.976	84.88
363.203	92.88
363.429	92.88
363.656	89.88
363.882	90.88
364.109	74.88
364.335	75.88
364.562	91.88
364.788	73.88
365.015	84.88
365.241	105.88
365.468	98.88
365.694	104.88
365.92	82.88
366.147	75.88
366.373	89.88
366.599	80.88
366.826	72.88
367.052	90.88
367.278	88.88
367.505	86.88
367.731	85.88
367.957	78.88
368.184	83.88
368.41	84.88
368.636	100.88
368.862	103.88
369.089	91.88
369.315	88.88
369.541	93.88
369.767	70.88
369.993	86.88
370.219	76.88
370.445	90.88
370.672	90.88
370.898	82.88
371.124	83.88
371.35	85.88
371.576	103.88
371.802	89.88
372.028	76.88
372.254	84.88
372.48	102.88
372.706	91.88
372.932	79.88
373.158	90.88
373.384	97.88
373.61	101.88
373.835	90.88
374.061	88.88
374.287	98.88
374.513	79.88
374.739	86.88
374.965	80.88
375.191	87.88
375.416	91.88
375.642	90.88
375.868	92.88
376.094	89.88
376.319	83.88
376.545	85.88
376.771	91.88
376.997	105.88
377.222	78.88
377.448	92.88
377.674	81.88
377.899	79.88
378.125	95.88
378.35	102.88
378.576	84.88
378.802	95.88
379.027	90.88
379.253	91.88
379.478	77.88
379.704	98.88
379.929	101.88
380.155	97.88
380.38	95.88
380.606	91.88
380.831	90.88
381.057	95.88
381.282	91.88
381.507	93.88
381.733	94.88
381.958	104.88
382.184	82.88
382.409	92.88
382.634	101.88
382.86	94.88
383.085	83.88
383.31	100.88
383.535	104.88
383.761	100.88
383.986	103.88
384.211	94.88
384.436	95.88
384.662	102.88
384.887	95.88
385.112	99.88
385.337	105.88
385.562	99.88
385.787	94.88
386.013	105.88
386.238	94.88
386.463	107.88
386.688	101.88
386.913	94.88
387.138	94.88
387.363	104.88
387.588	94.88
387.813	93.88
388.038	105.88
388.263	106.88
388.488	103.88
388.713	98.88
388.938	83.88
389.163	84.88
389.387	97.88
389.612	89.88
389.837	81.88
390.062	93.88
390.287	91.88
390.512	89.88
390.736	103.88
390.961	93.88
391.186	81.88
391.411	85.88
391.636	85.88
391.86	94.88
392.085	81.88
392.31	81.88
392.534	90.88
392.759	90.88
392.984	79.88
393.208	83.88
393.433	92.88
393.658	85.88
393.882	93.88
394.107	83.88
394.331	80.88
394.556	80.88
394.78	86.88
395.005	88.88
395.229	82.88
395.454	74.88
395.678	91.88
395.903	90.88
396.127	92.88
396.352	77.88
396.576	73.88
396.801	78.88
397.025	79.88
397.249	71.88
397.474	70.88
397.698	85.88
397.922	85.88
398.147	95.88
398.371	91.88
398.595	78.88
398.82	62.88
399.044	75.88
399.268	93.88
399.492	77.88
399.717	93.88
399.941	101.88
400.165	95.88
400.389	77.88
400.613	78.88
400.837	87.88
401.062	84.88
401.286	76.88
401.51	93.88
401.734	90.88
401.958	89.88
402.182	97.88
402.406	120.88
402.63	101.88
402.854	84.88
403.078	92.88
403.302	100.88
403.526	81.88
403.75	91.88
403.974	86.88
404.198	87.88
404.422	89.88
404.645	78.88
404.869	96.88
405.093	87.88
405.317	93.88
405.541	89.88
405.765	102.88
405.988	97.88
406.212	153.88
406.436	178.88
406.66	121.88
406.883	77.88
407.107	88.88
407.331	92.88
407.555	102.88
407.778	87.88
408.002	83.88
408.226	95.88
408.449	87.88
408.673	72.88
408.896	87.88
409.12	81.88
409.344	94.88
409.567	88.88
409.791	99.88
410.014	95.88
410.238	87.88
410.461	79.88
410.685	85.88
410.908	97.88
411.132	101.88
411.355	101.88
411.578	104.88
411.802	72.88
412.025	91.88
412.249	95.88
412.472	95.88
412.695	104.88
412.919	88.88
413.142	85.88
413.365	79.88
413.589	93.88
413.812	92.88
414.035	79.88
414.258	83.88
414.482	89.88
414.705	89.88
414.928	86.88
415.151	93.88
415.374	90.88
415.597	83.88
415.821	95.88
416.044	89.88
416.267	73.88
416.49	89.88
416.713	85.88
416.936	78.88
417.159	77.88
417.382	79.88
417.605	100.88
417.828	80.88
418.051	85.88
418.274	84.88
418.497	86.88
418.72	75.88
418.943	90.88
419.166	85.88
419.389	97.88
419.611	79.88
419.834	75.88
420.057	87.88
420.28	86.88
420.503	84.88
420.726	74.88
420.948	93.88
421.171	91.88
421.394	102.88
421.617	89.88
421.839	91.88
422.062	82.88
422.285	97.88
422.507	92.88
422.73	84.88
422.953	88.88
423.175	88.88
423.398	91.88
423.621	84.88
423.843	86.88
424.066	91.88
424.288	92.88
424.511	84.88
424.733	92.88
424.956	95.88
425.178	108.88
425.401	102.88
425.623	94.88
425.846	80.88
426.068	89.88
426.291	86.88
426.513	94.88
426.735	76.88
426.958	79.88
427.18	101.88
427.402	103.88
427.625	135.88
427.847	113.88
428.069	112.88
428.292	86.88
428.514	89.88
428.736	87.88
428.958	77.88
429.181	80.88
429.403	89.88
429.625	87.88
429.847	88.88
430.069	90.88
430.292	95.88
430.514	84.88
430.736	87.88
430.958	90.88
431.18	69.88
431.402	87.88
431.624	77.88
431.846	92.88
432.068	73.88
432.29	98.88
432.512	85.88
432.734	93.88
432.956	85.88
433.178	95.88
433.4	102.88
433.622	92.88
433.844	86.88
434.066	86.88
434.287	79.88
434.509	90.88
434.731	77.88
434.953	86.88
435.175	103.88
435.397	98.88
435.618	86.88
435.84	101.88
436.062	104.88
436.284	82.88
436.505	101.88
436.727	105.88
436.949	88.88
437.17	82.88
437.392	77.88
437.614	74.88
437.835	93.88
438.057	103.88
438.278	89.88
438.5	105.88
438.721	101.88
438.943	98.88
439.165	81.88
439.386	68.88
439.608	74.88
439.829	91.88
440.05	118.88
440.272	114.88
440.493	95.88
440.715	88.88
440.936	85.88
441.158	83.88
441.379	78.88
441.6	83.88
441.822	89.88
442.043	99.88
442.264	84.88
442.486	93.88
442.707	85.88
442.928	104.88
443.149	97.88
443.371	93.88
443.592	99.88
443.813	113.88
444.034	106.88
444.255	74.88
444.476	90.88
444.698	87.88
444.919	78.88
445.14	125.88
445.361	106.88
445.582	98.88
445.803	123.88
446.024	106.88
446.245	106.88
446.466	109.88
446.687	102.88
446.908	80.88
447.129	93.88
447.35	78.88
447.571	81.88
447.792	79.88
448.013	87.88
448.234	92.88
448.455	83.88
448.675	93.88
448.896	79.88
449.117	84.88
449.338	96.88
449.559	129.88
449.779	119.88
450	96.88
450.221	89.88
450.442	87.88
450.662	92.88
450.883	86.88
451.104	105.88
451.324	88.88
451.545	88.88
451.766	91.88
451.986	84.88
452.207	89.88
452.428	85.88
452.648	86.88
452.869	92.88
453.089	108.88
453.31	91.88
453.53	80.88
453.751	91.88
453.971	86.88
454.192	114.88
454.412	93.88
454.633	92.88
454.853	77.88
455.073	89.88
455.294	85.88
455.514	89.88
455.734	92.88
455.955	88.88
456.175	82.88
456.395	92.88
456.616	86.88
456.836	74.88
457.056	76.88
457.276	78.88
457.497	78.88
457.717	83.88
457.937	63.88
458.157	84.88
458.377	72.88
458.598	101.88
458.818	129.88
459.038	129.88
459.258	111.88
459.478	90.88
459.698	87.88
459.918	82.88
460.138	87.88
460.358	93.88
460.578	83.88
460.798	79.88
461.018	77.88
461.238	82.88
461.458	84.88
461.678	85.88
461.898	89.88
462.118	88.88
462.338	79.88
462.558	84.88
462.777	77.88
462.997	85.88
463.217	76.88
463.437	91.88
463.657	85.88
463.876	85.88
464.096	72.88
464.316	83.88
464.536	85.88
464.755	81.88
464.975	85.88
465.195	129.88
465.414	120.88
465.634	90.88
465.854	82.88
466.073	81.88
466.293	78.88
466.512	70.88
466.732	92.88
466.951	86.88
467.171	97.88
467.391	81.88
467.61	93.88
467.829	89.88
468.049	74.88
468.268	94.88
468.488	76.88
468.707	83.88
468.927	93.88
469.146	102.88
469.365	94.88
469.585	88.88
469.804	83.88
470.023	66.88
470.243	91.88
470.462	85.88
470.681	99.88
470.901	83.88
471.12	77.88
471.339	80.88
471.558	78.88
471.777	96.88
471.997	89.88
472.216	95.88
472.435	118.88
472.654	88.88
472.873	102.88
473.092	67.88
473.311	70.88
473.53	75.88
473.749	99.88
473.968	92.88
474.187	100.88
474.406	87.88
474.625	93.88
474.844	103.88
475.063	99.88
475.282	85.88
475.501	89.88
475.72	85.88
475.939	69.88
476.158	94.88
476.377	97.88
476.596	75.88
476.814	78.88
477.033	70.88
477.252	90.88
477.471	72.88
477.69	85.88
477.908	73.88
478.127	84.88
478.346	69.88
478.564	84.88
478.783	96.88
479.002	89.88
479.22	84.88
479.439	97.88
479.658	98.88
479.876	89.88
480.095	91.88
480.313	96.88
480.532	94.88
480.751	96.88
480.969	119.88
481.188	162.88
481.406	114.88
481.624	93.88
481.843	90.88
482.061	75.88
482.28	81.88
482.498	84.88
482.717	87.88
482.935	106.88
483.153	92.88
483.372	93.88
483.59	84.88
483.808	95.88
484.027	89.88
484.245	90.88
484.463	83.88
484.681	105.88
484.9	92.88
485.118	93.88
485.336	81.88
485.554	105.88
485.772	88.88
485.99	98.88
486.209	105.88
486.427	102.88
486.645	98.88
486.863	98.88
487.081	98.88
487.299	104.88
487.517	103.88
487.735	90.88
487.953	97.88
488.171	79.88
488.389	84.88
488.607	95.88
488.825	77.88
489.043	83.88
489.261	78.88
489.479	79.88
489.696	83.88
489.914	92.88
490.132	78.88
490.35	95.88
490.568	88.88
490.786	85.88
491.003	98.88
491.221	87.88
491.439	82.88
491.657	92.88
491.874	78.88
492.092	89.88
492.31	89.88
492.527	93.88
492.745	80.88
492.963	85.88
493.18	106.88
493.398	98.88
493.615	103.88
493.833	102.88
494.05	86.88
494.268	95.88
494.485	80.88
494.703	89.88
494.92	97.88
495.138	77.88
495.355	67.88
495.573	86.88
495.79	85.88
496.008	78.88
496.225	85.88
496.442	83.88
496.66	86.88
496.877	90.88
497.094	91.88
497.312	94.88
497.529	85.88
497.746	91.88
497.963	79.88
498.181	89.88
498.398	90.88
498.615	103.88
498.832	99.88
499.049	85.88
499.267	83.88
499.484	91.88
499.701	87.88
499.918	93.88
500.135	94.88
500.352	86.88
500.569	79.88
500.786	93.88
501.003	102.88
501.22	83.88
501.437	91.88
501.654	92.88
501.871	90.88
502.088	96.88
502.305	99.88
502.522	84.88
502.739	85.88
502.956	100.88
503.172	86.88
503.389	81.88
503.606	101.88
503.823	97.88
504.04	89.88
504.256	74.88
504.473	92.88
504.69	77.88
504.907	83.88
505.123	77.88
505.34	79.88
505.557	77.88
505.773	94.88
505.99	100.88
506.207	92.88
506.423	94.88
506.64	83.88
506.856	83.88
507.073	82.88
507.289	80.88
507.506	88.88
507.722	91.88
507.939	90.88
508.155	93.88
508.372	86.88
508.588	97.88
508.805	85.88
509.021	93.88
509.238	86.88
509.454	93.88
509.67	91.88
509.887	110.88
510.103	111.88
510.319	171.88
510.536	526.88
510.752	1612.88
510.968	499.88
511.184	133.88
511.401	114.88
511.617	101.88
511.833	97.88
512.049	87.88
512.265	95.88
512.481	83.88
512.698	76.88
512.914	82.88
513.13	96.88
513.346	86.88
513.562	97.88
513.778	85.88
513.994	74.88
514.21	97.88
514.426	103.88
514.642	107.88
514.858	101.88
515.074	138.88
515.29	309.88
515.506	941.88
515.721	369.88
515.937	131.88
516.153	98.88
516.369	100.88
516.585	81.88
516.801	92.88
517.016	89.88
