Data from Uncirc_2009_H10_HRD10591_00077.txt Node
Date: Wed Jan 03 10:12:17 EST 2024
User: Yrep
Spectrometer: HR+D1059
Trigger mode: 1
Integration Time (sec): 1.000000E-1
Scans to average: 1
Electric dark correction enabled: true
Nonlinearity correction enabled: false
Boxcar width: 0
XAxis mode: Wavelengths
Number of Pixels in Spectrum: 2048
>>>>>Begin Spectral Data<<<<<
223.165	-15.19
223.4	-15.19
223.635	-15.19
223.869	-10.19
224.104	-11.19
224.338	-17.19
224.573	-15.19
224.808	-12.19
225.042	-3.19
225.277	-17.19
225.511	-2.19
225.746	-2.19
225.98	12.81
226.215	-0.19
226.449	20.81
226.683	24.81
226.918	36.81
227.152	10.81
227.387	21.81
227.621	32.81
227.856	47.81
228.09	37.81
228.324	38.81
228.559	61.81
228.793	39.81
229.027	68.81
229.262	51.81
229.496	79.81
229.73	78.81
229.964	80.81
230.199	75.81
230.433	54.81
230.667	74.81
230.901	77.81
231.136	80.81
231.37	70.81
231.604	75.81
231.838	76.81
232.072	75.81
232.306	86.81
232.541	91.81
232.775	85.81
233.009	80.81
233.243	80.81
233.477	83.81
233.711	90.81
233.945	75.81
234.179	82.81
234.413	70.81
234.647	88.81
234.881	67.81
235.115	83.81
235.349	85.81
235.583	82.81
235.817	71.81
236.051	78.81
236.285	83.81
236.519	74.81
236.753	89.81
236.987	74.81
237.221	72.81
237.455	68.81
237.689	93.81
237.922	66.81
238.156	80.81
238.39	76.81
238.624	68.81
238.858	63.81
239.091	84.81
239.325	71.81
239.559	68.81
239.793	70.81
240.027	79.81
240.26	75.81
240.494	70.81
240.728	69.81
240.961	74.81
241.195	76.81
241.429	77.81
241.662	75.81
241.896	62.81
242.13	86.81
242.363	71.81
242.597	76.81
242.83	74.81
243.064	77.81
243.298	85.81
243.531	88.81
243.765	72.81
243.998	70.81
244.232	84.81
244.465	75.81
244.699	84.81
244.932	77.81
245.166	73.81
245.399	63.81
245.633	85.81
245.866	77.81
246.099	81.81
246.333	76.81
246.566	72.81
246.8	78.81
247.033	80.81
247.266	85.81
247.5	68.81
247.733	81.81
247.966	79.81
248.2	77.81
248.433	81.81
248.666	78.81
248.899	74.81
249.133	80.81
249.366	82.81
249.599	94.81
249.832	86.81
250.066	76.81
250.299	82.81
250.532	72.81
250.765	80.81
250.998	68.81
251.231	64.81
251.465	69.81
251.698	80.81
251.931	54.81
252.164	71.81
252.397	82.81
252.63	79.81
252.863	75.81
253.096	75.81
253.329	82.81
253.562	76.81
253.795	70.81
254.028	85.81
254.261	83.81
254.494	86.81
254.727	73.81
254.96	74.81
255.193	87.81
255.426	70.81
255.659	82.81
255.892	81.81
256.124	78.81
256.357	73.81
256.59	78.81
256.823	65.81
257.056	81.81
257.289	95.81
257.521	79.81
257.754	83.81
257.987	87.81
258.22	77.81
258.452	88.81
258.685	80.81
258.918	90.81
259.151	75.81
259.383	64.81
259.616	87.81
259.849	74.81
260.081	72.81
260.314	83.81
260.547	83.81
260.779	89.81
261.012	74.81
261.244	69.81
261.477	91.81
261.71	89.81
261.942	99.81
262.175	94.81
262.407	91.81
262.64	71.81
262.872	90.81
263.105	71.81
263.337	74.81
263.57	77.81
263.802	76.81
264.035	66.81
264.267	80.81
264.499	69.81
264.732	69.81
264.964	99.81
265.197	83.81
265.429	74.81
265.661	76.81
265.894	71.81
266.126	77.81
266.358	83.81
266.591	73.81
266.823	74.81
267.055	78.81
267.287	85.81
267.52	76.81
267.752	78.81
267.984	79.81
268.216	87.81
268.448	77.81
268.681	69.81
268.913	78.81
269.145	66.81
269.377	73.81
269.609	85.81
269.841	86.81
270.073	74.81
270.306	76.81
270.538	90.81
270.77	93.81
271.002	82.81
271.234	85.81
271.466	100.81
271.698	91.81
271.93	82.81
272.162	79.81
272.394	79.81
272.626	81.81
272.858	68.81
273.09	72.81
273.322	84.81
273.553	91.81
273.785	71.81
274.017	84.81
274.249	84.81
274.481	73.81
274.713	70.81
274.945	91.81
275.176	76.81
275.408	80.81
275.64	83.81
275.872	86.81
276.104	78.81
276.335	81.81
276.567	94.81
276.799	93.81
277.031	95.81
277.262	87.81
277.494	86.81
277.726	87.81
277.957	72.81
278.189	78.81
278.421	94.81
278.652	85.81
278.884	75.81
279.115	80.81
279.347	89.81
279.579	86.81
279.81	86.81
280.042	103.81
280.273	98.81
280.505	85.81
280.736	80.81
280.968	87.81
281.199	80.81
281.431	80.81
281.662	76.81
281.894	75.81
282.125	84.81
282.356	89.81
282.588	109.81
282.819	121.81
283.051	80.81
283.282	78.81
283.513	80.81
283.745	87.81
283.976	92.81
284.207	98.81
284.439	96.81
284.67	83.81
284.901	95.81
285.132	77.81
285.364	75.81
285.595	87.81
285.826	85.81
286.057	90.81
286.288	99.81
286.52	92.81
286.751	84.81
286.982	85.81
287.213	87.81
287.444	69.81
287.675	68.81
287.906	74.81
288.138	89.81
288.369	82.81
288.6	85.81
288.831	72.81
289.062	88.81
289.293	91.81
289.524	76.81
289.755	94.81
289.986	85.81
290.217	88.81
290.448	89.81
290.679	88.81
290.91	111.81
291.141	81.81
291.371	72.81
291.602	82.81
291.833	89.81
292.064	76.81
292.295	97.81
292.526	74.81
292.757	71.81
292.987	82.81
293.218	90.81
293.449	89.81
293.68	81.81
293.91	81.81
294.141	87.81
294.372	93.81
294.603	80.81
294.833	80.81
295.064	79.81
295.295	77.81
295.525	99.81
295.756	97.81
295.987	102.81
296.217	112.81
296.448	102.81
296.679	97.81
296.909	77.81
297.14	85.81
297.37	82.81
297.601	74.81
297.831	77.81
298.062	82.81
298.292	84.81
298.523	79.81
298.753	79.81
298.984	71.81
299.214	94.81
299.445	99.81
299.675	80.81
299.905	82.81
300.136	82.81
300.366	75.81
300.597	88.81
300.827	88.81
301.057	109.81
301.288	100.81
301.518	88.81
301.748	86.81
301.979	96.81
302.209	100.81
302.439	87.81
302.669	82.81
302.9	77.81
303.13	79.81
303.36	103.81
303.59	107.81
303.82	87.81
304.051	96.81
304.281	99.81
304.511	87.81
304.741	93.81
304.971	89.81
305.201	82.81
305.431	89.81
305.661	80.81
305.891	70.81
306.121	74.81
306.352	95.81
306.582	97.81
306.812	79.81
307.042	80.81
307.272	70.81
307.502	88.81
307.731	97.81
307.961	86.81
308.191	85.81
308.421	93.81
308.651	91.81
308.881	95.81
309.111	83.81
309.341	86.81
309.571	86.81
309.8	87.81
310.03	91.81
310.26	77.81
310.49	96.81
310.72	95.81
310.949	109.81
311.179	108.81
311.409	80.81
311.639	100.81
311.868	79.81
312.098	90.81
312.328	91.81
312.557	93.81
312.787	106.81
313.017	91.81
313.246	83.81
313.476	80.81
313.706	71.81
313.935	97.81
314.165	96.81
314.394	90.81
314.624	93.81
314.853	87.81
315.083	85.81
315.312	80.81
315.542	92.81
315.771	99.81
316.001	99.81
316.23	101.81
316.46	80.81
316.689	84.81
316.919	97.81
317.148	95.81
317.377	103.81
317.607	112.81
317.836	100.81
318.065	80.81
318.295	93.81
318.524	86.81
318.753	93.81
318.983	95.81
319.212	91.81
319.441	88.81
319.67	91.81
319.9	100.81
320.129	91.81
320.358	95.81
320.587	97.81
320.816	74.81
321.046	95.81
321.275	82.81
321.504	100.81
321.733	96.81
321.962	99.81
322.191	110.81
322.42	100.81
322.649	95.81
322.878	103.81
323.108	114.81
323.337	99.81
323.566	124.81
323.795	114.81
324.024	188.81
324.253	350.81
324.482	708.81
324.71	1479.81
324.939	1922.81
325.168	713.81
325.397	237.81
325.626	123.81
325.855	124.81
326.084	134.81
326.313	152.81
326.542	151.81
326.77	203.81
326.999	402.81
327.228	836.81
327.457	1558.81
327.686	1191.81
327.914	315.81
328.143	164.81
328.372	131.81
328.6	114.81
328.829	116.81
329.058	112.81
329.287	104.81
329.515	109.81
329.744	108.81
329.972	101.81
330.201	109.81
330.43	115.81
330.658	118.81
330.887	127.81
331.115	110.81
331.344	102.81
331.572	84.81
331.801	91.81
332.03	90.81
332.258	120.81
332.486	94.81
332.715	102.81
332.943	91.81
333.172	92.81
333.4	83.81
333.629	96.81
333.857	108.81
334.085	98.81
334.314	106.81
334.542	112.81
334.771	118.81
334.999	100.81
335.227	83.81
335.455	100.81
335.684	99.81
335.912	103.81
336.14	87.81
336.369	101.81
336.597	86.81
336.825	86.81
337.053	82.81
337.281	80.81
337.51	87.81
337.738	92.81
337.966	85.81
338.194	78.81
338.422	94.81
338.65	77.81
338.878	87.81
339.106	90.81
339.334	84.81
339.562	82.81
339.79	78.81
340.018	111.81
340.246	98.81
340.474	90.81
340.702	77.81
340.93	86.81
341.158	100.81
341.386	98.81
341.614	87.81
341.842	90.81
342.07	91.81
342.298	82.81
342.526	89.81
342.754	92.81
342.981	79.81
343.209	87.81
343.437	88.81
343.665	77.81
343.893	88.81
344.12	77.81
344.348	80.81
344.576	81.81
344.804	84.81
345.031	84.81
345.259	93.81
345.487	95.81
345.714	89.81
345.942	78.81
346.17	88.81
346.397	90.81
346.625	78.81
346.853	91.81
347.08	87.81
347.308	87.81
347.535	100.81
347.763	104.81
347.99	94.81
348.218	100.81
348.445	99.81
348.673	87.81
348.9	100.81
349.128	91.81
349.355	87.81
349.583	89.81
349.81	103.81
350.037	97.81
350.265	91.81
350.492	100.81
350.72	83.81
350.947	74.81
351.174	94.81
351.402	95.81
351.629	100.81
351.856	86.81
352.083	94.81
352.311	105.81
352.538	103.81
352.765	92.81
352.992	92.81
353.22	109.81
353.447	108.81
353.674	89.81
353.901	95.81
354.128	93.81
354.355	91.81
354.583	95.81
354.81	103.81
355.037	98.81
355.264	106.81
355.491	92.81
355.718	89.81
355.945	103.81
356.172	95.81
356.399	94.81
356.626	86.81
356.853	79.81
357.08	92.81
357.307	81.81
357.534	86.81
357.761	98.81
357.988	95.81
358.215	77.81
358.441	86.81
358.668	95.81
358.895	83.81
359.122	88.81
359.349	102.81
359.576	103.81
359.802	97.81
360.029	96.81
360.256	102.81
360.483	90.81
360.709	74.81
360.936	91.81
361.163	85.81
361.39	85.81
361.616	94.81
361.843	90.81
362.07	87.81
362.296	90.81
362.523	98.81
362.749	86.81
362.976	92.81
363.203	94.81
363.429	80.81
363.656	77.81
363.882	81.81
364.109	84.81
364.335	95.81
364.562	85.81
364.788	91.81
365.015	93.81
365.241	91.81
365.468	89.81
365.694	81.81
365.92	93.81
366.147	79.81
366.373	84.81
366.599	86.81
366.826	99.81
367.052	85.81
367.278	93.81
367.505	74.81
367.731	97.81
367.957	89.81
368.184	93.81
368.41	94.81
368.636	92.81
368.862	99.81
369.089	88.81
369.315	86.81
369.541	70.81
369.767	94.81
369.993	90.81
370.219	80.81
370.445	71.81
370.672	94.81
370.898	78.81
371.124	99.81
371.35	86.81
371.576	88.81
371.802	85.81
372.028	69.81
372.254	93.81
372.48	86.81
372.706	89.81
372.932	95.81
373.158	82.81
373.384	75.81
373.61	89.81
373.835	103.81
374.061	92.81
374.287	90.81
374.513	90.81
374.739	88.81
374.965	93.81
375.191	81.81
375.416	90.81
375.642	90.81
375.868	81.81
376.094	77.81
376.319	98.81
376.545	90.81
376.771	88.81
376.997	88.81
377.222	77.81
377.448	95.81
377.674	88.81
377.899	89.81
378.125	84.81
378.35	90.81
378.576	86.81
378.802	83.81
379.027	84.81
379.253	99.81
379.478	82.81
379.704	88.81
379.929	94.81
380.155	102.81
380.38	88.81
380.606	75.81
380.831	87.81
381.057	102.81
381.282	100.81
381.507	99.81
381.733	90.81
381.958	92.81
382.184	87.81
382.409	94.81
382.634	105.81
382.86	94.81
383.085	103.81
383.31	107.81
383.535	96.81
383.761	89.81
383.986	107.81
384.211	95.81
384.436	95.81
384.662	90.81
384.887	81.81
385.112	108.81
385.337	106.81
385.562	100.81
385.787	92.81
386.013	99.81
386.238	109.81
386.463	104.81
386.688	109.81
386.913	99.81
387.138	105.81
387.363	98.81
387.588	91.81
387.813	99.81
388.038	98.81
388.263	103.81
388.488	94.81
388.713	92.81
388.938	108.81
389.163	100.81
389.387	101.81
389.612	92.81
389.837	87.81
390.062	105.81
390.287	87.81
390.512	78.81
390.736	91.81
390.961	82.81
391.186	93.81
391.411	90.81
391.636	102.81
391.86	93.81
392.085	88.81
392.31	89.81
392.534	76.81
392.759	79.81
392.984	89.81
393.208	86.81
393.433	77.81
393.658	89.81
393.882	86.81
394.107	101.81
394.331	85.81
394.556	92.81
394.78	87.81
395.005	88.81
395.229	75.81
395.454	69.81
395.678	77.81
395.903	87.81
396.127	109.81
396.352	74.81
396.576	83.81
396.801	98.81
397.025	95.81
397.249	75.81
397.474	89.81
397.698	80.81
397.922	90.81
398.147	88.81
398.371	92.81
398.595	78.81
398.82	87.81
399.044	75.81
399.268	76.81
399.492	83.81
399.717	90.81
399.941	80.81
400.165	91.81
400.389	92.81
400.613	95.81
400.837	90.81
401.062	99.81
401.286	75.81
401.51	85.81
401.734	85.81
401.958	86.81
402.182	97.81
402.406	137.81
402.63	106.81
402.854	80.81
403.078	80.81
403.302	85.81
403.526	91.81
403.75	85.81
403.974	79.81
404.198	93.81
404.422	74.81
404.645	88.81
404.869	76.81
405.093	93.81
405.317	101.81
405.541	105.81
405.765	95.81
405.988	93.81
406.212	140.81
406.436	173.81
406.66	124.81
406.883	94.81
407.107	81.81
407.331	90.81
407.555	85.81
407.778	94.81
408.002	92.81
408.226	90.81
408.449	80.81
408.673	93.81
408.896	91.81
409.12	99.81
409.344	83.81
409.567	86.81
409.791	88.81
410.014	83.81
410.238	94.81
410.461	93.81
410.685	87.81
410.908	104.81
411.132	96.81
411.355	90.81
411.578	84.81
411.802	79.81
412.025	86.81
412.249	84.81
412.472	80.81
412.695	79.81
412.919	93.81
413.142	73.81
413.365	102.81
413.589	71.81
413.812	93.81
414.035	86.81
414.258	86.81
414.482	72.81
414.705	79.81
414.928	77.81
415.151	92.81
415.374	85.81
415.597	86.81
415.821	81.81
416.044	90.81
416.267	93.81
416.49	90.81
416.713	78.81
416.936	78.81
417.159	80.81
417.382	99.81
417.605	92.81
417.828	93.81
418.051	93.81
418.274	100.81
418.497	70.81
418.72	82.81
418.943	79.81
419.166	103.81
419.389	75.81
419.611	76.81
419.834	91.81
420.057	81.81
420.28	77.81
420.503	85.81
420.726	94.81
420.948	95.81
421.171	92.81
421.394	105.81
421.617	98.81
421.839	106.81
422.062	81.81
422.285	81.81
422.507	96.81
422.73	88.81
422.953	101.81
423.175	94.81
423.398	86.81
423.621	85.81
423.843	91.81
424.066	87.81
424.288	77.81
424.511	98.81
424.733	87.81
424.956	90.81
425.178	99.81
425.401	106.81
425.623	83.81
425.846	92.81
426.068	95.81
426.291	83.81
426.513	73.81
426.735	79.81
426.958	82.81
427.18	107.81
427.402	121.81
427.625	142.81
427.847	123.81
428.069	102.81
428.292	86.81
428.514	83.81
428.736	76.81
428.958	85.81
429.181	81.81
429.403	66.81
429.625	87.81
429.847	84.81
430.069	94.81
430.292	76.81
430.514	88.81
430.736	94.81
430.958	78.81
431.18	77.81
431.402	64.81
431.624	63.81
431.846	98.81
432.068	95.81
432.29	85.81
432.512	93.81
432.734	77.81
432.956	83.81
433.178	109.81
433.4	98.81
433.622	92.81
433.844	82.81
434.066	91.81
434.287	95.81
434.509	91.81
434.731	70.81
434.953	90.81
435.175	91.81
435.397	82.81
435.618	80.81
435.84	94.81
436.062	115.81
436.284	108.81
436.505	104.81
436.727	92.81
436.949	99.81
437.17	80.81
437.392	88.81
437.614	87.81
437.835	100.81
438.057	104.81
438.278	95.81
438.5	95.81
438.721	123.81
438.943	104.81
439.165	92.81
439.386	88.81
439.608	87.81
439.829	95.81
440.05	100.81
440.272	123.81
440.493	88.81
440.715	92.81
440.936	83.81
441.158	88.81
441.379	79.81
441.6	89.81
441.822	94.81
442.043	94.81
442.264	107.81
442.486	88.81
442.707	86.81
442.928	101.81
443.149	98.81
443.371	95.81
443.592	98.81
443.813	98.81
444.034	100.81
444.255	96.81
444.476	95.81
444.698	72.81
444.919	85.81
445.14	121.81
445.361	117.81
445.582	114.81
445.803	126.81
446.024	120.81
446.245	108.81
446.466	92.81
446.687	86.81
446.908	72.81
447.129	86.81
447.35	88.81
447.571	95.81
447.792	91.81
448.013	107.81
448.234	103.81
448.455	101.81
448.675	115.81
448.896	111.81
449.117	97.81
449.338	97.81
449.559	117.81
449.779	115.81
450	92.81
450.221	91.81
450.442	79.81
450.662	80.81
450.883	100.81
451.104	95.81
451.324	89.81
451.545	86.81
451.766	93.81
451.986	93.81
452.207	92.81
452.428	76.81
452.648	99.81
452.869	98.81
453.089	93.81
453.31	98.81
453.53	96.81
453.751	92.81
453.971	80.81
454.192	110.81
454.412	91.81
454.633	91.81
454.853	78.81
455.073	70.81
455.294	80.81
455.514	91.81
455.734	89.81
455.955	86.81
456.175	70.81
456.395	90.81
456.616	84.81
456.836	83.81
457.056	84.81
457.276	85.81
457.497	97.81
457.717	97.81
457.937	90.81
458.157	91.81
458.377	79.81
458.598	111.81
458.818	130.81
459.038	145.81
459.258	90.81
459.478	78.81
459.698	94.81
459.918	82.81
460.138	79.81
460.358	93.81
460.578	76.81
460.798	80.81
461.018	80.81
461.238	81.81
461.458	85.81
461.678	86.81
461.898	83.81
462.118	88.81
462.338	79.81
462.558	84.81
462.777	76.81
462.997	78.81
463.217	83.81
463.437	89.81
463.657	86.81
463.876	96.81
464.096	85.81
464.316	91.81
464.536	90.81
464.755	91.81
464.975	100.81
465.195	141.81
465.414	131.81
465.634	93.81
465.854	90.81
466.073	84.81
466.293	87.81
466.512	79.81
466.732	78.81
466.951	94.81
467.171	110.81
467.391	83.81
467.61	92.81
467.829	88.81
468.049	103.81
468.268	111.81
468.488	83.81
468.707	86.81
468.927	80.81
469.146	93.81
469.365	85.81
469.585	84.81
469.804	92.81
470.023	91.81
470.243	82.81
470.462	99.81
470.681	94.81
470.901	85.81
471.12	88.81
471.339	98.81
471.558	85.81
471.777	78.81
471.997	71.81
472.216	94.81
472.435	101.81
472.654	100.81
472.873	88.81
473.092	84.81
473.311	80.81
473.53	83.81
473.749	78.81
473.968	98.81
474.187	93.81
474.406	110.81
474.625	73.81
474.844	97.81
475.063	76.81
475.282	80.81
475.501	87.81
475.72	83.81
475.939	77.81
476.158	94.81
476.377	94.81
476.596	88.81
476.814	81.81
477.033	85.81
477.252	85.81
477.471	71.81
477.69	91.81
477.908	100.81
478.127	94.81
478.346	90.81
478.564	79.81
478.783	78.81
479.002	81.81
479.22	82.81
479.439	96.81
479.658	107.81
479.876	87.81
480.095	95.81
480.313	88.81
480.532	97.81
480.751	93.81
480.969	110.81
481.188	163.81
481.406	117.81
481.624	103.81
481.843	98.81
482.061	76.81
482.28	95.81
482.498	106.81
482.717	90.81
482.935	73.81
483.153	96.81
483.372	90.81
483.59	76.81
483.808	99.81
484.027	101.81
484.245	99.81
484.463	86.81
484.681	92.81
484.9	79.81
485.118	101.81
485.336	98.81
485.554	93.81
485.772	94.81
485.99	102.81
486.209	103.81
486.427	79.81
486.645	103.81
486.863	107.81
487.081	95.81
487.299	102.81
487.517	84.81
487.735	93.81
487.953	93.81
488.171	90.81
488.389	102.81
488.607	83.81
488.825	92.81
489.043	90.81
489.261	82.81
489.479	99.81
489.696	77.81
489.914	83.81
490.132	87.81
490.35	96.81
490.568	102.81
490.786	87.81
491.003	83.81
491.221	76.81
491.439	94.81
491.657	83.81
491.874	86.81
492.092	92.81
492.31	92.81
492.527	102.81
492.745	87.81
492.963	95.81
493.18	97.81
493.398	103.81
493.615	80.81
493.833	91.81
494.05	94.81
494.268	80.81
494.485	95.81
494.703	86.81
494.92	85.81
495.138	90.81
495.355	104.81
495.573	98.81
495.79	99.81
496.008	78.81
496.225	79.81
496.442	87.81
496.66	88.81
496.877	87.81
497.094	89.81
497.312	81.81
497.529	95.81
497.746	79.81
497.963	97.81
498.181	97.81
498.398	89.81
498.615	96.81
498.832	104.81
499.049	89.81
499.267	92.81
499.484	95.81
499.701	82.81
499.918	97.81
500.135	80.81
500.352	87.81
500.569	97.81
500.786	86.81
501.003	85.81
501.22	91.81
501.437	95.81
501.654	104.81
501.871	109.81
502.088	84.81
502.305	88.81
502.522	80.81
502.739	93.81
502.956	104.81
503.172	90.81
503.389	70.81
503.606	97.81
503.823	91.81
504.04	86.81
504.256	93.81
504.473	79.81
504.69	100.81
504.907	86.81
505.123	77.81
505.34	90.81
505.557	91.81
505.773	94.81
505.99	85.81
506.207	93.81
506.423	73.81
506.64	100.81
506.856	81.81
507.073	93.81
507.289	93.81
507.506	93.81
507.722	94.81
507.939	105.81
508.155	111.81
508.372	106.81
508.588	79.81
508.805	86.81
509.021	95.81
509.238	93.81
509.454	88.81
509.67	91.81
509.887	110.81
510.103	111.81
510.319	178.81
510.536	600.81
510.752	1744.81
510.968	532.81
511.184	145.81
511.401	93.81
511.617	86.81
511.833	100.81
512.049	91.81
512.265	95.81
512.481	92.81
512.698	82.81
512.914	92.81
513.13	87.81
513.346	96.81
513.562	103.81
513.778	84.81
513.994	99.81
514.21	105.81
514.426	104.81
514.642	118.81
514.858	106.81
515.074	150.81
515.29	331.81
515.506	1063.81
515.721	400.81
515.937	138.81
516.153	93.81
516.369	95.81
516.585	90.81
516.801	87.81
