Data from Uncirc_2009_H10_HRD10591_00045.txt Node
Date: Wed Jan 03 10:12:10 EST 2024
User: Yrep
Spectrometer: HR+D1059
Trigger mode: 1
Integration Time (sec): 1.000000E-1
Scans to average: 1
Electric dark correction enabled: true
Nonlinearity correction enabled: false
Boxcar width: 0
XAxis mode: Wavelengths
Number of Pixels in Spectrum: 2048
>>>>>Begin Spectral Data<<<<<
223.165	-35.31
223.4	-35.31
223.635	-35.31
223.869	-20.31
224.104	-14.31
224.338	-9.31
224.573	-21.31
224.808	-21.31
225.042	2.69
225.277	-3.31
225.511	2.69
225.746	3.69
225.98	8.69
226.215	18.69
226.449	13.69
226.683	10.69
226.918	32.69
227.152	31.69
227.387	25.69
227.621	30.69
227.856	43.69
228.09	39.69
228.324	52.69
228.559	67.69
228.793	51.69
229.027	70.69
229.262	62.69
229.496	84.69
229.73	84.69
229.964	84.69
230.199	76.69
230.433	79.69
230.667	71.69
230.901	73.69
231.136	84.69
231.37	87.69
231.604	73.69
231.838	85.69
232.072	80.69
232.306	92.69
232.541	78.69
232.775	89.69
233.009	84.69
233.243	75.69
233.477	81.69
233.711	83.69
233.945	81.69
234.179	74.69
234.413	79.69
234.647	84.69
234.881	86.69
235.115	66.69
235.349	73.69
235.583	84.69
235.817	76.69
236.051	77.69
236.285	72.69
236.519	80.69
236.753	77.69
236.987	89.69
237.221	78.69
237.455	78.69
237.689	84.69
237.922	78.69
238.156	69.69
238.39	80.69
238.624	81.69
238.858	77.69
239.091	90.69
239.325	86.69
239.559	76.69
239.793	80.69
240.027	68.69
240.26	75.69
240.494	67.69
240.728	73.69
240.961	85.69
241.195	81.69
241.429	83.69
241.662	80.69
241.896	81.69
242.13	81.69
242.363	75.69
242.597	81.69
242.83	93.69
243.064	72.69
243.298	95.69
243.531	78.69
243.765	81.69
243.998	71.69
244.232	82.69
244.465	88.69
244.699	83.69
244.932	68.69
245.166	76.69
245.399	86.69
245.633	65.69
245.866	84.69
246.099	79.69
246.333	87.69
246.566	76.69
246.8	72.69
247.033	88.69
247.266	67.69
247.5	75.69
247.733	79.69
247.966	73.69
248.2	75.69
248.433	91.69
248.666	93.69
248.899	94.69
249.133	84.69
249.366	91.69
249.599	82.69
249.832	90.69
250.066	76.69
250.299	90.69
250.532	90.69
250.765	78.69
250.998	79.69
251.231	83.69
251.465	95.69
251.698	80.69
251.931	77.69
252.164	92.69
252.397	91.69
252.63	88.69
252.863	67.69
253.096	73.69
253.329	78.69
253.562	89.69
253.795	89.69
254.028	87.69
254.261	68.69
254.494	82.69
254.727	91.69
254.96	91.69
255.193	74.69
255.426	94.69
255.659	92.69
255.892	94.69
256.124	96.69
256.357	91.69
256.59	90.69
256.823	86.69
257.056	84.69
257.289	106.69
257.521	102.69
257.754	78.69
257.987	67.69
258.22	79.69
258.452	80.69
258.685	81.69
258.918	83.69
259.151	88.69
259.383	62.69
259.616	71.69
259.849	73.69
260.081	77.69
260.314	83.69
260.547	75.69
260.779	77.69
261.012	97.69
261.244	91.69
261.477	92.69
261.71	94.69
261.942	111.69
262.175	109.69
262.407	86.69
262.64	87.69
262.872	71.69
263.105	99.69
263.337	95.69
263.57	83.69
263.802	91.69
264.035	76.69
264.267	87.69
264.499	90.69
264.732	89.69
264.964	89.69
265.197	68.69
265.429	97.69
265.661	88.69
265.894	94.69
266.126	92.69
266.358	83.69
266.591	92.69
266.823	82.69
267.055	76.69
267.287	80.69
267.52	71.69
267.752	86.69
267.984	96.69
268.216	91.69
268.448	107.69
268.681	110.69
268.913	83.69
269.145	83.69
269.377	89.69
269.609	71.69
269.841	96.69
270.073	68.69
270.306	79.69
270.538	88.69
270.77	104.69
271.002	97.69
271.234	80.69
271.466	75.69
271.698	81.69
271.93	90.69
272.162	93.69
272.394	96.69
272.626	76.69
272.858	96.69
273.09	75.69
273.322	90.69
273.553	88.69
273.785	88.69
274.017	92.69
274.249	67.69
274.481	98.69
274.713	79.69
274.945	89.69
275.176	85.69
275.408	80.69
275.64	90.69
275.872	73.69
276.104	80.69
276.335	88.69
276.567	82.69
276.799	90.69
277.031	106.69
277.262	88.69
277.494	81.69
277.726	83.69
277.957	77.69
278.189	80.69
278.421	89.69
278.652	80.69
278.884	87.69
279.115	96.69
279.347	76.69
279.579	79.69
279.81	79.69
280.042	96.69
280.273	83.69
280.505	80.69
280.736	89.69
280.968	82.69
281.199	80.69
281.431	89.69
281.662	88.69
281.894	105.69
282.125	93.69
282.356	98.69
282.588	121.69
282.819	100.69
283.051	87.69
283.282	93.69
283.513	97.69
283.745	95.69
283.976	86.69
284.207	111.69
284.439	90.69
284.67	80.69
284.901	88.69
285.132	85.69
285.364	83.69
285.595	94.69
285.826	90.69
286.057	79.69
286.288	90.69
286.52	104.69
286.751	97.69
286.982	85.69
287.213	83.69
287.444	75.69
287.675	78.69
287.906	71.69
288.138	81.69
288.369	80.69
288.6	92.69
288.831	94.69
289.062	86.69
289.293	89.69
289.524	73.69
289.755	87.69
289.986	79.69
290.217	82.69
290.448	107.69
290.679	97.69
290.91	82.69
291.141	82.69
291.371	96.69
291.602	87.69
291.833	98.69
292.064	91.69
292.295	102.69
292.526	95.69
292.757	99.69
292.987	107.69
293.218	94.69
293.449	86.69
293.68	86.69
293.91	70.69
294.141	88.69
294.372	85.69
294.603	96.69
294.833	90.69
295.064	75.69
295.295	104.69
295.525	103.69
295.756	84.69
295.987	86.69
296.217	125.69
296.448	124.69
296.679	95.69
296.909	91.69
297.14	86.69
297.37	84.69
297.601	72.69
297.831	81.69
298.062	87.69
298.292	76.69
298.523	101.69
298.753	90.69
298.984	107.69
299.214	88.69
299.445	111.69
299.675	102.69
299.905	91.69
300.136	76.69
300.366	91.69
300.597	90.69
300.827	92.69
301.057	95.69
301.288	102.69
301.518	98.69
301.748	94.69
301.979	96.69
302.209	79.69
302.439	88.69
302.669	86.69
302.9	82.69
303.13	102.69
303.36	103.69
303.59	109.69
303.82	110.69
304.051	96.69
304.281	86.69
304.511	111.69
304.741	71.69
304.971	89.69
305.201	91.69
305.431	90.69
305.661	74.69
305.891	80.69
306.121	97.69
306.352	88.69
306.582	99.69
306.812	96.69
307.042	96.69
307.272	77.69
307.502	93.69
307.731	96.69
307.961	79.69
308.191	90.69
308.421	88.69
308.651	97.69
308.881	102.69
309.111	90.69
309.341	88.69
309.571	103.69
309.8	97.69
310.03	103.69
310.26	101.69
310.49	100.69
310.72	104.69
310.949	103.69
311.179	92.69
311.409	86.69
311.639	100.69
311.868	88.69
312.098	100.69
312.328	97.69
312.557	106.69
312.787	104.69
313.017	88.69
313.246	99.69
313.476	104.69
313.706	83.69
313.935	74.69
314.165	92.69
314.394	95.69
314.624	106.69
314.853	91.69
315.083	82.69
315.312	99.69
315.542	100.69
315.771	92.69
316.001	102.69
316.23	82.69
316.46	89.69
316.689	99.69
316.919	95.69
317.148	94.69
317.377	120.69
317.607	105.69
317.836	105.69
318.065	104.69
318.295	88.69
318.524	83.69
318.753	91.69
318.983	101.69
319.212	91.69
319.441	103.69
319.67	95.69
319.9	103.69
320.129	93.69
320.358	97.69
320.587	82.69
320.816	95.69
321.046	95.69
321.275	92.69
321.504	76.69
321.733	98.69
321.962	89.69
322.191	97.69
322.42	104.69
322.649	108.69
322.878	125.69
323.108	91.69
323.337	113.69
323.566	122.69
323.795	149.69
324.024	172.69
324.253	322.69
324.482	683.69
324.71	1336.69
324.939	1762.69
325.168	673.69
325.397	218.69
325.626	130.69
325.855	123.69
326.084	134.69
326.313	150.69
326.542	165.69
326.77	204.69
326.999	381.69
327.228	751.69
327.457	1361.69
327.686	1088.69
327.914	319.69
328.143	167.69
328.372	129.69
328.6	128.69
328.829	99.69
329.058	119.69
329.287	115.69
329.515	99.69
329.744	102.69
329.972	100.69
330.201	105.69
330.43	107.69
330.658	114.69
330.887	124.69
331.115	99.69
331.344	102.69
331.572	111.69
331.801	108.69
332.03	104.69
332.258	88.69
332.486	99.69
332.715	99.69
332.943	95.69
333.172	85.69
333.4	102.69
333.629	105.69
333.857	97.69
334.085	101.69
334.314	108.69
334.542	110.69
334.771	115.69
334.999	98.69
335.227	103.69
335.455	86.69
335.684	91.69
335.912	89.69
336.14	98.69
336.369	87.69
336.597	96.69
336.825	100.69
337.053	109.69
337.281	75.69
337.51	89.69
337.738	83.69
337.966	84.69
338.194	98.69
338.422	99.69
338.65	92.69
338.878	104.69
339.106	84.69
339.334	72.69
339.562	85.69
339.79	94.69
340.018	99.69
340.246	94.69
340.474	94.69
340.702	94.69
340.93	99.69
341.158	95.69
341.386	94.69
341.614	98.69
341.842	81.69
342.07	92.69
342.298	97.69
342.526	83.69
342.754	89.69
342.981	91.69
343.209	112.69
343.437	90.69
343.665	94.69
343.893	91.69
344.12	100.69
344.348	105.69
344.576	84.69
344.804	90.69
345.031	97.69
345.259	83.69
345.487	86.69
345.714	89.69
345.942	87.69
346.17	94.69
346.397	97.69
346.625	94.69
346.853	88.69
347.08	84.69
347.308	103.69
347.535	98.69
347.763	87.69
347.99	105.69
348.218	93.69
348.445	93.69
348.673	85.69
348.9	106.69
349.128	96.69
349.355	94.69
349.583	99.69
349.81	88.69
350.037	91.69
350.265	100.69
350.492	94.69
350.72	90.69
350.947	84.69
351.174	106.69
351.402	101.69
351.629	99.69
351.856	105.69
352.083	112.69
352.311	106.69
352.538	110.69
352.765	113.69
352.992	100.69
353.22	107.69
353.447	110.69
353.674	88.69
353.901	116.69
354.128	91.69
354.355	99.69
354.583	103.69
354.81	110.69
355.037	102.69
355.264	97.69
355.491	95.69
355.718	89.69
355.945	96.69
356.172	100.69
356.399	93.69
356.626	100.69
356.853	96.69
357.08	94.69
357.307	90.69
357.534	97.69
357.761	96.69
357.988	105.69
358.215	109.69
358.441	76.69
358.668	76.69
358.895	98.69
359.122	92.69
359.349	84.69
359.576	96.69
359.802	98.69
360.029	123.69
360.256	92.69
360.483	91.69
360.709	76.69
360.936	92.69
361.163	86.69
361.39	100.69
361.616	93.69
361.843	87.69
362.07	98.69
362.296	86.69
362.523	93.69
362.749	86.69
362.976	95.69
363.203	99.69
363.429	99.69
363.656	91.69
363.882	84.69
364.109	105.69
364.335	77.69
364.562	84.69
364.788	96.69
365.015	95.69
365.241	84.69
365.468	103.69
365.694	126.69
365.92	93.69
366.147	100.69
366.373	95.69
366.599	81.69
366.826	92.69
367.052	92.69
367.278	90.69
367.505	97.69
367.731	95.69
367.957	94.69
368.184	87.69
368.41	100.69
368.636	99.69
368.862	107.69
369.089	111.69
369.315	91.69
369.541	84.69
369.767	90.69
369.993	97.69
370.219	91.69
370.445	90.69
370.672	74.69
370.898	88.69
371.124	78.69
371.35	84.69
371.576	92.69
371.802	79.69
372.028	89.69
372.254	105.69
372.48	98.69
372.706	95.69
372.932	94.69
373.158	93.69
373.384	87.69
373.61	83.69
373.835	99.69
374.061	89.69
374.287	85.69
374.513	100.69
374.739	103.69
374.965	88.69
375.191	86.69
375.416	85.69
375.642	99.69
375.868	95.69
376.094	84.69
376.319	92.69
376.545	88.69
376.771	91.69
376.997	99.69
377.222	95.69
377.448	91.69
377.674	85.69
377.899	97.69
378.125	98.69
378.35	94.69
378.576	90.69
378.802	89.69
379.027	99.69
379.253	94.69
379.478	91.69
379.704	98.69
379.929	113.69
380.155	99.69
380.38	89.69
380.606	102.69
380.831	90.69
381.057	93.69
381.282	95.69
381.507	106.69
381.733	89.69
381.958	97.69
382.184	85.69
382.409	91.69
382.634	91.69
382.86	103.69
383.085	110.69
383.31	96.69
383.535	102.69
383.761	109.69
383.986	99.69
384.211	86.69
384.436	99.69
384.662	114.69
384.887	105.69
385.112	101.69
385.337	103.69
385.562	114.69
385.787	101.69
386.013	100.69
386.238	111.69
386.463	103.69
386.688	103.69
386.913	87.69
387.138	112.69
387.363	118.69
387.588	104.69
387.813	108.69
388.038	102.69
388.263	103.69
388.488	105.69
388.713	88.69
388.938	79.69
389.163	92.69
389.387	108.69
389.612	87.69
389.837	86.69
390.062	84.69
390.287	103.69
390.512	98.69
390.736	97.69
390.961	94.69
391.186	95.69
391.411	102.69
391.636	91.69
391.86	99.69
392.085	96.69
392.31	85.69
392.534	98.69
392.759	95.69
392.984	88.69
393.208	92.69
393.433	95.69
393.658	83.69
393.882	81.69
394.107	95.69
394.331	94.69
394.556	88.69
394.78	89.69
395.005	85.69
395.229	82.69
395.454	72.69
395.678	78.69
395.903	104.69
396.127	83.69
396.352	88.69
396.576	90.69
396.801	98.69
397.025	91.69
397.249	83.69
397.474	96.69
397.698	84.69
397.922	100.69
398.147	80.69
398.371	82.69
398.595	92.69
398.82	74.69
399.044	100.69
399.268	92.69
399.492	92.69
399.717	78.69
399.941	94.69
400.165	86.69
400.389	80.69
400.613	84.69
400.837	91.69
401.062	84.69
401.286	88.69
401.51	94.69
401.734	89.69
401.958	88.69
402.182	108.69
402.406	128.69
402.63	110.69
402.854	85.69
403.078	85.69
403.302	81.69
403.526	94.69
403.75	81.69
403.974	90.69
404.198	96.69
404.422	88.69
404.645	79.69
404.869	104.69
405.093	93.69
405.317	86.69
405.541	106.69
405.765	111.69
405.988	102.69
406.212	145.69
406.436	174.69
406.66	105.69
406.883	94.69
407.107	99.69
407.331	100.69
407.555	90.69
407.778	97.69
408.002	97.69
408.226	96.69
408.449	106.69
408.673	108.69
408.896	94.69
409.12	96.69
409.344	91.69
409.567	99.69
409.791	106.69
410.014	91.69
410.238	87.69
410.461	103.69
410.685	83.69
410.908	105.69
411.132	96.69
411.355	103.69
411.578	102.69
411.802	104.69
412.025	96.69
412.249	72.69
412.472	88.69
412.695	100.69
412.919	83.69
413.142	82.69
413.365	83.69
413.589	88.69
413.812	99.69
414.035	85.69
414.258	97.69
414.482	97.69
414.705	95.69
414.928	79.69
415.151	92.69
415.374	87.69
415.597	103.69
415.821	97.69
416.044	89.69
416.267	82.69
416.49	94.69
416.713	74.69
416.936	95.69
417.159	89.69
417.382	95.69
417.605	97.69
417.828	88.69
418.051	72.69
418.274	87.69
418.497	88.69
418.72	88.69
418.943	91.69
419.166	83.69
419.389	82.69
419.611	91.69
419.834	90.69
420.057	74.69
420.28	76.69
420.503	93.69
420.726	83.69
420.948	86.69
421.171	107.69
421.394	99.69
421.617	91.69
421.839	96.69
422.062	101.69
422.285	91.69
422.507	90.69
422.73	97.69
422.953	107.69
423.175	100.69
423.398	102.69
423.621	90.69
423.843	93.69
424.066	87.69
424.288	98.69
424.511	104.69
424.733	86.69
424.956	100.69
425.178	104.69
425.401	96.69
425.623	99.69
425.846	89.69
426.068	84.69
426.291	94.69
426.513	95.69
426.735	104.69
426.958	87.69
427.18	98.69
427.402	121.69
427.625	154.69
427.847	119.69
428.069	109.69
428.292	89.69
428.514	87.69
428.736	74.69
428.958	88.69
429.181	86.69
429.403	90.69
429.625	84.69
429.847	106.69
430.069	99.69
430.292	86.69
430.514	81.69
430.736	99.69
430.958	87.69
431.18	90.69
431.402	98.69
431.624	90.69
431.846	79.69
432.068	89.69
432.29	92.69
432.512	85.69
432.734	88.69
432.956	106.69
433.178	94.69
433.4	90.69
433.622	91.69
433.844	112.69
434.066	84.69
434.287	84.69
434.509	85.69
434.731	83.69
434.953	98.69
435.175	86.69
435.397	87.69
435.618	106.69
435.84	99.69
436.062	125.69
436.284	108.69
436.505	90.69
436.727	90.69
436.949	93.69
437.17	89.69
437.392	91.69
437.614	92.69
437.835	110.69
438.057	104.69
438.278	103.69
438.5	103.69
438.721	116.69
438.943	101.69
439.165	94.69
439.386	93.69
439.608	83.69
439.829	92.69
440.05	99.69
440.272	119.69
440.493	94.69
440.715	85.69
440.936	83.69
441.158	94.69
441.379	80.69
441.6	91.69
441.822	81.69
442.043	94.69
442.264	88.69
442.486	112.69
442.707	91.69
442.928	92.69
443.149	126.69
443.371	121.69
443.592	94.69
443.813	121.69
444.034	109.69
444.255	94.69
444.476	98.69
444.698	97.69
444.919	105.69
445.14	137.69
445.361	110.69
445.582	98.69
445.803	104.69
446.024	108.69
446.245	121.69
446.466	113.69
446.687	103.69
446.908	92.69
447.129	79.69
447.35	89.69
447.571	88.69
447.792	91.69
448.013	100.69
448.234	110.69
448.455	82.69
448.675	98.69
448.896	112.69
449.117	94.69
449.338	107.69
449.559	120.69
449.779	123.69
450	90.69
450.221	83.69
450.442	76.69
450.662	87.69
450.883	93.69
451.104	99.69
451.324	89.69
451.545	87.69
451.766	98.69
451.986	101.69
452.207	88.69
452.428	90.69
452.648	106.69
452.869	97.69
453.089	120.69
453.31	113.69
453.53	90.69
453.751	87.69
453.971	110.69
454.192	95.69
454.412	81.69
454.633	90.69
454.853	83.69
455.073	73.69
455.294	68.69
455.514	94.69
455.734	103.69
455.955	80.69
456.175	97.69
456.395	88.69
456.616	83.69
456.836	88.69
457.056	78.69
457.276	97.69
457.497	80.69
457.717	90.69
457.937	83.69
458.157	84.69
458.377	90.69
458.598	105.69
458.818	126.69
459.038	137.69
459.258	109.69
459.478	86.69
459.698	93.69
459.918	82.69
460.138	90.69
460.358	98.69
460.578	84.69
460.798	89.69
461.018	97.69
461.238	88.69
461.458	97.69
461.678	81.69
461.898	89.69
462.118	97.69
462.338	76.69
462.558	84.69
462.777	94.69
462.997	83.69
463.217	77.69
463.437	89.69
463.657	77.69
463.876	84.69
464.096	84.69
464.316	103.69
464.536	98.69
464.755	97.69
464.975	95.69
465.195	115.69
465.414	122.69
465.634	96.69
465.854	79.69
466.073	82.69
466.293	92.69
466.512	79.69
466.732	91.69
466.951	95.69
467.171	99.69
467.391	107.69
467.61	117.69
467.829	88.69
468.049	95.69
468.268	108.69
468.488	106.69
468.707	87.69
468.927	93.69
469.146	80.69
469.365	84.69
469.585	98.69
469.804	93.69
470.023	85.69
470.243	90.69
470.462	97.69
470.681	100.69
470.901	91.69
471.12	84.69
471.339	101.69
471.558	80.69
471.777	90.69
471.997	83.69
472.216	113.69
472.435	136.69
472.654	95.69
472.873	75.69
473.092	88.69
473.311	88.69
473.53	87.69
473.749	97.69
473.968	88.69
474.187	107.69
474.406	81.69
474.625	78.69
474.844	93.69
475.063	89.69
475.282	88.69
475.501	85.69
475.72	88.69
475.939	56.69
476.158	79.69
476.377	91.69
476.596	88.69
476.814	93.69
477.033	102.69
477.252	100.69
477.471	73.69
477.69	95.69
477.908	98.69
478.127	90.69
478.346	95.69
478.564	105.69
478.783	101.69
479.002	87.69
479.22	99.69
479.439	112.69
479.658	96.69
479.876	99.69
480.095	100.69
480.313	78.69
480.532	93.69
480.751	83.69
480.969	92.69
481.188	150.69
481.406	141.69
481.624	95.69
481.843	83.69
482.061	94.69
482.28	88.69
482.498	89.69
482.717	84.69
482.935	80.69
483.153	91.69
483.372	87.69
483.59	99.69
483.808	90.69
484.027	93.69
484.245	84.69
484.463	90.69
484.681	96.69
484.9	84.69
485.118	92.69
485.336	98.69
485.554	103.69
485.772	110.69
485.99	93.69
486.209	109.69
486.427	113.69
486.645	94.69
486.863	107.69
487.081	100.69
487.299	92.69
487.517	100.69
487.735	94.69
487.953	102.69
488.171	87.69
488.389	98.69
488.607	102.69
488.825	100.69
489.043	108.69
489.261	98.69
489.479	100.69
489.696	96.69
489.914	90.69
490.132	100.69
490.35	95.69
490.568	80.69
490.786	75.69
491.003	80.69
491.221	100.69
491.439	89.69
491.657	92.69
491.874	91.69
492.092	92.69
492.31	97.69
492.527	85.69
492.745	92.69
492.963	93.69
493.18	83.69
493.398	92.69
493.615	98.69
493.833	88.69
494.05	96.69
494.268	91.69
494.485	87.69
494.703	97.69
494.92	94.69
495.138	90.69
495.355	103.69
495.573	103.69
495.79	93.69
496.008	88.69
496.225	87.69
496.442	83.69
496.66	92.69
496.877	92.69
497.094	89.69
497.312	90.69
497.529	89.69
497.746	102.69
497.963	98.69
498.181	81.69
498.398	97.69
498.615	104.69
498.832	96.69
499.049	92.69
499.267	110.69
499.484	102.69
499.701	83.69
499.918	100.69
500.135	106.69
500.352	94.69
500.569	90.69
500.786	96.69
501.003	99.69
501.22	93.69
501.437	96.69
501.654	74.69
501.871	99.69
502.088	89.69
502.305	90.69
502.522	100.69
502.739	97.69
502.956	91.69
503.172	98.69
503.389	104.69
503.606	85.69
503.823	98.69
504.04	102.69
504.256	86.69
504.473	88.69
504.69	90.69
504.907	81.69
505.123	86.69
505.34	88.69
505.557	84.69
505.773	95.69
505.99	81.69
506.207	89.69
506.423	98.69
506.64	100.69
506.856	109.69
507.073	108.69
507.289	99.69
507.506	99.69
507.722	94.69
507.939	104.69
508.155	102.69
508.372	108.69
508.588	90.69
508.805	97.69
509.021	103.69
509.238	100.69
509.454	91.69
509.67	96.69
509.887	108.69
510.103	112.69
510.319	189.69
510.536	573.69
510.752	1642.69
510.968	518.69
511.184	137.69
511.401	97.69
511.617	92.69
511.833	102.69
512.049	96.69
512.265	90.69
512.481	90.69
512.698	102.69
512.914	95.69
513.13	88.69
513.346	89.69
513.562	84.69
513.778	94.69
513.994	91.69
514.21	109.69
514.426	121.69
514.642	123.69
514.858	107.69
515.074	147.69
515.29	306.69
515.506	972.69
515.721	370.69
