Data from Uncirc_2009_H10_HRD10591_00089.txt Node
Date: Wed Jan 03 10:12:19 EST 2024
User: Yrep
Spectrometer: HR+D1059
Trigger mode: 1
Integration Time (sec): 1.000000E-1
Scans to average: 1
Electric dark correction enabled: true
Nonlinearity correction enabled: false
Boxcar width: 0
XAxis mode: Wavelengths
Number of Pixels in Spectrum: 2048
>>>>>Begin Spectral Data<<<<<
223.165	-18.06
223.4	-18.06
223.635	-18.06
223.869	-22.06
224.104	-27.06
224.338	-18.06
224.573	-12.06
224.808	-10.06
225.042	-3.06
225.277	-4.06
225.511	-8.06
225.746	7.94
225.98	6.94
226.215	7.94
226.449	22.94
226.683	21.94
226.918	24.94
227.152	29.94
227.387	36.94
227.621	47.94
227.856	53.94
228.09	51.94
228.324	56.94
228.559	67.94
228.793	42.94
229.027	70.94
229.262	56.94
229.496	60.94
229.73	76.94
229.964	79.94
230.199	57.94
230.433	73.94
230.667	71.94
230.901	80.94
231.136	84.94
231.37	84.94
231.604	87.94
231.838	86.94
232.072	78.94
232.306	86.94
232.541	76.94
232.775	84.94
233.009	83.94
233.243	80.94
233.477	87.94
233.711	85.94
233.945	90.94
234.179	72.94
234.413	72.94
234.647	83.94
234.881	75.94
235.115	75.94
235.349	89.94
235.583	78.94
235.817	85.94
236.051	79.94
236.285	84.94
236.519	75.94
236.753	78.94
236.987	73.94
237.221	90.94
237.455	77.94
237.689	69.94
237.922	79.94
238.156	80.94
238.39	77.94
238.624	69.94
238.858	61.94
239.091	77.94
239.325	83.94
239.559	81.94
239.793	85.94
240.027	64.94
240.26	68.94
240.494	78.94
240.728	85.94
240.961	91.94
241.195	90.94
241.429	90.94
241.662	83.94
241.896	84.94
242.13	76.94
242.363	77.94
242.597	96.94
242.83	78.94
243.064	73.94
243.298	75.94
243.531	76.94
243.765	84.94
243.998	77.94
244.232	73.94
244.465	73.94
244.699	80.94
244.932	75.94
245.166	85.94
245.399	77.94
245.633	75.94
245.866	68.94
246.099	82.94
246.333	76.94
246.566	76.94
246.8	81.94
247.033	70.94
247.266	99.94
247.5	70.94
247.733	79.94
247.966	80.94
248.2	86.94
248.433	73.94
248.666	99.94
248.899	80.94
249.133	66.94
249.366	86.94
249.599	98.94
249.832	80.94
250.066	84.94
250.299	74.94
250.532	66.94
250.765	71.94
250.998	81.94
251.231	82.94
251.465	78.94
251.698	75.94
251.931	89.94
252.164	81.94
252.397	84.94
252.63	73.94
252.863	84.94
253.096	84.94
253.329	88.94
253.562	62.94
253.795	71.94
254.028	89.94
254.261	82.94
254.494	76.94
254.727	77.94
254.96	75.94
255.193	81.94
255.426	77.94
255.659	87.94
255.892	76.94
256.124	81.94
256.357	78.94
256.59	81.94
256.823	81.94
257.056	72.94
257.289	80.94
257.521	89.94
257.754	76.94
257.987	86.94
258.22	93.94
258.452	80.94
258.685	82.94
258.918	81.94
259.151	84.94
259.383	81.94
259.616	83.94
259.849	80.94
260.081	73.94
260.314	86.94
260.547	81.94
260.779	93.94
261.012	89.94
261.244	80.94
261.477	83.94
261.71	91.94
261.942	89.94
262.175	93.94
262.407	89.94
262.64	69.94
262.872	72.94
263.105	63.94
263.337	85.94
263.57	93.94
263.802	87.94
264.035	74.94
264.267	77.94
264.499	89.94
264.732	81.94
264.964	83.94
265.197	80.94
265.429	76.94
265.661	91.94
265.894	101.94
266.126	81.94
266.358	78.94
266.591	90.94
266.823	81.94
267.055	80.94
267.287	94.94
267.52	72.94
267.752	76.94
267.984	75.94
268.216	73.94
268.448	84.94
268.681	75.94
268.913	70.94
269.145	75.94
269.377	92.94
269.609	87.94
269.841	74.94
270.073	80.94
270.306	81.94
270.538	97.94
270.77	87.94
271.002	83.94
271.234	77.94
271.466	75.94
271.698	78.94
271.93	84.94
272.162	83.94
272.394	91.94
272.626	78.94
272.858	75.94
273.09	89.94
273.322	81.94
273.553	88.94
273.785	77.94
274.017	80.94
274.249	91.94
274.481	98.94
274.713	89.94
274.945	73.94
275.176	92.94
275.408	84.94
275.64	96.94
275.872	95.94
276.104	78.94
276.335	83.94
276.567	95.94
276.799	84.94
277.031	77.94
277.262	83.94
277.494	84.94
277.726	85.94
277.957	93.94
278.189	80.94
278.421	81.94
278.652	91.94
278.884	87.94
279.115	96.94
279.347	91.94
279.579	85.94
279.81	85.94
280.042	77.94
280.273	83.94
280.505	78.94
280.736	87.94
280.968	103.94
281.199	68.94
281.431	83.94
281.662	90.94
281.894	77.94
282.125	99.94
282.356	104.94
282.588	107.94
282.819	99.94
283.051	88.94
283.282	90.94
283.513	100.94
283.745	86.94
283.976	83.94
284.207	100.94
284.439	92.94
284.67	83.94
284.901	83.94
285.132	89.94
285.364	97.94
285.595	80.94
285.826	86.94
286.057	108.94
286.288	99.94
286.52	94.94
286.751	86.94
286.982	62.94
287.213	79.94
287.444	91.94
287.675	101.94
287.906	86.94
288.138	92.94
288.369	88.94
288.6	86.94
288.831	77.94
289.062	84.94
289.293	90.94
289.524	81.94
289.755	81.94
289.986	87.94
290.217	74.94
290.448	92.94
290.679	71.94
290.91	83.94
291.141	94.94
291.371	88.94
291.602	91.94
291.833	78.94
292.064	87.94
292.295	96.94
292.526	101.94
292.757	94.94
292.987	85.94
293.218	89.94
293.449	75.94
293.68	82.94
293.91	87.94
294.141	96.94
294.372	77.94
294.603	101.94
294.833	80.94
295.064	89.94
295.295	89.94
295.525	81.94
295.756	94.94
295.987	102.94
296.217	107.94
296.448	110.94
296.679	89.94
296.909	87.94
297.14	82.94
297.37	100.94
297.601	98.94
297.831	78.94
298.062	75.94
298.292	87.94
298.523	86.94
298.753	81.94
298.984	89.94
299.214	89.94
299.445	95.94
299.675	94.94
299.905	94.94
300.136	72.94
300.366	94.94
300.597	91.94
300.827	96.94
301.057	98.94
301.288	95.94
301.518	95.94
301.748	85.94
301.979	92.94
302.209	88.94
302.439	84.94
302.669	81.94
302.9	91.94
303.13	85.94
303.36	92.94
303.59	113.94
303.82	102.94
304.051	96.94
304.281	93.94
304.511	88.94
304.741	84.94
304.971	80.94
305.201	75.94
305.431	94.94
305.661	90.94
305.891	91.94
306.121	97.94
306.352	80.94
306.582	86.94
306.812	88.94
307.042	93.94
307.272	87.94
307.502	101.94
307.731	91.94
307.961	75.94
308.191	85.94
308.421	84.94
308.651	87.94
308.881	94.94
309.111	80.94
309.341	89.94
309.571	79.94
309.8	77.94
310.03	79.94
310.26	95.94
310.49	87.94
310.72	92.94
310.949	93.94
311.179	87.94
311.409	81.94
311.639	91.94
311.868	93.94
312.098	84.94
312.328	97.94
312.557	75.94
312.787	95.94
313.017	99.94
313.246	69.94
313.476	93.94
313.706	92.94
313.935	101.94
314.165	96.94
314.394	108.94
314.624	88.94
314.853	99.94
315.083	101.94
315.312	106.94
315.542	90.94
315.771	97.94
316.001	85.94
316.23	110.94
316.46	92.94
316.689	96.94
316.919	79.94
317.148	107.94
317.377	106.94
317.607	117.94
317.836	99.94
318.065	92.94
318.295	85.94
318.524	102.94
318.753	81.94
318.983	95.94
319.212	105.94
319.441	93.94
319.67	89.94
319.9	83.94
320.129	104.94
320.358	97.94
320.587	98.94
320.816	87.94
321.046	95.94
321.275	102.94
321.504	93.94
321.733	91.94
321.962	89.94
322.191	87.94
322.42	96.94
322.649	104.94
322.878	113.94
323.108	109.94
323.337	110.94
323.566	123.94
323.795	137.94
324.024	173.94
324.253	315.94
324.482	616.94
324.71	1247.94
324.939	1639.94
325.168	633.94
325.397	196.94
325.626	135.94
325.855	112.94
326.084	117.94
326.313	132.94
326.542	148.94
326.77	190.94
326.999	358.94
327.228	719.94
327.457	1309.94
327.686	1031.94
327.914	280.94
328.143	154.94
328.372	116.94
328.6	115.94
328.829	107.94
329.058	99.94
329.287	105.94
329.515	91.94
329.744	103.94
329.972	82.94
330.201	96.94
330.43	115.94
330.658	92.94
330.887	113.94
331.115	90.94
331.344	93.94
331.572	89.94
331.801	104.94
332.03	90.94
332.258	95.94
332.486	84.94
332.715	91.94
332.943	93.94
333.172	88.94
333.4	96.94
333.629	89.94
333.857	106.94
334.085	105.94
334.314	114.94
334.542	107.94
334.771	122.94
334.999	86.94
335.227	84.94
335.455	101.94
335.684	90.94
335.912	92.94
336.14	73.94
336.369	71.94
336.597	92.94
336.825	80.94
337.053	76.94
337.281	81.94
337.51	96.94
337.738	81.94
337.966	94.94
338.194	82.94
338.422	78.94
338.65	82.94
338.878	93.94
339.106	94.94
339.334	81.94
339.562	96.94
339.79	90.94
340.018	89.94
340.246	104.94
340.474	91.94
340.702	81.94
340.93	91.94
341.158	92.94
341.386	88.94
341.614	94.94
341.842	89.94
342.07	102.94
342.298	81.94
342.526	94.94
342.754	100.94
342.981	91.94
343.209	95.94
343.437	95.94
343.665	88.94
343.893	85.94
344.12	101.94
344.348	100.94
344.576	85.94
344.804	71.94
345.031	90.94
345.259	85.94
345.487	96.94
345.714	95.94
345.942	92.94
346.17	101.94
346.397	90.94
346.625	89.94
346.853	84.94
347.08	97.94
347.308	96.94
347.535	88.94
347.763	93.94
347.99	91.94
348.218	96.94
348.445	103.94
348.673	107.94
348.9	89.94
349.128	87.94
349.355	85.94
349.583	90.94
349.81	93.94
350.037	87.94
350.265	83.94
350.492	86.94
350.72	89.94
350.947	88.94
351.174	101.94
351.402	94.94
351.629	93.94
351.856	99.94
352.083	108.94
352.311	93.94
352.538	108.94
352.765	96.94
352.992	89.94
353.22	83.94
353.447	105.94
353.674	107.94
353.901	87.94
354.128	81.94
354.355	88.94
354.583	106.94
354.81	102.94
355.037	84.94
355.264	87.94
355.491	93.94
355.718	91.94
355.945	83.94
356.172	89.94
356.399	93.94
356.626	94.94
356.853	89.94
357.08	86.94
357.307	84.94
357.534	84.94
357.761	99.94
357.988	89.94
358.215	94.94
358.441	96.94
358.668	93.94
358.895	85.94
359.122	87.94
359.349	103.94
359.576	92.94
359.802	90.94
360.029	80.94
360.256	98.94
360.483	85.94
360.709	92.94
360.936	107.94
361.163	96.94
361.39	88.94
361.616	76.94
361.843	88.94
362.07	76.94
362.296	94.94
362.523	92.94
362.749	80.94
362.976	86.94
363.203	86.94
363.429	87.94
363.656	81.94
363.882	96.94
364.109	92.94
364.335	96.94
364.562	82.94
364.788	81.94
365.015	88.94
365.241	95.94
365.468	97.94
365.694	95.94
365.92	84.94
366.147	86.94
366.373	95.94
366.599	91.94
366.826	88.94
367.052	85.94
367.278	86.94
367.505	75.94
367.731	93.94
367.957	87.94
368.184	80.94
368.41	98.94
368.636	112.94
368.862	109.94
369.089	91.94
369.315	96.94
369.541	91.94
369.767	78.94
369.993	73.94
370.219	76.94
370.445	81.94
370.672	94.94
370.898	77.94
371.124	87.94
371.35	85.94
371.576	94.94
371.802	85.94
372.028	95.94
372.254	87.94
372.48	84.94
372.706	78.94
372.932	88.94
373.158	87.94
373.384	83.94
373.61	80.94
373.835	80.94
374.061	79.94
374.287	85.94
374.513	92.94
374.739	95.94
374.965	96.94
375.191	95.94
375.416	88.94
375.642	88.94
375.868	102.94
376.094	96.94
376.319	87.94
376.545	84.94
376.771	91.94
376.997	76.94
377.222	84.94
377.448	89.94
377.674	94.94
377.899	89.94
378.125	84.94
378.35	101.94
378.576	94.94
378.802	67.94
379.027	84.94
379.253	101.94
379.478	77.94
379.704	81.94
379.929	88.94
380.155	92.94
380.38	90.94
380.606	77.94
380.831	95.94
381.057	87.94
381.282	93.94
381.507	86.94
381.733	95.94
381.958	99.94
382.184	91.94
382.409	71.94
382.634	100.94
382.86	75.94
383.085	99.94
383.31	82.94
383.535	95.94
383.761	108.94
383.986	90.94
384.211	94.94
384.436	88.94
384.662	93.94
384.887	94.94
385.112	93.94
385.337	92.94
385.562	104.94
385.787	96.94
386.013	106.94
386.238	91.94
386.463	89.94
386.688	95.94
386.913	93.94
387.138	103.94
387.363	95.94
387.588	93.94
387.813	102.94
388.038	103.94
388.263	107.94
388.488	116.94
388.713	96.94
388.938	84.94
389.163	71.94
389.387	84.94
389.612	89.94
389.837	95.94
390.062	96.94
390.287	99.94
390.512	85.94
390.736	83.94
390.961	89.94
391.186	99.94
391.411	95.94
391.636	88.94
391.86	87.94
392.085	85.94
392.31	89.94
392.534	81.94
392.759	85.94
392.984	92.94
393.208	87.94
393.433	78.94
393.658	70.94
393.882	86.94
394.107	85.94
394.331	81.94
394.556	78.94
394.78	83.94
395.005	93.94
395.229	78.94
395.454	85.94
395.678	91.94
395.903	90.94
396.127	80.94
396.352	84.94
396.576	82.94
396.801	93.94
397.025	97.94
397.249	87.94
397.474	99.94
397.698	86.94
397.922	86.94
398.147	83.94
398.371	77.94
398.595	84.94
398.82	81.94
399.044	88.94
399.268	80.94
399.492	87.94
399.717	91.94
399.941	72.94
400.165	84.94
400.389	97.94
400.613	94.94
400.837	91.94
401.062	78.94
401.286	88.94
401.51	67.94
401.734	93.94
401.958	101.94
402.182	91.94
402.406	117.94
402.63	105.94
402.854	91.94
403.078	86.94
403.302	83.94
403.526	96.94
403.75	91.94
403.974	96.94
404.198	67.94
404.422	68.94
404.645	76.94
404.869	69.94
405.093	85.94
405.317	85.94
405.541	104.94
405.765	94.94
405.988	103.94
406.212	120.94
406.436	143.94
406.66	126.94
406.883	95.94
407.107	77.94
407.331	83.94
407.555	88.94
407.778	95.94
408.002	92.94
408.226	75.94
408.449	74.94
408.673	88.94
408.896	81.94
409.12	90.94
409.344	91.94
409.567	92.94
409.791	88.94
410.014	85.94
410.238	86.94
410.461	81.94
410.685	90.94
410.908	88.94
411.132	106.94
411.355	98.94
411.578	92.94
411.802	82.94
412.025	89.94
412.249	87.94
412.472	83.94
412.695	98.94
412.919	87.94
413.142	90.94
413.365	99.94
413.589	87.94
413.812	80.94
414.035	94.94
414.258	83.94
414.482	95.94
414.705	92.94
414.928	108.94
415.151	104.94
415.374	107.94
415.597	86.94
415.821	90.94
416.044	75.94
416.267	88.94
416.49	83.94
416.713	95.94
416.936	86.94
417.159	95.94
417.382	79.94
417.605	91.94
417.828	91.94
418.051	79.94
418.274	76.94
418.497	85.94
418.72	81.94
418.943	89.94
419.166	87.94
419.389	76.94
419.611	73.94
419.834	85.94
420.057	95.94
420.28	84.94
420.503	92.94
420.726	72.94
420.948	90.94
421.171	84.94
421.394	103.94
421.617	79.94
421.839	81.94
422.062	69.94
422.285	72.94
422.507	88.94
422.73	108.94
422.953	93.94
423.175	81.94
423.398	73.94
423.621	82.94
423.843	73.94
424.066	81.94
424.288	91.94
424.511	93.94
424.733	86.94
424.956	93.94
425.178	109.94
425.401	96.94
425.623	88.94
425.846	100.94
426.068	91.94
426.291	95.94
426.513	95.94
426.735	95.94
426.958	85.94
427.18	79.94
427.402	99.94
427.625	129.94
427.847	110.94
428.069	93.94
428.292	91.94
428.514	89.94
428.736	96.94
428.958	82.94
429.181	74.94
429.403	78.94
429.625	84.94
429.847	86.94
430.069	89.94
430.292	81.94
430.514	83.94
430.736	79.94
430.958	86.94
431.18	81.94
431.402	94.94
431.624	80.94
431.846	87.94
432.068	70.94
432.29	94.94
432.512	84.94
432.734	97.94
432.956	93.94
433.178	87.94
433.4	101.94
433.622	92.94
433.844	88.94
434.066	90.94
434.287	86.94
434.509	78.94
434.731	82.94
434.953	71.94
435.175	89.94
435.397	92.94
435.618	89.94
435.84	100.94
436.062	109.94
436.284	107.94
436.505	92.94
436.727	83.94
436.949	77.94
437.17	76.94
437.392	86.94
437.614	83.94
437.835	91.94
438.057	109.94
438.278	96.94
438.5	99.94
438.721	112.94
438.943	95.94
439.165	88.94
439.386	83.94
439.608	84.94
439.829	76.94
440.05	123.94
440.272	128.94
440.493	92.94
440.715	75.94
440.936	87.94
441.158	79.94
441.379	88.94
441.6	89.94
441.822	87.94
442.043	81.94
442.264	96.94
442.486	94.94
442.707	91.94
442.928	83.94
443.149	100.94
443.371	103.94
443.592	78.94
443.813	104.94
444.034	101.94
444.255	100.94
444.476	71.94
444.698	81.94
444.919	94.94
445.14	129.94
445.361	112.94
445.582	110.94
445.803	120.94
446.024	118.94
446.245	111.94
446.466	97.94
446.687	71.94
446.908	94.94
447.129	87.94
447.35	84.94
447.571	88.94
447.792	91.94
448.013	86.94
448.234	97.94
448.455	77.94
448.675	105.94
448.896	104.94
449.117	90.94
449.338	94.94
449.559	104.94
449.779	133.94
450	88.94
450.221	86.94
450.442	96.94
450.662	84.94
450.883	98.94
451.104	101.94
451.324	102.94
451.545	70.94
451.766	80.94
451.986	71.94
452.207	81.94
452.428	86.94
452.648	88.94
452.869	94.94
453.089	103.94
453.31	97.94
453.53	89.94
453.751	102.94
453.971	94.94
454.192	92.94
454.412	87.94
454.633	74.94
454.853	77.94
455.073	97.94
455.294	88.94
455.514	95.94
455.734	88.94
455.955	96.94
456.175	74.94
456.395	80.94
456.616	73.94
456.836	77.94
457.056	79.94
457.276	76.94
457.497	84.94
457.717	86.94
457.937	68.94
458.157	80.94
458.377	86.94
458.598	76.94
458.818	111.94
459.038	113.94
459.258	97.94
459.478	93.94
459.698	85.94
459.918	88.94
460.138	89.94
460.358	70.94
460.578	85.94
460.798	88.94
461.018	81.94
461.238	68.94
461.458	77.94
461.678	73.94
461.898	85.94
462.118	69.94
462.338	72.94
462.558	78.94
462.777	85.94
462.997	86.94
463.217	81.94
463.437	87.94
463.657	94.94
463.876	82.94
464.096	91.94
464.316	77.94
464.536	89.94
464.755	107.94
464.975	102.94
465.195	135.94
465.414	118.94
465.634	88.94
465.854	85.94
466.073	87.94
466.293	97.94
466.512	91.94
466.732	79.94
466.951	91.94
467.171	98.94
467.391	89.94
467.61	100.94
467.829	90.94
468.049	94.94
468.268	96.94
468.488	81.94
468.707	91.94
468.927	87.94
469.146	66.94
469.365	92.94
469.585	79.94
469.804	80.94
470.023	92.94
470.243	87.94
470.462	97.94
470.681	116.94
470.901	91.94
471.12	86.94
471.339	75.94
471.558	92.94
471.777	82.94
471.997	94.94
472.216	107.94
472.435	128.94
472.654	84.94
472.873	75.94
473.092	71.94
473.311	91.94
473.53	91.94
473.749	95.94
473.968	90.94
474.187	101.94
474.406	89.94
474.625	83.94
474.844	73.94
475.063	78.94
475.282	88.94
475.501	92.94
475.72	100.94
475.939	86.94
476.158	86.94
476.377	88.94
476.596	79.94
476.814	85.94
477.033	82.94
477.252	97.94
477.471	96.94
477.69	77.94
477.908	93.94
478.127	92.94
478.346	96.94
478.564	76.94
478.783	81.94
479.002	87.94
479.22	92.94
479.439	92.94
479.658	86.94
479.876	89.94
480.095	104.94
480.313	102.94
480.532	93.94
480.751	89.94
480.969	105.94
481.188	143.94
481.406	137.94
481.624	91.94
481.843	84.94
482.061	88.94
482.28	96.94
482.498	85.94
482.717	88.94
482.935	92.94
483.153	79.94
483.372	75.94
483.59	98.94
483.808	84.94
484.027	96.94
484.245	76.94
484.463	85.94
484.681	90.94
484.9	91.94
485.118	104.94
485.336	99.94
485.554	85.94
485.772	93.94
485.99	112.94
486.209	101.94
486.427	100.94
486.645	107.94
486.863	95.94
487.081	100.94
487.299	92.94
487.517	93.94
487.735	104.94
487.953	90.94
488.171	88.94
488.389	77.94
488.607	83.94
488.825	88.94
489.043	100.94
489.261	98.94
489.479	95.94
489.696	95.94
489.914	75.94
490.132	90.94
490.35	109.94
490.568	79.94
490.786	95.94
491.003	86.94
491.221	78.94
491.439	85.94
491.657	95.94
491.874	94.94
492.092	101.94
492.31	91.94
492.527	78.94
492.745	71.94
492.963	103.94
493.18	85.94
493.398	83.94
493.615	92.94
493.833	96.94
494.05	75.94
494.268	91.94
494.485	98.94
494.703	80.94
494.92	94.94
495.138	75.94
495.355	102.94
495.573	93.94
495.79	90.94
496.008	99.94
496.225	103.94
496.442	83.94
496.66	93.94
496.877	99.94
497.094	94.94
497.312	93.94
497.529	93.94
497.746	78.94
497.963	89.94
498.181	87.94
498.398	91.94
498.615	97.94
498.832	100.94
499.049	86.94
499.267	83.94
499.484	92.94
499.701	101.94
499.918	102.94
500.135	85.94
500.352	96.94
500.569	96.94
500.786	99.94
501.003	77.94
501.22	93.94
501.437	82.94
501.654	101.94
501.871	82.94
502.088	85.94
502.305	93.94
502.522	95.94
502.739	92.94
502.956	71.94
503.172	92.94
503.389	84.94
503.606	98.94
503.823	87.94
504.04	98.94
504.256	103.94
504.473	86.94
504.69	106.94
504.907	93.94
505.123	99.94
505.34	92.94
505.557	80.94
505.773	89.94
505.99	83.94
506.207	80.94
506.423	92.94
506.64	95.94
506.856	84.94
507.073	93.94
507.289	102.94
507.506	86.94
507.722	91.94
507.939	105.94
508.155	92.94
508.372	84.94
508.588	81.94
508.805	100.94
509.021	96.94
509.238	92.94
509.454	90.94
509.67	81.94
509.887	91.94
510.103	122.94
510.319	176.94
510.536	489.94
510.752	1425.94
510.968	438.94
511.184	120.94
511.401	109.94
511.617	79.94
511.833	89.94
512.049	92.94
512.265	92.94
512.481	84.94
512.698	101.94
512.914	88.94
513.13	90.94
513.346	94.94
513.562	81.94
513.778	95.94
513.994	89.94
514.21	101.94
514.426	107.94
514.642	111.94
514.858	106.94
515.074	126.94
515.29	295.94
515.506	804.94
515.721	350.94
515.937	129.94
516.153	107.94
516.369	95.94
516.585	92.94
516.801	76.94
517.016	103.94
517.232	100.94
