Data from Uncirc_2009_H10_HRD10591_00019.txt Node
Date: Wed Jan 03 10:12:05 EST 2024
User: Yrep
Spectrometer: HR+D1059
Trigger mode: 1
Integration Time (sec): 1.000000E-1
Scans to average: 1
Electric dark correction enabled: true
Nonlinearity correction enabled: false
Boxcar width: 0
XAxis mode: Wavelengths
Number of Pixels in Spectrum: 2048
>>>>>Begin Spectral Data<<<<<
223.165	-26.38
223.4	-26.38
223.635	-26.38
223.869	-18.38
224.104	-17.38
224.338	-12.38
224.573	-16.38
224.808	-6.38
225.042	-15.38
225.277	-3.38
225.511	4.62
225.746	8.62
225.98	4.62
226.215	4.62
226.449	17.62
226.683	15.62
226.918	30.62
227.152	29.62
227.387	34.62
227.621	33.62
227.856	43.62
228.09	49.62
228.324	49.62
228.559	49.62
228.793	61.62
229.027	59.62
229.262	70.62
229.496	83.62
229.73	75.62
229.964	64.62
230.199	66.62
230.433	80.62
230.667	89.62
230.901	84.62
231.136	63.62
231.37	75.62
231.604	75.62
231.838	71.62
232.072	86.62
232.306	80.62
232.541	96.62
232.775	77.62
233.009	90.62
233.243	88.62
233.477	94.62
233.711	66.62
233.945	78.62
234.179	77.62
234.413	80.62
234.647	88.62
234.881	90.62
235.115	77.62
235.349	82.62
235.583	79.62
235.817	80.62
236.051	79.62
236.285	76.62
236.519	67.62
236.753	79.62
236.987	86.62
237.221	81.62
237.455	70.62
237.689	76.62
237.922	77.62
238.156	75.62
238.39	61.62
238.624	85.62
238.858	81.62
239.091	86.62
239.325	91.62
239.559	77.62
239.793	73.62
240.027	69.62
240.26	85.62
240.494	64.62
240.728	81.62
240.961	70.62
241.195	65.62
241.429	78.62
241.662	70.62
241.896	79.62
242.13	77.62
242.363	82.62
242.597	86.62
242.83	86.62
243.064	90.62
243.298	88.62
243.531	77.62
243.765	81.62
243.998	94.62
244.232	76.62
244.465	81.62
244.699	91.62
244.932	65.62
245.166	78.62
245.399	77.62
245.633	78.62
245.866	86.62
246.099	75.62
246.333	74.62
246.566	73.62
246.8	89.62
247.033	76.62
247.266	79.62
247.5	85.62
247.733	74.62
247.966	92.62
248.2	82.62
248.433	81.62
248.666	97.62
248.899	70.62
249.133	84.62
249.366	100.62
249.599	97.62
249.832	92.62
250.066	73.62
250.299	69.62
250.532	78.62
250.765	69.62
250.998	72.62
251.231	82.62
251.465	81.62
251.698	73.62
251.931	80.62
252.164	74.62
252.397	78.62
252.63	78.62
252.863	85.62
253.096	87.62
253.329	86.62
253.562	83.62
253.795	96.62
254.028	81.62
254.261	79.62
254.494	72.62
254.727	71.62
254.96	81.62
255.193	75.62
255.426	86.62
255.659	87.62
255.892	78.62
256.124	79.62
256.357	79.62
256.59	92.62
256.823	85.62
257.056	87.62
257.289	74.62
257.521	68.62
257.754	77.62
257.987	78.62
258.22	92.62
258.452	79.62
258.685	85.62
258.918	72.62
259.151	81.62
259.383	78.62
259.616	90.62
259.849	81.62
260.081	77.62
260.314	76.62
260.547	90.62
260.779	73.62
261.012	74.62
261.244	84.62
261.477	102.62
261.71	95.62
261.942	98.62
262.175	90.62
262.407	101.62
262.64	87.62
262.872	82.62
263.105	92.62
263.337	80.62
263.57	88.62
263.802	74.62
264.035	88.62
264.267	92.62
264.499	78.62
264.732	79.62
264.964	90.62
265.197	84.62
265.429	76.62
265.661	90.62
265.894	76.62
266.126	94.62
266.358	63.62
266.591	76.62
266.823	86.62
267.055	79.62
267.287	82.62
267.52	82.62
267.752	89.62
267.984	85.62
268.216	92.62
268.448	84.62
268.681	82.62
268.913	86.62
269.145	89.62
269.377	96.62
269.609	77.62
269.841	80.62
270.073	89.62
270.306	89.62
270.538	80.62
270.77	83.62
271.002	93.62
271.234	78.62
271.466	80.62
271.698	103.62
271.93	80.62
272.162	82.62
272.394	85.62
272.626	90.62
272.858	81.62
273.09	88.62
273.322	98.62
273.553	86.62
273.785	95.62
274.017	72.62
274.249	76.62
274.481	89.62
274.713	83.62
274.945	85.62
275.176	86.62
275.408	87.62
275.64	84.62
275.872	75.62
276.104	79.62
276.335	90.62
276.567	97.62
276.799	103.62
277.031	100.62
277.262	92.62
277.494	105.62
277.726	76.62
277.957	86.62
278.189	76.62
278.421	88.62
278.652	93.62
278.884	76.62
279.115	82.62
279.347	78.62
279.579	90.62
279.81	97.62
280.042	77.62
280.273	97.62
280.505	90.62
280.736	87.62
280.968	88.62
281.199	99.62
281.431	88.62
281.662	70.62
281.894	95.62
282.125	72.62
282.356	95.62
282.588	123.62
282.819	113.62
283.051	94.62
283.282	78.62
283.513	93.62
283.745	80.62
283.976	92.62
284.207	103.62
284.439	108.62
284.67	93.62
284.901	82.62
285.132	81.62
285.364	76.62
285.595	93.62
285.826	87.62
286.057	83.62
286.288	78.62
286.52	100.62
286.751	85.62
286.982	95.62
287.213	89.62
287.444	94.62
287.675	94.62
287.906	74.62
288.138	75.62
288.369	74.62
288.6	95.62
288.831	84.62
289.062	90.62
289.293	81.62
289.524	85.62
289.755	98.62
289.986	85.62
290.217	103.62
290.448	90.62
290.679	81.62
290.91	90.62
291.141	92.62
291.371	99.62
291.602	94.62
291.833	88.62
292.064	87.62
292.295	97.62
292.526	86.62
292.757	98.62
292.987	95.62
293.218	99.62
293.449	96.62
293.68	93.62
293.91	90.62
294.141	81.62
294.372	86.62
294.603	76.62
294.833	91.62
295.064	79.62
295.295	88.62
295.525	92.62
295.756	100.62
295.987	106.62
296.217	122.62
296.448	120.62
296.679	101.62
296.909	102.62
297.14	85.62
297.37	86.62
297.601	88.62
297.831	87.62
298.062	103.62
298.292	85.62
298.523	100.62
298.753	86.62
298.984	98.62
299.214	88.62
299.445	84.62
299.675	103.62
299.905	86.62
300.136	95.62
300.366	85.62
300.597	92.62
300.827	88.62
301.057	111.62
301.288	95.62
301.518	81.62
301.748	95.62
301.979	111.62
302.209	77.62
302.439	86.62
302.669	92.62
302.9	101.62
303.13	118.62
303.36	100.62
303.59	120.62
303.82	93.62
304.051	85.62
304.281	87.62
304.511	99.62
304.741	84.62
304.971	101.62
305.201	86.62
305.431	87.62
305.661	91.62
305.891	90.62
306.121	100.62
306.352	105.62
306.582	96.62
306.812	92.62
307.042	74.62
307.272	86.62
307.502	100.62
307.731	82.62
307.961	91.62
308.191	81.62
308.421	92.62
308.651	101.62
308.881	87.62
309.111	74.62
309.341	97.62
309.571	90.62
309.8	89.62
310.03	87.62
310.26	92.62
310.49	92.62
310.72	94.62
310.949	102.62
311.179	91.62
311.409	98.62
311.639	95.62
311.868	92.62
312.098	102.62
312.328	85.62
312.557	93.62
312.787	99.62
313.017	95.62
313.246	87.62
313.476	78.62
313.706	94.62
313.935	91.62
314.165	95.62
314.394	102.62
314.624	88.62
314.853	94.62
315.083	97.62
315.312	90.62
315.542	93.62
315.771	96.62
316.001	101.62
316.23	103.62
316.46	97.62
316.689	90.62
316.919	105.62
317.148	100.62
317.377	112.62
317.607	116.62
317.836	107.62
318.065	87.62
318.295	98.62
318.524	79.62
318.753	87.62
318.983	77.62
319.212	96.62
319.441	93.62
319.67	111.62
319.9	81.62
320.129	97.62
320.358	93.62
320.587	97.62
320.816	88.62
321.046	94.62
321.275	86.62
321.504	100.62
321.733	95.62
321.962	90.62
322.191	99.62
322.42	100.62
322.649	103.62
322.878	108.62
323.108	117.62
323.337	130.62
323.566	130.62
323.795	124.62
324.024	198.62
324.253	363.62
324.482	741.62
324.71	1501.62
324.939	1983.62
325.168	729.62
325.397	224.62
325.626	140.62
325.855	124.62
326.084	131.62
326.313	165.62
326.542	165.62
326.77	221.62
326.999	418.62
327.228	830.62
327.457	1517.62
327.686	1220.62
327.914	330.62
328.143	190.62
328.372	141.62
328.6	120.62
328.829	103.62
329.058	136.62
329.287	111.62
329.515	103.62
329.744	104.62
329.972	110.62
330.201	99.62
330.43	119.62
330.658	122.62
330.887	131.62
331.115	119.62
331.344	103.62
331.572	97.62
331.801	97.62
332.03	86.62
332.258	115.62
332.486	89.62
332.715	101.62
332.943	94.62
333.172	102.62
333.4	102.62
333.629	100.62
333.857	116.62
334.085	97.62
334.314	97.62
334.542	112.62
334.771	120.62
334.999	95.62
335.227	105.62
335.455	101.62
335.684	95.62
335.912	86.62
336.14	99.62
336.369	104.62
336.597	101.62
336.825	92.62
337.053	105.62
337.281	79.62
337.51	90.62
337.738	89.62
337.966	94.62
338.194	91.62
338.422	93.62
338.65	106.62
338.878	99.62
339.106	93.62
339.334	88.62
339.562	95.62
339.79	100.62
340.018	98.62
340.246	86.62
340.474	89.62
340.702	91.62
340.93	90.62
341.158	95.62
341.386	93.62
341.614	109.62
341.842	106.62
342.07	83.62
342.298	93.62
342.526	100.62
342.754	72.62
342.981	69.62
343.209	88.62
343.437	102.62
343.665	92.62
343.893	80.62
344.12	108.62
344.348	96.62
344.576	91.62
344.804	91.62
345.031	91.62
345.259	87.62
345.487	100.62
345.714	87.62
345.942	105.62
346.17	100.62
346.397	90.62
346.625	107.62
346.853	88.62
347.08	76.62
347.308	93.62
347.535	100.62
347.763	77.62
347.99	104.62
348.218	103.62
348.445	92.62
348.673	99.62
348.9	97.62
349.128	93.62
349.355	99.62
349.583	97.62
349.81	96.62
350.037	97.62
350.265	93.62
350.492	104.62
350.72	114.62
350.947	96.62
351.174	103.62
351.402	101.62
351.629	97.62
351.856	95.62
352.083	105.62
352.311	99.62
352.538	105.62
352.765	112.62
352.992	110.62
353.22	95.62
353.447	105.62
353.674	98.62
353.901	108.62
354.128	93.62
354.355	99.62
354.583	107.62
354.81	88.62
355.037	86.62
355.264	95.62
355.491	86.62
355.718	103.62
355.945	96.62
356.172	93.62
356.399	87.62
356.626	98.62
356.853	101.62
357.08	99.62
357.307	94.62
357.534	98.62
357.761	88.62
357.988	100.62
358.215	83.62
358.441	93.62
358.668	84.62
358.895	76.62
359.122	89.62
359.349	93.62
359.576	77.62
359.802	95.62
360.029	96.62
360.256	114.62
360.483	100.62
360.709	85.62
360.936	84.62
361.163	91.62
361.39	70.62
361.616	82.62
361.843	76.62
362.07	81.62
362.296	101.62
362.523	84.62
362.749	100.62
362.976	76.62
363.203	92.62
363.429	87.62
363.656	85.62
363.882	85.62
364.109	88.62
364.335	83.62
364.562	97.62
364.788	85.62
365.015	100.62
365.241	88.62
365.468	95.62
365.694	88.62
365.92	98.62
366.147	88.62
366.373	94.62
366.599	80.62
366.826	96.62
367.052	100.62
367.278	82.62
367.505	79.62
367.731	96.62
367.957	89.62
368.184	83.62
368.41	96.62
368.636	111.62
368.862	104.62
369.089	96.62
369.315	85.62
369.541	88.62
369.767	89.62
369.993	71.62
370.219	90.62
370.445	94.62
370.672	100.62
370.898	80.62
371.124	110.62
371.35	81.62
371.576	76.62
371.802	94.62
372.028	86.62
372.254	91.62
372.48	81.62
372.706	85.62
372.932	75.62
373.158	101.62
373.384	89.62
373.61	95.62
373.835	82.62
374.061	88.62
374.287	84.62
374.513	100.62
374.739	108.62
374.965	85.62
375.191	89.62
375.416	83.62
375.642	82.62
375.868	88.62
376.094	78.62
376.319	88.62
376.545	100.62
376.771	89.62
376.997	89.62
377.222	87.62
377.448	88.62
377.674	79.62
377.899	100.62
378.125	101.62
378.35	106.62
378.576	88.62
378.802	101.62
379.027	100.62
379.253	92.62
379.478	81.62
379.704	106.62
379.929	80.62
380.155	109.62
380.38	94.62
380.606	88.62
380.831	96.62
381.057	92.62
381.282	92.62
381.507	105.62
381.733	102.62
381.958	79.62
382.184	92.62
382.409	101.62
382.634	107.62
382.86	93.62
383.085	110.62
383.31	97.62
383.535	93.62
383.761	103.62
383.986	94.62
384.211	103.62
384.436	105.62
384.662	101.62
384.887	98.62
385.112	101.62
385.337	101.62
385.562	95.62
385.787	97.62
386.013	109.62
386.238	135.62
386.463	97.62
386.688	109.62
386.913	97.62
387.138	117.62
387.363	119.62
387.588	96.62
387.813	124.62
388.038	99.62
388.263	113.62
388.488	118.62
388.713	94.62
388.938	93.62
389.163	97.62
389.387	98.62
389.612	88.62
389.837	81.62
390.062	85.62
390.287	90.62
390.512	92.62
390.736	97.62
390.961	90.62
391.186	105.62
391.411	88.62
391.636	100.62
391.86	103.62
392.085	92.62
392.31	76.62
392.534	82.62
392.759	82.62
392.984	88.62
393.208	105.62
393.433	82.62
393.658	87.62
393.882	75.62
394.107	84.62
394.331	82.62
394.556	80.62
394.78	83.62
395.005	72.62
395.229	96.62
395.454	83.62
395.678	70.62
395.903	80.62
396.127	90.62
396.352	87.62
396.576	79.62
396.801	91.62
397.025	83.62
397.249	89.62
397.474	97.62
397.698	66.62
397.922	82.62
398.147	82.62
398.371	89.62
398.595	90.62
398.82	92.62
399.044	93.62
399.268	85.62
399.492	90.62
399.717	80.62
399.941	78.62
400.165	84.62
400.389	99.62
400.613	81.62
400.837	82.62
401.062	97.62
401.286	90.62
401.51	87.62
401.734	85.62
401.958	95.62
402.182	102.62
402.406	142.62
402.63	113.62
402.854	88.62
403.078	96.62
403.302	86.62
403.526	97.62
403.75	90.62
403.974	87.62
404.198	86.62
404.422	92.62
404.645	90.62
404.869	81.62
405.093	90.62
405.317	109.62
405.541	91.62
405.765	93.62
405.988	116.62
406.212	153.62
406.436	184.62
406.66	126.62
406.883	97.62
407.107	108.62
407.331	93.62
407.555	100.62
407.778	102.62
408.002	88.62
408.226	86.62
408.449	76.62
408.673	88.62
408.896	96.62
409.12	82.62
409.344	81.62
409.567	93.62
409.791	89.62
410.014	95.62
410.238	86.62
410.461	94.62
410.685	93.62
410.908	94.62
411.132	105.62
411.355	87.62
411.578	104.62
411.802	100.62
412.025	91.62
412.249	96.62
412.472	88.62
412.695	101.62
412.919	93.62
413.142	102.62
413.365	103.62
413.589	84.62
413.812	85.62
414.035	87.62
414.258	101.62
414.482	95.62
414.705	92.62
414.928	75.62
415.151	80.62
415.374	87.62
415.597	92.62
415.821	82.62
416.044	88.62
416.267	88.62
416.49	88.62
416.713	88.62
416.936	95.62
417.159	93.62
417.382	81.62
417.605	97.62
417.828	91.62
418.051	89.62
418.274	96.62
418.497	82.62
418.72	93.62
418.943	83.62
419.166	92.62
419.389	78.62
419.611	94.62
419.834	91.62
420.057	85.62
420.28	93.62
420.503	81.62
420.726	85.62
420.948	97.62
421.171	82.62
421.394	77.62
421.617	82.62
421.839	91.62
422.062	92.62
422.285	99.62
422.507	88.62
422.73	100.62
422.953	92.62
423.175	88.62
423.398	75.62
423.621	83.62
423.843	80.62
424.066	93.62
424.288	88.62
424.511	86.62
424.733	96.62
424.956	105.62
425.178	107.62
425.401	100.62
425.623	84.62
425.846	79.62
426.068	84.62
426.291	81.62
426.513	97.62
426.735	83.62
426.958	91.62
427.18	96.62
427.402	137.62
427.625	128.62
427.847	126.62
428.069	102.62
428.292	92.62
428.514	79.62
428.736	78.62
428.958	87.62
429.181	103.62
429.403	81.62
429.625	88.62
429.847	93.62
430.069	97.62
430.292	97.62
430.514	79.62
430.736	95.62
430.958	94.62
431.18	81.62
431.402	91.62
431.624	81.62
431.846	73.62
432.068	78.62
432.29	84.62
432.512	84.62
432.734	94.62
432.956	92.62
433.178	98.62
433.4	90.62
433.622	92.62
433.844	88.62
434.066	60.62
434.287	91.62
434.509	87.62
434.731	94.62
434.953	93.62
435.175	92.62
435.397	80.62
435.618	93.62
435.84	98.62
436.062	119.62
436.284	103.62
436.505	105.62
436.727	97.62
436.949	82.62
437.17	80.62
437.392	85.62
437.614	105.62
437.835	107.62
438.057	83.62
438.278	112.62
438.5	88.62
438.721	116.62
438.943	90.62
439.165	96.62
439.386	98.62
439.608	89.62
439.829	96.62
440.05	118.62
440.272	132.62
440.493	88.62
440.715	79.62
440.936	78.62
441.158	86.62
441.379	93.62
441.6	96.62
441.822	91.62
442.043	89.62
442.264	89.62
442.486	91.62
442.707	98.62
442.928	99.62
443.149	126.62
443.371	100.62
443.592	92.62
443.813	100.62
444.034	94.62
444.255	89.62
444.476	91.62
444.698	85.62
444.919	71.62
445.14	132.62
445.361	110.62
445.582	111.62
445.803	126.62
446.024	130.62
446.245	112.62
446.466	94.62
446.687	99.62
446.908	77.62
447.129	84.62
447.35	92.62
447.571	81.62
447.792	99.62
448.013	80.62
448.234	106.62
448.455	101.62
448.675	107.62
448.896	100.62
449.117	95.62
449.338	106.62
449.559	127.62
449.779	113.62
450	90.62
450.221	84.62
450.442	82.62
450.662	84.62
450.883	92.62
451.104	95.62
451.324	96.62
451.545	76.62
451.766	84.62
451.986	84.62
452.207	77.62
452.428	77.62
452.648	85.62
452.869	100.62
453.089	86.62
453.31	101.62
453.53	98.62
453.751	101.62
453.971	93.62
454.192	106.62
454.412	101.62
454.633	85.62
454.853	87.62
455.073	88.62
455.294	85.62
455.514	81.62
455.734	78.62
455.955	96.62
456.175	77.62
456.395	76.62
456.616	84.62
456.836	75.62
457.056	87.62
457.276	73.62
457.497	76.62
457.717	82.62
457.937	87.62
458.157	84.62
458.377	87.62
458.598	106.62
458.818	135.62
459.038	152.62
459.258	111.62
459.478	83.62
459.698	79.62
459.918	85.62
460.138	91.62
460.358	82.62
460.578	77.62
460.798	91.62
461.018	79.62
461.238	81.62
461.458	75.62
461.678	90.62
461.898	82.62
462.118	88.62
462.338	82.62
462.558	82.62
462.777	75.62
462.997	81.62
463.217	84.62
463.437	94.62
463.657	93.62
463.876	75.62
464.096	88.62
464.316	82.62
464.536	93.62
464.755	78.62
464.975	106.62
465.195	122.62
465.414	137.62
465.634	105.62
465.854	94.62
466.073	81.62
466.293	64.62
466.512	88.62
466.732	77.62
466.951	87.62
467.171	88.62
467.391	91.62
467.61	92.62
467.829	98.62
468.049	86.62
468.268	93.62
468.488	79.62
468.707	78.62
468.927	91.62
469.146	91.62
469.365	82.62
469.585	84.62
469.804	92.62
470.023	103.62
470.243	84.62
470.462	103.62
470.681	101.62
470.901	88.62
471.12	70.62
471.339	96.62
471.558	95.62
471.777	73.62
471.997	97.62
472.216	97.62
472.435	121.62
472.654	90.62
472.873	96.62
473.092	88.62
473.311	73.62
473.53	94.62
473.749	93.62
473.968	86.62
474.187	96.62
474.406	78.62
474.625	81.62
474.844	93.62
475.063	82.62
475.282	95.62
475.501	84.62
475.72	77.62
475.939	99.62
476.158	93.62
476.377	87.62
476.596	86.62
476.814	89.62
477.033	82.62
477.252	84.62
477.471	77.62
477.69	88.62
477.908	92.62
478.127	82.62
478.346	91.62
478.564	81.62
478.783	89.62
479.002	88.62
479.22	95.62
479.439	95.62
479.658	91.62
479.876	105.62
480.095	90.62
480.313	91.62
480.532	89.62
480.751	74.62
480.969	101.62
481.188	176.62
481.406	138.62
481.624	98.62
481.843	89.62
482.061	97.62
482.28	102.62
482.498	95.62
482.717	81.62
482.935	83.62
483.153	90.62
483.372	87.62
483.59	110.62
483.808	80.62
484.027	81.62
484.245	94.62
484.463	89.62
484.681	103.62
484.9	85.62
485.118	96.62
485.336	100.62
485.554	90.62
485.772	89.62
485.99	102.62
486.209	104.62
486.427	91.62
486.645	107.62
486.863	104.62
487.081	95.62
487.299	87.62
487.517	103.62
487.735	81.62
487.953	111.62
488.171	90.62
488.389	84.62
488.607	101.62
488.825	94.62
489.043	87.62
489.261	92.62
489.479	102.62
489.696	88.62
489.914	88.62
490.132	79.62
490.35	81.62
490.568	89.62
490.786	81.62
491.003	74.62
491.221	88.62
491.439	104.62
491.657	80.62
491.874	82.62
492.092	103.62
492.31	83.62
492.527	95.62
492.745	80.62
492.963	84.62
493.18	73.62
493.398	86.62
493.615	85.62
493.833	101.62
494.05	87.62
494.268	82.62
494.485	92.62
494.703	89.62
494.92	92.62
495.138	89.62
495.355	88.62
495.573	102.62
495.79	89.62
496.008	106.62
496.225	94.62
496.442	85.62
496.66	92.62
496.877	99.62
497.094	107.62
497.312	86.62
497.529	83.62
497.746	97.62
497.963	94.62
498.181	84.62
498.398	85.62
498.615	106.62
498.832	103.62
499.049	100.62
499.267	103.62
499.484	77.62
499.701	80.62
499.918	91.62
500.135	95.62
500.352	88.62
500.569	81.62
500.786	88.62
501.003	84.62
501.22	87.62
501.437	73.62
501.654	99.62
501.871	100.62
502.088	95.62
502.305	88.62
502.522	89.62
502.739	87.62
502.956	78.62
503.172	94.62
503.389	84.62
503.606	102.62
503.823	89.62
504.04	92.62
504.256	92.62
504.473	86.62
504.69	76.62
504.907	82.62
505.123	89.62
505.34	93.62
505.557	88.62
505.773	80.62
505.99	76.62
506.207	91.62
506.423	92.62
506.64	92.62
506.856	90.62
507.073	86.62
507.289	82.62
507.506	97.62
507.722	108.62
507.939	82.62
508.155	90.62
508.372	82.62
508.588	86.62
508.805	86.62
509.021	91.62
509.238	93.62
509.454	93.62
509.67	117.62
509.887	106.62
510.103	118.62
510.319	188.62
510.536	602.62
510.752	1836.62
510.968	547.62
511.184	136.62
511.401	104.62
511.617	90.62
511.833	94.62
512.049	88.62
512.265	98.62
512.481	88.62
512.698	100.62
512.914	86.62
513.13	91.62
513.346	85.62
513.562	95.62
513.778	97.62
513.994	91.62
514.21	110.62
514.426	110.62
514.642	117.62
514.858	136.62
515.074	146.62
515.29	383.62
515.506	1177.62
515.721	471.62
515.937	152.62
