Data from Uncirc_2009_H10_HRD10591_00099.txt Node
Date: Wed Jan 03 10:12:21 EST 2024
User: Yrep
Spectrometer: HR+D1059
Trigger mode: 1
Integration Time (sec): 1.000000E-1
Scans to average: 1
Electric dark correction enabled: true
Nonlinearity correction enabled: false
Boxcar width: 0
XAxis mode: Wavelengths
Number of Pixels in Spectrum: 2048
>>>>>Begin Spectral Data<<<<<
223.165	-13.69
223.4	-13.69
223.635	-13.69
223.869	-6.69
224.104	-12.69
224.338	-8.69
224.573	-7.69
224.808	-8.69
225.042	-12.69
225.277	-3.69
225.511	2.31
225.746	1.31
225.98	-0.69
226.215	6.31
226.449	19.31
226.683	-1.69
226.918	18.31
227.152	29.31
227.387	30.31
227.621	40.31
227.856	46.31
228.09	50.31
228.324	56.31
228.559	67.31
228.793	61.31
229.027	64.31
229.262	55.31
229.496	67.31
229.73	70.31
229.964	78.31
230.199	75.31
230.433	64.31
230.667	73.31
230.901	78.31
231.136	76.31
231.37	72.31
231.604	76.31
231.838	85.31
232.072	86.31
232.306	66.31
232.541	83.31
232.775	69.31
233.009	76.31
233.243	88.31
233.477	75.31
233.711	70.31
233.945	56.31
234.179	78.31
234.413	97.31
234.647	78.31
234.881	79.31
235.115	72.31
235.349	73.31
235.583	82.31
235.817	78.31
236.051	75.31
236.285	79.31
236.519	60.31
236.753	76.31
236.987	89.31
237.221	74.31
237.455	75.31
237.689	71.31
237.922	85.31
238.156	80.31
238.39	87.31
238.624	73.31
238.858	80.31
239.091	74.31
239.325	70.31
239.559	71.31
239.793	71.31
240.027	84.31
240.26	73.31
240.494	78.31
240.728	74.31
240.961	64.31
241.195	63.31
241.429	66.31
241.662	71.31
241.896	71.31
242.13	89.31
242.363	74.31
242.597	80.31
242.83	79.31
243.064	63.31
243.298	69.31
243.531	93.31
243.765	90.31
243.998	74.31
244.232	77.31
244.465	71.31
244.699	77.31
244.932	78.31
245.166	67.31
245.399	66.31
245.633	79.31
245.866	63.31
246.099	62.31
246.333	89.31
246.566	84.31
246.8	71.31
247.033	67.31
247.266	77.31
247.5	82.31
247.733	78.31
247.966	72.31
248.2	76.31
248.433	81.31
248.666	72.31
248.899	68.31
249.133	80.31
249.366	91.31
249.599	84.31
249.832	80.31
250.066	93.31
250.299	78.31
250.532	69.31
250.765	77.31
250.998	75.31
251.231	89.31
251.465	74.31
251.698	75.31
251.931	81.31
252.164	83.31
252.397	91.31
252.63	94.31
252.863	78.31
253.096	70.31
253.329	79.31
253.562	79.31
253.795	73.31
254.028	91.31
254.261	83.31
254.494	85.31
254.727	84.31
254.96	80.31
255.193	86.31
255.426	72.31
255.659	80.31
255.892	96.31
256.124	73.31
256.357	84.31
256.59	89.31
256.823	77.31
257.056	82.31
257.289	92.31
257.521	62.31
257.754	84.31
257.987	83.31
258.22	62.31
258.452	83.31
258.685	81.31
258.918	91.31
259.151	64.31
259.383	83.31
259.616	76.31
259.849	85.31
260.081	90.31
260.314	92.31
260.547	79.31
260.779	88.31
261.012	94.31
261.244	79.31
261.477	87.31
261.71	100.31
261.942	94.31
262.175	111.31
262.407	84.31
262.64	73.31
262.872	90.31
263.105	73.31
263.337	75.31
263.57	80.31
263.802	93.31
264.035	73.31
264.267	91.31
264.499	85.31
264.732	92.31
264.964	84.31
265.197	73.31
265.429	89.31
265.661	79.31
265.894	96.31
266.126	87.31
266.358	87.31
266.591	94.31
266.823	82.31
267.055	86.31
267.287	76.31
267.52	88.31
267.752	90.31
267.984	75.31
268.216	81.31
268.448	93.31
268.681	81.31
268.913	70.31
269.145	88.31
269.377	86.31
269.609	87.31
269.841	84.31
270.073	92.31
270.306	90.31
270.538	73.31
270.77	79.31
271.002	98.31
271.234	75.31
271.466	88.31
271.698	73.31
271.93	79.31
272.162	79.31
272.394	84.31
272.626	80.31
272.858	82.31
273.09	85.31
273.322	66.31
273.553	76.31
273.785	71.31
274.017	75.31
274.249	76.31
274.481	81.31
274.713	69.31
274.945	85.31
275.176	97.31
275.408	80.31
275.64	83.31
275.872	88.31
276.104	93.31
276.335	88.31
276.567	80.31
276.799	93.31
277.031	82.31
277.262	93.31
277.494	93.31
277.726	83.31
277.957	84.31
278.189	88.31
278.421	80.31
278.652	74.31
278.884	75.31
279.115	88.31
279.347	88.31
279.579	98.31
279.81	81.31
280.042	98.31
280.273	96.31
280.505	77.31
280.736	78.31
280.968	72.31
281.199	89.31
281.431	80.31
281.662	106.31
281.894	100.31
282.125	98.31
282.356	91.31
282.588	113.31
282.819	94.31
283.051	96.31
283.282	88.31
283.513	92.31
283.745	86.31
283.976	90.31
284.207	112.31
284.439	79.31
284.67	91.31
284.901	86.31
285.132	80.31
285.364	80.31
285.595	93.31
285.826	72.31
286.057	101.31
286.288	74.31
286.52	87.31
286.751	86.31
286.982	73.31
287.213	94.31
287.444	93.31
287.675	80.31
287.906	103.31
288.138	100.31
288.369	105.31
288.6	91.31
288.831	89.31
289.062	81.31
289.293	92.31
289.524	81.31
289.755	77.31
289.986	91.31
290.217	79.31
290.448	75.31
290.679	102.31
290.91	81.31
291.141	85.31
291.371	88.31
291.602	91.31
291.833	89.31
292.064	80.31
292.295	80.31
292.526	88.31
292.757	93.31
292.987	89.31
293.218	79.31
293.449	91.31
293.68	103.31
293.91	87.31
294.141	77.31
294.372	88.31
294.603	80.31
294.833	92.31
295.064	90.31
295.295	88.31
295.525	100.31
295.756	98.31
295.987	99.31
296.217	117.31
296.448	117.31
296.679	96.31
296.909	87.31
297.14	84.31
297.37	75.31
297.601	98.31
297.831	90.31
298.062	75.31
298.292	88.31
298.523	91.31
298.753	84.31
298.984	85.31
299.214	91.31
299.445	95.31
299.675	81.31
299.905	86.31
300.136	76.31
300.366	92.31
300.597	80.31
300.827	86.31
301.057	95.31
301.288	121.31
301.518	97.31
301.748	92.31
301.979	90.31
302.209	82.31
302.439	84.31
302.669	107.31
302.9	80.31
303.13	85.31
303.36	105.31
303.59	99.31
303.82	107.31
304.051	97.31
304.281	85.31
304.511	95.31
304.741	88.31
304.971	76.31
305.201	98.31
305.431	84.31
305.661	89.31
305.891	74.31
306.121	105.31
306.352	102.31
306.582	99.31
306.812	93.31
307.042	87.31
307.272	82.31
307.502	98.31
307.731	89.31
307.961	98.31
308.191	99.31
308.421	90.31
308.651	89.31
308.881	100.31
309.111	97.31
309.341	91.31
309.571	102.31
309.8	89.31
310.03	102.31
310.26	88.31
310.49	80.31
310.72	88.31
310.949	89.31
311.179	97.31
311.409	89.31
311.639	107.31
311.868	103.31
312.098	95.31
312.328	96.31
312.557	100.31
312.787	79.31
313.017	91.31
313.246	89.31
313.476	88.31
313.706	86.31
313.935	92.31
314.165	103.31
314.394	91.31
314.624	99.31
314.853	90.31
315.083	97.31
315.312	91.31
315.542	101.31
315.771	86.31
316.001	96.31
316.23	84.31
316.46	79.31
316.689	83.31
316.919	109.31
317.148	99.31
317.377	118.31
317.607	108.31
317.836	105.31
318.065	103.31
318.295	93.31
318.524	87.31
318.753	89.31
318.983	87.31
319.212	85.31
319.441	99.31
319.67	96.31
319.9	77.31
320.129	103.31
320.358	94.31
320.587	77.31
320.816	87.31
321.046	79.31
321.275	101.31
321.504	103.31
321.733	95.31
321.962	96.31
322.191	110.31
322.42	98.31
322.649	102.31
322.878	104.31
323.108	91.31
323.337	113.31
323.566	117.31
323.795	143.31
324.024	183.31
324.253	337.31
324.482	695.31
324.71	1383.31
324.939	1816.31
325.168	678.31
325.397	202.31
325.626	154.31
325.855	145.31
326.084	120.31
326.313	144.31
326.542	155.31
326.77	193.31
326.999	402.31
327.228	804.31
327.457	1442.31
327.686	1135.31
327.914	325.31
328.143	168.31
328.372	138.31
328.6	109.31
328.829	112.31
329.058	105.31
329.287	126.31
329.515	118.31
329.744	101.31
329.972	104.31
330.201	101.31
330.43	100.31
330.658	111.31
330.887	120.31
331.115	119.31
331.344	107.31
331.572	81.31
331.801	92.31
332.03	113.31
332.258	99.31
332.486	91.31
332.715	92.31
332.943	94.31
333.172	96.31
333.4	92.31
333.629	92.31
333.857	111.31
334.085	113.31
334.314	110.31
334.542	120.31
334.771	95.31
334.999	96.31
335.227	101.31
335.455	85.31
335.684	91.31
335.912	90.31
336.14	99.31
336.369	95.31
336.597	85.31
336.825	100.31
337.053	88.31
337.281	85.31
337.51	88.31
337.738	92.31
337.966	90.31
338.194	81.31
338.422	86.31
338.65	101.31
338.878	90.31
339.106	69.31
339.334	91.31
339.562	103.31
339.79	96.31
340.018	87.31
340.246	89.31
340.474	93.31
340.702	99.31
340.93	89.31
341.158	88.31
341.386	85.31
341.614	95.31
341.842	83.31
342.07	81.31
342.298	98.31
342.526	91.31
342.754	80.31
342.981	77.31
343.209	71.31
343.437	96.31
343.665	77.31
343.893	94.31
344.12	92.31
344.348	87.31
344.576	88.31
344.804	77.31
345.031	81.31
345.259	99.31
345.487	82.31
345.714	103.31
345.942	91.31
346.17	99.31
346.397	84.31
346.625	96.31
346.853	87.31
347.08	108.31
347.308	76.31
347.535	106.31
347.763	99.31
347.99	80.31
348.218	97.31
348.445	106.31
348.673	89.31
348.9	88.31
349.128	83.31
349.355	87.31
349.583	90.31
349.81	101.31
350.037	82.31
350.265	101.31
350.492	104.31
350.72	98.31
350.947	91.31
351.174	106.31
351.402	106.31
351.629	87.31
351.856	94.31
352.083	108.31
352.311	110.31
352.538	97.31
352.765	98.31
352.992	102.31
353.22	119.31
353.447	111.31
353.674	107.31
353.901	92.31
354.128	91.31
354.355	87.31
354.583	105.31
354.81	93.31
355.037	89.31
355.264	101.31
355.491	97.31
355.718	101.31
355.945	111.31
356.172	92.31
356.399	99.31
356.626	85.31
356.853	86.31
357.08	89.31
357.307	92.31
357.534	94.31
357.761	83.31
357.988	107.31
358.215	90.31
358.441	92.31
358.668	85.31
358.895	97.31
359.122	79.31
359.349	87.31
359.576	86.31
359.802	71.31
360.029	91.31
360.256	89.31
360.483	101.31
360.709	96.31
360.936	93.31
361.163	94.31
361.39	89.31
361.616	86.31
361.843	80.31
362.07	94.31
362.296	89.31
362.523	90.31
362.749	79.31
362.976	96.31
363.203	95.31
363.429	99.31
363.656	98.31
363.882	98.31
364.109	77.31
364.335	87.31
364.562	95.31
364.788	83.31
365.015	94.31
365.241	84.31
365.468	101.31
365.694	99.31
365.92	85.31
366.147	82.31
366.373	81.31
366.599	94.31
366.826	93.31
367.052	95.31
367.278	90.31
367.505	96.31
367.731	94.31
367.957	90.31
368.184	95.31
368.41	95.31
368.636	105.31
368.862	95.31
369.089	99.31
369.315	97.31
369.541	73.31
369.767	82.31
369.993	103.31
370.219	101.31
370.445	79.31
370.672	85.31
370.898	75.31
371.124	90.31
371.35	92.31
371.576	81.31
371.802	84.31
372.028	78.31
372.254	90.31
372.48	80.31
372.706	95.31
372.932	84.31
373.158	92.31
373.384	93.31
373.61	83.31
373.835	77.31
374.061	91.31
374.287	83.31
374.513	99.31
374.739	94.31
374.965	89.31
375.191	72.31
375.416	91.31
375.642	97.31
375.868	101.31
376.094	100.31
376.319	79.31
376.545	93.31
376.771	79.31
376.997	71.31
377.222	89.31
377.448	99.31
377.674	87.31
377.899	81.31
378.125	92.31
378.35	85.31
378.576	78.31
378.802	79.31
379.027	88.31
379.253	86.31
379.478	85.31
379.704	90.31
379.929	90.31
380.155	105.31
380.38	102.31
380.606	80.31
380.831	94.31
381.057	104.31
381.282	81.31
381.507	83.31
381.733	99.31
381.958	74.31
382.184	97.31
382.409	103.31
382.634	90.31
382.86	88.31
383.085	84.31
383.31	88.31
383.535	90.31
383.761	91.31
383.986	80.31
384.211	100.31
384.436	96.31
384.662	85.31
384.887	95.31
385.112	96.31
385.337	86.31
385.562	100.31
385.787	93.31
386.013	96.31
386.238	96.31
386.463	97.31
386.688	96.31
386.913	100.31
387.138	105.31
387.363	95.31
387.588	100.31
387.813	91.31
388.038	116.31
388.263	111.31
388.488	109.31
388.713	97.31
388.938	80.31
389.163	84.31
389.387	106.31
389.612	103.31
389.837	91.31
390.062	93.31
390.287	87.31
390.512	89.31
390.736	88.31
390.961	79.31
391.186	96.31
391.411	91.31
391.636	88.31
391.86	78.31
392.085	100.31
392.31	75.31
392.534	83.31
392.759	91.31
392.984	78.31
393.208	85.31
393.433	78.31
393.658	92.31
393.882	89.31
394.107	91.31
394.331	84.31
394.556	88.31
394.78	87.31
395.005	89.31
395.229	103.31
395.454	92.31
395.678	92.31
395.903	79.31
396.127	93.31
396.352	91.31
396.576	88.31
396.801	95.31
397.025	89.31
397.249	86.31
397.474	82.31
397.698	82.31
397.922	74.31
398.147	89.31
398.371	85.31
398.595	73.31
398.82	68.31
399.044	88.31
399.268	70.31
399.492	79.31
399.717	83.31
399.941	102.31
400.165	85.31
400.389	87.31
400.613	83.31
400.837	81.31
401.062	83.31
401.286	102.31
401.51	83.31
401.734	92.31
401.958	86.31
402.182	101.31
402.406	131.31
402.63	111.31
402.854	102.31
403.078	76.31
403.302	78.31
403.526	96.31
403.75	99.31
403.974	91.31
404.198	87.31
404.422	91.31
404.645	90.31
404.869	92.31
405.093	103.31
405.317	99.31
405.541	96.31
405.765	99.31
405.988	111.31
406.212	133.31
406.436	185.31
406.66	124.31
406.883	99.31
407.107	101.31
407.331	90.31
407.555	77.31
407.778	104.31
408.002	94.31
408.226	81.31
408.449	77.31
408.673	84.31
408.896	94.31
409.12	93.31
409.344	90.31
409.567	82.31
409.791	104.31
410.014	87.31
410.238	74.31
410.461	90.31
410.685	100.31
410.908	80.31
411.132	85.31
411.355	77.31
411.578	95.31
411.802	72.31
412.025	91.31
412.249	102.31
412.472	92.31
412.695	81.31
412.919	111.31
413.142	94.31
413.365	95.31
413.589	95.31
413.812	90.31
414.035	79.31
414.258	92.31
414.482	80.31
414.705	94.31
414.928	90.31
415.151	83.31
415.374	89.31
415.597	91.31
415.821	87.31
416.044	86.31
416.267	82.31
416.49	76.31
416.713	83.31
416.936	92.31
417.159	85.31
417.382	95.31
417.605	104.31
417.828	82.31
418.051	100.31
418.274	80.31
418.497	90.31
418.72	86.31
418.943	93.31
419.166	84.31
419.389	79.31
419.611	72.31
419.834	83.31
420.057	96.31
420.28	88.31
420.503	78.31
420.726	89.31
420.948	86.31
421.171	81.31
421.394	104.31
421.617	102.31
421.839	82.31
422.062	87.31
422.285	94.31
422.507	108.31
422.73	91.31
422.953	80.31
423.175	82.31
423.398	93.31
423.621	80.31
423.843	90.31
424.066	75.31
424.288	85.31
424.511	99.31
424.733	106.31
424.956	103.31
425.178	94.31
425.401	95.31
425.623	91.31
425.846	88.31
426.068	96.31
426.291	85.31
426.513	74.31
426.735	92.31
426.958	91.31
427.18	84.31
427.402	127.31
427.625	138.31
427.847	112.31
428.069	110.31
428.292	81.31
428.514	89.31
428.736	80.31
428.958	81.31
429.181	84.31
429.403	81.31
429.625	96.31
429.847	87.31
430.069	103.31
430.292	88.31
430.514	78.31
430.736	74.31
430.958	82.31
431.18	76.31
431.402	80.31
431.624	72.31
431.846	89.31
432.068	85.31
432.29	73.31
432.512	87.31
432.734	82.31
432.956	79.31
433.178	108.31
433.4	97.31
433.622	101.31
433.844	80.31
434.066	88.31
434.287	83.31
434.509	76.31
434.731	94.31
434.953	79.31
435.175	94.31
435.397	106.31
435.618	105.31
435.84	95.31
436.062	111.31
436.284	102.31
436.505	95.31
436.727	107.31
436.949	91.31
437.17	96.31
437.392	68.31
437.614	87.31
437.835	88.31
438.057	99.31
438.278	91.31
438.5	109.31
438.721	124.31
438.943	95.31
439.165	83.31
439.386	90.31
439.608	88.31
439.829	86.31
440.05	111.31
440.272	121.31
440.493	93.31
440.715	96.31
440.936	88.31
441.158	80.31
441.379	80.31
441.6	92.31
441.822	84.31
442.043	90.31
442.264	96.31
442.486	85.31
442.707	70.31
442.928	94.31
443.149	104.31
443.371	104.31
443.592	96.31
443.813	102.31
444.034	77.31
444.255	89.31
444.476	85.31
444.698	85.31
444.919	88.31
445.14	126.31
445.361	119.31
445.582	112.31
445.803	113.31
446.024	119.31
446.245	115.31
446.466	86.31
446.687	80.31
446.908	90.31
447.129	79.31
447.35	93.31
447.571	86.31
447.792	83.31
448.013	87.31
448.234	102.31
448.455	84.31
448.675	101.31
448.896	105.31
449.117	105.31
449.338	104.31
449.559	114.31
449.779	121.31
450	108.31
450.221	87.31
450.442	72.31
450.662	85.31
450.883	90.31
451.104	97.31
451.324	83.31
451.545	84.31
451.766	58.31
451.986	80.31
452.207	79.31
452.428	87.31
452.648	92.31
452.869	91.31
453.089	94.31
453.31	83.31
453.53	88.31
453.751	94.31
453.971	102.31
454.192	96.31
454.412	87.31
454.633	76.31
454.853	86.31
455.073	86.31
455.294	77.31
455.514	100.31
455.734	91.31
455.955	78.31
456.175	82.31
456.395	88.31
456.616	88.31
456.836	87.31
457.056	89.31
457.276	67.31
457.497	93.31
457.717	85.31
457.937	77.31
458.157	84.31
458.377	87.31
458.598	80.31
458.818	135.31
459.038	137.31
459.258	112.31
459.478	79.31
459.698	76.31
459.918	71.31
460.138	90.31
460.358	101.31
460.578	95.31
460.798	92.31
461.018	90.31
461.238	84.31
461.458	77.31
461.678	79.31
461.898	71.31
462.118	86.31
462.338	99.31
462.558	85.31
462.777	73.31
462.997	87.31
463.217	84.31
463.437	90.31
463.657	92.31
463.876	95.31
464.096	81.31
464.316	89.31
464.536	95.31
464.755	92.31
464.975	96.31
465.195	118.31
465.414	119.31
465.634	101.31
465.854	91.31
466.073	97.31
466.293	89.31
466.512	100.31
466.732	86.31
466.951	80.31
467.171	89.31
467.391	88.31
467.61	92.31
467.829	90.31
468.049	86.31
468.268	100.31
468.488	80.31
468.707	80.31
468.927	93.31
469.146	86.31
469.365	89.31
469.585	68.31
469.804	95.31
470.023	91.31
470.243	89.31
470.462	96.31
470.681	104.31
470.901	87.31
471.12	76.31
471.339	85.31
471.558	79.31
471.777	101.31
471.997	81.31
472.216	97.31
472.435	122.31
472.654	86.31
472.873	85.31
473.092	87.31
473.311	79.31
473.53	98.31
473.749	77.31
473.968	84.31
474.187	97.31
474.406	101.31
474.625	102.31
474.844	79.31
475.063	89.31
475.282	95.31
475.501	75.31
475.72	93.31
475.939	68.31
476.158	75.31
476.377	88.31
476.596	89.31
476.814	88.31
477.033	91.31
477.252	94.31
477.471	91.31
477.69	83.31
477.908	81.31
478.127	89.31
478.346	72.31
478.564	96.31
478.783	88.31
479.002	90.31
479.22	90.31
479.439	96.31
479.658	89.31
479.876	102.31
480.095	84.31
480.313	76.31
480.532	100.31
480.751	83.31
480.969	102.31
481.188	156.31
481.406	120.31
481.624	107.31
481.843	91.31
482.061	88.31
482.28	87.31
482.498	106.31
482.717	97.31
482.935	90.31
483.153	85.31
483.372	87.31
483.59	95.31
483.808	85.31
484.027	87.31
484.245	68.31
484.463	81.31
484.681	105.31
484.9	91.31
485.118	97.31
485.336	97.31
485.554	98.31
485.772	111.31
485.99	93.31
486.209	101.31
486.427	115.31
486.645	104.31
486.863	88.31
487.081	90.31
487.299	100.31
487.517	89.31
487.735	101.31
487.953	90.31
488.171	104.31
488.389	88.31
488.607	79.31
488.825	88.31
489.043	93.31
489.261	92.31
489.479	106.31
489.696	88.31
489.914	93.31
490.132	89.31
490.35	93.31
490.568	100.31
490.786	99.31
491.003	81.31
491.221	96.31
491.439	91.31
491.657	88.31
491.874	98.31
492.092	105.31
492.31	92.31
492.527	92.31
492.745	90.31
492.963	86.31
493.18	97.31
493.398	73.31
493.615	78.31
493.833	87.31
494.05	75.31
494.268	95.31
494.485	80.31
494.703	86.31
494.92	95.31
495.138	95.31
495.355	86.31
495.573	87.31
495.79	74.31
496.008	91.31
496.225	84.31
496.442	87.31
496.66	84.31
496.877	97.31
497.094	67.31
497.312	85.31
497.529	72.31
497.746	90.31
497.963	85.31
498.181	85.31
498.398	86.31
498.615	97.31
498.832	91.31
499.049	84.31
499.267	92.31
499.484	78.31
499.701	85.31
499.918	82.31
500.135	80.31
500.352	88.31
500.569	79.31
500.786	89.31
501.003	76.31
501.22	92.31
501.437	91.31
501.654	89.31
501.871	88.31
502.088	83.31
502.305	99.31
502.522	83.31
502.739	85.31
502.956	77.31
503.172	85.31
503.389	96.31
503.606	87.31
503.823	99.31
504.04	84.31
504.256	72.31
504.473	92.31
504.69	74.31
504.907	88.31
505.123	76.31
505.34	95.31
505.557	92.31
505.773	86.31
505.99	76.31
506.207	79.31
506.423	85.31
506.64	95.31
506.856	69.31
507.073	104.31
507.289	88.31
507.506	92.31
507.722	104.31
507.939	107.31
508.155	92.31
508.372	89.31
508.588	95.31
508.805	87.31
509.021	98.31
509.238	94.31
509.454	92.31
509.67	98.31
509.887	99.31
510.103	122.31
510.319	176.31
510.536	548.31
510.752	1648.31
510.968	491.31
511.184	131.31
511.401	106.31
511.617	87.31
511.833	71.31
512.049	84.31
512.265	72.31
512.481	82.31
512.698	79.31
512.914	82.31
513.13	89.31
513.346	93.31
513.562	87.31
513.778	80.31
513.994	88.31
514.21	92.31
514.426	108.31
514.642	114.31
514.858	103.31
515.074	121.31
515.29	324.31
515.506	919.31
515.721	369.31
515.937	127.31
516.153	99.31
516.369	92.31
516.585	101.31
516.801	89.31
