Data from Uncirc_2009_H10_HRD10591_00040.txt Node
Date: Wed Jan 03 10:12:09 EST 2024
User: Yrep
Spectrometer: HR+D1059
Trigger mode: 1
Integration Time (sec): 1.000000E-1
Scans to average: 1
Electric dark correction enabled: true
Nonlinearity correction enabled: false
Boxcar width: 0
XAxis mode: Wavelengths
Number of Pixels in Spectrum: 2048
>>>>>Begin Spectral Data<<<<<
223.165	-21.62
223.4	-21.62
223.635	-21.62
223.869	-29.62
224.104	-18.62
224.338	-19.62
224.573	-6.62
224.808	-9.62
225.042	-11.62
225.277	-26.62
225.511	16.38
225.746	-1.62
225.98	2.38
226.215	24.38
226.449	11.38
226.683	26.38
226.918	27.38
227.152	37.38
227.387	33.38
227.621	28.38
227.856	40.38
228.09	34.38
228.324	31.38
228.559	59.38
228.793	59.38
229.027	55.38
229.262	56.38
229.496	66.38
229.73	60.38
229.964	69.38
230.199	70.38
230.433	61.38
230.667	84.38
230.901	62.38
231.136	64.38
231.37	73.38
231.604	85.38
231.838	78.38
232.072	72.38
232.306	95.38
232.541	83.38
232.775	74.38
233.009	76.38
233.243	76.38
233.477	85.38
233.711	86.38
233.945	58.38
234.179	90.38
234.413	90.38
234.647	76.38
234.881	83.38
235.115	80.38
235.349	64.38
235.583	61.38
235.817	72.38
236.051	72.38
236.285	86.38
236.519	87.38
236.753	77.38
236.987	65.38
237.221	83.38
237.455	71.38
237.689	68.38
237.922	66.38
238.156	64.38
238.39	79.38
238.624	76.38
238.858	65.38
239.091	77.38
239.325	87.38
239.559	84.38
239.793	81.38
240.027	79.38
240.26	78.38
240.494	84.38
240.728	78.38
240.961	68.38
241.195	79.38
241.429	82.38
241.662	84.38
241.896	73.38
242.13	66.38
242.363	59.38
242.597	84.38
242.83	67.38
243.064	76.38
243.298	78.38
243.531	72.38
243.765	72.38
243.998	84.38
244.232	80.38
244.465	66.38
244.699	63.38
244.932	63.38
245.166	83.38
245.399	77.38
245.633	74.38
245.866	85.38
246.099	72.38
246.333	63.38
246.566	80.38
246.8	71.38
247.033	77.38
247.266	78.38
247.5	76.38
247.733	75.38
247.966	91.38
248.2	80.38
248.433	89.38
248.666	80.38
248.899	76.38
249.133	71.38
249.366	94.38
249.599	94.38
249.832	78.38
250.066	69.38
250.299	82.38
250.532	69.38
250.765	96.38
250.998	87.38
251.231	87.38
251.465	83.38
251.698	88.38
251.931	69.38
252.164	73.38
252.397	74.38
252.63	85.38
252.863	76.38
253.096	73.38
253.329	81.38
253.562	78.38
253.795	77.38
254.028	63.38
254.261	90.38
254.494	74.38
254.727	84.38
254.96	86.38
255.193	86.38
255.426	72.38
255.659	87.38
255.892	89.38
256.124	84.38
256.357	83.38
256.59	79.38
256.823	66.38
257.056	85.38
257.289	93.38
257.521	76.38
257.754	68.38
257.987	81.38
258.22	78.38
258.452	78.38
258.685	85.38
258.918	80.38
259.151	85.38
259.383	84.38
259.616	78.38
259.849	72.38
260.081	77.38
260.314	80.38
260.547	84.38
260.779	63.38
261.012	72.38
261.244	85.38
261.477	79.38
261.71	87.38
261.942	104.38
262.175	91.38
262.407	87.38
262.64	99.38
262.872	68.38
263.105	88.38
263.337	83.38
263.57	84.38
263.802	88.38
264.035	95.38
264.267	79.38
264.499	80.38
264.732	87.38
264.964	78.38
265.197	75.38
265.429	76.38
265.661	83.38
265.894	92.38
266.126	75.38
266.358	85.38
266.591	86.38
266.823	70.38
267.055	88.38
267.287	79.38
267.52	76.38
267.752	81.38
267.984	74.38
268.216	73.38
268.448	99.38
268.681	79.38
268.913	87.38
269.145	79.38
269.377	81.38
269.609	79.38
269.841	92.38
270.073	75.38
270.306	86.38
270.538	87.38
270.77	88.38
271.002	80.38
271.234	88.38
271.466	81.38
271.698	87.38
271.93	70.38
272.162	85.38
272.394	73.38
272.626	84.38
272.858	74.38
273.09	77.38
273.322	86.38
273.553	76.38
273.785	82.38
274.017	76.38
274.249	94.38
274.481	74.38
274.713	80.38
274.945	88.38
275.176	88.38
275.408	92.38
275.64	81.38
275.872	72.38
276.104	85.38
276.335	72.38
276.567	85.38
276.799	98.38
277.031	100.38
277.262	98.38
277.494	86.38
277.726	90.38
277.957	88.38
278.189	69.38
278.421	89.38
278.652	101.38
278.884	78.38
279.115	82.38
279.347	95.38
279.579	92.38
279.81	80.38
280.042	90.38
280.273	98.38
280.505	83.38
280.736	89.38
280.968	72.38
281.199	85.38
281.431	92.38
281.662	93.38
281.894	83.38
282.125	72.38
282.356	105.38
282.588	108.38
282.819	102.38
283.051	90.38
283.282	76.38
283.513	103.38
283.745	92.38
283.976	94.38
284.207	106.38
284.439	98.38
284.67	78.38
284.901	76.38
285.132	96.38
285.364	87.38
285.595	79.38
285.826	90.38
286.057	73.38
286.288	104.38
286.52	87.38
286.751	85.38
286.982	66.38
287.213	82.38
287.444	85.38
287.675	97.38
287.906	96.38
288.138	79.38
288.369	88.38
288.6	85.38
288.831	85.38
289.062	92.38
289.293	82.38
289.524	87.38
289.755	87.38
289.986	86.38
290.217	88.38
290.448	88.38
290.679	74.38
290.91	82.38
291.141	80.38
291.371	83.38
291.602	77.38
291.833	79.38
292.064	82.38
292.295	82.38
292.526	84.38
292.757	85.38
292.987	79.38
293.218	96.38
293.449	87.38
293.68	78.38
293.91	87.38
294.141	75.38
294.372	73.38
294.603	92.38
294.833	91.38
295.064	89.38
295.295	95.38
295.525	92.38
295.756	94.38
295.987	101.38
296.217	115.38
296.448	102.38
296.679	90.38
296.909	88.38
297.14	92.38
297.37	91.38
297.601	79.38
297.831	88.38
298.062	72.38
298.292	93.38
298.523	95.38
298.753	100.38
298.984	97.38
299.214	79.38
299.445	87.38
299.675	99.38
299.905	88.38
300.136	108.38
300.366	93.38
300.597	90.38
300.827	99.38
301.057	93.38
301.288	107.38
301.518	83.38
301.748	77.38
301.979	95.38
302.209	67.38
302.439	93.38
302.669	89.38
302.9	97.38
303.13	85.38
303.36	94.38
303.59	96.38
303.82	100.38
304.051	94.38
304.281	84.38
304.511	80.38
304.741	89.38
304.971	73.38
305.201	89.38
305.431	95.38
305.661	88.38
305.891	97.38
306.121	97.38
306.352	92.38
306.582	90.38
306.812	86.38
307.042	77.38
307.272	86.38
307.502	83.38
307.731	96.38
307.961	88.38
308.191	100.38
308.421	83.38
308.651	93.38
308.881	90.38
309.111	88.38
309.341	86.38
309.571	103.38
309.8	93.38
310.03	98.38
310.26	92.38
310.49	86.38
310.72	89.38
310.949	113.38
311.179	90.38
311.409	86.38
311.639	98.38
311.868	97.38
312.098	67.38
312.328	82.38
312.557	117.38
312.787	103.38
313.017	87.38
313.246	90.38
313.476	92.38
313.706	84.38
313.935	80.38
314.165	94.38
314.394	83.38
314.624	94.38
314.853	96.38
315.083	90.38
315.312	92.38
315.542	83.38
315.771	86.38
316.001	97.38
316.23	78.38
316.46	91.38
316.689	91.38
316.919	86.38
317.148	100.38
317.377	114.38
317.607	115.38
317.836	98.38
318.065	89.38
318.295	91.38
318.524	91.38
318.753	90.38
318.983	103.38
319.212	96.38
319.441	86.38
319.67	96.38
319.9	89.38
320.129	109.38
320.358	89.38
320.587	83.38
320.816	96.38
321.046	88.38
321.275	90.38
321.504	89.38
321.733	93.38
321.962	91.38
322.191	105.38
322.42	94.38
322.649	86.38
322.878	103.38
323.108	91.38
323.337	108.38
323.566	109.38
323.795	127.38
324.024	189.38
324.253	335.38
324.482	692.38
324.71	1408.38
324.939	1816.38
325.168	675.38
325.397	206.38
325.626	141.38
325.855	118.38
326.084	106.38
326.313	156.38
326.542	162.38
326.77	215.38
326.999	392.38
327.228	826.38
327.457	1462.38
327.686	1119.38
327.914	313.38
328.143	157.38
328.372	118.38
328.6	110.38
328.829	95.38
329.058	114.38
329.287	114.38
329.515	99.38
329.744	109.38
329.972	92.38
330.201	111.38
330.43	112.38
330.658	116.38
330.887	117.38
331.115	114.38
331.344	106.38
331.572	101.38
331.801	101.38
332.03	98.38
332.258	95.38
332.486	85.38
332.715	90.38
332.943	99.38
333.172	89.38
333.4	103.38
333.629	87.38
333.857	101.38
334.085	101.38
334.314	101.38
334.542	120.38
334.771	111.38
334.999	98.38
335.227	86.38
335.455	86.38
335.684	84.38
335.912	88.38
336.14	93.38
336.369	89.38
336.597	103.38
336.825	100.38
337.053	91.38
337.281	105.38
337.51	91.38
337.738	91.38
337.966	94.38
338.194	79.38
338.422	87.38
338.65	85.38
338.878	96.38
339.106	88.38
339.334	92.38
339.562	75.38
339.79	79.38
340.018	80.38
340.246	73.38
340.474	85.38
340.702	90.38
340.93	90.38
341.158	97.38
341.386	93.38
341.614	91.38
341.842	77.38
342.07	89.38
342.298	81.38
342.526	77.38
342.754	87.38
342.981	79.38
343.209	90.38
343.437	78.38
343.665	81.38
343.893	86.38
344.12	87.38
344.348	96.38
344.576	98.38
344.804	79.38
345.031	93.38
345.259	87.38
345.487	100.38
345.714	78.38
345.942	79.38
346.17	88.38
346.397	90.38
346.625	91.38
346.853	89.38
347.08	93.38
347.308	95.38
347.535	88.38
347.763	81.38
347.99	90.38
348.218	100.38
348.445	103.38
348.673	93.38
348.9	70.38
349.128	79.38
349.355	90.38
349.583	91.38
349.81	86.38
350.037	80.38
350.265	102.38
350.492	95.38
350.72	99.38
350.947	99.38
351.174	103.38
351.402	101.38
351.629	93.38
351.856	98.38
352.083	106.38
352.311	98.38
352.538	101.38
352.765	90.38
352.992	103.38
353.22	99.38
353.447	90.38
353.674	89.38
353.901	91.38
354.128	92.38
354.355	95.38
354.583	98.38
354.81	111.38
355.037	93.38
355.264	93.38
355.491	87.38
355.718	94.38
355.945	95.38
356.172	98.38
356.399	101.38
356.626	93.38
356.853	91.38
357.08	87.38
357.307	97.38
357.534	87.38
357.761	98.38
357.988	95.38
358.215	89.38
358.441	91.38
358.668	94.38
358.895	87.38
359.122	88.38
359.349	89.38
359.576	86.38
359.802	97.38
360.029	112.38
360.256	99.38
360.483	88.38
360.709	96.38
360.936	88.38
361.163	97.38
361.39	80.38
361.616	88.38
361.843	91.38
362.07	90.38
362.296	112.38
362.523	82.38
362.749	97.38
362.976	85.38
363.203	87.38
363.429	87.38
363.656	96.38
363.882	77.38
364.109	95.38
364.335	83.38
364.562	83.38
364.788	100.38
365.015	92.38
365.241	86.38
365.468	93.38
365.694	95.38
365.92	88.38
366.147	92.38
366.373	102.38
366.599	78.38
366.826	74.38
367.052	96.38
367.278	84.38
367.505	98.38
367.731	74.38
367.957	88.38
368.184	79.38
368.41	101.38
368.636	96.38
368.862	109.38
369.089	104.38
369.315	86.38
369.541	91.38
369.767	83.38
369.993	91.38
370.219	93.38
370.445	82.38
370.672	81.38
370.898	86.38
371.124	87.38
371.35	79.38
371.576	92.38
371.802	90.38
372.028	85.38
372.254	98.38
372.48	86.38
372.706	91.38
372.932	86.38
373.158	89.38
373.384	93.38
373.61	81.38
373.835	88.38
374.061	89.38
374.287	91.38
374.513	96.38
374.739	93.38
374.965	72.38
375.191	78.38
375.416	87.38
375.642	79.38
375.868	90.38
376.094	87.38
376.319	86.38
376.545	79.38
376.771	89.38
376.997	97.38
377.222	86.38
377.448	86.38
377.674	87.38
377.899	82.38
378.125	74.38
378.35	91.38
378.576	86.38
378.802	104.38
379.027	94.38
379.253	107.38
379.478	85.38
379.704	103.38
379.929	91.38
380.155	100.38
380.38	92.38
380.606	87.38
380.831	94.38
381.057	102.38
381.282	86.38
381.507	95.38
381.733	93.38
381.958	100.38
382.184	88.38
382.409	94.38
382.634	88.38
382.86	91.38
383.085	96.38
383.31	97.38
383.535	83.38
383.761	103.38
383.986	98.38
384.211	95.38
384.436	83.38
384.662	95.38
384.887	85.38
385.112	109.38
385.337	93.38
385.562	104.38
385.787	98.38
386.013	106.38
386.238	95.38
386.463	111.38
386.688	118.38
386.913	95.38
387.138	100.38
387.363	118.38
387.588	95.38
387.813	95.38
388.038	120.38
388.263	99.38
388.488	92.38
388.713	86.38
388.938	89.38
389.163	114.38
389.387	104.38
389.612	99.38
389.837	91.38
390.062	95.38
390.287	94.38
390.512	76.38
390.736	86.38
390.961	82.38
391.186	84.38
391.411	84.38
391.636	89.38
391.86	80.38
392.085	77.38
392.31	88.38
392.534	73.38
392.759	89.38
392.984	79.38
393.208	94.38
393.433	75.38
393.658	89.38
393.882	87.38
394.107	91.38
394.331	91.38
394.556	77.38
394.78	90.38
395.005	78.38
395.229	71.38
395.454	90.38
395.678	83.38
395.903	91.38
396.127	74.38
396.352	91.38
396.576	90.38
396.801	91.38
397.025	84.38
397.249	92.38
397.474	98.38
397.698	77.38
397.922	69.38
398.147	83.38
398.371	78.38
398.595	95.38
398.82	80.38
399.044	81.38
399.268	105.38
399.492	85.38
399.717	90.38
399.941	81.38
400.165	79.38
400.389	86.38
400.613	79.38
400.837	97.38
401.062	80.38
401.286	82.38
401.51	80.38
401.734	90.38
401.958	92.38
402.182	119.38
402.406	138.38
402.63	109.38
402.854	76.38
403.078	85.38
403.302	87.38
403.526	82.38
403.75	82.38
403.974	81.38
404.198	88.38
404.422	79.38
404.645	96.38
404.869	83.38
405.093	91.38
405.317	104.38
405.541	104.38
405.765	87.38
405.988	105.38
406.212	133.38
406.436	186.38
406.66	140.38
406.883	90.38
407.107	87.38
407.331	81.38
407.555	85.38
407.778	77.38
408.002	97.38
408.226	88.38
408.449	80.38
408.673	100.38
408.896	91.38
409.12	105.38
409.344	90.38
409.567	96.38
409.791	81.38
410.014	74.38
410.238	87.38
410.461	89.38
410.685	101.38
410.908	96.38
411.132	103.38
411.355	105.38
411.578	84.38
411.802	95.38
412.025	89.38
412.249	81.38
412.472	76.38
412.695	88.38
412.919	89.38
413.142	91.38
413.365	91.38
413.589	86.38
413.812	98.38
414.035	100.38
414.258	98.38
414.482	91.38
414.705	75.38
414.928	84.38
415.151	89.38
415.374	94.38
415.597	89.38
415.821	88.38
416.044	86.38
416.267	100.38
416.49	85.38
416.713	104.38
416.936	78.38
417.159	87.38
417.382	84.38
417.605	82.38
417.828	83.38
418.051	78.38
418.274	77.38
418.497	70.38
418.72	90.38
418.943	82.38
419.166	86.38
419.389	93.38
419.611	80.38
419.834	72.38
420.057	80.38
420.28	79.38
420.503	83.38
420.726	90.38
420.948	91.38
421.171	84.38
421.394	93.38
421.617	82.38
421.839	77.38
422.062	94.38
422.285	79.38
422.507	87.38
422.73	84.38
422.953	87.38
423.175	72.38
423.398	86.38
423.621	92.38
423.843	77.38
424.066	76.38
424.288	95.38
424.511	90.38
424.733	94.38
424.956	107.38
425.178	86.38
425.401	90.38
425.623	77.38
425.846	85.38
426.068	88.38
426.291	79.38
426.513	86.38
426.735	79.38
426.958	100.38
427.18	105.38
427.402	126.38
427.625	151.38
427.847	135.38
428.069	116.38
428.292	88.38
428.514	82.38
428.736	91.38
428.958	75.38
429.181	89.38
429.403	80.38
429.625	84.38
429.847	98.38
430.069	94.38
430.292	79.38
430.514	88.38
430.736	91.38
430.958	77.38
431.18	72.38
431.402	92.38
431.624	86.38
431.846	70.38
432.068	80.38
432.29	83.38
432.512	79.38
432.734	85.38
432.956	96.38
433.178	104.38
433.4	91.38
433.622	81.38
433.844	80.38
434.066	89.38
434.287	69.38
434.509	83.38
434.731	90.38
434.953	80.38
435.175	76.38
435.397	92.38
435.618	91.38
435.84	91.38
436.062	100.38
436.284	95.38
436.505	99.38
436.727	88.38
436.949	96.38
437.17	87.38
437.392	77.38
437.614	94.38
437.835	94.38
438.057	107.38
438.278	98.38
438.5	104.38
438.721	99.38
438.943	103.38
439.165	92.38
439.386	96.38
439.608	86.38
439.829	87.38
440.05	98.38
440.272	119.38
440.493	82.38
440.715	82.38
440.936	85.38
441.158	93.38
441.379	76.38
441.6	82.38
441.822	94.38
442.043	81.38
442.264	89.38
442.486	95.38
442.707	92.38
442.928	95.38
443.149	109.38
443.371	110.38
443.592	110.38
443.813	96.38
444.034	107.38
444.255	77.38
444.476	96.38
444.698	89.38
444.919	84.38
445.14	118.38
445.361	110.38
445.582	103.38
445.803	105.38
446.024	120.38
446.245	110.38
446.466	87.38
446.687	73.38
446.908	90.38
447.129	96.38
447.35	91.38
447.571	92.38
447.792	101.38
448.013	83.38
448.234	95.38
448.455	101.38
448.675	97.38
448.896	100.38
449.117	99.38
449.338	88.38
449.559	116.38
449.779	118.38
450	88.38
450.221	78.38
450.442	78.38
450.662	93.38
450.883	94.38
451.104	88.38
451.324	90.38
451.545	83.38
451.766	85.38
451.986	72.38
452.207	80.38
452.428	104.38
452.648	97.38
452.869	101.38
453.089	104.38
453.31	103.38
453.53	87.38
453.751	88.38
453.971	89.38
454.192	100.38
454.412	92.38
454.633	86.38
454.853	79.38
455.073	94.38
455.294	83.38
455.514	91.38
455.734	80.38
455.955	86.38
456.175	84.38
456.395	86.38
456.616	91.38
456.836	95.38
457.056	80.38
457.276	85.38
457.497	95.38
457.717	83.38
457.937	63.38
458.157	85.38
458.377	79.38
458.598	107.38
458.818	126.38
459.038	117.38
459.258	96.38
459.478	77.38
459.698	81.38
459.918	87.38
460.138	97.38
460.358	88.38
460.578	103.38
460.798	85.38
461.018	88.38
461.238	79.38
461.458	82.38
461.678	74.38
461.898	87.38
462.118	76.38
462.338	83.38
462.558	82.38
462.777	85.38
462.997	74.38
463.217	79.38
463.437	90.38
463.657	75.38
463.876	85.38
464.096	82.38
464.316	75.38
464.536	93.38
464.755	91.38
464.975	94.38
465.195	120.38
465.414	137.38
465.634	99.38
465.854	79.38
466.073	96.38
466.293	97.38
466.512	80.38
466.732	90.38
466.951	104.38
467.171	84.38
467.391	92.38
467.61	87.38
467.829	100.38
468.049	104.38
468.268	104.38
468.488	99.38
468.707	83.38
468.927	68.38
469.146	70.38
469.365	88.38
469.585	80.38
469.804	92.38
470.023	88.38
470.243	77.38
470.462	80.38
470.681	88.38
470.901	82.38
471.12	80.38
471.339	83.38
471.558	85.38
471.777	84.38
471.997	95.38
472.216	98.38
472.435	120.38
472.654	95.38
472.873	93.38
473.092	92.38
473.311	86.38
473.53	74.38
473.749	90.38
473.968	90.38
474.187	89.38
474.406	100.38
474.625	77.38
474.844	95.38
475.063	78.38
475.282	72.38
475.501	93.38
475.72	102.38
475.939	78.38
476.158	87.38
476.377	77.38
476.596	89.38
476.814	90.38
477.033	99.38
477.252	94.38
477.471	74.38
477.69	78.38
477.908	80.38
478.127	93.38
478.346	87.38
478.564	92.38
478.783	84.38
479.002	94.38
479.22	89.38
479.439	101.38
479.658	105.38
479.876	96.38
480.095	75.38
480.313	76.38
480.532	77.38
480.751	86.38
480.969	98.38
481.188	159.38
481.406	125.38
481.624	82.38
481.843	92.38
482.061	100.38
482.28	90.38
482.498	78.38
482.717	85.38
482.935	75.38
483.153	91.38
483.372	97.38
483.59	80.38
483.808	83.38
484.027	91.38
484.245	89.38
484.463	73.38
484.681	106.38
484.9	87.38
485.118	90.38
485.336	100.38
485.554	95.38
485.772	111.38
485.99	91.38
486.209	99.38
486.427	105.38
486.645	96.38
486.863	94.38
487.081	107.38
487.299	96.38
487.517	94.38
487.735	99.38
487.953	90.38
488.171	90.38
488.389	101.38
488.607	108.38
488.825	83.38
489.043	86.38
489.261	79.38
489.479	76.38
489.696	87.38
489.914	85.38
490.132	98.38
490.35	81.38
490.568	84.38
490.786	91.38
491.003	79.38
491.221	80.38
491.439	86.38
491.657	100.38
491.874	95.38
492.092	72.38
492.31	87.38
492.527	93.38
492.745	89.38
492.963	85.38
493.18	79.38
493.398	94.38
493.615	91.38
493.833	82.38
494.05	94.38
494.268	100.38
494.485	84.38
494.703	93.38
494.92	74.38
495.138	90.38
495.355	84.38
495.573	84.38
495.79	96.38
496.008	86.38
496.225	103.38
496.442	89.38
496.66	92.38
496.877	96.38
497.094	98.38
497.312	76.38
497.529	92.38
497.746	93.38
497.963	79.38
498.181	86.38
498.398	92.38
498.615	87.38
498.832	98.38
499.049	96.38
499.267	75.38
499.484	76.38
499.701	75.38
499.918	91.38
500.135	93.38
500.352	82.38
500.569	89.38
500.786	93.38
501.003	81.38
501.22	87.38
501.437	90.38
501.654	85.38
501.871	80.38
502.088	88.38
502.305	77.38
502.522	92.38
502.739	85.38
502.956	89.38
503.172	86.38
503.389	99.38
503.606	93.38
503.823	96.38
504.04	94.38
504.256	83.38
504.473	82.38
504.69	77.38
504.907	93.38
505.123	93.38
505.34	77.38
505.557	74.38
505.773	105.38
505.99	85.38
506.207	77.38
506.423	90.38
506.64	68.38
506.856	93.38
507.073	96.38
507.289	97.38
507.506	91.38
507.722	111.38
507.939	95.38
508.155	91.38
508.372	85.38
508.588	95.38
508.805	103.38
509.021	85.38
509.238	98.38
509.454	93.38
509.67	98.38
509.887	110.38
510.103	120.38
510.319	180.38
510.536	568.38
510.752	1688.38
510.968	487.38
511.184	127.38
511.401	104.38
511.617	98.38
511.833	90.38
512.049	87.38
512.265	89.38
512.481	95.38
512.698	74.38
512.914	89.38
513.13	95.38
513.346	83.38
513.562	81.38
513.778	85.38
513.994	101.38
514.21	98.38
514.426	104.38
514.642	127.38
514.858	113.38
515.074	142.38
515.29	335.38
515.506	1013.38
515.721	390.38
515.937	130.38
516.153	114.38
516.369	96.38
516.585	108.38
516.801	80.38
517.016	98.38
