Data from Uncirc_2009_H10_HRD10591_00010.txt Node
Date: Wed Jan 03 10:12:03 EST 2024
User: Yrep
Spectrometer: HR+D1059
Trigger mode: 1
Integration Time (sec): 1.000000E-1
Scans to average: 1
Electric dark correction enabled: true
Nonlinearity correction enabled: false
Boxcar width: 0
XAxis mode: Wavelengths
Number of Pixels in Spectrum: 2048
>>>>>Begin Spectral Data<<<<<
223.165	-23.31
223.4	-23.31
223.635	-23.31
223.869	-36.31
224.104	-28.31
224.338	-8.31
224.573	-9.31
224.808	-17.31
225.042	-7.31
225.277	6.69
225.511	-5.31
225.746	-9.31
225.98	9.69
226.215	12.69
226.449	28.69
226.683	21.69
226.918	30.69
227.152	34.69
227.387	30.69
227.621	33.69
227.856	45.69
228.09	34.69
228.324	63.69
228.559	58.69
228.793	61.69
229.027	61.69
229.262	52.69
229.496	57.69
229.73	75.69
229.964	75.69
230.199	76.69
230.433	71.69
230.667	66.69
230.901	68.69
231.136	67.69
231.37	76.69
231.604	83.69
231.838	73.69
232.072	73.69
232.306	75.69
232.541	82.69
232.775	75.69
233.009	78.69
233.243	65.69
233.477	73.69
233.711	74.69
233.945	74.69
234.179	65.69
234.413	85.69
234.647	79.69
234.881	68.69
235.115	72.69
235.349	79.69
235.583	76.69
235.817	70.69
236.051	80.69
236.285	74.69
236.519	62.69
236.753	73.69
236.987	75.69
237.221	86.69
237.455	81.69
237.689	70.69
237.922	79.69
238.156	76.69
238.39	81.69
238.624	70.69
238.858	76.69
239.091	88.69
239.325	79.69
239.559	73.69
239.793	62.69
240.027	58.69
240.26	70.69
240.494	76.69
240.728	61.69
240.961	73.69
241.195	76.69
241.429	80.69
241.662	73.69
241.896	69.69
242.13	89.69
242.363	66.69
242.597	65.69
242.83	70.69
243.064	68.69
243.298	76.69
243.531	89.69
243.765	71.69
243.998	75.69
244.232	79.69
244.465	72.69
244.699	75.69
244.932	62.69
245.166	71.69
245.399	93.69
245.633	72.69
245.866	74.69
246.099	71.69
246.333	75.69
246.566	59.69
246.8	75.69
247.033	61.69
247.266	72.69
247.5	73.69
247.733	85.69
247.966	72.69
248.2	72.69
248.433	62.69
248.666	74.69
248.899	69.69
249.133	76.69
249.366	91.69
249.599	79.69
249.832	63.69
250.066	68.69
250.299	78.69
250.532	68.69
250.765	74.69
250.998	62.69
251.231	79.69
251.465	89.69
251.698	65.69
251.931	78.69
252.164	72.69
252.397	66.69
252.63	68.69
252.863	83.69
253.096	80.69
253.329	77.69
253.562	75.69
253.795	76.69
254.028	84.69
254.261	69.69
254.494	80.69
254.727	65.69
254.96	67.69
255.193	78.69
255.426	73.69
255.659	68.69
255.892	73.69
256.124	78.69
256.357	75.69
256.59	79.69
256.823	83.69
257.056	75.69
257.289	82.69
257.521	74.69
257.754	75.69
257.987	55.69
258.22	77.69
258.452	72.69
258.685	79.69
258.918	83.69
259.151	83.69
259.383	73.69
259.616	65.69
259.849	72.69
260.081	79.69
260.314	72.69
260.547	83.69
260.779	75.69
261.012	64.69
261.244	83.69
261.477	98.69
261.71	83.69
261.942	86.69
262.175	91.69
262.407	97.69
262.64	77.69
262.872	76.69
263.105	83.69
263.337	90.69
263.57	77.69
263.802	65.69
264.035	79.69
264.267	67.69
264.499	84.69
264.732	82.69
264.964	79.69
265.197	74.69
265.429	80.69
265.661	97.69
265.894	72.69
266.126	76.69
266.358	71.69
266.591	59.69
266.823	62.69
267.055	66.69
267.287	83.69
267.52	75.69
267.752	76.69
267.984	70.69
268.216	79.69
268.448	87.69
268.681	74.69
268.913	81.69
269.145	86.69
269.377	84.69
269.609	73.69
269.841	80.69
270.073	72.69
270.306	66.69
270.538	68.69
270.77	78.69
271.002	73.69
271.234	73.69
271.466	75.69
271.698	83.69
271.93	79.69
272.162	74.69
272.394	72.69
272.626	80.69
272.858	77.69
273.09	71.69
273.322	78.69
273.553	70.69
273.785	75.69
274.017	64.69
274.249	81.69
274.481	79.69
274.713	77.69
274.945	81.69
275.176	91.69
275.408	80.69
275.64	85.69
275.872	69.69
276.104	78.69
276.335	81.69
276.567	84.69
276.799	97.69
277.031	85.69
277.262	84.69
277.494	64.69
277.726	91.69
277.957	70.69
278.189	83.69
278.421	79.69
278.652	59.69
278.884	91.69
279.115	78.69
279.347	84.69
279.579	83.69
279.81	94.69
280.042	83.69
280.273	84.69
280.505	85.69
280.736	80.69
280.968	76.69
281.199	83.69
281.431	85.69
281.662	72.69
281.894	90.69
282.125	86.69
282.356	113.69
282.588	118.69
282.819	100.69
283.051	84.69
283.282	95.69
283.513	80.69
283.745	70.69
283.976	96.69
284.207	86.69
284.439	83.69
284.67	75.69
284.901	67.69
285.132	81.69
285.364	80.69
285.595	78.69
285.826	85.69
286.057	91.69
286.288	85.69
286.52	92.69
286.751	101.69
286.982	95.69
287.213	78.69
287.444	79.69
287.675	85.69
287.906	82.69
288.138	95.69
288.369	82.69
288.6	90.69
288.831	91.69
289.062	96.69
289.293	69.69
289.524	87.69
289.755	69.69
289.986	83.69
290.217	78.69
290.448	89.69
290.679	76.69
290.91	81.69
291.141	74.69
291.371	80.69
291.602	86.69
291.833	86.69
292.064	75.69
292.295	82.69
292.526	92.69
292.757	64.69
292.987	76.69
293.218	90.69
293.449	79.69
293.68	74.69
293.91	80.69
294.141	82.69
294.372	82.69
294.603	88.69
294.833	74.69
295.064	70.69
295.295	85.69
295.525	71.69
295.756	95.69
295.987	114.69
296.217	110.69
296.448	100.69
296.679	79.69
296.909	87.69
297.14	81.69
297.37	84.69
297.601	89.69
297.831	71.69
298.062	75.69
298.292	79.69
298.523	90.69
298.753	80.69
298.984	89.69
299.214	74.69
299.445	79.69
299.675	87.69
299.905	79.69
300.136	87.69
300.366	80.69
300.597	88.69
300.827	98.69
301.057	106.69
301.288	86.69
301.518	84.69
301.748	74.69
301.979	79.69
302.209	70.69
302.439	80.69
302.669	89.69
302.9	80.69
303.13	92.69
303.36	98.69
303.59	98.69
303.82	103.69
304.051	74.69
304.281	73.69
304.511	95.69
304.741	69.69
304.971	69.69
305.201	75.69
305.431	82.69
305.661	91.69
305.891	94.69
306.121	88.69
306.352	93.69
306.582	73.69
306.812	82.69
307.042	84.69
307.272	89.69
307.502	79.69
307.731	86.69
307.961	89.69
308.191	83.69
308.421	81.69
308.651	68.69
308.881	83.69
309.111	86.69
309.341	80.69
309.571	88.69
309.8	100.69
310.03	95.69
310.26	97.69
310.49	77.69
310.72	88.69
310.949	88.69
311.179	91.69
311.409	89.69
311.639	77.69
311.868	87.69
312.098	83.69
312.328	85.69
312.557	82.69
312.787	93.69
313.017	91.69
313.246	93.69
313.476	88.69
313.706	74.69
313.935	77.69
314.165	88.69
314.394	79.69
314.624	83.69
314.853	90.69
315.083	94.69
315.312	87.69
315.542	89.69
315.771	89.69
316.001	87.69
316.23	97.69
316.46	68.69
316.689	86.69
316.919	82.69
317.148	89.69
317.377	112.69
317.607	114.69
317.836	83.69
318.065	94.69
318.295	83.69
318.524	89.69
318.753	83.69
318.983	91.69
319.212	92.69
319.441	96.69
319.67	87.69
319.9	92.69
320.129	89.69
320.358	87.69
320.587	84.69
320.816	83.69
321.046	76.69
321.275	84.69
321.504	88.69
321.733	77.69
321.962	83.69
322.191	92.69
322.42	85.69
322.649	110.69
322.878	98.69
323.108	106.69
323.337	103.69
323.566	99.69
323.795	126.69
324.024	166.69
324.253	332.69
324.482	692.69
324.71	1357.69
324.939	1753.69
325.168	671.69
325.397	214.69
325.626	126.69
325.855	131.69
326.084	124.69
326.313	138.69
326.542	157.69
326.77	195.69
326.999	355.69
327.228	770.69
327.457	1378.69
327.686	1107.69
327.914	308.69
328.143	174.69
328.372	126.69
328.6	103.69
328.829	97.69
329.058	96.69
329.287	106.69
329.515	86.69
329.744	105.69
329.972	96.69
330.201	91.69
330.43	105.69
330.658	106.69
330.887	124.69
331.115	101.69
331.344	93.69
331.572	82.69
331.801	98.69
332.03	103.69
332.258	96.69
332.486	94.69
332.715	92.69
332.943	82.69
333.172	99.69
333.4	95.69
333.629	87.69
333.857	99.69
334.085	95.69
334.314	98.69
334.542	102.69
334.771	114.69
334.999	98.69
335.227	83.69
335.455	79.69
335.684	97.69
335.912	91.69
336.14	77.69
336.369	101.69
336.597	95.69
336.825	102.69
337.053	97.69
337.281	81.69
337.51	88.69
337.738	67.69
337.966	87.69
338.194	78.69
338.422	75.69
338.65	96.69
338.878	84.69
339.106	78.69
339.334	87.69
339.562	81.69
339.79	83.69
340.018	82.69
340.246	81.69
340.474	79.69
340.702	89.69
340.93	93.69
341.158	89.69
341.386	82.69
341.614	79.69
341.842	92.69
342.07	99.69
342.298	91.69
342.526	68.69
342.754	83.69
342.981	60.69
343.209	67.69
343.437	95.69
343.665	82.69
343.893	87.69
344.12	89.69
344.348	89.69
344.576	90.69
344.804	89.69
345.031	73.69
345.259	87.69
345.487	81.69
345.714	77.69
345.942	96.69
346.17	87.69
346.397	91.69
346.625	83.69
346.853	90.69
347.08	82.69
347.308	94.69
347.535	81.69
347.763	80.69
347.99	98.69
348.218	77.69
348.445	79.69
348.673	92.69
348.9	82.69
349.128	79.69
349.355	81.69
349.583	94.69
349.81	88.69
350.037	81.69
350.265	96.69
350.492	88.69
350.72	80.69
350.947	104.69
351.174	92.69
351.402	97.69
351.629	82.69
351.856	100.69
352.083	94.69
352.311	95.69
352.538	95.69
352.765	94.69
352.992	112.69
353.22	102.69
353.447	98.69
353.674	98.69
353.901	89.69
354.128	98.69
354.355	79.69
354.583	98.69
354.81	88.69
355.037	103.69
355.264	95.69
355.491	88.69
355.718	79.69
355.945	89.69
356.172	81.69
356.399	94.69
356.626	81.69
356.853	91.69
357.08	91.69
357.307	90.69
357.534	98.69
357.761	91.69
357.988	91.69
358.215	75.69
358.441	84.69
358.668	76.69
358.895	91.69
359.122	80.69
359.349	78.69
359.576	75.69
359.802	95.69
360.029	92.69
360.256	91.69
360.483	79.69
360.709	74.69
360.936	87.69
361.163	90.69
361.39	77.69
361.616	83.69
361.843	79.69
362.07	87.69
362.296	97.69
362.523	80.69
362.749	76.69
362.976	80.69
363.203	100.69
363.429	81.69
363.656	84.69
363.882	78.69
364.109	80.69
364.335	90.69
364.562	91.69
364.788	92.69
365.015	96.69
365.241	85.69
365.468	96.69
365.694	83.69
365.92	85.69
366.147	76.69
366.373	83.69
366.599	82.69
366.826	87.69
367.052	86.69
367.278	75.69
367.505	85.69
367.731	84.69
367.957	79.69
368.184	91.69
368.41	94.69
368.636	90.69
368.862	90.69
369.089	96.69
369.315	79.69
369.541	81.69
369.767	76.69
369.993	86.69
370.219	95.69
370.445	69.69
370.672	73.69
370.898	70.69
371.124	77.69
371.35	76.69
371.576	80.69
371.802	92.69
372.028	88.69
372.254	97.69
372.48	84.69
372.706	91.69
372.932	76.69
373.158	83.69
373.384	93.69
373.61	88.69
373.835	88.69
374.061	73.69
374.287	72.69
374.513	75.69
374.739	86.69
374.965	71.69
375.191	83.69
375.416	83.69
375.642	97.69
375.868	86.69
376.094	81.69
376.319	87.69
376.545	80.69
376.771	80.69
376.997	83.69
377.222	86.69
377.448	84.69
377.674	74.69
377.899	87.69
378.125	85.69
378.35	83.69
378.576	91.69
378.802	91.69
379.027	81.69
379.253	98.69
379.478	80.69
379.704	92.69
379.929	96.69
380.155	93.69
380.38	74.69
380.606	97.69
380.831	84.69
381.057	99.69
381.282	97.69
381.507	82.69
381.733	88.69
381.958	94.69
382.184	101.69
382.409	96.69
382.634	98.69
382.86	102.69
383.085	92.69
383.31	97.69
383.535	99.69
383.761	97.69
383.986	95.69
384.211	94.69
384.436	90.69
384.662	92.69
384.887	101.69
385.112	92.69
385.337	92.69
385.562	81.69
385.787	97.69
386.013	106.69
386.238	110.69
386.463	102.69
386.688	102.69
386.913	87.69
387.138	104.69
387.363	97.69
387.588	102.69
387.813	99.69
388.038	100.69
388.263	85.69
388.488	113.69
388.713	101.69
388.938	97.69
389.163	96.69
389.387	91.69
389.612	86.69
389.837	91.69
390.062	61.69
390.287	91.69
390.512	96.69
390.736	77.69
390.961	80.69
391.186	84.69
391.411	97.69
391.636	86.69
391.86	75.69
392.085	66.69
392.31	75.69
392.534	83.69
392.759	66.69
392.984	88.69
393.208	89.69
393.433	83.69
393.658	76.69
393.882	75.69
394.107	73.69
394.331	85.69
394.556	72.69
394.78	71.69
395.005	81.69
395.229	75.69
395.454	83.69
395.678	83.69
395.903	83.69
396.127	80.69
396.352	89.69
396.576	82.69
396.801	88.69
397.025	82.69
397.249	90.69
397.474	71.69
397.698	77.69
397.922	71.69
398.147	71.69
398.371	67.69
398.595	84.69
398.82	87.69
399.044	87.69
399.268	88.69
399.492	81.69
399.717	70.69
399.941	91.69
400.165	86.69
400.389	72.69
400.613	64.69
400.837	85.69
401.062	78.69
401.286	79.69
401.51	84.69
401.734	84.69
401.958	91.69
402.182	106.69
402.406	120.69
402.63	100.69
402.854	86.69
403.078	82.69
403.302	80.69
403.526	74.69
403.75	63.69
403.974	72.69
404.198	82.69
404.422	86.69
404.645	78.69
404.869	88.69
405.093	74.69
405.317	95.69
405.541	94.69
405.765	82.69
405.988	95.69
406.212	141.69
406.436	162.69
406.66	127.69
406.883	84.69
407.107	87.69
407.331	86.69
407.555	85.69
407.778	95.69
408.002	66.69
408.226	76.69
408.449	80.69
408.673	74.69
408.896	86.69
409.12	92.69
409.344	84.69
409.567	90.69
409.791	73.69
410.014	95.69
410.238	87.69
410.461	95.69
410.685	83.69
410.908	77.69
411.132	79.69
411.355	97.69
411.578	91.69
411.802	81.69
412.025	82.69
412.249	87.69
412.472	68.69
412.695	88.69
412.919	95.69
413.142	76.69
413.365	79.69
413.589	88.69
413.812	80.69
414.035	87.69
414.258	87.69
414.482	91.69
414.705	86.69
414.928	92.69
415.151	95.69
415.374	104.69
415.597	93.69
415.821	82.69
416.044	79.69
416.267	83.69
416.49	83.69
416.713	83.69
416.936	88.69
417.159	76.69
417.382	99.69
417.605	82.69
417.828	89.69
418.051	93.69
418.274	96.69
418.497	90.69
418.72	70.69
418.943	71.69
419.166	76.69
419.389	64.69
419.611	76.69
419.834	87.69
420.057	93.69
420.28	88.69
420.503	85.69
420.726	78.69
420.948	74.69
421.171	94.69
421.394	91.69
421.617	82.69
421.839	71.69
422.062	86.69
422.285	84.69
422.507	93.69
422.73	88.69
422.953	86.69
423.175	87.69
423.398	80.69
423.621	89.69
423.843	89.69
424.066	73.69
424.288	69.69
424.511	84.69
424.733	97.69
424.956	85.69
425.178	96.69
425.401	89.69
425.623	86.69
425.846	82.69
426.068	100.69
426.291	98.69
426.513	79.69
426.735	87.69
426.958	76.69
427.18	106.69
427.402	132.69
427.625	144.69
427.847	109.69
428.069	101.69
428.292	81.69
428.514	76.69
428.736	75.69
428.958	84.69
429.181	79.69
429.403	77.69
429.625	83.69
429.847	80.69
430.069	89.69
430.292	75.69
430.514	72.69
430.736	71.69
430.958	75.69
431.18	81.69
431.402	72.69
431.624	68.69
431.846	71.69
432.068	82.69
432.29	83.69
432.512	70.69
432.734	85.69
432.956	82.69
433.178	96.69
433.4	86.69
433.622	87.69
433.844	82.69
434.066	82.69
434.287	71.69
434.509	70.69
434.731	70.69
434.953	76.69
435.175	86.69
435.397	76.69
435.618	83.69
435.84	92.69
436.062	96.69
436.284	105.69
436.505	95.69
436.727	101.69
436.949	88.69
437.17	98.69
437.392	77.69
437.614	79.69
437.835	86.69
438.057	113.69
438.278	92.69
438.5	80.69
438.721	119.69
438.943	89.69
439.165	91.69
439.386	70.69
439.608	82.69
439.829	87.69
440.05	115.69
440.272	120.69
440.493	89.69
440.715	72.69
440.936	58.69
441.158	78.69
441.379	82.69
441.6	85.69
441.822	79.69
442.043	81.69
442.264	92.69
442.486	84.69
442.707	76.69
442.928	94.69
443.149	105.69
443.371	128.69
443.592	100.69
443.813	84.69
444.034	94.69
444.255	76.69
444.476	91.69
444.698	87.69
444.919	74.69
445.14	112.69
445.361	108.69
445.582	101.69
445.803	111.69
446.024	111.69
446.245	99.69
446.466	111.69
446.687	72.69
446.908	92.69
447.129	69.69
447.35	83.69
447.571	72.69
447.792	90.69
448.013	87.69
448.234	98.69
448.455	82.69
448.675	93.69
448.896	100.69
449.117	89.69
449.338	99.69
449.559	114.69
449.779	120.69
450	95.69
450.221	82.69
450.442	64.69
450.662	75.69
450.883	99.69
451.104	91.69
451.324	89.69
451.545	84.69
451.766	83.69
451.986	67.69
452.207	95.69
452.428	75.69
452.648	99.69
452.869	89.69
453.089	93.69
453.31	97.69
453.53	95.69
453.751	82.69
453.971	98.69
454.192	96.69
454.412	84.69
454.633	93.69
454.853	62.69
455.073	73.69
455.294	88.69
455.514	75.69
455.734	81.69
455.955	82.69
456.175	72.69
456.395	74.69
456.616	66.69
456.836	78.69
457.056	73.69
457.276	84.69
457.497	75.69
457.717	77.69
457.937	87.69
458.157	88.69
458.377	87.69
458.598	98.69
458.818	112.69
459.038	129.69
459.258	101.69
459.478	75.69
459.698	71.69
459.918	86.69
460.138	100.69
460.358	73.69
460.578	85.69
460.798	69.69
461.018	68.69
461.238	72.69
461.458	74.69
461.678	91.69
461.898	85.69
462.118	69.69
462.338	74.69
462.558	71.69
462.777	83.69
462.997	79.69
463.217	83.69
463.437	92.69
463.657	84.69
463.876	90.69
464.096	85.69
464.316	81.69
464.536	85.69
464.755	74.69
464.975	87.69
465.195	119.69
465.414	131.69
465.634	81.69
465.854	82.69
466.073	87.69
466.293	73.69
466.512	82.69
466.732	84.69
466.951	82.69
467.171	82.69
467.391	90.69
467.61	105.69
467.829	101.69
468.049	85.69
468.268	90.69
468.488	87.69
468.707	88.69
468.927	75.69
469.146	78.69
469.365	78.69
469.585	87.69
469.804	85.69
470.023	98.69
470.243	82.69
470.462	82.69
470.681	90.69
470.901	76.69
471.12	75.69
471.339	83.69
471.558	83.69
471.777	83.69
471.997	79.69
472.216	99.69
472.435	112.69
472.654	98.69
472.873	86.69
473.092	73.69
473.311	76.69
473.53	95.69
473.749	82.69
473.968	78.69
474.187	89.69
474.406	80.69
474.625	76.69
474.844	82.69
475.063	75.69
475.282	84.69
475.501	72.69
475.72	84.69
475.939	74.69
476.158	85.69
476.377	95.69
476.596	79.69
476.814	89.69
477.033	85.69
477.252	83.69
477.471	79.69
477.69	75.69
477.908	76.69
478.127	78.69
478.346	71.69
478.564	92.69
478.783	94.69
479.002	93.69
479.22	89.69
479.439	90.69
479.658	113.69
479.876	80.69
480.095	75.69
480.313	81.69
480.532	71.69
480.751	80.69
480.969	113.69
481.188	146.69
481.406	122.69
481.624	84.69
481.843	74.69
482.061	80.69
482.28	82.69
482.498	76.69
482.717	73.69
482.935	88.69
483.153	83.69
483.372	71.69
483.59	72.69
483.808	81.69
484.027	99.69
484.245	94.69
484.463	88.69
484.681	86.69
484.9	91.69
485.118	89.69
485.336	88.69
485.554	82.69
485.772	92.69
485.99	97.69
486.209	94.69
486.427	102.69
486.645	102.69
486.863	97.69
487.081	79.69
487.299	83.69
487.517	82.69
487.735	83.69
487.953	79.69
488.171	76.69
488.389	89.69
488.607	88.69
488.825	93.69
489.043	68.69
489.261	90.69
489.479	74.69
489.696	82.69
489.914	95.69
490.132	80.69
490.35	79.69
490.568	75.69
490.786	86.69
491.003	93.69
491.221	92.69
491.439	80.69
491.657	90.69
491.874	96.69
492.092	91.69
492.31	101.69
492.527	90.69
492.745	68.69
492.963	84.69
493.18	78.69
493.398	89.69
493.615	102.69
493.833	83.69
494.05	90.69
494.268	80.69
494.485	88.69
494.703	95.69
494.92	85.69
495.138	83.69
495.355	75.69
495.573	84.69
495.79	70.69
496.008	80.69
496.225	88.69
496.442	91.69
496.66	69.69
496.877	74.69
497.094	76.69
497.312	76.69
497.529	88.69
497.746	91.69
497.963	79.69
498.181	83.69
498.398	88.69
498.615	95.69
498.832	98.69
499.049	75.69
499.267	94.69
499.484	93.69
499.701	103.69
499.918	73.69
500.135	81.69
500.352	96.69
500.569	78.69
500.786	83.69
501.003	72.69
501.22	94.69
501.437	74.69
501.654	90.69
501.871	97.69
502.088	93.69
502.305	75.69
502.522	82.69
502.739	81.69
502.956	86.69
503.172	76.69
503.389	87.69
503.606	90.69
503.823	94.69
504.04	78.69
504.256	85.69
504.473	96.69
504.69	93.69
504.907	91.69
505.123	81.69
505.34	87.69
505.557	76.69
505.773	84.69
505.99	84.69
506.207	77.69
506.423	85.69
506.64	83.69
506.856	76.69
507.073	90.69
507.289	84.69
507.506	91.69
507.722	99.69
507.939	105.69
508.155	76.69
508.372	93.69
508.588	81.69
508.805	89.69
509.021	100.69
509.238	81.69
509.454	104.69
509.67	92.69
509.887	86.69
510.103	127.69
510.319	175.69
510.536	594.69
510.752	1728.69
510.968	500.69
511.184	142.69
511.401	96.69
511.617	103.69
511.833	83.69
512.049	81.69
512.265	93.69
512.481	87.69
512.698	90.69
512.914	75.69
513.13	64.69
513.346	83.69
513.562	80.69
513.778	68.69
513.994	95.69
514.21	96.69
514.426	92.69
514.642	111.69
514.858	110.69
515.074	118.69
515.29	317.69
515.506	1072.69
515.721	420.69
515.937	128.69
516.153	113.69
516.369	88.69
516.585	92.69
516.801	69.69
517.016	91.69
517.232	71.69
517.448	80.69
517.664	74.69
517.879	86.69
518.095	83.69
518.311	81.69
