Data from Uncirc_2009_H10_HRD10591_00049.txt Node
Date: Wed Jan 03 10:12:11 EST 2024
User: Yrep
Spectrometer: HR+D1059
Trigger mode: 1
Integration Time (sec): 1.000000E-1
Scans to average: 1
Electric dark correction enabled: true
Nonlinearity correction enabled: false
Boxcar width: 0
XAxis mode: Wavelengths
Number of Pixels in Spectrum: 2048
>>>>>Begin Spectral Data<<<<<
223.165	-10.5
223.4	-10.5
223.635	-10.5
223.869	-4.5
224.104	-17.5
224.338	-13.5
224.573	-19.5
224.808	-11.5
225.042	-3.5
225.277	-10.5
225.511	-9.5
225.746	-3.5
225.98	12.5
226.215	3.5
226.449	3.5
226.683	18.5
226.918	38.5
227.152	27.5
227.387	23.5
227.621	31.5
227.856	53.5
228.09	38.5
228.324	49.5
228.559	73.5
228.793	50.5
229.027	58.5
229.262	66.5
229.496	76.5
229.73	53.5
229.964	71.5
230.199	64.5
230.433	61.5
230.667	70.5
230.901	75.5
231.136	68.5
231.37	80.5
231.604	72.5
231.838	74.5
232.072	73.5
232.306	96.5
232.541	60.5
232.775	64.5
233.009	87.5
233.243	63.5
233.477	72.5
233.711	75.5
233.945	78.5
234.179	79.5
234.413	68.5
234.647	86.5
234.881	72.5
235.115	77.5
235.349	71.5
235.583	56.5
235.817	61.5
236.051	74.5
236.285	83.5
236.519	62.5
236.753	71.5
236.987	65.5
237.221	66.5
237.455	81.5
237.689	82.5
237.922	74.5
238.156	72.5
238.39	79.5
238.624	78.5
238.858	72.5
239.091	77.5
239.325	55.5
239.559	85.5
239.793	71.5
240.027	78.5
240.26	77.5
240.494	78.5
240.728	72.5
240.961	69.5
241.195	93.5
241.429	73.5
241.662	77.5
241.896	85.5
242.13	69.5
242.363	75.5
242.597	57.5
242.83	76.5
243.064	75.5
243.298	79.5
243.531	75.5
243.765	75.5
243.998	60.5
244.232	88.5
244.465	66.5
244.699	70.5
244.932	68.5
245.166	70.5
245.399	65.5
245.633	59.5
245.866	83.5
246.099	74.5
246.333	74.5
246.566	80.5
246.8	66.5
247.033	74.5
247.266	82.5
247.5	73.5
247.733	77.5
247.966	86.5
248.2	68.5
248.433	83.5
248.666	90.5
248.899	82.5
249.133	78.5
249.366	86.5
249.599	75.5
249.832	60.5
250.066	69.5
250.299	80.5
250.532	73.5
250.765	75.5
250.998	78.5
251.231	87.5
251.465	83.5
251.698	74.5
251.931	73.5
252.164	85.5
252.397	75.5
252.63	75.5
252.863	90.5
253.096	87.5
253.329	82.5
253.562	83.5
253.795	76.5
254.028	81.5
254.261	75.5
254.494	85.5
254.727	77.5
254.96	89.5
255.193	81.5
255.426	73.5
255.659	69.5
255.892	78.5
256.124	73.5
256.357	88.5
256.59	83.5
256.823	82.5
257.056	75.5
257.289	68.5
257.521	59.5
257.754	86.5
257.987	77.5
258.22	75.5
258.452	76.5
258.685	81.5
258.918	86.5
259.151	84.5
259.383	86.5
259.616	83.5
259.849	72.5
260.081	81.5
260.314	77.5
260.547	72.5
260.779	74.5
261.012	81.5
261.244	86.5
261.477	67.5
261.71	78.5
261.942	92.5
262.175	81.5
262.407	84.5
262.64	68.5
262.872	76.5
263.105	75.5
263.337	87.5
263.57	72.5
263.802	78.5
264.035	79.5
264.267	72.5
264.499	81.5
264.732	87.5
264.964	73.5
265.197	84.5
265.429	75.5
265.661	80.5
265.894	81.5
266.126	81.5
266.358	90.5
266.591	69.5
266.823	84.5
267.055	67.5
267.287	77.5
267.52	83.5
267.752	85.5
267.984	89.5
268.216	88.5
268.448	69.5
268.681	84.5
268.913	77.5
269.145	83.5
269.377	84.5
269.609	88.5
269.841	89.5
270.073	77.5
270.306	77.5
270.538	73.5
270.77	87.5
271.002	84.5
271.234	73.5
271.466	83.5
271.698	78.5
271.93	76.5
272.162	87.5
272.394	99.5
272.626	69.5
272.858	94.5
273.09	88.5
273.322	69.5
273.553	64.5
273.785	84.5
274.017	67.5
274.249	81.5
274.481	70.5
274.713	82.5
274.945	99.5
275.176	82.5
275.408	77.5
275.64	74.5
275.872	81.5
276.104	84.5
276.335	95.5
276.567	94.5
276.799	83.5
277.031	83.5
277.262	78.5
277.494	78.5
277.726	81.5
277.957	84.5
278.189	84.5
278.421	92.5
278.652	87.5
278.884	83.5
279.115	84.5
279.347	72.5
279.579	85.5
279.81	72.5
280.042	85.5
280.273	74.5
280.505	83.5
280.736	81.5
280.968	67.5
281.199	75.5
281.431	86.5
281.662	79.5
281.894	81.5
282.125	77.5
282.356	114.5
282.588	103.5
282.819	97.5
283.051	90.5
283.282	91.5
283.513	81.5
283.745	92.5
283.976	83.5
284.207	89.5
284.439	91.5
284.67	83.5
284.901	88.5
285.132	88.5
285.364	75.5
285.595	88.5
285.826	82.5
286.057	84.5
286.288	93.5
286.52	89.5
286.751	86.5
286.982	87.5
287.213	68.5
287.444	75.5
287.675	72.5
287.906	87.5
288.138	76.5
288.369	82.5
288.6	80.5
288.831	89.5
289.062	74.5
289.293	91.5
289.524	72.5
289.755	83.5
289.986	80.5
290.217	83.5
290.448	97.5
290.679	93.5
290.91	89.5
291.141	71.5
291.371	77.5
291.602	79.5
291.833	80.5
292.064	84.5
292.295	94.5
292.526	77.5
292.757	78.5
292.987	73.5
293.218	74.5
293.449	76.5
293.68	90.5
293.91	74.5
294.141	99.5
294.372	85.5
294.603	93.5
294.833	79.5
295.064	90.5
295.295	90.5
295.525	76.5
295.756	92.5
295.987	97.5
296.217	112.5
296.448	95.5
296.679	100.5
296.909	82.5
297.14	81.5
297.37	80.5
297.601	68.5
297.831	89.5
298.062	93.5
298.292	93.5
298.523	88.5
298.753	85.5
298.984	79.5
299.214	88.5
299.445	78.5
299.675	72.5
299.905	91.5
300.136	82.5
300.366	72.5
300.597	92.5
300.827	97.5
301.057	100.5
301.288	84.5
301.518	99.5
301.748	96.5
301.979	92.5
302.209	101.5
302.439	80.5
302.669	82.5
302.9	83.5
303.13	81.5
303.36	77.5
303.59	94.5
303.82	70.5
304.051	76.5
304.281	72.5
304.511	92.5
304.741	96.5
304.971	94.5
305.201	78.5
305.431	92.5
305.661	95.5
305.891	84.5
306.121	95.5
306.352	99.5
306.582	113.5
306.812	92.5
307.042	85.5
307.272	87.5
307.502	90.5
307.731	93.5
307.961	75.5
308.191	72.5
308.421	84.5
308.651	90.5
308.881	77.5
309.111	82.5
309.341	96.5
309.571	88.5
309.8	91.5
310.03	88.5
310.26	97.5
310.49	98.5
310.72	89.5
310.949	80.5
311.179	93.5
311.409	84.5
311.639	82.5
311.868	92.5
312.098	91.5
312.328	93.5
312.557	82.5
312.787	85.5
313.017	83.5
313.246	98.5
313.476	96.5
313.706	73.5
313.935	75.5
314.165	94.5
314.394	99.5
314.624	106.5
314.853	105.5
315.083	82.5
315.312	91.5
315.542	88.5
315.771	83.5
316.001	95.5
316.23	83.5
316.46	85.5
316.689	95.5
316.919	103.5
317.148	102.5
317.377	98.5
317.607	111.5
317.836	107.5
318.065	102.5
318.295	75.5
318.524	87.5
318.753	89.5
318.983	97.5
319.212	86.5
319.441	98.5
319.67	89.5
319.9	105.5
320.129	100.5
320.358	99.5
320.587	85.5
320.816	91.5
321.046	86.5
321.275	90.5
321.504	85.5
321.733	84.5
321.962	91.5
322.191	92.5
322.42	103.5
322.649	104.5
322.878	112.5
323.108	102.5
323.337	107.5
323.566	113.5
323.795	132.5
324.024	185.5
324.253	318.5
324.482	644.5
324.71	1273.5
324.939	1686.5
325.168	644.5
325.397	206.5
325.626	124.5
325.855	130.5
326.084	134.5
326.313	150.5
326.542	150.5
326.77	205.5
326.999	366.5
327.228	748.5
327.457	1317.5
327.686	1088.5
327.914	292.5
328.143	162.5
328.372	139.5
328.6	117.5
328.829	102.5
329.058	113.5
329.287	84.5
329.515	107.5
329.744	109.5
329.972	100.5
330.201	111.5
330.43	113.5
330.658	106.5
330.887	95.5
331.115	103.5
331.344	83.5
331.572	86.5
331.801	87.5
332.03	93.5
332.258	97.5
332.486	102.5
332.715	96.5
332.943	95.5
333.172	81.5
333.4	81.5
333.629	95.5
333.857	93.5
334.085	98.5
334.314	94.5
334.542	112.5
334.771	107.5
334.999	76.5
335.227	85.5
335.455	86.5
335.684	103.5
335.912	92.5
336.14	91.5
336.369	99.5
336.597	83.5
336.825	90.5
337.053	81.5
337.281	87.5
337.51	91.5
337.738	85.5
337.966	75.5
338.194	86.5
338.422	86.5
338.65	83.5
338.878	83.5
339.106	68.5
339.334	90.5
339.562	74.5
339.79	85.5
340.018	94.5
340.246	88.5
340.474	91.5
340.702	88.5
340.93	88.5
341.158	89.5
341.386	87.5
341.614	87.5
341.842	80.5
342.07	94.5
342.298	85.5
342.526	82.5
342.754	74.5
342.981	86.5
343.209	92.5
343.437	79.5
343.665	90.5
343.893	107.5
344.12	105.5
344.348	97.5
344.576	76.5
344.804	85.5
345.031	89.5
345.259	87.5
345.487	98.5
345.714	105.5
345.942	93.5
346.17	76.5
346.397	90.5
346.625	79.5
346.853	84.5
347.08	94.5
347.308	76.5
347.535	83.5
347.763	92.5
347.99	81.5
348.218	103.5
348.445	102.5
348.673	98.5
348.9	79.5
349.128	97.5
349.355	79.5
349.583	82.5
349.81	94.5
350.037	89.5
350.265	92.5
350.492	97.5
350.72	97.5
350.947	85.5
351.174	93.5
351.402	107.5
351.629	104.5
351.856	87.5
352.083	81.5
352.311	114.5
352.538	96.5
352.765	100.5
352.992	94.5
353.22	101.5
353.447	103.5
353.674	105.5
353.901	97.5
354.128	103.5
354.355	84.5
354.583	93.5
354.81	93.5
355.037	88.5
355.264	92.5
355.491	94.5
355.718	90.5
355.945	93.5
356.172	89.5
356.399	86.5
356.626	96.5
356.853	90.5
357.08	84.5
357.307	89.5
357.534	84.5
357.761	85.5
357.988	88.5
358.215	77.5
358.441	80.5
358.668	83.5
358.895	83.5
359.122	75.5
359.349	84.5
359.576	90.5
359.802	81.5
360.029	88.5
360.256	90.5
360.483	81.5
360.709	97.5
360.936	90.5
361.163	83.5
361.39	97.5
361.616	77.5
361.843	91.5
362.07	89.5
362.296	92.5
362.523	90.5
362.749	78.5
362.976	84.5
363.203	88.5
363.429	68.5
363.656	93.5
363.882	82.5
364.109	78.5
364.335	78.5
364.562	83.5
364.788	86.5
365.015	85.5
365.241	94.5
365.468	91.5
365.694	83.5
365.92	86.5
366.147	85.5
366.373	87.5
366.599	103.5
366.826	99.5
367.052	78.5
367.278	91.5
367.505	88.5
367.731	85.5
367.957	85.5
368.184	90.5
368.41	78.5
368.636	84.5
368.862	94.5
369.089	91.5
369.315	89.5
369.541	86.5
369.767	73.5
369.993	97.5
370.219	94.5
370.445	85.5
370.672	81.5
370.898	93.5
371.124	85.5
371.35	81.5
371.576	97.5
371.802	83.5
372.028	84.5
372.254	98.5
372.48	67.5
372.706	80.5
372.932	83.5
373.158	75.5
373.384	81.5
373.61	85.5
373.835	82.5
374.061	93.5
374.287	89.5
374.513	83.5
374.739	86.5
374.965	86.5
375.191	86.5
375.416	90.5
375.642	76.5
375.868	88.5
376.094	73.5
376.319	78.5
376.545	83.5
376.771	88.5
376.997	92.5
377.222	89.5
377.448	90.5
377.674	83.5
377.899	90.5
378.125	74.5
378.35	86.5
378.576	87.5
378.802	84.5
379.027	88.5
379.253	83.5
379.478	92.5
379.704	81.5
379.929	85.5
380.155	86.5
380.38	91.5
380.606	90.5
380.831	77.5
381.057	94.5
381.282	83.5
381.507	84.5
381.733	92.5
381.958	79.5
382.184	86.5
382.409	93.5
382.634	90.5
382.86	94.5
383.085	103.5
383.31	112.5
383.535	83.5
383.761	109.5
383.986	93.5
384.211	80.5
384.436	68.5
384.662	91.5
384.887	90.5
385.112	87.5
385.337	100.5
385.562	102.5
385.787	108.5
386.013	83.5
386.238	118.5
386.463	101.5
386.688	91.5
386.913	108.5
387.138	93.5
387.363	87.5
387.588	92.5
387.813	111.5
388.038	96.5
388.263	101.5
388.488	85.5
388.713	93.5
388.938	92.5
389.163	84.5
389.387	79.5
389.612	91.5
389.837	105.5
390.062	88.5
390.287	84.5
390.512	98.5
390.736	82.5
390.961	97.5
391.186	91.5
391.411	93.5
391.636	84.5
391.86	78.5
392.085	77.5
392.31	82.5
392.534	69.5
392.759	88.5
392.984	88.5
393.208	84.5
393.433	86.5
393.658	84.5
393.882	80.5
394.107	88.5
394.331	89.5
394.556	88.5
394.78	84.5
395.005	86.5
395.229	81.5
395.454	77.5
395.678	93.5
395.903	81.5
396.127	75.5
396.352	69.5
396.576	83.5
396.801	75.5
397.025	83.5
397.249	85.5
397.474	94.5
397.698	73.5
397.922	83.5
398.147	76.5
398.371	81.5
398.595	81.5
398.82	75.5
399.044	88.5
399.268	73.5
399.492	73.5
399.717	75.5
399.941	75.5
400.165	96.5
400.389	75.5
400.613	73.5
400.837	73.5
401.062	84.5
401.286	89.5
401.51	82.5
401.734	82.5
401.958	78.5
402.182	116.5
402.406	118.5
402.63	106.5
402.854	88.5
403.078	94.5
403.302	84.5
403.526	73.5
403.75	78.5
403.974	80.5
404.198	73.5
404.422	91.5
404.645	85.5
404.869	82.5
405.093	70.5
405.317	101.5
405.541	98.5
405.765	91.5
405.988	96.5
406.212	134.5
406.436	163.5
406.66	100.5
406.883	74.5
407.107	81.5
407.331	80.5
407.555	80.5
407.778	92.5
408.002	93.5
408.226	91.5
408.449	85.5
408.673	80.5
408.896	89.5
409.12	78.5
409.344	83.5
409.567	77.5
409.791	91.5
410.014	95.5
410.238	100.5
410.461	82.5
410.685	95.5
410.908	86.5
411.132	93.5
411.355	80.5
411.578	84.5
411.802	74.5
412.025	97.5
412.249	87.5
412.472	83.5
412.695	77.5
412.919	75.5
413.142	78.5
413.365	76.5
413.589	81.5
413.812	89.5
414.035	88.5
414.258	84.5
414.482	89.5
414.705	73.5
414.928	84.5
415.151	87.5
415.374	91.5
415.597	88.5
415.821	83.5
416.044	74.5
416.267	77.5
416.49	86.5
416.713	86.5
416.936	82.5
417.159	85.5
417.382	85.5
417.605	79.5
417.828	88.5
418.051	97.5
418.274	73.5
418.497	84.5
418.72	83.5
418.943	75.5
419.166	82.5
419.389	91.5
419.611	83.5
419.834	77.5
420.057	84.5
420.28	85.5
420.503	89.5
420.726	87.5
420.948	88.5
421.171	98.5
421.394	89.5
421.617	84.5
421.839	90.5
422.062	84.5
422.285	73.5
422.507	86.5
422.73	82.5
422.953	88.5
423.175	81.5
423.398	84.5
423.621	90.5
423.843	91.5
424.066	72.5
424.288	81.5
424.511	91.5
424.733	83.5
424.956	104.5
425.178	89.5
425.401	96.5
425.623	111.5
425.846	89.5
426.068	96.5
426.291	75.5
426.513	72.5
426.735	93.5
426.958	102.5
427.18	96.5
427.402	113.5
427.625	121.5
427.847	114.5
428.069	101.5
428.292	81.5
428.514	81.5
428.736	75.5
428.958	84.5
429.181	73.5
429.403	61.5
429.625	93.5
429.847	76.5
430.069	88.5
430.292	67.5
430.514	82.5
430.736	81.5
430.958	73.5
431.18	92.5
431.402	70.5
431.624	76.5
431.846	73.5
432.068	87.5
432.29	66.5
432.512	90.5
432.734	92.5
432.956	93.5
433.178	93.5
433.4	77.5
433.622	82.5
433.844	81.5
434.066	92.5
434.287	82.5
434.509	85.5
434.731	109.5
434.953	75.5
435.175	79.5
435.397	102.5
435.618	97.5
435.84	77.5
436.062	85.5
436.284	83.5
436.505	85.5
436.727	89.5
436.949	83.5
437.17	80.5
437.392	89.5
437.614	81.5
437.835	94.5
438.057	93.5
438.278	107.5
438.5	87.5
438.721	99.5
438.943	88.5
439.165	84.5
439.386	65.5
439.608	81.5
439.829	78.5
440.05	106.5
440.272	112.5
440.493	90.5
440.715	85.5
440.936	97.5
441.158	81.5
441.379	89.5
441.6	73.5
441.822	88.5
442.043	94.5
442.264	91.5
442.486	88.5
442.707	99.5
442.928	83.5
443.149	96.5
443.371	97.5
443.592	93.5
443.813	87.5
444.034	101.5
444.255	91.5
444.476	77.5
444.698	88.5
444.919	93.5
445.14	116.5
445.361	112.5
445.582	80.5
445.803	97.5
446.024	105.5
446.245	116.5
446.466	113.5
446.687	92.5
446.908	73.5
447.129	88.5
447.35	74.5
447.571	85.5
447.792	76.5
448.013	90.5
448.234	89.5
448.455	74.5
448.675	96.5
448.896	101.5
449.117	85.5
449.338	98.5
449.559	113.5
449.779	125.5
450	85.5
450.221	78.5
450.442	80.5
450.662	75.5
450.883	83.5
451.104	88.5
451.324	92.5
451.545	78.5
451.766	81.5
451.986	79.5
452.207	82.5
452.428	69.5
452.648	82.5
452.869	99.5
453.089	86.5
453.31	98.5
453.53	77.5
453.751	75.5
453.971	101.5
454.192	103.5
454.412	82.5
454.633	85.5
454.853	67.5
455.073	80.5
455.294	74.5
455.514	87.5
455.734	90.5
455.955	74.5
456.175	78.5
456.395	85.5
456.616	77.5
456.836	78.5
457.056	91.5
457.276	68.5
457.497	72.5
457.717	73.5
457.937	89.5
458.157	87.5
458.377	71.5
458.598	86.5
458.818	98.5
459.038	111.5
459.258	98.5
459.478	77.5
459.698	82.5
459.918	72.5
460.138	83.5
460.358	62.5
460.578	77.5
460.798	83.5
461.018	83.5
461.238	68.5
461.458	76.5
461.678	70.5
461.898	71.5
462.118	85.5
462.338	88.5
462.558	76.5
462.777	87.5
462.997	83.5
463.217	78.5
463.437	87.5
463.657	77.5
463.876	77.5
464.096	76.5
464.316	77.5
464.536	83.5
464.755	83.5
464.975	108.5
465.195	132.5
465.414	132.5
465.634	94.5
465.854	97.5
466.073	84.5
466.293	80.5
466.512	88.5
466.732	89.5
466.951	74.5
467.171	85.5
467.391	88.5
467.61	96.5
467.829	99.5
468.049	80.5
468.268	96.5
468.488	78.5
468.707	75.5
468.927	84.5
469.146	80.5
469.365	81.5
469.585	85.5
469.804	84.5
470.023	92.5
470.243	88.5
470.462	91.5
470.681	95.5
470.901	75.5
471.12	77.5
471.339	85.5
471.558	77.5
471.777	78.5
471.997	79.5
472.216	88.5
472.435	124.5
472.654	96.5
472.873	87.5
473.092	86.5
473.311	75.5
473.53	86.5
473.749	96.5
473.968	74.5
474.187	86.5
474.406	87.5
474.625	89.5
474.844	86.5
475.063	65.5
475.282	81.5
475.501	76.5
475.72	73.5
475.939	73.5
476.158	87.5
476.377	66.5
476.596	62.5
476.814	88.5
477.033	90.5
477.252	86.5
477.471	70.5
477.69	72.5
477.908	86.5
478.127	79.5
478.346	81.5
478.564	90.5
478.783	88.5
479.002	82.5
479.22	80.5
479.439	77.5
479.658	97.5
479.876	80.5
480.095	86.5
480.313	82.5
480.532	88.5
480.751	97.5
480.969	103.5
481.188	155.5
481.406	118.5
481.624	81.5
481.843	85.5
482.061	86.5
482.28	68.5
482.498	68.5
482.717	73.5
482.935	75.5
483.153	82.5
483.372	82.5
483.59	82.5
483.808	88.5
484.027	84.5
484.245	96.5
484.463	92.5
484.681	93.5
484.9	95.5
485.118	76.5
485.336	79.5
485.554	95.5
485.772	83.5
485.99	98.5
486.209	105.5
486.427	92.5
486.645	99.5
486.863	101.5
487.081	97.5
487.299	105.5
487.517	93.5
487.735	85.5
487.953	86.5
488.171	78.5
488.389	90.5
488.607	88.5
488.825	92.5
489.043	85.5
489.261	85.5
489.479	75.5
489.696	87.5
489.914	66.5
490.132	83.5
490.35	85.5
490.568	79.5
490.786	88.5
491.003	95.5
491.221	90.5
491.439	97.5
491.657	97.5
491.874	88.5
492.092	80.5
492.31	90.5
492.527	78.5
492.745	87.5
492.963	90.5
493.18	95.5
493.398	99.5
493.615	88.5
493.833	89.5
494.05	97.5
494.268	73.5
494.485	87.5
494.703	99.5
494.92	82.5
495.138	89.5
495.355	81.5
495.573	89.5
495.79	97.5
496.008	101.5
496.225	94.5
496.442	75.5
496.66	76.5
496.877	78.5
497.094	91.5
497.312	79.5
497.529	86.5
497.746	98.5
497.963	89.5
498.181	96.5
498.398	86.5
498.615	107.5
498.832	103.5
499.049	95.5
499.267	89.5
499.484	92.5
499.701	83.5
499.918	91.5
500.135	76.5
500.352	82.5
500.569	83.5
500.786	90.5
501.003	92.5
501.22	85.5
501.437	88.5
501.654	91.5
501.871	84.5
502.088	73.5
502.305	84.5
502.522	78.5
502.739	99.5
502.956	88.5
503.172	91.5
503.389	92.5
503.606	102.5
503.823	94.5
504.04	101.5
504.256	100.5
504.473	88.5
504.69	95.5
504.907	93.5
505.123	81.5
505.34	90.5
505.557	70.5
505.773	89.5
505.99	90.5
506.207	82.5
506.423	77.5
506.64	83.5
506.856	82.5
507.073	81.5
507.289	93.5
507.506	92.5
507.722	94.5
507.939	103.5
508.155	83.5
508.372	78.5
508.588	87.5
508.805	84.5
509.021	87.5
509.238	86.5
509.454	96.5
509.67	85.5
509.887	99.5
510.103	116.5
510.319	176.5
510.536	505.5
510.752	1518.5
510.968	481.5
511.184	116.5
511.401	88.5
511.617	97.5
511.833	94.5
512.049	101.5
512.265	94.5
512.481	107.5
512.698	88.5
512.914	85.5
513.13	84.5
513.346	89.5
513.562	76.5
513.778	92.5
513.994	88.5
514.21	92.5
514.426	100.5
514.642	109.5
514.858	117.5
515.074	127.5
515.29	292.5
515.506	878.5
515.721	349.5
515.937	126.5
516.153	93.5
516.369	85.5
516.585	89.5
516.801	82.5
517.016	97.5
517.232	97.5
517.448	93.5
517.664	89.5
517.879	88.5
518.095	93.5
518.311	84.5
518.527	90.5
518.742	90.5
518.958	82.5
519.173	88.5
519.389	93.5
519.605	93.5
519.82	100.5
520.036	106.5
520.251	101.5
520.467	95.5
520.682	92.5
520.898	88.5
521.113	104.5
521.329	115.5
521.544	151.5
521.76	350.5
521.975	1407.5
522.19	884.5
522.406	206.5
522.621	107.5
522.836	94.5
523.052	80.5
523.267	75.5
523.482	90.5
523.698	95.5
523.913	112.5
524.128	96.5
524.343	88.5
524.559	82.5
524.774	92.5
524.989	91.5
525.204	101.5
525.419	106.5
525.634	86.5
525.849	91.5
526.064	85.5
526.28	81.5
526.495	82.5
526.71	101.5
526.925	90.5
527.14	72.5
527.355	82.5
527.57	87.5
527.785	86.5
527.999	94.5
528.214	90.5
528.429	95.5
528.644	107.5
528.859	102.5
529.074	81.5
529.289	111.5
529.503	133.5
529.718	88.5
529.933	78.5
530.148	75.5
530.363	84.5
530.577	90.5
530.792	101.5
531.007	83.5
531.221	100.5
531.436	97.5
531.651	93.5
531.865	88.5
532.08	91.5
532.295	95.5
532.509	86.5
532.724	85.5
532.938	78.5
533.153	84.5
533.367	92.5
533.582	101.5
533.796	90.5
534.011	95.5
534.225	92.5
534.44	88.5
534.654	92.5
534.868	87.5
535.083	90.5
535.297	97.5
535.511	112.5
535.726	99.5
535.94	84.5
536.154	76.5
536.369	76.5
536.583	109.5
536.797	88.5
537.011	82.5
537.225	77.5
537.44	88.5
537.654	93.5
537.868	93.5
