Data from Uncirc_2009_H10_HRD10591_00004.txt Node
Date: Wed Jan 03 10:12:02 EST 2024
User: Yrep
Spectrometer: HR+D1059
Trigger mode: 1
Integration Time (sec): 1.000000E-1
Scans to average: 1
Electric dark correction enabled: true
Nonlinearity correction enabled: false
Boxcar width: 0
XAxis mode: Wavelengths
Number of Pixels in Spectrum: 2048
>>>>>Begin Spectral Data<<<<<
223.165	-5
223.4	-5
223.635	-5
223.869	-15
224.104	-17
224.338	-11
224.573	-20
224.808	-30
225.042	-6
225.277	-11
225.511	-9
225.746	9
225.98	1
226.215	16
226.449	27
226.683	21
226.918	20
227.152	30
227.387	25
227.621	32
227.856	43
228.09	42
228.324	46
228.559	58
228.793	56
229.027	64
229.262	71
229.496	85
229.73	82
229.964	80
230.199	75
230.433	78
230.667	71
230.901	93
231.136	68
231.37	68
231.604	94
231.838	74
232.072	80
232.306	73
232.541	68
232.775	103
233.009	84
233.243	83
233.477	78
233.711	65
233.945	69
234.179	84
234.413	86
234.647	77
234.881	73
235.115	86
235.349	77
235.583	86
235.817	89
236.051	77
236.285	66
236.519	80
236.753	86
236.987	67
237.221	71
237.455	76
237.689	74
237.922	84
238.156	85
238.39	66
238.624	75
238.858	75
239.091	69
239.325	78
239.559	79
239.793	87
240.027	79
240.26	74
240.494	77
240.728	76
240.961	70
241.195	75
241.429	71
241.662	71
241.896	83
242.13	78
242.363	63
242.597	77
242.83	86
243.064	87
243.298	68
243.531	73
243.765	76
243.998	72
244.232	81
244.465	74
244.699	69
244.932	66
245.166	79
245.399	80
245.633	69
245.866	75
246.099	92
246.333	88
246.566	98
246.8	74
247.033	80
247.266	84
247.5	80
247.733	79
247.966	83
248.2	80
248.433	69
248.666	82
248.899	86
249.133	79
249.366	82
249.599	83
249.832	74
250.066	73
250.299	71
250.532	63
250.765	81
250.998	63
251.231	73
251.465	68
251.698	64
251.931	80
252.164	86
252.397	86
252.63	80
252.863	75
253.096	86
253.329	82
253.562	83
253.795	81
254.028	78
254.261	84
254.494	74
254.727	85
254.96	82
255.193	72
255.426	84
255.659	68
255.892	81
256.124	78
256.357	81
256.59	76
256.823	74
257.056	70
257.289	94
257.521	84
257.754	79
257.987	76
258.22	74
258.452	67
258.685	63
258.918	74
259.151	79
259.383	71
259.616	78
259.849	90
260.081	78
260.314	93
260.547	63
260.779	93
261.012	78
261.244	83
261.477	97
261.71	67
261.942	91
262.175	95
262.407	86
262.64	97
262.872	89
263.105	84
263.337	84
263.57	65
263.802	73
264.035	77
264.267	94
264.499	77
264.732	84
264.964	82
265.197	72
265.429	75
265.661	70
265.894	99
266.126	80
266.358	90
266.591	70
266.823	82
267.055	63
267.287	86
267.52	86
267.752	78
267.984	92
268.216	84
268.448	71
268.681	83
268.913	86
269.145	70
269.377	99
269.609	81
269.841	91
270.073	80
270.306	76
270.538	75
270.77	84
271.002	97
271.234	75
271.466	82
271.698	87
271.93	95
272.162	80
272.394	91
272.626	79
272.858	84
273.09	76
273.322	90
273.553	82
273.785	70
274.017	63
274.249	91
274.481	85
274.713	74
274.945	86
275.176	87
275.408	90
275.64	93
275.872	76
276.104	96
276.335	93
276.567	95
276.799	103
277.031	91
277.262	86
277.494	84
277.726	87
277.957	77
278.189	78
278.421	86
278.652	83
278.884	74
279.115	87
279.347	83
279.579	92
279.81	83
280.042	79
280.273	91
280.505	88
280.736	114
280.968	84
281.199	87
281.431	85
281.662	72
281.894	101
282.125	87
282.356	104
282.588	111
282.819	101
283.051	90
283.282	76
283.513	93
283.745	83
283.976	96
284.207	105
284.439	98
284.67	93
284.901	93
285.132	87
285.364	83
285.595	77
285.826	82
286.057	94
286.288	99
286.52	100
286.751	90
286.982	92
287.213	80
287.444	91
287.675	88
287.906	91
288.138	86
288.369	75
288.6	86
288.831	90
289.062	77
289.293	89
289.524	100
289.755	84
289.986	86
290.217	79
290.448	77
290.679	80
290.91	84
291.141	79
291.371	84
291.602	78
291.833	79
292.064	80
292.295	91
292.526	89
292.757	83
292.987	87
293.218	101
293.449	92
293.68	105
293.91	77
294.141	87
294.372	74
294.603	88
294.833	79
295.064	81
295.295	81
295.525	93
295.756	82
295.987	101
296.217	109
296.448	93
296.679	86
296.909	88
297.14	89
297.37	86
297.601	78
297.831	87
298.062	74
298.292	78
298.523	88
298.753	76
298.984	94
299.214	80
299.445	87
299.675	100
299.905	101
300.136	80
300.366	90
300.597	81
300.827	109
301.057	115
301.288	89
301.518	93
301.748	86
301.979	90
302.209	95
302.439	86
302.669	101
302.9	89
303.13	90
303.36	103
303.59	97
303.82	92
304.051	92
304.281	71
304.511	93
304.741	83
304.971	75
305.201	91
305.431	99
305.661	93
305.891	92
306.121	77
306.352	85
306.582	87
306.812	79
307.042	79
307.272	86
307.502	78
307.731	94
307.961	96
308.191	83
308.421	91
308.651	79
308.881	87
309.111	96
309.341	96
309.571	86
309.8	74
310.03	87
310.26	101
310.49	95
310.72	78
310.949	86
311.179	89
311.409	102
311.639	91
311.868	93
312.098	98
312.328	102
312.557	110
312.787	98
313.017	91
313.246	86
313.476	86
313.706	92
313.935	82
314.165	90
314.394	86
314.624	91
314.853	80
315.083	95
315.312	97
315.542	85
315.771	80
316.001	84
316.23	88
316.46	77
316.689	88
316.919	90
317.148	95
317.377	98
317.607	111
317.836	103
318.065	90
318.295	93
318.524	94
318.753	76
318.983	91
319.212	100
319.441	96
319.67	107
319.9	88
320.129	85
320.358	99
320.587	86
320.816	90
321.046	92
321.275	102
321.504	86
321.733	105
321.962	92
322.191	93
322.42	97
322.649	101
322.878	103
323.108	108
323.337	101
323.566	112
323.795	123
324.024	172
324.253	307
324.482	626
324.71	1286
324.939	1641
325.168	604
325.397	196
325.626	124
325.855	115
326.084	117
326.313	130
326.542	139
326.77	219
326.999	358
327.228	746
327.457	1310
327.686	1030
327.914	282
328.143	168
328.372	141
328.6	109
328.829	104
329.058	101
329.287	100
329.515	92
329.744	92
329.972	90
330.201	95
330.43	118
330.658	107
330.887	117
331.115	118
331.344	79
331.572	92
331.801	74
332.03	100
332.258	98
332.486	90
332.715	79
332.943	98
333.172	90
333.4	87
333.629	108
333.857	104
334.085	120
334.314	108
334.542	118
334.771	108
334.999	98
335.227	90
335.455	93
335.684	104
335.912	86
336.14	86
336.369	90
336.597	98
336.825	103
337.053	89
337.281	92
337.51	79
337.738	85
337.966	98
338.194	88
338.422	87
338.65	100
338.878	89
339.106	88
339.334	94
339.562	110
339.79	96
340.018	82
340.246	82
340.474	97
340.702	84
340.93	91
341.158	78
341.386	98
341.614	89
341.842	74
342.07	86
342.298	85
342.526	77
342.754	92
342.981	86
343.209	79
343.437	100
343.665	88
343.893	98
344.12	91
344.348	83
344.576	96
344.804	86
345.031	92
345.259	79
345.487	84
345.714	96
345.942	95
346.17	83
346.397	88
346.625	85
346.853	83
347.08	93
347.308	93
347.535	93
347.763	89
347.99	89
348.218	107
348.445	96
348.673	86
348.9	87
349.128	92
349.355	94
349.583	89
349.81	89
350.037	110
350.265	82
350.492	100
350.72	86
350.947	93
351.174	98
351.402	107
351.629	97
351.856	94
352.083	103
352.311	109
352.538	110
352.765	120
352.992	116
353.22	118
353.447	100
353.674	80
353.901	102
354.128	101
354.355	99
354.583	98
354.81	92
355.037	106
355.264	100
355.491	102
355.718	76
355.945	95
356.172	96
356.399	100
356.626	98
356.853	85
357.08	84
357.307	97
357.534	105
357.761	79
357.988	93
358.215	105
358.441	85
358.668	93
358.895	84
359.122	88
359.349	87
359.576	93
359.802	91
360.029	83
360.256	108
360.483	92
360.709	79
360.936	89
361.163	86
361.39	76
361.616	95
361.843	84
362.07	104
362.296	83
362.523	82
362.749	90
362.976	85
363.203	82
363.429	99
363.656	98
363.882	91
364.109	86
364.335	82
364.562	77
364.788	94
365.015	88
365.241	85
365.468	89
365.694	98
365.92	101
366.147	67
366.373	80
366.599	82
366.826	92
367.052	88
367.278	83
367.505	99
367.731	96
367.957	84
368.184	80
368.41	78
368.636	111
368.862	103
369.089	95
369.315	83
369.541	91
369.767	82
369.993	93
370.219	98
370.445	87
370.672	85
370.898	86
371.124	90
371.35	93
371.576	103
371.802	76
372.028	94
372.254	88
372.48	90
372.706	78
372.932	77
373.158	85
373.384	85
373.61	84
373.835	86
374.061	87
374.287	100
374.513	87
374.739	92
374.965	84
375.191	76
375.416	86
375.642	83
375.868	93
376.094	103
376.319	82
376.545	72
376.771	73
376.997	90
377.222	89
377.448	84
377.674	83
377.899	86
378.125	79
378.35	87
378.576	96
378.802	90
379.027	79
379.253	85
379.478	94
379.704	81
379.929	96
380.155	103
380.38	104
380.606	91
380.831	79
381.057	92
381.282	95
381.507	100
381.733	96
381.958	98
382.184	81
382.409	99
382.634	98
382.86	89
383.085	98
383.31	103
383.535	94
383.761	90
383.986	96
384.211	90
384.436	103
384.662	104
384.887	114
385.112	119
385.337	114
385.562	112
385.787	112
386.013	117
386.238	95
386.463	102
386.688	124
386.913	106
387.138	93
387.363	109
387.588	99
387.813	112
388.038	108
388.263	118
388.488	107
388.713	103
388.938	79
389.163	99
389.387	105
389.612	98
389.837	81
390.062	87
390.287	90
390.512	84
390.736	91
390.961	91
391.186	81
391.411	96
391.636	88
391.86	90
392.085	92
392.31	77
392.534	91
392.759	79
392.984	88
393.208	73
393.433	80
393.658	83
393.882	82
394.107	86
394.331	102
394.556	96
394.78	88
395.005	99
395.229	90
395.454	86
395.678	84
395.903	67
396.127	91
396.352	90
396.576	95
396.801	82
397.025	87
397.249	86
397.474	90
397.698	92
397.922	88
398.147	71
398.371	77
398.595	87
398.82	91
399.044	81
399.268	86
399.492	80
399.717	88
399.941	81
400.165	85
400.389	91
400.613	88
400.837	76
401.062	82
401.286	79
401.51	75
401.734	86
401.958	85
402.182	103
402.406	119
402.63	101
402.854	88
403.078	98
403.302	76
403.526	82
403.75	81
403.974	82
404.198	84
404.422	88
404.645	91
404.869	88
405.093	86
405.317	90
405.541	98
405.765	87
405.988	98
406.212	121
406.436	159
406.66	111
406.883	77
407.107	101
407.331	90
407.555	94
407.778	79
408.002	102
408.226	81
408.449	73
408.673	78
408.896	84
409.12	72
409.344	93
409.567	74
409.791	89
410.014	103
410.238	90
410.461	78
410.685	92
410.908	104
411.132	94
411.355	83
411.578	72
411.802	107
412.025	91
412.249	83
412.472	101
412.695	93
412.919	75
413.142	74
413.365	78
413.589	91
413.812	90
414.035	98
414.258	88
414.482	98
414.705	85
414.928	83
415.151	80
415.374	92
415.597	96
415.821	98
416.044	91
416.267	76
416.49	81
416.713	92
416.936	73
417.159	92
417.382	79
417.605	98
417.828	82
418.051	94
418.274	91
418.497	83
418.72	74
418.943	86
419.166	79
419.389	84
419.611	75
419.834	76
420.057	86
420.28	96
420.503	75
420.726	91
420.948	82
421.171	84
421.394	87
421.617	99
421.839	83
422.062	84
422.285	84
422.507	86
422.73	100
422.953	99
423.175	92
423.398	92
423.621	95
423.843	83
424.066	86
424.288	92
424.511	87
424.733	82
424.956	93
425.178	75
425.401	91
425.623	99
425.846	84
426.068	86
426.291	78
426.513	80
426.735	91
426.958	89
427.18	90
427.402	106
427.625	137
427.847	110
428.069	107
428.292	81
428.514	80
428.736	76
428.958	84
429.181	86
429.403	72
429.625	88
429.847	77
430.069	78
430.292	56
430.514	80
430.736	75
430.958	69
431.18	80
431.402	93
431.624	79
431.846	86
432.068	86
432.29	78
432.512	89
432.734	72
432.956	94
433.178	105
433.4	93
433.622	83
433.844	84
434.066	82
434.287	75
434.509	78
434.731	92
434.953	85
435.175	101
435.397	87
435.618	69
435.84	80
436.062	111
436.284	79
436.505	90
436.727	87
436.949	98
437.17	89
437.392	87
437.614	77
437.835	89
438.057	96
438.278	101
438.5	85
438.721	107
438.943	93
439.165	95
439.386	88
439.608	81
439.829	80
440.05	102
440.272	124
440.493	90
440.715	92
440.936	83
441.158	91
441.379	93
441.6	85
441.822	82
442.043	103
442.264	101
442.486	92
442.707	95
442.928	96
443.149	117
443.371	107
443.592	100
443.813	100
444.034	95
444.255	99
444.476	86
444.698	79
444.919	88
445.14	125
445.361	116
445.582	96
445.803	115
446.024	120
446.245	103
446.466	103
446.687	90
446.908	91
447.129	89
447.35	88
447.571	88
447.792	86
448.013	91
448.234	98
448.455	92
448.675	95
448.896	109
449.117	108
449.338	105
449.559	115
449.779	102
450	80
450.221	100
450.442	83
450.662	79
450.883	89
451.104	92
451.324	82
451.545	100
451.766	90
451.986	92
452.207	77
452.428	86
452.648	101
452.869	98
453.089	79
453.31	108
453.53	76
453.751	90
453.971	95
454.192	97
454.412	88
454.633	78
454.853	80
455.073	77
455.294	69
455.514	86
455.734	96
455.955	84
456.175	83
456.395	76
456.616	80
456.836	92
457.056	77
457.276	85
457.497	86
457.717	84
457.937	77
458.157	80
458.377	99
458.598	94
458.818	122
459.038	134
459.258	94
459.478	84
459.698	84
459.918	86
460.138	94
460.358	96
460.578	71
460.798	80
461.018	86
461.238	92
461.458	75
461.678	85
461.898	80
462.118	82
462.338	83
462.558	104
462.777	86
462.997	78
463.217	88
463.437	97
463.657	86
463.876	83
464.096	101
464.316	75
464.536	97
464.755	96
464.975	93
465.195	142
465.414	124
465.634	78
465.854	98
466.073	96
466.293	98
466.512	82
466.732	87
466.951	86
467.171	84
467.391	97
467.61	95
467.829	83
468.049	89
468.268	88
468.488	84
468.707	69
468.927	75
469.146	91
469.365	79
469.585	89
469.804	80
470.023	76
470.243	78
470.462	82
470.681	92
470.901	79
471.12	102
471.339	92
471.558	92
471.777	100
471.997	86
472.216	91
472.435	114
472.654	84
472.873	85
473.092	80
473.311	85
473.53	74
473.749	84
473.968	95
474.187	98
474.406	86
474.625	88
474.844	81
475.063	91
475.282	83
475.501	77
475.72	92
475.939	77
476.158	88
476.377	86
476.596	80
476.814	85
477.033	94
477.252	99
477.471	80
477.69	76
477.908	85
478.127	84
478.346	87
478.564	78
478.783	85
479.002	94
479.22	87
479.439	86
479.658	107
479.876	87
480.095	86
480.313	84
480.532	89
480.751	87
480.969	109
481.188	151
481.406	134
481.624	80
481.843	76
482.061	81
482.28	80
482.498	76
482.717	83
482.935	75
483.153	82
483.372	73
483.59	89
483.808	93
484.027	79
484.245	74
484.463	83
484.681	99
484.9	82
485.118	100
485.336	83
485.554	101
485.772	100
485.99	106
486.209	115
486.427	95
486.645	104
486.863	93
487.081	86
487.299	95
487.517	98
487.735	94
487.953	89
488.171	83
488.389	102
488.607	94
488.825	75
489.043	72
489.261	90
489.479	90
489.696	86
489.914	77
490.132	96
490.35	96
490.568	85
490.786	91
491.003	88
491.221	80
491.439	91
491.657	88
491.874	83
492.092	92
492.31	103
492.527	99
492.745	70
492.963	90
493.18	98
493.398	90
493.615	89
493.833	82
494.05	78
494.268	92
494.485	81
494.703	85
494.92	91
495.138	76
495.355	88
495.573	99
495.79	79
496.008	85
496.225	89
496.442	89
496.66	87
496.877	91
497.094	87
497.312	93
497.529	99
497.746	80
497.963	77
498.181	81
498.398	83
498.615	95
498.832	104
499.049	94
499.267	91
499.484	86
499.701	77
499.918	85
500.135	86
500.352	83
500.569	84
500.786	98
501.003	99
501.22	97
501.437	98
501.654	80
501.871	94
502.088	99
502.305	74
502.522	77
502.739	88
502.956	77
503.172	91
503.389	101
503.606	103
503.823	95
504.04	93
504.256	88
504.473	84
504.69	79
504.907	93
505.123	98
505.34	93
505.557	86
505.773	101
505.99	96
506.207	93
506.423	83
506.64	88
506.856	92
507.073	94
507.289	101
507.506	92
507.722	94
507.939	93
508.155	90
508.372	83
508.588	99
508.805	100
509.021	80
509.238	91
509.454	94
509.67	86
509.887	101
510.103	108
510.319	173
510.536	517
510.752	1535
510.968	462
511.184	130
511.401	106
511.617	95
511.833	94
512.049	91
512.265	95
512.481	93
512.698	104
512.914	94
513.13	89
513.346	89
513.562	86
513.778	93
513.994	98
514.21	107
514.426	101
514.642	116
514.858	110
515.074	111
515.29	279
515.506	934
515.721	378
515.937	135
516.153	98
516.369	95
516.585	93
516.801	95
517.016	93
517.232	93
517.448	87
517.664	95
517.879	108
518.095	84
518.311	86
518.527	96
518.742	95
518.958	86
519.173	85
519.389	86
519.605	95
519.82	101
520.036	109
520.251	123
520.467	108
520.682	102
520.898	105
521.113	103
521.329	134
521.544	158
521.76	375
521.975	1427
522.19	886
522.406	213
522.621	108
522.836	88
523.052	92
523.267	90
523.482	94
523.698	101
523.913	117
524.128	108
524.343	110
524.559	94
524.774	93
524.989	80
525.204	94
525.419	93
525.634	87
525.849	84
526.064	99
526.28	97
526.495	88
526.71	80
526.925	77
527.14	84
527.355	80
527.57	101
527.785	95
527.999	80
528.214	83
528.429	90
528.644	80
528.859	90
529.074	92
529.289	96
529.503	139
529.718	112
529.933	79
530.148	78
530.363	87
530.577	86
530.792	87
531.007	84
531.221	93
531.436	85
531.651	79
531.865	85
532.08	77
532.295	91
532.509	95
532.724	102
532.938	88
533.153	89
533.367	103
533.582	97
533.796	86
534.011	80
534.225	75
534.44	99
534.654	84
534.868	94
535.083	100
535.297	90
535.511	98
535.726	101
535.94	88
536.154	87
536.369	88
536.583	96
536.797	91
537.011	87
537.225	81
537.44	86
537.654	77
537.868	100
538.082	73
538.296	81
538.51	96
538.724	76
538.938	90
539.153	82
539.367	89
539.581	89
539.795	96
540.009	100
540.222	94
540.436	82
540.65	94
540.864	88
541.078	85
541.292	76
541.506	79
541.72	83
541.934	89
542.147	98
542.361	86
542.575	89
542.789	96
543.002	74
543.216	85
543.43	89
543.644	96
543.857	86
544.071	76
544.285	91
544.498	84
544.712	84
544.925	80
545.139	78
545.352	82
545.566	101
545.779	85
545.993	73
546.206	87
546.42	92
546.633	92
546.847	90
547.06	90
547.274	85
547.487	88
547.7	88
547.914	81
548.127	94
548.34	80
548.554	73
548.767	83
548.98	71
549.193	82
549.407	85
549.62	89
549.833	84
550.046	89
550.259	85
550.473	100
550.686	84
550.899	97
551.112	90
551.325	82
551.538	74
551.751	87
551.964	100
552.177	90
552.39	84
552.603	88
552.816	80
553.029	87
553.242	82
553.455	88
553.667	102
553.88	90
554.093	84
554.306	80
554.519	78
554.732	88
554.944	93
555.157	82
555.37	93
555.583	97
555.795	79
556.008	93
556.221	86
556.433	95
556.646	88
556.859	85
557.071	82
557.284	108
557.496	102
557.709	87
557.921	99
558.134	96
558.346	90
558.559	93
558.771	91
558.984	76
559.196	92
559.409	91
559.621	70
559.833	89
560.046	80
560.258	112
560.47	103
560.683	103
560.895	83
561.107	89
561.32	83
561.532	87
561.744	93
561.956	80
562.168	87
562.381	85
562.593	74
562.805	94
563.017	100
563.229	93
563.441	69
563.653	88
563.865	79
564.077	84
564.289	85
564.501	101
564.713	69
564.925	80
565.137	103
565.349	90
565.561	89
565.773	89
565.985	92
566.197	76
566.408	88
566.62	90
566.832	82
567.044	95
567.255	93
567.467	76
567.679	90
567.891	93
568.102	95
568.314	95
568.526	87
568.737	98
568.949	90
569.161	79
569.372	83
569.584	85
569.795	92
570.007	94
570.218	186
570.43	117
570.641	87
570.853	80
571.064	79
571.276	72
571.487	86
571.698	80
571.91	88
572.121	78
572.333	81
572.544	82
572.755	89
572.966	91
573.178	78
573.389	86
573.6	95
573.811	81
574.023	104
574.234	76
574.445	72
574.656	70
574.867	90
575.078	89
575.289	93
575.501	84
575.712	66
575.923	80
576.134	99
576.345	84
576.556	79
576.767	100
576.978	87
577.188	93
577.399	75
577.61	97
577.821	83
578.032	112
578.243	211
578.454	543
578.665	170
578.875	114
579.086	96
579.297	88
579.508	103
579.718	89
579.929	90
580.14	83
580.35	83
580.561	91
580.772	82
580.982	79
581.193	82
581.403	74
581.614	92
581.825	88
582.035	77
582.246	83
582.456	94
582.667	87
582.877	86
583.087	87
583.298	88
583.508	79
583.719	86
583.929	80
584.139	93
584.35	84
584.56	80
584.77	83
584.981	100
585.191	94
585.401	74
585.611	78
585.821	89
586.032	77
586.242	63
