Data from Uncirc_2009_H10_HRD10591_00030.txt Node
Date: Wed Jan 03 10:12:07 EST 2024
User: Yrep
Spectrometer: HR+D1059
Trigger mode: 1
Integration Time (sec): 1.000000E-1
Scans to average: 1
Electric dark correction enabled: true
Nonlinearity correction enabled: false
Boxcar width: 0
XAxis mode: Wavelengths
Number of Pixels in Spectrum: 2048
>>>>>Begin Spectral Data<<<<<
223.165	-18.25
223.4	-18.25
223.635	-18.25
223.869	-36.25
224.104	-10.25
224.338	-18.25
224.573	-5.25
224.808	-6.25
225.042	-8.25
225.277	-7.25
225.511	5.75
225.746	-6.25
225.98	11.75
226.215	11.75
226.449	23.75
226.683	24.75
226.918	17.75
227.152	20.75
227.387	40.75
227.621	28.75
227.856	48.75
228.09	43.75
228.324	47.75
228.559	63.75
228.793	61.75
229.027	74.75
229.262	58.75
229.496	66.75
229.73	78.75
229.964	69.75
230.199	75.75
230.433	68.75
230.667	65.75
230.901	73.75
231.136	66.75
231.37	75.75
231.604	86.75
231.838	78.75
232.072	83.75
232.306	89.75
232.541	85.75
232.775	80.75
233.009	93.75
233.243	85.75
233.477	87.75
233.711	83.75
233.945	70.75
234.179	73.75
234.413	78.75
234.647	77.75
234.881	92.75
235.115	69.75
235.349	82.75
235.583	74.75
235.817	79.75
236.051	78.75
236.285	63.75
236.519	84.75
236.753	83.75
236.987	69.75
237.221	71.75
237.455	78.75
237.689	70.75
237.922	66.75
238.156	75.75
238.39	61.75
238.624	75.75
238.858	77.75
239.091	79.75
239.325	68.75
239.559	69.75
239.793	80.75
240.027	85.75
240.26	70.75
240.494	70.75
240.728	71.75
240.961	70.75
241.195	72.75
241.429	84.75
241.662	85.75
241.896	84.75
242.13	74.75
242.363	75.75
242.597	77.75
242.83	73.75
243.064	73.75
243.298	76.75
243.531	80.75
243.765	79.75
243.998	74.75
244.232	84.75
244.465	93.75
244.699	71.75
244.932	72.75
245.166	64.75
245.399	87.75
245.633	75.75
245.866	71.75
246.099	83.75
246.333	79.75
246.566	75.75
246.8	75.75
247.033	70.75
247.266	72.75
247.5	70.75
247.733	89.75
247.966	72.75
248.2	79.75
248.433	74.75
248.666	67.75
248.899	84.75
249.133	92.75
249.366	83.75
249.599	90.75
249.832	75.75
250.066	85.75
250.299	69.75
250.532	76.75
250.765	63.75
250.998	79.75
251.231	91.75
251.465	73.75
251.698	58.75
251.931	78.75
252.164	73.75
252.397	79.75
252.63	89.75
252.863	78.75
253.096	74.75
253.329	77.75
253.562	65.75
253.795	91.75
254.028	87.75
254.261	85.75
254.494	83.75
254.727	79.75
254.96	93.75
255.193	90.75
255.426	79.75
255.659	69.75
255.892	84.75
256.124	72.75
256.357	82.75
256.59	76.75
256.823	81.75
257.056	89.75
257.289	77.75
257.521	78.75
257.754	65.75
257.987	70.75
258.22	57.75
258.452	83.75
258.685	71.75
258.918	70.75
259.151	85.75
259.383	69.75
259.616	70.75
259.849	65.75
260.081	67.75
260.314	94.75
260.547	70.75
260.779	93.75
261.012	81.75
261.244	89.75
261.477	94.75
261.71	85.75
261.942	91.75
262.175	101.75
262.407	92.75
262.64	74.75
262.872	84.75
263.105	90.75
263.337	79.75
263.57	71.75
263.802	82.75
264.035	94.75
264.267	88.75
264.499	77.75
264.732	86.75
264.964	90.75
265.197	79.75
265.429	90.75
265.661	78.75
265.894	78.75
266.126	79.75
266.358	82.75
266.591	83.75
266.823	90.75
267.055	82.75
267.287	84.75
267.52	77.75
267.752	86.75
267.984	79.75
268.216	83.75
268.448	81.75
268.681	84.75
268.913	76.75
269.145	78.75
269.377	80.75
269.609	83.75
269.841	73.75
270.073	78.75
270.306	77.75
270.538	79.75
270.77	71.75
271.002	82.75
271.234	84.75
271.466	82.75
271.698	75.75
271.93	76.75
272.162	73.75
272.394	81.75
272.626	79.75
272.858	81.75
273.09	69.75
273.322	76.75
273.553	74.75
273.785	82.75
274.017	76.75
274.249	94.75
274.481	92.75
274.713	77.75
274.945	82.75
275.176	77.75
275.408	85.75
275.64	79.75
275.872	92.75
276.104	76.75
276.335	74.75
276.567	88.75
276.799	95.75
277.031	93.75
277.262	79.75
277.494	79.75
277.726	84.75
277.957	81.75
278.189	72.75
278.421	71.75
278.652	93.75
278.884	79.75
279.115	61.75
279.347	79.75
279.579	76.75
279.81	79.75
280.042	92.75
280.273	96.75
280.505	82.75
280.736	93.75
280.968	88.75
281.199	87.75
281.431	85.75
281.662	92.75
281.894	87.75
282.125	94.75
282.356	94.75
282.588	118.75
282.819	105.75
283.051	80.75
283.282	84.75
283.513	82.75
283.745	87.75
283.976	94.75
284.207	107.75
284.439	99.75
284.67	79.75
284.901	79.75
285.132	78.75
285.364	85.75
285.595	95.75
285.826	88.75
286.057	103.75
286.288	76.75
286.52	94.75
286.751	105.75
286.982	74.75
287.213	86.75
287.444	76.75
287.675	89.75
287.906	84.75
288.138	95.75
288.369	72.75
288.6	79.75
288.831	78.75
289.062	80.75
289.293	81.75
289.524	83.75
289.755	80.75
289.986	78.75
290.217	92.75
290.448	78.75
290.679	68.75
290.91	89.75
291.141	89.75
291.371	84.75
291.602	78.75
291.833	77.75
292.064	86.75
292.295	71.75
292.526	79.75
292.757	89.75
292.987	74.75
293.218	83.75
293.449	81.75
293.68	79.75
293.91	85.75
294.141	86.75
294.372	82.75
294.603	92.75
294.833	72.75
295.064	79.75
295.295	78.75
295.525	92.75
295.756	98.75
295.987	105.75
296.217	130.75
296.448	103.75
296.679	91.75
296.909	91.75
297.14	82.75
297.37	68.75
297.601	95.75
297.831	84.75
298.062	93.75
298.292	85.75
298.523	100.75
298.753	95.75
298.984	85.75
299.214	88.75
299.445	83.75
299.675	87.75
299.905	83.75
300.136	79.75
300.366	78.75
300.597	101.75
300.827	92.75
301.057	100.75
301.288	84.75
301.518	86.75
301.748	84.75
301.979	86.75
302.209	82.75
302.439	92.75
302.669	81.75
302.9	85.75
303.13	87.75
303.36	103.75
303.59	110.75
303.82	110.75
304.051	97.75
304.281	98.75
304.511	96.75
304.741	89.75
304.971	84.75
305.201	92.75
305.431	92.75
305.661	84.75
305.891	87.75
306.121	95.75
306.352	96.75
306.582	106.75
306.812	88.75
307.042	94.75
307.272	83.75
307.502	92.75
307.731	92.75
307.961	93.75
308.191	91.75
308.421	88.75
308.651	86.75
308.881	77.75
309.111	79.75
309.341	80.75
309.571	94.75
309.8	84.75
310.03	85.75
310.26	105.75
310.49	89.75
310.72	90.75
310.949	97.75
311.179	96.75
311.409	94.75
311.639	89.75
311.868	101.75
312.098	95.75
312.328	91.75
312.557	102.75
312.787	81.75
313.017	95.75
313.246	93.75
313.476	98.75
313.706	97.75
313.935	92.75
314.165	93.75
314.394	105.75
314.624	94.75
314.853	88.75
315.083	83.75
315.312	85.75
315.542	80.75
315.771	98.75
316.001	84.75
316.23	83.75
316.46	93.75
316.689	88.75
316.919	93.75
317.148	99.75
317.377	113.75
317.607	121.75
317.836	114.75
318.065	82.75
318.295	91.75
318.524	101.75
318.753	83.75
318.983	103.75
319.212	85.75
319.441	91.75
319.67	107.75
319.9	91.75
320.129	85.75
320.358	91.75
320.587	90.75
320.816	84.75
321.046	101.75
321.275	99.75
321.504	87.75
321.733	101.75
321.962	106.75
322.191	89.75
322.42	94.75
322.649	100.75
322.878	104.75
323.108	98.75
323.337	103.75
323.566	119.75
323.795	155.75
324.024	193.75
324.253	364.75
324.482	731.75
324.71	1472.75
324.939	1898.75
325.168	730.75
325.397	231.75
325.626	145.75
325.855	124.75
326.084	132.75
326.313	154.75
326.542	151.75
326.77	222.75
326.999	432.75
327.228	837.75
327.457	1510.75
327.686	1221.75
327.914	318.75
328.143	156.75
328.372	131.75
328.6	118.75
328.829	99.75
329.058	111.75
329.287	94.75
329.515	108.75
329.744	110.75
329.972	96.75
330.201	100.75
330.43	117.75
330.658	107.75
330.887	113.75
331.115	117.75
331.344	93.75
331.572	87.75
331.801	91.75
332.03	84.75
332.258	81.75
332.486	89.75
332.715	84.75
332.943	85.75
333.172	88.75
333.4	94.75
333.629	101.75
333.857	111.75
334.085	104.75
334.314	100.75
334.542	110.75
334.771	106.75
334.999	88.75
335.227	94.75
335.455	77.75
335.684	100.75
335.912	103.75
336.14	92.75
336.369	87.75
336.597	79.75
336.825	95.75
337.053	96.75
337.281	94.75
337.51	99.75
337.738	89.75
337.966	95.75
338.194	97.75
338.422	87.75
338.65	83.75
338.878	85.75
339.106	95.75
339.334	104.75
339.562	98.75
339.79	91.75
340.018	76.75
340.246	91.75
340.474	91.75
340.702	89.75
340.93	98.75
341.158	68.75
341.386	88.75
341.614	77.75
341.842	82.75
342.07	86.75
342.298	85.75
342.526	91.75
342.754	88.75
342.981	92.75
343.209	83.75
343.437	85.75
343.665	79.75
343.893	102.75
344.12	90.75
344.348	91.75
344.576	94.75
344.804	94.75
345.031	74.75
345.259	101.75
345.487	92.75
345.714	93.75
345.942	93.75
346.17	100.75
346.397	92.75
346.625	95.75
346.853	92.75
347.08	92.75
347.308	98.75
347.535	98.75
347.763	93.75
347.99	90.75
348.218	107.75
348.445	113.75
348.673	93.75
348.9	100.75
349.128	78.75
349.355	105.75
349.583	82.75
349.81	94.75
350.037	91.75
350.265	101.75
350.492	93.75
350.72	98.75
350.947	89.75
351.174	102.75
351.402	111.75
351.629	100.75
351.856	75.75
352.083	100.75
352.311	102.75
352.538	86.75
352.765	115.75
352.992	92.75
353.22	107.75
353.447	94.75
353.674	101.75
353.901	100.75
354.128	93.75
354.355	96.75
354.583	110.75
354.81	90.75
355.037	85.75
355.264	97.75
355.491	95.75
355.718	101.75
355.945	92.75
356.172	92.75
356.399	89.75
356.626	87.75
356.853	79.75
357.08	102.75
357.307	90.75
357.534	97.75
357.761	103.75
357.988	82.75
358.215	84.75
358.441	99.75
358.668	95.75
358.895	86.75
359.122	92.75
359.349	93.75
359.576	81.75
359.802	92.75
360.029	82.75
360.256	97.75
360.483	94.75
360.709	99.75
360.936	97.75
361.163	90.75
361.39	96.75
361.616	96.75
361.843	79.75
362.07	86.75
362.296	89.75
362.523	94.75
362.749	95.75
362.976	109.75
363.203	94.75
363.429	94.75
363.656	78.75
363.882	85.75
364.109	98.75
364.335	97.75
364.562	94.75
364.788	77.75
365.015	90.75
365.241	100.75
365.468	97.75
365.694	91.75
365.92	96.75
366.147	96.75
366.373	86.75
366.599	93.75
366.826	83.75
367.052	82.75
367.278	79.75
367.505	92.75
367.731	86.75
367.957	89.75
368.184	107.75
368.41	109.75
368.636	98.75
368.862	94.75
369.089	85.75
369.315	96.75
369.541	90.75
369.767	85.75
369.993	89.75
370.219	105.75
370.445	92.75
370.672	84.75
370.898	83.75
371.124	86.75
371.35	79.75
371.576	90.75
371.802	94.75
372.028	83.75
372.254	82.75
372.48	83.75
372.706	93.75
372.932	75.75
373.158	89.75
373.384	85.75
373.61	92.75
373.835	83.75
374.061	72.75
374.287	81.75
374.513	86.75
374.739	70.75
374.965	83.75
375.191	99.75
375.416	97.75
375.642	77.75
375.868	90.75
376.094	102.75
376.319	90.75
376.545	87.75
376.771	88.75
376.997	85.75
377.222	96.75
377.448	98.75
377.674	77.75
377.899	94.75
378.125	73.75
378.35	88.75
378.576	88.75
378.802	88.75
379.027	102.75
379.253	97.75
379.478	84.75
379.704	108.75
379.929	98.75
380.155	102.75
380.38	99.75
380.606	109.75
380.831	80.75
381.057	107.75
381.282	89.75
381.507	86.75
381.733	74.75
381.958	94.75
382.184	98.75
382.409	95.75
382.634	91.75
382.86	104.75
383.085	87.75
383.31	90.75
383.535	102.75
383.761	102.75
383.986	88.75
384.211	88.75
384.436	84.75
384.662	93.75
384.887	102.75
385.112	102.75
385.337	97.75
385.562	102.75
385.787	103.75
386.013	98.75
386.238	93.75
386.463	95.75
386.688	108.75
386.913	100.75
387.138	96.75
387.363	88.75
387.588	102.75
387.813	98.75
388.038	105.75
388.263	110.75
388.488	104.75
388.713	96.75
388.938	87.75
389.163	86.75
389.387	95.75
389.612	99.75
389.837	116.75
390.062	90.75
390.287	106.75
390.512	95.75
390.736	84.75
390.961	94.75
391.186	85.75
391.411	97.75
391.636	77.75
391.86	95.75
392.085	82.75
392.31	84.75
392.534	81.75
392.759	84.75
392.984	84.75
393.208	100.75
393.433	90.75
393.658	64.75
393.882	83.75
394.107	89.75
394.331	84.75
394.556	91.75
394.78	85.75
395.005	89.75
395.229	74.75
395.454	69.75
395.678	86.75
395.903	84.75
396.127	76.75
396.352	82.75
396.576	86.75
396.801	91.75
397.025	82.75
397.249	76.75
397.474	65.75
397.698	76.75
397.922	89.75
398.147	79.75
398.371	98.75
398.595	83.75
398.82	78.75
399.044	87.75
399.268	83.75
399.492	92.75
399.717	87.75
399.941	101.75
400.165	91.75
400.389	86.75
400.613	73.75
400.837	82.75
401.062	66.75
401.286	90.75
401.51	89.75
401.734	90.75
401.958	105.75
402.182	117.75
402.406	126.75
402.63	106.75
402.854	83.75
403.078	81.75
403.302	84.75
403.526	86.75
403.75	82.75
403.974	85.75
404.198	94.75
404.422	82.75
404.645	77.75
404.869	94.75
405.093	99.75
405.317	98.75
405.541	89.75
405.765	101.75
405.988	108.75
406.212	137.75
406.436	186.75
406.66	129.75
406.883	95.75
407.107	94.75
407.331	81.75
407.555	92.75
407.778	79.75
408.002	69.75
408.226	86.75
408.449	84.75
408.673	80.75
408.896	108.75
409.12	76.75
409.344	102.75
409.567	95.75
409.791	83.75
410.014	86.75
410.238	84.75
410.461	91.75
410.685	87.75
410.908	94.75
411.132	106.75
411.355	89.75
411.578	93.75
411.802	87.75
412.025	84.75
412.249	97.75
412.472	98.75
412.695	82.75
412.919	79.75
413.142	100.75
413.365	82.75
413.589	73.75
413.812	82.75
414.035	66.75
414.258	85.75
414.482	91.75
414.705	81.75
414.928	92.75
415.151	86.75
415.374	101.75
415.597	88.75
415.821	95.75
416.044	94.75
416.267	76.75
416.49	83.75
416.713	83.75
416.936	81.75
417.159	75.75
417.382	81.75
417.605	76.75
417.828	93.75
418.051	79.75
418.274	81.75
418.497	77.75
418.72	77.75
418.943	82.75
419.166	91.75
419.389	100.75
419.611	104.75
419.834	83.75
420.057	85.75
420.28	94.75
420.503	66.75
420.726	81.75
420.948	85.75
421.171	109.75
421.394	81.75
421.617	98.75
421.839	108.75
422.062	97.75
422.285	102.75
422.507	99.75
422.73	81.75
422.953	86.75
423.175	98.75
423.398	95.75
423.621	84.75
423.843	81.75
424.066	76.75
424.288	80.75
424.511	83.75
424.733	88.75
424.956	99.75
425.178	91.75
425.401	88.75
425.623	88.75
425.846	94.75
426.068	84.75
426.291	79.75
426.513	87.75
426.735	77.75
426.958	105.75
427.18	89.75
427.402	131.75
427.625	137.75
427.847	115.75
428.069	111.75
428.292	82.75
428.514	73.75
428.736	67.75
428.958	78.75
429.181	77.75
429.403	58.75
429.625	86.75
429.847	84.75
430.069	83.75
430.292	86.75
430.514	77.75
430.736	81.75
430.958	89.75
431.18	73.75
431.402	78.75
431.624	97.75
431.846	83.75
432.068	90.75
432.29	79.75
432.512	79.75
432.734	93.75
432.956	94.75
433.178	88.75
433.4	96.75
433.622	87.75
433.844	91.75
434.066	97.75
434.287	87.75
434.509	97.75
434.731	86.75
434.953	89.75
435.175	85.75
435.397	74.75
435.618	76.75
435.84	90.75
436.062	100.75
436.284	116.75
436.505	89.75
436.727	108.75
436.949	91.75
437.17	77.75
437.392	89.75
437.614	76.75
437.835	86.75
438.057	99.75
438.278	88.75
438.5	98.75
438.721	105.75
438.943	104.75
439.165	89.75
439.386	77.75
439.608	88.75
439.829	89.75
440.05	98.75
440.272	125.75
440.493	105.75
440.715	79.75
440.936	72.75
441.158	83.75
441.379	87.75
441.6	95.75
441.822	107.75
442.043	81.75
442.264	87.75
442.486	97.75
442.707	86.75
442.928	107.75
443.149	103.75
443.371	92.75
443.592	86.75
443.813	97.75
444.034	102.75
444.255	81.75
444.476	92.75
444.698	74.75
444.919	96.75
445.14	135.75
445.361	106.75
445.582	110.75
445.803	123.75
446.024	124.75
446.245	110.75
446.466	93.75
446.687	70.75
446.908	95.75
447.129	91.75
447.35	83.75
447.571	80.75
447.792	87.75
448.013	101.75
448.234	106.75
448.455	88.75
448.675	104.75
448.896	115.75
449.117	99.75
449.338	103.75
449.559	118.75
449.779	118.75
450	95.75
450.221	80.75
450.442	78.75
450.662	89.75
450.883	103.75
451.104	86.75
451.324	95.75
451.545	97.75
451.766	85.75
451.986	91.75
452.207	87.75
452.428	94.75
452.648	101.75
452.869	113.75
453.089	108.75
453.31	81.75
453.53	99.75
453.751	83.75
453.971	99.75
454.192	95.75
454.412	93.75
454.633	86.75
454.853	88.75
455.073	90.75
455.294	89.75
455.514	83.75
455.734	77.75
455.955	77.75
456.175	90.75
456.395	95.75
456.616	86.75
456.836	81.75
457.056	89.75
457.276	86.75
457.497	79.75
457.717	63.75
457.937	91.75
458.157	76.75
458.377	83.75
458.598	89.75
458.818	114.75
459.038	141.75
459.258	105.75
459.478	84.75
459.698	80.75
459.918	93.75
460.138	86.75
460.358	82.75
460.578	80.75
460.798	97.75
461.018	86.75
461.238	83.75
461.458	77.75
461.678	88.75
461.898	94.75
462.118	91.75
462.338	71.75
462.558	92.75
462.777	80.75
462.997	70.75
463.217	79.75
463.437	94.75
463.657	76.75
463.876	68.75
464.096	77.75
464.316	75.75
464.536	92.75
464.755	87.75
464.975	93.75
465.195	137.75
465.414	128.75
465.634	110.75
465.854	85.75
466.073	83.75
466.293	71.75
466.512	75.75
466.732	92.75
466.951	72.75
467.171	94.75
467.391	102.75
467.61	89.75
467.829	100.75
468.049	88.75
468.268	86.75
468.488	85.75
468.707	70.75
468.927	85.75
469.146	80.75
469.365	88.75
469.585	83.75
469.804	94.75
470.023	85.75
470.243	84.75
470.462	91.75
470.681	99.75
470.901	72.75
471.12	83.75
471.339	89.75
471.558	77.75
471.777	73.75
471.997	82.75
472.216	90.75
472.435	148.75
472.654	83.75
472.873	78.75
473.092	69.75
473.311	79.75
473.53	76.75
473.749	87.75
473.968	100.75
474.187	76.75
474.406	84.75
474.625	91.75
474.844	79.75
475.063	83.75
475.282	80.75
475.501	91.75
475.72	85.75
475.939	79.75
476.158	88.75
476.377	92.75
476.596	81.75
476.814	90.75
477.033	97.75
477.252	81.75
477.471	81.75
477.69	90.75
477.908	81.75
478.127	81.75
478.346	77.75
478.564	91.75
478.783	84.75
479.002	81.75
479.22	84.75
479.439	85.75
479.658	83.75
479.876	86.75
480.095	94.75
480.313	102.75
480.532	88.75
480.751	78.75
480.969	102.75
481.188	152.75
481.406	134.75
481.624	89.75
481.843	81.75
482.061	81.75
482.28	70.75
482.498	68.75
482.717	76.75
482.935	104.75
483.153	92.75
483.372	92.75
483.59	85.75
483.808	86.75
484.027	84.75
484.245	88.75
484.463	79.75
484.681	111.75
484.9	88.75
485.118	103.75
485.336	91.75
485.554	100.75
485.772	105.75
485.99	90.75
486.209	103.75
486.427	102.75
486.645	88.75
486.863	88.75
487.081	85.75
487.299	88.75
487.517	96.75
487.735	97.75
487.953	87.75
488.171	95.75
488.389	107.75
488.607	97.75
488.825	94.75
489.043	92.75
489.261	86.75
489.479	94.75
489.696	87.75
489.914	90.75
490.132	85.75
490.35	83.75
490.568	84.75
490.786	86.75
491.003	72.75
491.221	90.75
491.439	94.75
491.657	91.75
491.874	90.75
492.092	73.75
492.31	86.75
492.527	83.75
492.745	99.75
492.963	100.75
493.18	76.75
493.398	82.75
493.615	106.75
493.833	91.75
494.05	87.75
494.268	78.75
494.485	98.75
494.703	87.75
494.92	86.75
495.138	81.75
495.355	89.75
495.573	95.75
495.79	94.75
496.008	102.75
496.225	84.75
496.442	79.75
496.66	92.75
496.877	85.75
497.094	84.75
497.312	85.75
497.529	89.75
497.746	76.75
497.963	94.75
498.181	102.75
498.398	91.75
498.615	96.75
498.832	110.75
499.049	86.75
499.267	93.75
499.484	93.75
499.701	94.75
499.918	75.75
500.135	81.75
500.352	82.75
500.569	85.75
500.786	93.75
501.003	83.75
501.22	90.75
501.437	75.75
501.654	80.75
501.871	94.75
502.088	95.75
502.305	90.75
502.522	79.75
502.739	90.75
502.956	97.75
503.172	81.75
503.389	84.75
503.606	102.75
503.823	93.75
504.04	98.75
504.256	97.75
504.473	85.75
504.69	85.75
504.907	85.75
505.123	81.75
505.34	75.75
505.557	83.75
505.773	87.75
505.99	93.75
506.207	87.75
506.423	83.75
506.64	78.75
506.856	98.75
507.073	79.75
507.289	93.75
507.506	106.75
507.722	100.75
507.939	95.75
508.155	97.75
508.372	88.75
508.588	84.75
508.805	95.75
509.021	88.75
509.238	94.75
509.454	90.75
509.67	99.75
509.887	99.75
510.103	105.75
510.319	184.75
510.536	576.75
510.752	1771.75
510.968	545.75
511.184	137.75
511.401	91.75
511.617	105.75
511.833	89.75
512.049	89.75
512.265	88.75
512.481	78.75
512.698	84.75
512.914	85.75
513.13	95.75
513.346	85.75
513.562	96.75
513.778	91.75
513.994	83.75
514.21	107.75
514.426	107.75
514.642	118.75
514.858	102.75
515.074	145.75
515.29	321.75
515.506	1057.75
515.721	417.75
515.937	123.75
516.153	96.75
516.369	92.75
516.585	94.75
516.801	101.75
517.016	86.75
