Data from Uncirc_2009_H10_HRD10591_00020.txt Node
Date: Wed Jan 03 10:12:05 EST 2024
User: Yrep
Spectrometer: HR+D1059
Trigger mode: 1
Integration Time (sec): 1.000000E-1
Scans to average: 1
Electric dark correction enabled: true
Nonlinearity correction enabled: false
Boxcar width: 0
XAxis mode: Wavelengths
Number of Pixels in Spectrum: 2048
>>>>>Begin Spectral Data<<<<<
223.165	-15.5
223.4	-15.5
223.635	-15.5
223.869	-11.5
224.104	-26.5
224.338	-19.5
224.573	-22.5
224.808	-17.5
225.042	-4.5
225.277	-10.5
225.511	1.5
225.746	-1.5
225.98	12.5
226.215	27.5
226.449	16.5
226.683	19.5
226.918	21.5
227.152	30.5
227.387	43.5
227.621	36.5
227.856	35.5
228.09	38.5
228.324	51.5
228.559	51.5
228.793	69.5
229.027	58.5
229.262	60.5
229.496	72.5
229.73	80.5
229.964	68.5
230.199	73.5
230.433	75.5
230.667	74.5
230.901	66.5
231.136	88.5
231.37	69.5
231.604	80.5
231.838	75.5
232.072	84.5
232.306	79.5
232.541	84.5
232.775	84.5
233.009	61.5
233.243	82.5
233.477	83.5
233.711	76.5
233.945	78.5
234.179	80.5
234.413	93.5
234.647	88.5
234.881	75.5
235.115	71.5
235.349	99.5
235.583	84.5
235.817	80.5
236.051	73.5
236.285	79.5
236.519	70.5
236.753	68.5
236.987	71.5
237.221	69.5
237.455	77.5
237.689	69.5
237.922	74.5
238.156	71.5
238.39	85.5
238.624	75.5
238.858	55.5
239.091	63.5
239.325	78.5
239.559	77.5
239.793	81.5
240.027	69.5
240.26	75.5
240.494	83.5
240.728	70.5
240.961	72.5
241.195	81.5
241.429	74.5
241.662	75.5
241.896	77.5
242.13	75.5
242.363	85.5
242.597	71.5
242.83	71.5
243.064	80.5
243.298	82.5
243.531	73.5
243.765	79.5
243.998	72.5
244.232	71.5
244.465	82.5
244.699	72.5
244.932	82.5
245.166	62.5
245.399	76.5
245.633	72.5
245.866	81.5
246.099	83.5
246.333	72.5
246.566	78.5
246.8	88.5
247.033	86.5
247.266	77.5
247.5	82.5
247.733	74.5
247.966	77.5
248.2	92.5
248.433	71.5
248.666	83.5
248.899	73.5
249.133	83.5
249.366	85.5
249.599	87.5
249.832	86.5
250.066	69.5
250.299	70.5
250.532	85.5
250.765	85.5
250.998	90.5
251.231	85.5
251.465	68.5
251.698	96.5
251.931	95.5
252.164	99.5
252.397	75.5
252.63	80.5
252.863	79.5
253.096	90.5
253.329	76.5
253.562	70.5
253.795	80.5
254.028	88.5
254.261	82.5
254.494	78.5
254.727	71.5
254.96	90.5
255.193	78.5
255.426	78.5
255.659	86.5
255.892	87.5
256.124	72.5
256.357	97.5
256.59	92.5
256.823	69.5
257.056	76.5
257.289	77.5
257.521	89.5
257.754	73.5
257.987	75.5
258.22	80.5
258.452	88.5
258.685	86.5
258.918	86.5
259.151	78.5
259.383	90.5
259.616	74.5
259.849	83.5
260.081	75.5
260.314	73.5
260.547	86.5
260.779	83.5
261.012	76.5
261.244	85.5
261.477	99.5
261.71	107.5
261.942	103.5
262.175	115.5
262.407	88.5
262.64	85.5
262.872	86.5
263.105	80.5
263.337	79.5
263.57	93.5
263.802	83.5
264.035	77.5
264.267	80.5
264.499	72.5
264.732	85.5
264.964	77.5
265.197	79.5
265.429	92.5
265.661	87.5
265.894	75.5
266.126	81.5
266.358	80.5
266.591	78.5
266.823	87.5
267.055	87.5
267.287	82.5
267.52	79.5
267.752	81.5
267.984	76.5
268.216	91.5
268.448	84.5
268.681	86.5
268.913	80.5
269.145	87.5
269.377	76.5
269.609	84.5
269.841	77.5
270.073	65.5
270.306	70.5
270.538	88.5
270.77	100.5
271.002	87.5
271.234	84.5
271.466	84.5
271.698	75.5
271.93	87.5
272.162	78.5
272.394	87.5
272.626	97.5
272.858	79.5
273.09	76.5
273.322	73.5
273.553	79.5
273.785	84.5
274.017	85.5
274.249	79.5
274.481	87.5
274.713	72.5
274.945	78.5
275.176	72.5
275.408	83.5
275.64	87.5
275.872	104.5
276.104	93.5
276.335	78.5
276.567	85.5
276.799	91.5
277.031	80.5
277.262	91.5
277.494	78.5
277.726	75.5
277.957	81.5
278.189	82.5
278.421	89.5
278.652	83.5
278.884	86.5
279.115	81.5
279.347	75.5
279.579	75.5
279.81	92.5
280.042	94.5
280.273	81.5
280.505	89.5
280.736	89.5
280.968	95.5
281.199	85.5
281.431	91.5
281.662	88.5
281.894	81.5
282.125	74.5
282.356	97.5
282.588	127.5
282.819	103.5
283.051	96.5
283.282	91.5
283.513	88.5
283.745	106.5
283.976	103.5
284.207	97.5
284.439	99.5
284.67	85.5
284.901	83.5
285.132	69.5
285.364	96.5
285.595	80.5
285.826	90.5
286.057	95.5
286.288	96.5
286.52	95.5
286.751	99.5
286.982	97.5
287.213	96.5
287.444	96.5
287.675	79.5
287.906	84.5
288.138	89.5
288.369	90.5
288.6	83.5
288.831	84.5
289.062	96.5
289.293	83.5
289.524	93.5
289.755	81.5
289.986	77.5
290.217	86.5
290.448	94.5
290.679	97.5
290.91	83.5
291.141	92.5
291.371	87.5
291.602	88.5
291.833	99.5
292.064	78.5
292.295	81.5
292.526	88.5
292.757	81.5
292.987	86.5
293.218	92.5
293.449	82.5
293.68	81.5
293.91	87.5
294.141	84.5
294.372	94.5
294.603	87.5
294.833	84.5
295.064	79.5
295.295	90.5
295.525	88.5
295.756	92.5
295.987	100.5
296.217	115.5
296.448	94.5
296.679	85.5
296.909	83.5
297.14	81.5
297.37	96.5
297.601	96.5
297.831	92.5
298.062	80.5
298.292	93.5
298.523	85.5
298.753	87.5
298.984	87.5
299.214	85.5
299.445	90.5
299.675	85.5
299.905	95.5
300.136	95.5
300.366	74.5
300.597	80.5
300.827	92.5
301.057	99.5
301.288	102.5
301.518	96.5
301.748	88.5
301.979	82.5
302.209	84.5
302.439	88.5
302.669	81.5
302.9	89.5
303.13	92.5
303.36	101.5
303.59	104.5
303.82	109.5
304.051	102.5
304.281	80.5
304.511	91.5
304.741	76.5
304.971	69.5
305.201	89.5
305.431	79.5
305.661	101.5
305.891	89.5
306.121	104.5
306.352	94.5
306.582	108.5
306.812	97.5
307.042	75.5
307.272	79.5
307.502	80.5
307.731	75.5
307.961	93.5
308.191	88.5
308.421	93.5
308.651	86.5
308.881	80.5
309.111	95.5
309.341	82.5
309.571	91.5
309.8	92.5
310.03	86.5
310.26	110.5
310.49	106.5
310.72	92.5
310.949	90.5
311.179	95.5
311.409	86.5
311.639	101.5
311.868	103.5
312.098	94.5
312.328	94.5
312.557	95.5
312.787	87.5
313.017	92.5
313.246	91.5
313.476	86.5
313.706	96.5
313.935	89.5
314.165	97.5
314.394	93.5
314.624	94.5
314.853	95.5
315.083	77.5
315.312	82.5
315.542	110.5
315.771	95.5
316.001	89.5
316.23	83.5
316.46	89.5
316.689	97.5
316.919	82.5
317.148	94.5
317.377	118.5
317.607	116.5
317.836	100.5
318.065	87.5
318.295	95.5
318.524	97.5
318.753	86.5
318.983	80.5
319.212	95.5
319.441	105.5
319.67	90.5
319.9	97.5
320.129	95.5
320.358	94.5
320.587	93.5
320.816	91.5
321.046	103.5
321.275	94.5
321.504	92.5
321.733	96.5
321.962	92.5
322.191	109.5
322.42	93.5
322.649	103.5
322.878	107.5
323.108	111.5
323.337	109.5
323.566	119.5
323.795	144.5
324.024	184.5
324.253	332.5
324.482	723.5
324.71	1406.5
324.939	1833.5
325.168	687.5
325.397	234.5
325.626	138.5
325.855	123.5
326.084	136.5
326.313	131.5
326.542	150.5
326.77	213.5
326.999	419.5
327.228	824.5
327.457	1474.5
327.686	1153.5
327.914	321.5
328.143	162.5
328.372	134.5
328.6	114.5
328.829	115.5
329.058	100.5
329.287	109.5
329.515	110.5
329.744	103.5
329.972	109.5
330.201	118.5
330.43	121.5
330.658	111.5
330.887	106.5
331.115	96.5
331.344	93.5
331.572	95.5
331.801	88.5
332.03	103.5
332.258	85.5
332.486	89.5
332.715	96.5
332.943	104.5
333.172	92.5
333.4	86.5
333.629	101.5
333.857	94.5
334.085	103.5
334.314	89.5
334.542	109.5
334.771	108.5
334.999	107.5
335.227	88.5
335.455	79.5
335.684	99.5
335.912	90.5
336.14	96.5
336.369	81.5
336.597	98.5
336.825	73.5
337.053	97.5
337.281	83.5
337.51	90.5
337.738	104.5
337.966	97.5
338.194	88.5
338.422	85.5
338.65	86.5
338.878	92.5
339.106	83.5
339.334	79.5
339.562	93.5
339.79	90.5
340.018	89.5
340.246	68.5
340.474	90.5
340.702	80.5
340.93	90.5
341.158	91.5
341.386	96.5
341.614	90.5
341.842	90.5
342.07	85.5
342.298	87.5
342.526	99.5
342.754	88.5
342.981	73.5
343.209	104.5
343.437	95.5
343.665	88.5
343.893	79.5
344.12	103.5
344.348	79.5
344.576	76.5
344.804	88.5
345.031	75.5
345.259	90.5
345.487	93.5
345.714	82.5
345.942	93.5
346.17	100.5
346.397	76.5
346.625	98.5
346.853	90.5
347.08	85.5
347.308	95.5
347.535	92.5
347.763	78.5
347.99	103.5
348.218	100.5
348.445	101.5
348.673	93.5
348.9	96.5
349.128	81.5
349.355	101.5
349.583	105.5
349.81	89.5
350.037	106.5
350.265	87.5
350.492	87.5
350.72	97.5
350.947	92.5
351.174	99.5
351.402	92.5
351.629	91.5
351.856	90.5
352.083	94.5
352.311	100.5
352.538	108.5
352.765	92.5
352.992	103.5
353.22	102.5
353.447	95.5
353.674	108.5
353.901	91.5
354.128	87.5
354.355	100.5
354.583	99.5
354.81	87.5
355.037	102.5
355.264	93.5
355.491	91.5
355.718	101.5
355.945	102.5
356.172	100.5
356.399	93.5
356.626	86.5
356.853	89.5
357.08	89.5
357.307	104.5
357.534	95.5
357.761	92.5
357.988	89.5
358.215	100.5
358.441	99.5
358.668	81.5
358.895	92.5
359.122	99.5
359.349	93.5
359.576	86.5
359.802	84.5
360.029	104.5
360.256	90.5
360.483	88.5
360.709	92.5
360.936	103.5
361.163	101.5
361.39	95.5
361.616	88.5
361.843	95.5
362.07	97.5
362.296	96.5
362.523	81.5
362.749	96.5
362.976	89.5
363.203	90.5
363.429	91.5
363.656	90.5
363.882	81.5
364.109	96.5
364.335	98.5
364.562	90.5
364.788	79.5
365.015	91.5
365.241	88.5
365.468	100.5
365.694	92.5
365.92	89.5
366.147	88.5
366.373	67.5
366.599	86.5
366.826	84.5
367.052	85.5
367.278	99.5
367.505	88.5
367.731	89.5
367.957	84.5
368.184	83.5
368.41	89.5
368.636	103.5
368.862	116.5
369.089	114.5
369.315	90.5
369.541	84.5
369.767	90.5
369.993	88.5
370.219	88.5
370.445	87.5
370.672	85.5
370.898	88.5
371.124	94.5
371.35	75.5
371.576	82.5
371.802	83.5
372.028	91.5
372.254	98.5
372.48	105.5
372.706	94.5
372.932	85.5
373.158	83.5
373.384	90.5
373.61	94.5
373.835	88.5
374.061	91.5
374.287	81.5
374.513	86.5
374.739	86.5
374.965	100.5
375.191	102.5
375.416	84.5
375.642	80.5
375.868	96.5
376.094	77.5
376.319	91.5
376.545	87.5
376.771	83.5
376.997	89.5
377.222	73.5
377.448	84.5
377.674	91.5
377.899	93.5
378.125	87.5
378.35	90.5
378.576	98.5
378.802	85.5
379.027	82.5
379.253	92.5
379.478	96.5
379.704	92.5
379.929	101.5
380.155	99.5
380.38	102.5
380.606	108.5
380.831	93.5
381.057	105.5
381.282	88.5
381.507	96.5
381.733	106.5
381.958	109.5
382.184	100.5
382.409	107.5
382.634	99.5
382.86	102.5
383.085	117.5
383.31	91.5
383.535	101.5
383.761	91.5
383.986	104.5
384.211	90.5
384.436	102.5
384.662	94.5
384.887	103.5
385.112	100.5
385.337	100.5
385.562	104.5
385.787	102.5
386.013	101.5
386.238	109.5
386.463	107.5
386.688	115.5
386.913	107.5
387.138	98.5
387.363	87.5
387.588	87.5
387.813	94.5
388.038	111.5
388.263	123.5
388.488	103.5
388.713	95.5
388.938	107.5
389.163	89.5
389.387	96.5
389.612	93.5
389.837	95.5
390.062	80.5
390.287	86.5
390.512	89.5
390.736	86.5
390.961	99.5
391.186	96.5
391.411	88.5
391.636	81.5
391.86	96.5
392.085	87.5
392.31	81.5
392.534	93.5
392.759	92.5
392.984	73.5
393.208	88.5
393.433	96.5
393.658	84.5
393.882	76.5
394.107	103.5
394.331	82.5
394.556	78.5
394.78	86.5
395.005	88.5
395.229	78.5
395.454	87.5
395.678	94.5
395.903	89.5
396.127	93.5
396.352	96.5
396.576	75.5
396.801	80.5
397.025	53.5
397.249	94.5
397.474	89.5
397.698	85.5
397.922	74.5
398.147	85.5
398.371	87.5
398.595	99.5
398.82	83.5
399.044	83.5
399.268	85.5
399.492	85.5
399.717	85.5
399.941	73.5
400.165	68.5
400.389	88.5
400.613	98.5
400.837	72.5
401.062	80.5
401.286	81.5
401.51	79.5
401.734	93.5
401.958	92.5
402.182	110.5
402.406	135.5
402.63	103.5
402.854	84.5
403.078	83.5
403.302	77.5
403.526	78.5
403.75	91.5
403.974	90.5
404.198	89.5
404.422	94.5
404.645	75.5
404.869	89.5
405.093	89.5
405.317	100.5
405.541	102.5
405.765	94.5
405.988	105.5
406.212	140.5
406.436	159.5
406.66	119.5
406.883	94.5
407.107	88.5
407.331	87.5
407.555	88.5
407.778	91.5
408.002	69.5
408.226	80.5
408.449	77.5
408.673	86.5
408.896	91.5
409.12	83.5
409.344	79.5
409.567	86.5
409.791	85.5
410.014	90.5
410.238	91.5
410.461	92.5
410.685	73.5
410.908	92.5
411.132	95.5
411.355	94.5
411.578	111.5
411.802	93.5
412.025	80.5
412.249	83.5
412.472	87.5
412.695	110.5
412.919	81.5
413.142	85.5
413.365	98.5
413.589	84.5
413.812	90.5
414.035	99.5
414.258	97.5
414.482	91.5
414.705	80.5
414.928	75.5
415.151	83.5
415.374	93.5
415.597	82.5
415.821	93.5
416.044	69.5
416.267	75.5
416.49	72.5
416.713	88.5
416.936	89.5
417.159	85.5
417.382	81.5
417.605	85.5
417.828	95.5
418.051	95.5
418.274	90.5
418.497	76.5
418.72	88.5
418.943	95.5
419.166	76.5
419.389	76.5
419.611	72.5
419.834	89.5
420.057	88.5
420.28	87.5
420.503	88.5
420.726	89.5
420.948	85.5
421.171	97.5
421.394	92.5
421.617	90.5
421.839	97.5
422.062	90.5
422.285	96.5
422.507	86.5
422.73	80.5
422.953	93.5
423.175	79.5
423.398	101.5
423.621	95.5
423.843	87.5
424.066	93.5
424.288	74.5
424.511	89.5
424.733	96.5
424.956	88.5
425.178	87.5
425.401	89.5
425.623	95.5
425.846	70.5
426.068	89.5
426.291	94.5
426.513	85.5
426.735	81.5
426.958	93.5
427.18	94.5
427.402	108.5
427.625	138.5
427.847	110.5
428.069	105.5
428.292	89.5
428.514	89.5
428.736	78.5
428.958	91.5
429.181	90.5
429.403	96.5
429.625	69.5
429.847	96.5
430.069	88.5
430.292	87.5
430.514	85.5
430.736	78.5
430.958	87.5
431.18	88.5
431.402	93.5
431.624	86.5
431.846	90.5
432.068	90.5
432.29	83.5
432.512	92.5
432.734	85.5
432.956	77.5
433.178	83.5
433.4	96.5
433.622	87.5
433.844	98.5
434.066	79.5
434.287	80.5
434.509	87.5
434.731	84.5
434.953	79.5
435.175	81.5
435.397	81.5
435.618	87.5
435.84	111.5
436.062	118.5
436.284	105.5
436.505	107.5
436.727	86.5
436.949	83.5
437.17	79.5
437.392	77.5
437.614	81.5
437.835	93.5
438.057	100.5
438.278	105.5
438.5	94.5
438.721	101.5
438.943	104.5
439.165	88.5
439.386	85.5
439.608	84.5
439.829	95.5
440.05	107.5
440.272	133.5
440.493	88.5
440.715	69.5
440.936	75.5
441.158	89.5
441.379	89.5
441.6	88.5
441.822	92.5
442.043	86.5
442.264	86.5
442.486	103.5
442.707	89.5
442.928	84.5
443.149	105.5
443.371	121.5
443.592	86.5
443.813	105.5
444.034	93.5
444.255	78.5
444.476	80.5
444.698	80.5
444.919	72.5
445.14	144.5
445.361	110.5
445.582	104.5
445.803	109.5
446.024	113.5
446.245	116.5
446.466	103.5
446.687	101.5
446.908	85.5
447.129	89.5
447.35	101.5
447.571	90.5
447.792	90.5
448.013	105.5
448.234	95.5
448.455	92.5
448.675	89.5
448.896	100.5
449.117	88.5
449.338	105.5
449.559	120.5
449.779	115.5
450	101.5
450.221	81.5
450.442	78.5
450.662	95.5
450.883	89.5
451.104	102.5
451.324	86.5
451.545	81.5
451.766	84.5
451.986	79.5
452.207	76.5
452.428	74.5
452.648	101.5
452.869	96.5
453.089	100.5
453.31	97.5
453.53	91.5
453.751	101.5
453.971	86.5
454.192	89.5
454.412	80.5
454.633	83.5
454.853	77.5
455.073	83.5
455.294	93.5
455.514	82.5
455.734	91.5
455.955	83.5
456.175	83.5
456.395	81.5
456.616	89.5
456.836	98.5
457.056	83.5
457.276	85.5
457.497	88.5
457.717	84.5
457.937	83.5
458.157	79.5
458.377	80.5
458.598	95.5
458.818	130.5
459.038	127.5
459.258	113.5
459.478	94.5
459.698	81.5
459.918	72.5
460.138	79.5
460.358	88.5
460.578	98.5
460.798	107.5
461.018	87.5
461.238	89.5
461.458	82.5
461.678	95.5
461.898	81.5
462.118	81.5
462.338	88.5
462.558	79.5
462.777	80.5
462.997	83.5
463.217	77.5
463.437	82.5
463.657	89.5
463.876	87.5
464.096	86.5
464.316	75.5
464.536	91.5
464.755	79.5
464.975	110.5
465.195	121.5
465.414	116.5
465.634	88.5
465.854	98.5
466.073	92.5
466.293	92.5
466.512	64.5
466.732	81.5
466.951	90.5
467.171	91.5
467.391	92.5
467.61	97.5
467.829	75.5
468.049	88.5
468.268	97.5
468.488	89.5
468.707	87.5
468.927	102.5
469.146	80.5
469.365	77.5
469.585	92.5
469.804	92.5
470.023	90.5
470.243	72.5
470.462	94.5
470.681	99.5
470.901	86.5
471.12	101.5
471.339	80.5
471.558	95.5
471.777	78.5
471.997	87.5
472.216	100.5
472.435	133.5
472.654	90.5
472.873	84.5
473.092	86.5
473.311	89.5
473.53	79.5
473.749	72.5
473.968	108.5
474.187	104.5
474.406	92.5
474.625	83.5
474.844	81.5
475.063	86.5
475.282	91.5
475.501	90.5
475.72	85.5
475.939	76.5
476.158	86.5
476.377	83.5
476.596	88.5
476.814	90.5
477.033	94.5
477.252	95.5
477.471	76.5
477.69	97.5
477.908	91.5
478.127	95.5
478.346	72.5
478.564	91.5
478.783	104.5
479.002	79.5
479.22	81.5
479.439	104.5
479.658	97.5
479.876	90.5
480.095	101.5
480.313	79.5
480.532	81.5
480.751	88.5
480.969	100.5
481.188	146.5
481.406	130.5
481.624	107.5
481.843	93.5
482.061	87.5
482.28	96.5
482.498	96.5
482.717	85.5
482.935	77.5
483.153	90.5
483.372	78.5
483.59	106.5
483.808	91.5
484.027	88.5
484.245	76.5
484.463	91.5
484.681	97.5
484.9	99.5
485.118	81.5
485.336	89.5
485.554	81.5
485.772	98.5
485.99	103.5
486.209	93.5
486.427	98.5
486.645	104.5
486.863	104.5
487.081	102.5
487.299	95.5
487.517	94.5
487.735	88.5
487.953	95.5
488.171	84.5
488.389	94.5
488.607	92.5
488.825	92.5
489.043	92.5
489.261	80.5
489.479	90.5
489.696	108.5
489.914	71.5
490.132	89.5
490.35	76.5
490.568	73.5
490.786	99.5
491.003	105.5
491.221	99.5
491.439	100.5
491.657	89.5
491.874	97.5
492.092	86.5
492.31	85.5
492.527	86.5
492.745	97.5
492.963	91.5
493.18	87.5
493.398	83.5
493.615	81.5
493.833	96.5
494.05	94.5
494.268	79.5
494.485	90.5
494.703	93.5
494.92	81.5
495.138	86.5
495.355	95.5
495.573	101.5
495.79	77.5
496.008	85.5
496.225	83.5
496.442	82.5
496.66	90.5
496.877	86.5
497.094	87.5
497.312	88.5
497.529	109.5
497.746	92.5
497.963	88.5
498.181	102.5
498.398	91.5
498.615	107.5
498.832	109.5
499.049	92.5
499.267	85.5
499.484	80.5
499.701	77.5
499.918	94.5
500.135	91.5
500.352	90.5
500.569	89.5
500.786	97.5
501.003	90.5
501.22	84.5
501.437	86.5
501.654	96.5
501.871	99.5
502.088	95.5
502.305	102.5
502.522	80.5
502.739	79.5
502.956	82.5
503.172	95.5
503.389	91.5
503.606	95.5
503.823	76.5
504.04	101.5
504.256	81.5
504.473	81.5
504.69	91.5
504.907	82.5
505.123	88.5
505.34	85.5
505.557	89.5
505.773	95.5
505.99	93.5
506.207	89.5
506.423	98.5
506.64	82.5
506.856	88.5
507.073	80.5
507.289	90.5
507.506	98.5
507.722	86.5
507.939	89.5
508.155	80.5
508.372	93.5
508.588	88.5
508.805	85.5
509.021	80.5
509.238	97.5
509.454	101.5
509.67	88.5
509.887	91.5
510.103	109.5
510.319	183.5
510.536	559.5
510.752	1750.5
510.968	525.5
511.184	132.5
511.401	87.5
511.617	96.5
511.833	86.5
512.049	74.5
512.265	80.5
512.481	92.5
512.698	92.5
512.914	101.5
513.13	97.5
513.346	92.5
513.562	104.5
513.778	107.5
513.994	84.5
514.21	91.5
514.426	115.5
514.642	111.5
514.858	101.5
515.074	148.5
515.29	338.5
515.506	970.5
515.721	375.5
515.937	133.5
516.153	101.5
516.369	95.5
516.585	90.5
516.801	100.5
517.016	98.5
517.232	88.5
517.448	91.5
517.664	86.5
517.879	99.5
518.095	85.5
518.311	80.5
518.527	91.5
518.742	78.5
518.958	105.5
519.173	92.5
519.389	108.5
519.605	97.5
519.82	95.5
520.036	86.5
520.251	110.5
520.467	99.5
520.682	87.5
520.898	89.5
521.113	96.5
521.329	107.5
521.544	179.5
521.76	417.5
521.975	1577.5
522.19	1002.5
522.406	235.5
522.621	118.5
522.836	95.5
523.052	91.5
523.267	98.5
523.482	87.5
523.698	97.5
523.913	89.5
524.128	102.5
524.343	100.5
524.559	106.5
524.774	91.5
524.989	92.5
525.204	87.5
525.419	93.5
525.634	84.5
525.849	110.5
526.064	77.5
526.28	101.5
526.495	91.5
526.71	89.5
526.925	91.5
527.14	84.5
527.355	89.5
527.57	84.5
527.785	79.5
527.999	86.5
528.214	86.5
528.429	83.5
528.644	90.5
528.859	92.5
529.074	89.5
529.289	92.5
529.503	120.5
529.718	100.5
529.933	86.5
530.148	88.5
530.363	85.5
530.577	108.5
530.792	95.5
531.007	91.5
531.221	92.5
531.436	92.5
531.651	88.5
531.865	86.5
532.08	94.5
532.295	96.5
532.509	91.5
532.724	95.5
532.938	94.5
533.153	92.5
533.367	82.5
533.582	86.5
533.796	86.5
534.011	90.5
534.225	82.5
534.44	91.5
534.654	97.5
534.868	82.5
535.083	108.5
535.297	88.5
535.511	102.5
535.726	87.5
535.94	100.5
536.154	87.5
536.369	103.5
