Data from Uncirc_2009_H10_HRD10591_00086.txt Node
Date: Wed Jan 03 10:12:19 EST 2024
User: Yrep
Spectrometer: HR+D1059
Trigger mode: 1
Integration Time (sec): 1.000000E-1
Scans to average: 1
Electric dark correction enabled: true
Nonlinearity correction enabled: false
Boxcar width: 0
XAxis mode: Wavelengths
Number of Pixels in Spectrum: 2048
>>>>>Begin Spectral Data<<<<<
223.165	-10.62
223.4	-10.62
223.635	-10.62
223.869	-18.62
224.104	-20.62
224.338	-16.62
224.573	-10.62
224.808	-21.62
225.042	-5.62
225.277	1.38
225.511	3.38
225.746	8.38
225.98	2.38
226.215	6.38
226.449	21.38
226.683	26.38
226.918	16.38
227.152	18.38
227.387	39.38
227.621	44.38
227.856	47.38
228.09	42.38
228.324	39.38
228.559	55.38
228.793	60.38
229.027	67.38
229.262	63.38
229.496	75.38
229.73	92.38
229.964	83.38
230.199	83.38
230.433	74.38
230.667	91.38
230.901	73.38
231.136	86.38
231.37	79.38
231.604	83.38
231.838	72.38
232.072	70.38
232.306	76.38
232.541	93.38
232.775	83.38
233.009	71.38
233.243	72.38
233.477	73.38
233.711	66.38
233.945	65.38
234.179	72.38
234.413	95.38
234.647	95.38
234.881	61.38
235.115	68.38
235.349	84.38
235.583	71.38
235.817	92.38
236.051	69.38
236.285	85.38
236.519	71.38
236.753	78.38
236.987	69.38
237.221	79.38
237.455	92.38
237.689	86.38
237.922	82.38
238.156	68.38
238.39	71.38
238.624	70.38
238.858	71.38
239.091	86.38
239.325	79.38
239.559	84.38
239.793	92.38
240.027	84.38
240.26	78.38
240.494	71.38
240.728	73.38
240.961	78.38
241.195	71.38
241.429	83.38
241.662	67.38
241.896	55.38
242.13	80.38
242.363	65.38
242.597	85.38
242.83	78.38
243.064	65.38
243.298	82.38
243.531	74.38
243.765	86.38
243.998	80.38
244.232	80.38
244.465	85.38
244.699	67.38
244.932	73.38
245.166	81.38
245.399	95.38
245.633	83.38
245.866	75.38
246.099	84.38
246.333	79.38
246.566	76.38
246.8	59.38
247.033	72.38
247.266	81.38
247.5	76.38
247.733	79.38
247.966	88.38
248.2	85.38
248.433	62.38
248.666	77.38
248.899	85.38
249.133	74.38
249.366	101.38
249.599	92.38
249.832	81.38
250.066	96.38
250.299	79.38
250.532	80.38
250.765	87.38
250.998	96.38
251.231	72.38
251.465	88.38
251.698	86.38
251.931	72.38
252.164	89.38
252.397	75.38
252.63	85.38
252.863	73.38
253.096	72.38
253.329	81.38
253.562	70.38
253.795	83.38
254.028	71.38
254.261	75.38
254.494	70.38
254.727	78.38
254.96	67.38
255.193	80.38
255.426	78.38
255.659	76.38
255.892	80.38
256.124	77.38
256.357	96.38
256.59	80.38
256.823	81.38
257.056	70.38
257.289	81.38
257.521	81.38
257.754	75.38
257.987	80.38
258.22	86.38
258.452	71.38
258.685	76.38
258.918	87.38
259.151	80.38
259.383	76.38
259.616	65.38
259.849	91.38
260.081	77.38
260.314	68.38
260.547	80.38
260.779	92.38
261.012	81.38
261.244	95.38
261.477	85.38
261.71	90.38
261.942	101.38
262.175	97.38
262.407	78.38
262.64	78.38
262.872	67.38
263.105	75.38
263.337	70.38
263.57	80.38
263.802	65.38
264.035	64.38
264.267	74.38
264.499	87.38
264.732	75.38
264.964	79.38
265.197	80.38
265.429	94.38
265.661	88.38
265.894	81.38
266.126	90.38
266.358	70.38
266.591	75.38
266.823	95.38
267.055	95.38
267.287	91.38
267.52	89.38
267.752	82.38
267.984	90.38
268.216	80.38
268.448	86.38
268.681	67.38
268.913	81.38
269.145	84.38
269.377	89.38
269.609	94.38
269.841	71.38
270.073	75.38
270.306	88.38
270.538	83.38
270.77	95.38
271.002	91.38
271.234	95.38
271.466	79.38
271.698	79.38
271.93	82.38
272.162	71.38
272.394	73.38
272.626	82.38
272.858	75.38
273.09	89.38
273.322	89.38
273.553	83.38
273.785	89.38
274.017	81.38
274.249	83.38
274.481	75.38
274.713	69.38
274.945	87.38
275.176	88.38
275.408	84.38
275.64	76.38
275.872	96.38
276.104	79.38
276.335	83.38
276.567	77.38
276.799	99.38
277.031	95.38
277.262	81.38
277.494	91.38
277.726	92.38
277.957	98.38
278.189	76.38
278.421	53.38
278.652	79.38
278.884	85.38
279.115	76.38
279.347	88.38
279.579	92.38
279.81	89.38
280.042	94.38
280.273	95.38
280.505	92.38
280.736	87.38
280.968	90.38
281.199	75.38
281.431	71.38
281.662	92.38
281.894	75.38
282.125	83.38
282.356	115.38
282.588	127.38
282.819	95.38
283.051	96.38
283.282	80.38
283.513	92.38
283.745	75.38
283.976	110.38
284.207	95.38
284.439	82.38
284.67	83.38
284.901	79.38
285.132	82.38
285.364	83.38
285.595	95.38
285.826	79.38
286.057	80.38
286.288	88.38
286.52	91.38
286.751	87.38
286.982	89.38
287.213	89.38
287.444	84.38
287.675	85.38
287.906	85.38
288.138	87.38
288.369	81.38
288.6	76.38
288.831	87.38
289.062	81.38
289.293	86.38
289.524	81.38
289.755	85.38
289.986	82.38
290.217	76.38
290.448	83.38
290.679	95.38
290.91	88.38
291.141	91.38
291.371	89.38
291.602	78.38
291.833	53.38
292.064	73.38
292.295	84.38
292.526	81.38
292.757	88.38
292.987	88.38
293.218	89.38
293.449	81.38
293.68	77.38
293.91	80.38
294.141	85.38
294.372	80.38
294.603	72.38
294.833	87.38
295.064	86.38
295.295	87.38
295.525	80.38
295.756	87.38
295.987	97.38
296.217	123.38
296.448	98.38
296.679	88.38
296.909	76.38
297.14	97.38
297.37	86.38
297.601	85.38
297.831	80.38
298.062	81.38
298.292	84.38
298.523	69.38
298.753	93.38
298.984	81.38
299.214	85.38
299.445	84.38
299.675	84.38
299.905	86.38
300.136	86.38
300.366	90.38
300.597	93.38
300.827	92.38
301.057	96.38
301.288	105.38
301.518	81.38
301.748	86.38
301.979	85.38
302.209	79.38
302.439	91.38
302.669	92.38
302.9	98.38
303.13	86.38
303.36	108.38
303.59	110.38
303.82	95.38
304.051	89.38
304.281	94.38
304.511	86.38
304.741	72.38
304.971	88.38
305.201	96.38
305.431	80.38
305.661	83.38
305.891	74.38
306.121	90.38
306.352	88.38
306.582	96.38
306.812	79.38
307.042	91.38
307.272	87.38
307.502	81.38
307.731	96.38
307.961	103.38
308.191	94.38
308.421	92.38
308.651	79.38
308.881	87.38
309.111	94.38
309.341	95.38
309.571	95.38
309.8	101.38
310.03	89.38
310.26	97.38
310.49	94.38
310.72	84.38
310.949	83.38
311.179	97.38
311.409	79.38
311.639	78.38
311.868	88.38
312.098	81.38
312.328	92.38
312.557	109.38
312.787	93.38
313.017	96.38
313.246	84.38
313.476	101.38
313.706	86.38
313.935	97.38
314.165	84.38
314.394	76.38
314.624	84.38
314.853	91.38
315.083	87.38
315.312	97.38
315.542	84.38
315.771	85.38
316.001	84.38
316.23	79.38
316.46	84.38
316.689	99.38
316.919	94.38
317.148	84.38
317.377	99.38
317.607	117.38
317.836	92.38
318.065	97.38
318.295	88.38
318.524	95.38
318.753	86.38
318.983	96.38
319.212	97.38
319.441	93.38
319.67	88.38
319.9	94.38
320.129	88.38
320.358	88.38
320.587	82.38
320.816	84.38
321.046	106.38
321.275	91.38
321.504	75.38
321.733	80.38
321.962	88.38
322.191	96.38
322.42	90.38
322.649	103.38
322.878	89.38
323.108	113.38
323.337	120.38
323.566	109.38
323.795	129.38
324.024	180.38
324.253	344.38
324.482	714.38
324.71	1433.38
324.939	1943.38
325.168	710.38
325.397	200.38
325.626	124.38
325.855	130.38
326.084	139.38
326.313	136.38
326.542	167.38
326.77	202.38
326.999	402.38
327.228	829.38
327.457	1481.38
327.686	1213.38
327.914	338.38
328.143	167.38
328.372	144.38
328.6	112.38
328.829	116.38
329.058	110.38
329.287	100.38
329.515	106.38
329.744	93.38
329.972	105.38
330.201	101.38
330.43	127.38
330.658	110.38
330.887	117.38
331.115	111.38
331.344	82.38
331.572	86.38
331.801	104.38
332.03	108.38
332.258	97.38
332.486	87.38
332.715	104.38
332.943	90.38
333.172	95.38
333.4	94.38
333.629	99.38
333.857	112.38
334.085	104.38
334.314	104.38
334.542	117.38
334.771	123.38
334.999	103.38
335.227	102.38
335.455	79.38
335.684	95.38
335.912	101.38
336.14	89.38
336.369	98.38
336.597	83.38
336.825	96.38
337.053	101.38
337.281	93.38
337.51	93.38
337.738	77.38
337.966	82.38
338.194	93.38
338.422	92.38
338.65	86.38
338.878	92.38
339.106	83.38
339.334	95.38
339.562	98.38
339.79	93.38
340.018	87.38
340.246	100.38
340.474	82.38
340.702	79.38
340.93	83.38
341.158	82.38
341.386	75.38
341.614	72.38
341.842	80.38
342.07	92.38
342.298	92.38
342.526	95.38
342.754	91.38
342.981	76.38
343.209	90.38
343.437	88.38
343.665	91.38
343.893	86.38
344.12	92.38
344.348	79.38
344.576	80.38
344.804	88.38
345.031	85.38
345.259	84.38
345.487	87.38
345.714	77.38
345.942	86.38
346.17	91.38
346.397	94.38
346.625	89.38
346.853	86.38
347.08	80.38
347.308	96.38
347.535	93.38
347.763	96.38
347.99	85.38
348.218	90.38
348.445	99.38
348.673	93.38
348.9	83.38
349.128	98.38
349.355	92.38
349.583	87.38
349.81	90.38
350.037	84.38
350.265	81.38
350.492	88.38
350.72	91.38
350.947	70.38
351.174	96.38
351.402	86.38
351.629	104.38
351.856	96.38
352.083	81.38
352.311	112.38
352.538	103.38
352.765	95.38
352.992	104.38
353.22	104.38
353.447	94.38
353.674	102.38
353.901	94.38
354.128	97.38
354.355	98.38
354.583	94.38
354.81	92.38
355.037	98.38
355.264	100.38
355.491	100.38
355.718	97.38
355.945	84.38
356.172	103.38
356.399	98.38
356.626	97.38
356.853	94.38
357.08	99.38
357.307	98.38
357.534	87.38
357.761	88.38
357.988	94.38
358.215	105.38
358.441	93.38
358.668	86.38
358.895	89.38
359.122	95.38
359.349	83.38
359.576	103.38
359.802	86.38
360.029	103.38
360.256	106.38
360.483	78.38
360.709	75.38
360.936	80.38
361.163	88.38
361.39	70.38
361.616	88.38
361.843	98.38
362.07	89.38
362.296	99.38
362.523	92.38
362.749	87.38
362.976	87.38
363.203	90.38
363.429	83.38
363.656	79.38
363.882	97.38
364.109	85.38
364.335	84.38
364.562	84.38
364.788	87.38
365.015	81.38
365.241	104.38
365.468	88.38
365.694	100.38
365.92	92.38
366.147	91.38
366.373	70.38
366.599	89.38
366.826	79.38
367.052	99.38
367.278	101.38
367.505	86.38
367.731	89.38
367.957	102.38
368.184	93.38
368.41	85.38
368.636	112.38
368.862	100.38
369.089	102.38
369.315	109.38
369.541	79.38
369.767	102.38
369.993	92.38
370.219	91.38
370.445	75.38
370.672	78.38
370.898	75.38
371.124	85.38
371.35	87.38
371.576	100.38
371.802	96.38
372.028	77.38
372.254	85.38
372.48	83.38
372.706	79.38
372.932	83.38
373.158	86.38
373.384	87.38
373.61	88.38
373.835	74.38
374.061	83.38
374.287	88.38
374.513	73.38
374.739	97.38
374.965	75.38
375.191	94.38
375.416	82.38
375.642	92.38
375.868	87.38
376.094	91.38
376.319	90.38
376.545	92.38
376.771	89.38
376.997	94.38
377.222	85.38
377.448	75.38
377.674	88.38
377.899	80.38
378.125	86.38
378.35	101.38
378.576	80.38
378.802	83.38
379.027	100.38
379.253	95.38
379.478	95.38
379.704	78.38
379.929	94.38
380.155	102.38
380.38	95.38
380.606	87.38
380.831	92.38
381.057	84.38
381.282	84.38
381.507	85.38
381.733	105.38
381.958	99.38
382.184	97.38
382.409	108.38
382.634	101.38
382.86	83.38
383.085	75.38
383.31	96.38
383.535	95.38
383.761	88.38
383.986	94.38
384.211	86.38
384.436	87.38
384.662	89.38
384.887	92.38
385.112	94.38
385.337	108.38
385.562	92.38
385.787	94.38
386.013	107.38
386.238	108.38
386.463	87.38
386.688	106.38
386.913	96.38
387.138	96.38
387.363	99.38
387.588	99.38
387.813	103.38
388.038	93.38
388.263	112.38
388.488	103.38
388.713	91.38
388.938	90.38
389.163	96.38
389.387	90.38
389.612	101.38
389.837	89.38
390.062	75.38
390.287	83.38
390.512	78.38
390.736	81.38
390.961	97.38
391.186	94.38
391.411	87.38
391.636	102.38
391.86	87.38
392.085	88.38
392.31	77.38
392.534	78.38
392.759	80.38
392.984	79.38
393.208	77.38
393.433	88.38
393.658	75.38
393.882	72.38
394.107	92.38
394.331	91.38
394.556	85.38
394.78	97.38
395.005	85.38
395.229	93.38
395.454	91.38
395.678	75.38
395.903	76.38
396.127	89.38
396.352	84.38
396.576	95.38
396.801	78.38
397.025	88.38
397.249	86.38
397.474	84.38
397.698	106.38
397.922	89.38
398.147	95.38
398.371	94.38
398.595	88.38
398.82	73.38
399.044	84.38
399.268	81.38
399.492	70.38
399.717	78.38
399.941	93.38
400.165	99.38
400.389	89.38
400.613	94.38
400.837	87.38
401.062	88.38
401.286	93.38
401.51	90.38
401.734	96.38
401.958	96.38
402.182	107.38
402.406	144.38
402.63	104.38
402.854	93.38
403.078	85.38
403.302	86.38
403.526	81.38
403.75	79.38
403.974	78.38
404.198	88.38
404.422	83.38
404.645	75.38
404.869	69.38
405.093	82.38
405.317	107.38
405.541	86.38
405.765	86.38
405.988	99.38
406.212	143.38
406.436	169.38
406.66	137.38
406.883	102.38
407.107	95.38
407.331	101.38
407.555	91.38
407.778	93.38
408.002	74.38
408.226	87.38
408.449	96.38
408.673	81.38
408.896	87.38
409.12	89.38
409.344	96.38
409.567	102.38
409.791	85.38
410.014	91.38
410.238	92.38
410.461	91.38
410.685	88.38
410.908	86.38
411.132	85.38
411.355	100.38
411.578	88.38
411.802	87.38
412.025	94.38
412.249	104.38
412.472	80.38
412.695	81.38
412.919	81.38
413.142	80.38
413.365	78.38
413.589	83.38
413.812	84.38
414.035	91.38
414.258	100.38
414.482	91.38
414.705	93.38
414.928	84.38
415.151	77.38
415.374	92.38
415.597	90.38
415.821	102.38
416.044	81.38
416.267	88.38
416.49	88.38
416.713	82.38
416.936	74.38
417.159	95.38
417.382	99.38
417.605	100.38
417.828	92.38
418.051	97.38
418.274	84.38
418.497	80.38
418.72	80.38
418.943	84.38
419.166	97.38
419.389	92.38
419.611	82.38
419.834	100.38
420.057	83.38
420.28	89.38
420.503	92.38
420.726	100.38
420.948	94.38
421.171	98.38
421.394	83.38
421.617	83.38
421.839	88.38
422.062	94.38
422.285	94.38
422.507	86.38
422.73	109.38
422.953	89.38
423.175	94.38
423.398	80.38
423.621	82.38
423.843	89.38
424.066	89.38
424.288	106.38
424.511	92.38
424.733	94.38
424.956	83.38
425.178	86.38
425.401	95.38
425.623	89.38
425.846	92.38
426.068	94.38
426.291	96.38
426.513	86.38
426.735	96.38
426.958	98.38
427.18	108.38
427.402	127.38
427.625	143.38
427.847	112.38
428.069	110.38
428.292	90.38
428.514	77.38
428.736	80.38
428.958	90.38
429.181	81.38
429.403	86.38
429.625	87.38
429.847	90.38
430.069	91.38
430.292	70.38
430.514	89.38
430.736	82.38
430.958	73.38
431.18	78.38
431.402	100.38
431.624	88.38
431.846	84.38
432.068	81.38
432.29	93.38
432.512	87.38
432.734	87.38
432.956	92.38
433.178	94.38
433.4	94.38
433.622	80.38
433.844	86.38
434.066	83.38
434.287	79.38
434.509	84.38
434.731	80.38
434.953	81.38
435.175	96.38
435.397	99.38
435.618	97.38
435.84	79.38
436.062	99.38
436.284	106.38
436.505	96.38
436.727	103.38
436.949	85.38
437.17	91.38
437.392	78.38
437.614	79.38
437.835	90.38
438.057	97.38
438.278	104.38
438.5	90.38
438.721	91.38
438.943	102.38
439.165	86.38
439.386	86.38
439.608	98.38
439.829	93.38
440.05	101.38
440.272	141.38
440.493	100.38
440.715	67.38
440.936	81.38
441.158	85.38
441.379	84.38
441.6	85.38
441.822	89.38
442.043	102.38
442.264	100.38
442.486	88.38
442.707	90.38
442.928	106.38
443.149	119.38
443.371	110.38
443.592	99.38
443.813	85.38
444.034	97.38
444.255	94.38
444.476	75.38
444.698	91.38
444.919	100.38
445.14	121.38
445.361	119.38
445.582	102.38
445.803	117.38
446.024	115.38
446.245	110.38
446.466	97.38
446.687	80.38
446.908	80.38
447.129	104.38
447.35	86.38
447.571	88.38
447.792	77.38
448.013	88.38
448.234	108.38
448.455	96.38
448.675	103.38
448.896	102.38
449.117	92.38
449.338	99.38
449.559	113.38
449.779	126.38
450	91.38
450.221	79.38
450.442	93.38
450.662	96.38
450.883	105.38
451.104	107.38
451.324	89.38
451.545	75.38
451.766	83.38
451.986	87.38
452.207	79.38
452.428	97.38
452.648	99.38
452.869	108.38
453.089	102.38
453.31	99.38
453.53	87.38
453.751	92.38
453.971	100.38
454.192	93.38
454.412	90.38
454.633	86.38
454.853	85.38
455.073	81.38
455.294	81.38
455.514	84.38
455.734	84.38
455.955	87.38
456.175	74.38
456.395	89.38
456.616	100.38
456.836	85.38
457.056	92.38
457.276	88.38
457.497	65.38
457.717	79.38
457.937	86.38
458.157	87.38
458.377	80.38
458.598	100.38
458.818	115.38
459.038	125.38
459.258	109.38
459.478	82.38
459.698	84.38
459.918	86.38
460.138	90.38
460.358	93.38
460.578	83.38
460.798	95.38
461.018	85.38
461.238	90.38
461.458	94.38
461.678	74.38
461.898	77.38
462.118	74.38
462.338	101.38
462.558	90.38
462.777	76.38
462.997	94.38
463.217	87.38
463.437	90.38
463.657	83.38
463.876	85.38
464.096	89.38
464.316	93.38
464.536	76.38
464.755	91.38
464.975	91.38
465.195	129.38
465.414	125.38
465.634	94.38
465.854	96.38
466.073	86.38
466.293	72.38
466.512	74.38
466.732	83.38
466.951	83.38
467.171	87.38
467.391	96.38
467.61	91.38
467.829	85.38
468.049	95.38
468.268	99.38
468.488	80.38
468.707	89.38
468.927	87.38
469.146	87.38
469.365	102.38
469.585	71.38
469.804	94.38
470.023	93.38
470.243	97.38
470.462	88.38
470.681	100.38
470.901	93.38
471.12	67.38
471.339	67.38
471.558	94.38
471.777	89.38
471.997	84.38
472.216	90.38
472.435	116.38
472.654	88.38
472.873	72.38
473.092	72.38
473.311	87.38
473.53	89.38
473.749	87.38
473.968	71.38
474.187	102.38
474.406	97.38
474.625	96.38
474.844	98.38
475.063	84.38
475.282	87.38
475.501	96.38
475.72	92.38
475.939	88.38
476.158	76.38
476.377	97.38
476.596	87.38
476.814	100.38
477.033	97.38
477.252	94.38
477.471	92.38
477.69	76.38
477.908	97.38
478.127	97.38
478.346	81.38
478.564	80.38
478.783	98.38
479.002	84.38
479.22	93.38
479.439	109.38
479.658	90.38
479.876	95.38
480.095	94.38
480.313	89.38
480.532	93.38
480.751	98.38
480.969	113.38
481.188	167.38
481.406	110.38
481.624	88.38
481.843	85.38
482.061	74.38
482.28	95.38
482.498	88.38
482.717	85.38
482.935	79.38
483.153	95.38
483.372	76.38
483.59	97.38
483.808	81.38
484.027	100.38
484.245	82.38
484.463	85.38
484.681	105.38
484.9	91.38
485.118	76.38
485.336	96.38
485.554	86.38
485.772	85.38
485.99	99.38
486.209	108.38
486.427	95.38
486.645	103.38
486.863	108.38
487.081	76.38
487.299	80.38
487.517	87.38
487.735	104.38
487.953	87.38
488.171	85.38
488.389	96.38
488.607	80.38
488.825	85.38
489.043	91.38
489.261	87.38
489.479	72.38
489.696	95.38
489.914	91.38
490.132	87.38
490.35	80.38
490.568	84.38
490.786	89.38
491.003	76.38
491.221	79.38
491.439	82.38
491.657	87.38
491.874	94.38
492.092	107.38
492.31	84.38
492.527	90.38
492.745	90.38
492.963	84.38
493.18	75.38
493.398	98.38
493.615	97.38
493.833	87.38
494.05	90.38
494.268	86.38
494.485	80.38
494.703	91.38
494.92	92.38
495.138	107.38
495.355	88.38
495.573	91.38
495.79	85.38
496.008	87.38
496.225	95.38
496.442	91.38
496.66	99.38
496.877	94.38
497.094	93.38
497.312	84.38
497.529	88.38
497.746	97.38
497.963	87.38
498.181	81.38
498.398	94.38
498.615	107.38
498.832	90.38
499.049	90.38
499.267	84.38
499.484	80.38
499.701	92.38
499.918	93.38
500.135	84.38
500.352	95.38
500.569	72.38
500.786	86.38
501.003	102.38
501.22	86.38
501.437	90.38
501.654	83.38
501.871	86.38
502.088	82.38
502.305	110.38
502.522	94.38
502.739	95.38
502.956	87.38
503.172	89.38
503.389	97.38
503.606	94.38
503.823	77.38
504.04	93.38
504.256	81.38
504.473	93.38
504.69	77.38
504.907	109.38
505.123	93.38
505.34	87.38
505.557	96.38
505.773	88.38
505.99	97.38
506.207	100.38
506.423	83.38
506.64	72.38
506.856	80.38
507.073	100.38
507.289	86.38
507.506	92.38
507.722	97.38
507.939	109.38
508.155	102.38
508.372	79.38
508.588	98.38
508.805	91.38
509.021	81.38
509.238	96.38
509.454	108.38
509.67	91.38
509.887	102.38
510.103	139.38
510.319	200.38
510.536	598.38
510.752	1799.38
510.968	535.38
511.184	147.38
511.401	109.38
511.617	105.38
511.833	97.38
512.049	100.38
512.265	100.38
512.481	84.38
512.698	93.38
512.914	84.38
513.13	75.38
513.346	91.38
513.562	82.38
513.778	81.38
513.994	93.38
514.21	81.38
514.426	104.38
514.642	123.38
514.858	103.38
515.074	127.38
515.29	340.38
515.506	1064.38
515.721	419.38
515.937	143.38
516.153	114.38
516.369	101.38
516.585	79.38
516.801	98.38
517.016	97.38
