Data from Uncirc_2009_H10_HRD10591_00029.txt Node
Date: Wed Jan 03 10:12:07 EST 2024
User: Yrep
Spectrometer: HR+D1059
Trigger mode: 1
Integration Time (sec): 1.000000E-1
Scans to average: 1
Electric dark correction enabled: true
Nonlinearity correction enabled: false
Boxcar width: 0
XAxis mode: Wavelengths
Number of Pixels in Spectrum: 2048
>>>>>Begin Spectral Data<<<<<
223.165	-20.38
223.4	-20.38
223.635	-20.38
223.869	-27.38
224.104	-9.38
224.338	4.62
224.573	-28.38
224.808	-4.38
225.042	-19.38
225.277	-6.38
225.511	-0.38
225.746	3.62
225.98	-1.38
226.215	3.62
226.449	18.62
226.683	25.62
226.918	26.62
227.152	34.62
227.387	35.62
227.621	49.62
227.856	39.62
228.09	42.62
228.324	44.62
228.559	68.62
228.793	156.62
229.027	378.62
229.262	441.62
229.496	519.62
229.73	637.62
229.964	660.62
230.199	498.62
230.433	417.62
230.667	397.62
230.901	408.62
231.136	382.62
231.37	413.62
231.604	409.62
231.838	399.62
232.072	382.62
232.306	397.62
232.541	429.62
232.775	417.62
233.009	423.62
233.243	410.62
233.477	421.62
233.711	445.62
233.945	464.62
234.179	453.62
234.413	430.62
234.647	460.62
234.881	481.62
235.115	479.62
235.349	511.62
235.583	518.62
235.817	544.62
236.051	563.62
236.285	559.62
236.519	541.62
236.753	595.62
236.987	785.62
237.221	1153.62
237.455	1220.62
237.689	761.62
237.922	660.62
238.156	665.62
238.39	609.62
238.624	579.62
238.858	587.62
239.091	594.62
239.325	605.62
239.559	625.62
239.793	614.62
240.027	670.62
240.26	786.62
240.494	831.62
240.728	848.62
240.961	787.62
241.195	730.62
241.429	722.62
241.662	681.62
241.896	702.62
242.13	705.62
242.363	701.62
242.597	737.62
242.83	743.62
243.064	757.62
243.298	753.62
243.531	770.62
243.765	746.62
243.998	794.62
244.232	769.62
244.465	806.62
244.699	825.62
244.932	822.62
245.166	825.62
245.399	813.62
245.633	833.62
245.866	815.62
246.099	833.62
246.333	850.62
246.566	889.62
246.8	895.62
247.033	914.62
247.266	944.62
247.5	978.62
247.733	1038.62
247.966	1031.62
248.2	1029.62
248.433	1042.62
248.666	1071.62
248.899	1189.62
249.133	1267.62
249.366	1283.62
249.599	1169.62
249.832	1077.62
250.066	1116.62
250.299	1156.62
250.532	1240.62
250.765	1377.62
250.998	1524.62
251.231	1482.62
251.465	1309.62
251.698	1275.62
251.931	1271.62
252.164	1261.62
252.397	1269.62
252.63	1287.62
252.863	1413.62
253.096	1521.62
253.329	1528.62
253.562	1457.62
253.795	1431.62
254.028	1363.62
254.261	1457.62
254.494	1581.62
254.727	1842.62
254.96	1949.62
255.193	1721.62
255.426	1567.62
255.659	1481.62
255.892	1516.62
256.124	1526.62
256.357	1505.62
256.59	1435.62
256.823	1372.62
257.056	1343.62
257.289	1390.62
257.521	1429.62
257.754	1426.62
257.987	1409.62
258.22	1386.62
258.452	1396.62
258.685	1373.62
258.918	1368.62
259.151	1460.62
259.383	1524.62
259.616	1547.62
259.849	1601.62
260.081	1726.62
260.314	1826.62
260.547	1817.62
260.779	1644.62
261.012	1607.62
261.244	1575.62
261.477	1525.62
261.71	1533.62
261.942	1561.62
262.175	1560.62
262.407	1549.62
262.64	1502.62
262.872	1461.62
263.105	1479.62
263.337	1546.62
263.57	1557.62
263.802	1511.62
264.035	1511.62
264.267	1543.62
264.499	1541.62
264.732	1552.62
264.964	1567.62
265.197	1563.62
265.429	1571.62
265.661	1552.62
265.894	1605.62
266.126	1592.62
266.358	1636.62
266.591	1635.62
266.823	1701.62
267.055	1708.62
267.287	1690.62
267.52	1673.62
267.752	1679.62
267.984	1702.62
268.216	1742.62
268.448	1779.62
268.681	1800.62
268.913	1923.62
269.145	2067.62
269.377	2125.62
269.609	2043.62
269.841	2020.62
270.073	2117.62
270.306	2341.62
270.538	2454.62
270.77	2346.62
271.002	2255.62
271.234	2161.62
271.466	2302.62
271.698	2429.62
271.93	2464.62
272.162	2429.62
272.394	2318.62
272.626	2234.62
272.858	2083.62
273.09	2097.62
273.322	2067.62
273.553	2018.62
273.785	2057.62
274.017	2035.62
274.249	2067.62
274.481	2075.62
274.713	2040.62
274.945	2087.62
275.176	2077.62
275.408	2040.62
275.64	2048.62
275.872	2062.62
276.104	2103.62
276.335	2097.62
276.567	2173.62
276.799	2241.62
277.031	2504.62
277.262	2545.62
277.494	2505.62
277.726	2352.62
277.957	2261.62
278.189	2210.62
278.421	2204.62
278.652	2136.62
278.884	2187.62
279.115	2210.62
279.347	2178.62
279.579	2181.62
279.81	2208.62
280.042	2195.62
280.273	2174.62
280.505	2207.62
280.736	2210.62
280.968	2203.62
281.199	2227.62
281.431	2227.62
281.662	2279.62
281.894	2270.62
282.125	2258.62
282.356	2453.62
282.588	2550.62
282.819	2377.62
283.051	2332.62
283.282	2326.62
283.513	2375.62
283.745	2394.62
283.976	2470.62
284.207	2500.62
284.439	2468.62
284.67	2423.62
284.901	2451.62
285.132	2434.62
285.364	2359.62
285.595	2445.62
285.826	2426.62
286.057	2482.62
286.288	2477.62
286.52	2545.62
286.751	2518.62
286.982	2517.62
287.213	2531.62
287.444	2510.62
287.675	2613.62
287.906	2690.62
288.138	2669.62
288.369	2651.62
288.6	2643.62
288.831	2599.62
289.062	2605.62
289.293	2567.62
289.524	2619.62
289.755	2561.62
289.986	2636.62
290.217	2565.62
290.448	2582.62
290.679	2590.62
290.91	2559.62
291.141	2562.62
291.371	2643.62
291.602	2599.62
291.833	2581.62
292.064	2595.62
292.295	2583.62
292.526	2643.62
292.757	2657.62
292.987	2569.62
293.218	2573.62
293.449	2694.62
293.68	2639.62
293.91	2611.62
294.141	2638.62
294.372	2634.62
294.603	2645.62
294.833	2604.62
295.064	2727.62
295.295	2655.62
295.525	2634.62
295.756	2694.62
295.987	2807.62
296.217	2888.62
296.448	2845.62
296.679	2696.62
296.909	2734.62
297.14	2749.62
297.37	2779.62
297.601	2818.62
297.831	2793.62
298.062	2779.62
298.292	2846.62
298.523	2884.62
298.753	2910.62
298.984	2875.62
299.214	2857.62
299.445	2855.62
299.675	2849.62
299.905	2892.62
300.136	2938.62
300.366	2898.62
300.597	2903.62
300.827	2989.62
301.057	3161.62
301.288	3130.62
301.518	3088.62
301.748	3049.62
301.979	3154.62
302.209	3150.62
302.439	3146.62
302.669	3079.62
302.9	3029.62
303.13	3020.62
303.36	3124.62
303.59	3132.62
303.82	3154.62
304.051	3125.62
304.281	3098.62
304.511	3069.62
304.741	3061.62
304.971	3011.62
305.201	3013.62
305.431	3045.62
305.661	3039.62
305.891	3027.62
306.121	3023.62
306.352	3109.62
306.582	3014.62
306.812	2971.62
307.042	3021.62
307.272	3076.62
307.502	3018.62
307.731	3012.62
307.961	3009.62
308.191	3086.62
308.421	3085.62
308.651	3084.62
308.881	3066.62
309.111	3134.62
309.341	3136.62
309.571	3152.62
309.8	3228.62
310.03	3247.62
310.26	3258.62
310.49	3233.62
310.72	3363.62
310.949	3417.62
311.179	3448.62
311.409	3328.62
311.639	3279.62
311.868	3325.62
312.098	3411.62
312.328	3448.62
312.557	3541.62
312.787	3504.62
313.017	3501.62
313.246	3469.62
313.476	3381.62
313.706	3544.62
313.935	3511.62
314.165	3570.62
314.394	3580.62
314.624	3518.62
314.853	3465.62
315.083	3443.62
315.312	3477.62
315.542	3404.62
315.771	3362.62
316.001	3365.62
316.23	3352.62
316.46	3453.62
316.689	3483.62
316.919	3455.62
317.148	3506.62
317.377	3548.62
317.607	3483.62
317.836	3489.62
318.065	3377.62
318.295	3397.62
318.524	3379.62
318.753	3389.62
318.983	3393.62
319.212	3409.62
319.441	3470.62
319.67	3481.62
319.9	3366.62
320.129	3389.62
320.358	3376.62
320.587	3430.62
320.816	3442.62
321.046	3511.62
321.275	3518.62
321.504	3485.62
321.733	3539.62
321.962	3580.62
322.191	3631.62
322.42	3687.62
322.649	3790.62
322.878	3856.62
323.108	3911.62
323.337	4081.62
323.566	4225.62
323.795	4388.62
324.024	4853.62
324.253	6063.62
324.482	8793.62
324.71	13256.62
324.939	15125.62
325.168	9866.62
325.397	5507.62
325.626	4627.62
325.855	4334.62
326.084	4302.62
326.313	4353.62
326.542	4445.62
326.77	4899.62
326.999	5971.62
327.228	8334.62
327.457	12194.62
327.686	11221.62
327.914	6177.62
328.143	5087.62
328.372	4882.62
328.6	4738.62
328.829	4645.62
329.058	4842.62
329.287	4754.62
329.515	4508.62
329.744	4403.62
329.972	4481.62
330.201	4631.62
330.43	4830.62
330.658	4899.62
330.887	4999.62
331.115	4788.62
331.344	4577.62
331.572	4468.62
331.801	4579.62
332.03	4552.62
332.258	4582.62
332.486	4630.62
332.715	4733.62
332.943	4878.62
333.172	5010.62
333.4	5162.62
333.629	5233.62
333.857	5262.62
334.085	5241.62
334.314	5363.62
334.542	5400.62
334.771	5342.62
334.999	5005.62
335.227	4997.62
335.455	4861.62
335.684	4860.62
335.912	4748.62
336.14	4659.62
336.369	4647.62
336.597	4699.62
336.825	4614.62
337.053	4553.62
337.281	4442.62
337.51	4417.62
337.738	4390.62
337.966	4373.62
338.194	4355.62
338.422	4298.62
338.65	4200.62
338.878	4215.62
339.106	4189.62
339.334	4189.62
339.562	4141.62
339.79	4076.62
340.018	4035.62
340.246	4059.62
340.474	4084.62
340.702	4061.62
340.93	4155.62
341.158	4094.62
341.386	4068.62
341.614	4101.62
341.842	4037.62
342.07	4053.62
342.298	4047.62
342.526	3981.62
342.754	3989.62
342.981	4066.62
343.209	4105.62
343.437	4371.62
343.665	4615.62
343.893	4897.62
344.12	4845.62
344.348	4651.62
344.576	4494.62
344.804	4341.62
345.031	4287.62
345.259	4209.62
345.487	4112.62
345.714	4068.62
345.942	3958.62
346.17	3921.62
346.397	3870.62
346.625	3886.62
346.853	3882.62
347.08	3826.62
347.308	3876.62
347.535	3962.62
347.763	3952.62
347.99	3872.62
348.218	3902.62
348.445	4021.62
348.673	3844.62
348.9	3845.62
349.128	3803.62
349.355	3795.62
349.583	3852.62
349.81	3802.62
350.037	3735.62
350.265	3743.62
350.492	3745.62
350.72	3783.62
350.947	3839.62
351.174	3852.62
351.402	3893.62
351.629	3803.62
351.856	3820.62
352.083	3886.62
352.311	3846.62
352.538	3872.62
352.765	3853.62
352.992	3849.62
353.22	3788.62
353.447	3801.62
353.674	3743.62
353.901	3751.62
354.128	3710.62
354.355	3661.62
354.583	3706.62
354.81	3763.62
355.037	3738.62
355.264	3683.62
355.491	3702.62
355.718	3739.62
355.945	3691.62
356.172	3739.62
356.399	3678.62
356.626	3735.62
356.853	3675.62
357.08	3665.62
357.307	3693.62
357.534	3648.62
357.761	3659.62
357.988	3743.62
358.215	3691.62
358.441	3727.62
358.668	3750.62
358.895	3780.62
359.122	3748.62
359.349	3799.62
359.576	3885.62
359.802	4095.62
360.029	4158.62
360.256	4145.62
360.483	4033.62
360.709	3946.62
360.936	3885.62
361.163	3899.62
361.39	3916.62
361.616	3937.62
361.843	3892.62
362.07	3929.62
362.296	3946.62
362.523	3850.62
362.749	3839.62
362.976	3846.62
363.203	3819.62
363.429	3719.62
363.656	3791.62
363.882	3777.62
364.109	3770.62
364.335	3784.62
364.562	3773.62
364.788	3731.62
365.015	3717.62
365.241	3721.62
365.468	3781.62
365.694	3800.62
365.92	3825.62
366.147	3769.62
366.373	3750.62
366.599	3742.62
366.826	3729.62
367.052	3697.62
367.278	3779.62
367.505	3785.62
367.731	3842.62
367.957	3789.62
368.184	3827.62
368.41	3877.62
368.636	3981.62
368.862	3964.62
369.089	3942.62
369.315	3869.62
369.541	3891.62
369.767	3873.62
369.993	3946.62
370.219	3962.62
370.445	3898.62
370.672	3972.62
370.898	3927.62
371.124	4037.62
371.35	4068.62
371.576	4002.62
371.802	4043.62
372.028	3978.62
372.254	4059.62
372.48	4151.62
372.706	4121.62
372.932	4243.62
373.158	4160.62
373.384	4102.62
373.61	4066.62
373.835	4097.62
374.061	4115.62
374.287	4196.62
374.513	4236.62
374.739	4343.62
374.965	4465.62
375.191	4484.62
375.416	4326.62
375.642	4254.62
375.868	4272.62
376.094	4233.62
376.319	4142.62
376.545	4059.62
376.771	4128.62
376.997	4090.62
377.222	4135.62
377.448	4066.62
377.674	4055.62
377.899	4053.62
378.125	4011.62
378.35	3993.62
378.576	3969.62
378.802	3997.62
379.027	4088.62
379.253	4010.62
379.478	4023.62
379.704	3990.62
379.929	4105.62
380.155	4100.62
380.38	4053.62
380.606	4083.62
380.831	4011.62
381.057	4118.62
381.282	4092.62
381.507	4053.62
381.733	4095.62
381.958	4191.62
382.184	4195.62
382.409	4299.62
382.634	4298.62
382.86	4289.62
383.085	4335.62
383.31	4389.62
383.535	4486.62
383.761	4476.62
383.986	4631.62
384.211	4764.62
384.436	4800.62
384.662	4808.62
384.887	4938.62
385.112	4818.62
385.337	4883.62
385.562	4907.62
385.787	4955.62
386.013	5019.62
386.238	5014.62
386.463	5016.62
386.688	5010.62
386.913	4904.62
387.138	4911.62
387.363	4917.62
387.588	4871.62
387.813	4925.62
388.038	4838.62
388.263	4927.62
388.488	4902.62
388.713	4828.62
388.938	4840.62
389.163	4802.62
389.387	4829.62
389.612	4727.62
389.837	4811.62
390.062	4761.62
390.287	4782.62
390.512	4847.62
390.736	4888.62
390.961	4931.62
391.186	5027.62
391.411	5159.62
391.636	5266.62
391.86	5418.62
392.085	5457.62
392.31	5362.62
392.534	5273.62
392.759	5198.62
392.984	5059.62
393.208	5032.62
393.433	5015.62
393.658	5016.62
393.882	5072.62
394.107	5084.62
394.331	5131.62
394.556	5079.62
394.78	5166.62
395.005	5183.62
395.229	5279.62
395.454	5350.62
395.678	5550.62
395.903	5437.62
396.127	5517.62
396.352	5329.62
396.576	5156.62
396.801	5095.62
397.025	5255.62
397.249	5373.62
397.474	5353.62
397.698	5454.62
397.922	5659.62
398.147	5692.62
398.371	5794.62
398.595	5972.62
398.82	6181.62
399.044	6809.62
399.268	7546.62
399.492	8545.62
399.717	9074.62
399.941	8792.62
400.165	8193.62
400.389	7585.62
400.613	6875.62
400.837	6362.62
401.062	6294.62
401.286	6147.62
401.51	6129.62
401.734	6093.62
401.958	6318.62
402.182	6374.62
402.406	6480.62
402.63	6478.62
402.854	6623.62
403.078	6676.62
403.302	6797.62
403.526	6941.62
403.75	6974.62
403.974	7000.62
404.198	6970.62
404.422	7001.62
404.645	7029.62
404.869	6936.62
405.093	7156.62
405.317	7297.62
405.541	7342.62
405.765	6892.62
405.988	6775.62
406.212	6976.62
406.436	7042.62
406.66	7208.62
406.883	7230.62
407.107	7814.62
407.331	8315.62
407.555	8605.62
407.778	8429.62
408.002	7831.62
408.226	7416.62
408.449	7268.62
408.673	7181.62
408.896	7281.62
409.12	7416.62
409.344	7111.62
409.567	6665.62
409.791	6645.62
410.014	6656.62
410.238	6593.62
410.461	6586.62
410.685	6545.62
410.908	6686.62
411.132	6830.62
411.355	6814.62
411.578	6543.62
411.802	6365.62
412.025	6382.62
412.249	6538.62
412.472	6604.62
412.695	6722.62
412.919	6352.62
413.142	6220.62
413.365	6082.62
413.589	6120.62
413.812	6051.62
414.035	6011.62
414.258	6014.62
414.482	5999.62
414.705	6165.62
414.928	6095.62
415.151	6013.62
415.374	6116.62
415.597	6069.62
415.821	5889.62
416.044	6015.62
416.267	5992.62
416.49	5908.62
416.713	5850.62
416.936	5884.62
417.159	5842.62
417.382	5943.62
417.605	6022.62
417.828	6084.62
418.051	6214.62
418.274	6121.62
418.497	5967.62
418.72	6211.62
418.943	6125.62
419.166	6505.62
419.389	6854.62
419.611	6761.62
419.834	6493.62
420.057	6394.62
420.28	6322.62
420.503	6170.62
420.726	6129.62
420.948	6252.62
421.171	6578.62
421.394	6530.62
421.617	6153.62
421.839	6109.62
422.062	6210.62
422.285	6368.62
422.507	6938.62
422.73	7240.62
422.953	6856.62
423.175	6581.62
423.398	6543.62
423.621	6610.62
423.843	6836.62
424.066	6813.62
424.288	6673.62
424.511	6760.62
424.733	7286.62
424.956	7517.62
425.178	7159.62
425.401	7228.62
425.623	7112.62
425.846	6359.62
426.068	6160.62
426.291	6087.62
426.513	6094.62
426.735	6116.62
426.958	6603.62
427.18	7189.62
427.402	8164.62
427.625	8008.62
427.847	6995.62
428.069	6385.62
428.292	5985.62
428.514	5646.62
428.736	5595.62
428.958	5529.62
429.181	5376.62
429.403	5436.62
429.625	5513.62
429.847	5787.62
430.069	6241.62
430.292	5885.62
430.514	5383.62
430.736	5427.62
430.958	5398.62
431.18	5305.62
431.402	5226.62
431.624	5284.62
431.846	5334.62
432.068	5274.62
432.29	5533.62
432.512	5399.62
432.734	5497.62
432.956	5354.62
433.178	5428.62
433.4	5430.62
433.622	5346.62
433.844	5432.62
434.066	5469.62
434.287	5528.62
434.509	5723.62
434.731	5908.62
434.953	6051.62
435.175	6220.62
435.397	6222.62
435.618	6107.62
435.84	6386.62
436.062	7113.62
436.284	7070.62
436.505	6039.62
436.727	5770.62
436.949	5508.62
437.17	5490.62
437.392	5399.62
437.614	5519.62
437.835	5825.62
438.057	6636.62
438.278	7145.62
438.5	7140.62
438.721	7702.62
438.943	6931.62
439.165	5923.62
439.386	5826.62
439.608	5852.62
439.829	5780.62
440.05	5991.62
440.272	6393.62
440.493	5874.62
440.715	5739.62
440.936	5689.62
441.158	5747.62
441.379	5806.62
441.6	6168.62
441.822	6319.62
442.043	6735.62
442.264	7388.62
442.486	7078.62
442.707	6474.62
442.928	6234.62
443.149	6401.62
443.371	6606.62
443.592	7136.62
443.813	7950.62
444.034	7991.62
444.255	6919.62
444.476	6894.62
444.698	7148.62
444.919	7202.62
445.14	6955.62
445.361	6656.62
445.582	6833.62
445.803	7113.62
446.024	7684.62
446.245	7403.62
446.466	6693.62
446.687	6037.62
446.908	5645.62
447.129	5401.62
447.35	5275.62
447.571	5258.62
447.792	5125.62
448.013	5166.62
448.234	5411.62
448.455	5892.62
448.675	6894.62
448.896	7334.62
449.117	6115.62
449.338	6270.62
449.559	7340.62
449.779	7541.62
450	5946.62
450.221	5313.62
450.442	5114.62
450.662	4988.62
450.883	5155.62
451.104	5188.62
451.324	5082.62
451.545	4945.62
451.766	4873.62
451.986	4731.62
452.207	4710.62
452.428	4712.62
452.648	4756.62
452.869	4727.62
453.089	4761.62
453.31	4877.62
453.53	4771.62
453.751	4743.62
453.971	4701.62
454.192	4810.62
454.412	4598.62
454.633	4592.62
454.853	4540.62
455.073	4618.62
455.294	4975.62
455.514	5289.62
455.734	4951.62
455.955	4467.62
456.175	4429.62
456.395	4371.62
456.616	4334.62
456.836	4362.62
457.056	4373.62
457.276	4268.62
457.497	4427.62
457.717	4373.62
457.937	4483.62
458.157	4593.62
458.377	4639.62
458.598	4954.62
458.818	5435.62
459.038	6147.62
459.258	6108.62
459.478	5517.62
459.698	5452.62
459.918	5537.62
460.138	5723.62
460.358	5924.62
460.578	5929.62
460.798	6073.62
461.018	6015.62
461.238	5906.62
461.458	5955.62
461.678	5825.62
461.898	5970.62
462.118	6038.62
462.338	6386.62
462.558	6508.62
462.777	6755.62
462.997	7325.62
463.217	7707.62
463.437	7583.62
463.657	7034.62
463.876	6729.62
464.096	6854.62
464.316	6835.62
464.536	6824.62
464.755	6567.62
464.975	6469.62
465.195	6475.62
465.414	6383.62
465.634	5809.62
465.854	5461.62
466.073	5352.62
466.293	5155.62
466.512	4922.62
466.732	4957.62
466.951	4921.62
467.171	4946.62
467.391	5050.62
467.61	4986.62
467.829	4979.62
468.049	4958.62
468.268	4837.62
468.488	4732.62
468.707	4682.62
468.927	4737.62
469.146	4701.62
469.365	4752.62
469.585	4780.62
469.804	4973.62
470.023	5041.62
470.243	5061.62
470.462	5149.62
470.681	5249.62
470.901	5150.62
471.12	5070.62
471.339	5020.62
471.558	4993.62
471.777	4983.62
471.997	4795.62
472.216	4844.62
472.435	4994.62
472.654	4803.62
472.873	4691.62
473.092	4730.62
473.311	4627.62
473.53	4718.62
473.749	4838.62
473.968	5210.62
474.187	5952.62
474.406	5631.62
474.625	4946.62
474.844	4782.62
475.063	4757.62
475.282	4731.62
475.501	4771.62
475.72	4881.62
475.939	4891.62
476.158	4876.62
476.377	4846.62
476.596	4902.62
476.814	5031.62
477.033	5060.62
477.252	5196.62
477.471	5222.62
477.69	5323.62
477.908	5428.62
478.127	5572.62
478.346	5683.62
478.564	5789.62
478.783	5853.62
479.002	5928.62
479.22	5945.62
479.439	6037.62
479.658	6121.62
479.876	6204.62
480.095	6363.62
480.313	6686.62
480.532	6650.62
480.751	6562.62
480.969	6452.62
481.188	6597.62
481.406	6408.62
481.624	6105.62
481.843	5823.62
482.061	5705.62
482.28	5654.62
482.498	5550.62
482.717	5525.62
482.935	5600.62
483.153	5508.62
483.372	5539.62
483.59	5519.62
483.808	5538.62
484.027	5562.62
484.245	5526.62
484.463	5540.62
484.681	5675.62
484.9	5707.62
485.118	5741.62
485.336	5793.62
485.554	5763.62
485.772	5896.62
485.99	5881.62
486.209	5870.62
486.427	5957.62
486.645	5972.62
486.863	6104.62
487.081	6043.62
487.299	5968.62
487.517	5895.62
487.735	5876.62
487.953	5877.62
