Data from Uncirc_2009_H10_HRD10591_00098.txt Node
Date: Wed Jan 03 10:12:21 EST 2024
User: Yrep
Spectrometer: HR+D1059
Trigger mode: 1
Integration Time (sec): 1.000000E-1
Scans to average: 1
Electric dark correction enabled: true
Nonlinearity correction enabled: false
Boxcar width: 0
XAxis mode: Wavelengths
Number of Pixels in Spectrum: 2048
>>>>>Begin Spectral Data<<<<<
223.165	-12.19
223.4	-12.19
223.635	-12.19
223.869	-16.19
224.104	-17.19
224.338	-17.19
224.573	-11.19
224.808	-12.19
225.042	-19.19
225.277	2.81
225.511	-11.19
225.746	-1.19
225.98	7.81
226.215	21.81
226.449	28.81
226.683	13.81
226.918	18.81
227.152	23.81
227.387	31.81
227.621	31.81
227.856	37.81
228.09	50.81
228.324	44.81
228.559	41.81
228.793	165.81
229.027	411.81
229.262	461.81
229.496	542.81
229.73	699.81
229.964	713.81
230.199	468.81
230.433	453.81
230.667	442.81
230.901	406.81
231.136	389.81
231.37	404.81
231.604	410.81
231.838	409.81
232.072	426.81
232.306	423.81
232.541	437.81
232.775	435.81
233.009	432.81
233.243	435.81
233.477	456.81
233.711	441.81
233.945	460.81
234.179	432.81
234.413	461.81
234.647	458.81
234.881	473.81
235.115	479.81
235.349	504.81
235.583	518.81
235.817	533.81
236.051	560.81
236.285	560.81
236.519	544.81
236.753	617.81
236.987	788.81
237.221	1178.81
237.455	1344.81
237.689	803.81
237.922	656.81
238.156	662.81
238.39	622.81
238.624	592.81
238.858	594.81
239.091	570.81
239.325	581.81
239.559	611.81
239.793	611.81
240.027	692.81
240.26	790.81
240.494	828.81
240.728	870.81
240.961	819.81
241.195	740.81
241.429	719.81
241.662	696.81
241.896	706.81
242.13	714.81
242.363	720.81
242.597	759.81
242.83	754.81
243.064	732.81
243.298	750.81
243.531	745.81
243.765	764.81
243.998	770.81
244.232	778.81
244.465	815.81
244.699	834.81
244.932	810.81
245.166	790.81
245.399	832.81
245.633	823.81
245.866	873.81
246.099	857.81
246.333	859.81
246.566	866.81
246.8	896.81
247.033	921.81
247.266	964.81
247.5	982.81
247.733	1060.81
247.966	1047.81
248.2	1007.81
248.433	1082.81
248.666	1126.81
248.899	1196.81
249.133	1318.81
249.366	1254.81
249.599	1168.81
249.832	1096.81
250.066	1122.81
250.299	1150.81
250.532	1243.81
250.765	1389.81
250.998	1492.81
251.231	1475.81
251.465	1356.81
251.698	1319.81
251.931	1294.81
252.164	1274.81
252.397	1264.81
252.63	1345.81
252.863	1416.81
253.096	1515.81
253.329	1570.81
253.562	1488.81
253.795	1434.81
254.028	1419.81
254.261	1423.81
254.494	1586.81
254.727	1886.81
254.96	1997.81
255.193	1730.81
255.426	1566.81
255.659	1517.81
255.892	1545.81
256.124	1546.81
256.357	1504.81
256.59	1421.81
256.823	1405.81
257.056	1399.81
257.289	1414.81
257.521	1393.81
257.754	1433.81
257.987	1399.81
258.22	1384.81
258.452	1420.81
258.685	1437.81
258.918	1431.81
259.151	1476.81
259.383	1531.81
259.616	1549.81
259.849	1590.81
260.081	1712.81
260.314	1879.81
260.547	1833.81
260.779	1646.81
261.012	1626.81
261.244	1550.81
261.477	1536.81
261.71	1559.81
261.942	1530.81
262.175	1565.81
262.407	1562.81
262.64	1493.81
262.872	1511.81
263.105	1494.81
263.337	1504.81
263.57	1532.81
263.802	1565.81
264.035	1552.81
264.267	1573.81
264.499	1566.81
264.732	1565.81
264.964	1552.81
265.197	1586.81
265.429	1590.81
265.661	1604.81
265.894	1609.81
266.126	1641.81
266.358	1644.81
266.591	1675.81
266.823	1747.81
267.055	1702.81
267.287	1707.81
267.52	1684.81
267.752	1724.81
267.984	1685.81
268.216	1738.81
268.448	1801.81
268.681	1814.81
268.913	1938.81
269.145	2112.81
269.377	2164.81
269.609	2082.81
269.841	2071.81
270.073	2139.81
270.306	2343.81
270.538	2519.81
270.77	2402.81
271.002	2283.81
271.234	2182.81
271.466	2355.81
271.698	2464.81
271.93	2404.81
272.162	2455.81
272.394	2366.81
272.626	2269.81
272.858	2132.81
273.09	2088.81
273.322	2049.81
273.553	2029.81
273.785	2040.81
274.017	2059.81
274.249	2052.81
274.481	2109.81
274.713	2051.81
274.945	2102.81
275.176	2066.81
275.408	2085.81
275.64	2055.81
275.872	2043.81
276.104	2152.81
276.335	2079.81
276.567	2194.81
276.799	2279.81
277.031	2473.81
277.262	2601.81
277.494	2558.81
277.726	2391.81
277.957	2280.81
278.189	2241.81
278.421	2178.81
278.652	2205.81
278.884	2187.81
279.115	2176.81
279.347	2187.81
279.579	2189.81
279.81	2183.81
280.042	2186.81
280.273	2233.81
280.505	2204.81
280.736	2237.81
280.968	2212.81
281.199	2255.81
281.431	2237.81
281.662	2296.81
281.894	2285.81
282.125	2344.81
282.356	2428.81
282.588	2584.81
282.819	2406.81
283.051	2345.81
283.282	2339.81
283.513	2368.81
283.745	2444.81
283.976	2489.81
284.207	2558.81
284.439	2475.81
284.67	2477.81
284.901	2457.81
285.132	2413.81
285.364	2416.81
285.595	2426.81
285.826	2484.81
286.057	2503.81
286.288	2513.81
286.52	2501.81
286.751	2521.81
286.982	2518.81
287.213	2531.81
287.444	2517.81
287.675	2630.81
287.906	2655.81
288.138	2726.81
288.369	2683.81
288.6	2711.81
288.831	2684.81
289.062	2665.81
289.293	2599.81
289.524	2619.81
289.755	2621.81
289.986	2643.81
290.217	2607.81
290.448	2657.81
290.679	2618.81
290.91	2620.81
291.141	2623.81
291.371	2598.81
291.602	2616.81
291.833	2620.81
292.064	2644.81
292.295	2659.81
292.526	2693.81
292.757	2632.81
292.987	2618.81
293.218	2586.81
293.449	2664.81
293.68	2650.81
293.91	2654.81
294.141	2591.81
294.372	2644.81
294.603	2670.81
294.833	2663.81
295.064	2647.81
295.295	2636.81
295.525	2627.81
295.756	2733.81
295.987	2802.81
296.217	2904.81
296.448	2845.81
296.679	2775.81
296.909	2736.81
297.14	2728.81
297.37	2816.81
297.601	2805.81
297.831	2827.81
298.062	2794.81
298.292	2830.81
298.523	2914.81
298.753	2917.81
298.984	2850.81
299.214	2851.81
299.445	2867.81
299.675	2890.81
299.905	2962.81
300.136	2926.81
300.366	2896.81
300.597	2959.81
300.827	3064.81
301.057	3126.81
301.288	3094.81
301.518	3161.81
301.748	3091.81
301.979	3134.81
302.209	3142.81
302.439	3180.81
302.669	3109.81
302.9	3074.81
303.13	3077.81
303.36	3107.81
303.59	3208.81
303.82	3165.81
304.051	3114.81
304.281	3137.81
304.511	3005.81
304.741	3037.81
304.971	3015.81
305.201	3040.81
305.431	3062.81
305.661	3105.81
305.891	3028.81
306.121	3074.81
306.352	3098.81
306.582	3049.81
306.812	3030.81
307.042	3032.81
307.272	3040.81
307.502	3107.81
307.731	3035.81
307.961	3053.81
308.191	3078.81
308.421	3060.81
308.651	3079.81
308.881	3042.81
309.111	3105.81
309.341	3096.81
309.571	3203.81
309.8	3282.81
310.03	3258.81
310.26	3294.81
310.49	3315.81
310.72	3384.81
310.949	3422.81
311.179	3408.81
311.409	3341.81
311.639	3344.81
311.868	3369.81
312.098	3413.81
312.328	3433.81
312.557	3538.81
312.787	3591.81
313.017	3528.81
313.246	3502.81
313.476	3487.81
313.706	3490.81
313.935	3588.81
314.165	3638.81
314.394	3636.81
314.624	3649.81
314.853	3469.81
315.083	3515.81
315.312	3478.81
315.542	3452.81
315.771	3426.81
316.001	3426.81
316.23	3416.81
316.46	3440.81
316.689	3516.81
316.919	3493.81
317.148	3526.81
317.377	3532.81
317.607	3564.81
317.836	3459.81
318.065	3376.81
318.295	3334.81
318.524	3435.81
318.753	3391.81
318.983	3456.81
319.212	3361.81
319.441	3468.81
319.67	3472.81
319.9	3436.81
320.129	3510.81
320.358	3496.81
320.587	3510.81
320.816	3516.81
321.046	3572.81
321.275	3524.81
321.504	3542.81
321.733	3576.81
321.962	3599.81
322.191	3721.81
322.42	3735.81
322.649	3788.81
322.878	3842.81
323.108	3944.81
323.337	4077.81
323.566	4236.81
323.795	4476.81
324.024	4871.81
324.253	6262.81
324.482	9102.81
324.71	13705.81
324.939	15502.81
325.168	10091.81
325.397	5690.81
325.626	4652.81
325.855	4455.81
326.084	4474.81
326.313	4394.81
326.542	4534.81
326.77	4976.81
326.999	6089.81
327.228	8711.81
327.457	12626.81
327.686	11694.81
327.914	6432.81
328.143	5140.81
328.372	4955.81
328.6	4771.81
328.829	4786.81
329.058	4814.81
329.287	4706.81
329.515	4531.81
329.744	4386.81
329.972	4553.81
330.201	4729.81
330.43	4863.81
330.658	4938.81
330.887	5128.81
331.115	4892.81
331.344	4550.81
331.572	4517.81
331.801	4563.81
332.03	4670.81
332.258	4590.81
332.486	4663.81
332.715	4719.81
332.943	4882.81
333.172	5088.81
333.4	5182.81
333.629	5226.81
333.857	5376.81
334.085	5382.81
334.314	5377.81
334.542	5422.81
334.771	5379.81
334.999	5067.81
335.227	4968.81
335.455	4954.81
335.684	4793.81
335.912	4715.81
336.14	4683.81
336.369	4661.81
336.597	4681.81
336.825	4643.81
337.053	4574.81
337.281	4457.81
337.51	4425.81
337.738	4430.81
337.966	4391.81
338.194	4384.81
338.422	4371.81
338.65	4234.81
338.878	4245.81
339.106	4172.81
339.334	4200.81
339.562	4196.81
339.79	4087.81
340.018	4093.81
340.246	4067.81
340.474	4160.81
340.702	4077.81
340.93	4105.81
341.158	4154.81
341.386	4060.81
341.614	4120.81
341.842	4112.81
342.07	3994.81
342.298	4039.81
342.526	4049.81
342.754	3997.81
342.981	4004.81
343.209	4110.81
343.437	4397.81
343.665	4616.81
343.893	4902.81
344.12	4930.81
344.348	4667.81
344.576	4503.81
344.804	4390.81
345.031	4296.81
345.259	4254.81
345.487	4173.81
345.714	4075.81
345.942	3970.81
346.17	3954.81
346.397	3896.81
346.625	3907.81
346.853	3887.81
347.08	3872.81
347.308	3950.81
347.535	3983.81
347.763	4031.81
347.99	3975.81
348.218	3997.81
348.445	4030.81
348.673	3906.81
348.9	3849.81
349.128	3863.81
349.355	3817.81
349.583	3846.81
349.81	3802.81
350.037	3765.81
350.265	3808.81
350.492	3811.81
350.72	3810.81
350.947	3816.81
351.174	3841.81
351.402	3908.81
351.629	3817.81
351.856	3827.81
352.083	3877.81
352.311	3905.81
352.538	3920.81
352.765	3872.81
352.992	3868.81
353.22	3782.81
353.447	3791.81
353.674	3735.81
353.901	3754.81
354.128	3676.81
354.355	3794.81
354.583	3740.81
354.81	3717.81
355.037	3817.81
355.264	3716.81
355.491	3723.81
355.718	3722.81
355.945	3675.81
356.172	3687.81
356.399	3725.81
356.626	3734.81
356.853	3700.81
357.08	3660.81
357.307	3700.81
357.534	3696.81
357.761	3689.81
357.988	3692.81
358.215	3642.81
358.441	3729.81
358.668	3779.81
358.895	3809.81
359.122	3807.81
359.349	3857.81
359.576	3964.81
359.802	4071.81
360.029	4239.81
360.256	4156.81
360.483	4042.81
360.709	3962.81
360.936	3906.81
361.163	3904.81
361.39	3945.81
361.616	3911.81
361.843	3900.81
362.07	3931.81
362.296	3919.81
362.523	3898.81
362.749	3899.81
362.976	3844.81
363.203	3750.81
363.429	3776.81
363.656	3807.81
363.882	3851.81
364.109	3773.81
364.335	3758.81
364.562	3768.81
364.788	3803.81
365.015	3774.81
365.241	3749.81
365.468	3818.81
365.694	3820.81
365.92	3827.81
366.147	3823.81
366.373	3805.81
366.599	3782.81
366.826	3740.81
367.052	3756.81
367.278	3757.81
367.505	3824.81
367.731	3843.81
367.957	3837.81
368.184	3867.81
368.41	3931.81
368.636	3955.81
368.862	3981.81
369.089	3972.81
369.315	3871.81
369.541	3907.81
369.767	3855.81
369.993	3886.81
370.219	3891.81
370.445	3924.81
370.672	3978.81
370.898	3992.81
371.124	4076.81
371.35	4077.81
371.576	4045.81
371.802	4060.81
372.028	4067.81
372.254	4097.81
372.48	4070.81
372.706	4194.81
372.932	4217.81
373.158	4154.81
373.384	4137.81
373.61	4089.81
373.835	4147.81
374.061	4151.81
374.287	4206.81
374.513	4266.81
374.739	4395.81
374.965	4451.81
375.191	4514.81
375.416	4480.81
375.642	4300.81
375.868	4303.81
376.094	4223.81
376.319	4099.81
376.545	4150.81
376.771	4126.81
376.997	4184.81
377.222	4079.81
377.448	4109.81
377.674	4057.81
377.899	4100.81
378.125	4015.81
378.35	3973.81
378.576	4027.81
378.802	4032.81
379.027	4021.81
379.253	4064.81
379.478	4009.81
379.704	3981.81
379.929	4056.81
380.155	4107.81
380.38	4114.81
380.606	4125.81
380.831	4085.81
381.057	4123.81
381.282	4139.81
381.507	4105.81
381.733	4163.81
381.958	4186.81
382.184	4191.81
382.409	4306.81
382.634	4355.81
382.86	4336.81
383.085	4393.81
383.31	4459.81
383.535	4543.81
383.761	4548.81
383.986	4626.81
384.211	4687.81
384.436	4782.81
384.662	4824.81
384.887	4937.81
385.112	4913.81
385.337	4984.81
385.562	4894.81
385.787	5000.81
386.013	5008.81
386.238	5087.81
386.463	4960.81
386.688	5014.81
386.913	4868.81
387.138	4884.81
387.363	4804.81
387.588	4771.81
387.813	4926.81
388.038	4865.81
388.263	4935.81
388.488	4883.81
388.713	4871.81
388.938	4848.81
389.163	4921.81
389.387	4884.81
389.612	4793.81
389.837	4843.81
390.062	4809.81
390.287	4861.81
390.512	4837.81
390.736	4920.81
390.961	5045.81
391.186	5046.81
391.411	5190.81
391.636	5299.81
391.86	5463.81
392.085	5566.81
392.31	5387.81
392.534	5314.81
392.759	5257.81
392.984	5106.81
393.208	5058.81
393.433	5107.81
393.658	5040.81
393.882	5114.81
394.107	5063.81
394.331	5145.81
394.556	5132.81
394.78	5178.81
395.005	5219.81
395.229	5243.81
395.454	5400.81
395.678	5498.81
395.903	5551.81
396.127	5541.81
396.352	5287.81
396.576	5186.81
396.801	5134.81
397.025	5278.81
397.249	5431.81
397.474	5448.81
397.698	5485.81
397.922	5659.81
398.147	5689.81
398.371	5828.81
398.595	5888.81
398.82	6261.81
399.044	6792.81
399.268	7496.81
399.492	8619.81
399.717	9127.81
399.941	8826.81
400.165	8342.81
400.389	7683.81
400.613	6865.81
400.837	6420.81
401.062	6316.81
401.286	6206.81
401.51	6227.81
401.734	6154.81
401.958	6235.81
402.182	6372.81
402.406	6414.81
402.63	6538.81
402.854	6651.81
403.078	6672.81
403.302	6834.81
403.526	7003.81
403.75	7058.81
403.974	7066.81
404.198	7036.81
404.422	7169.81
404.645	7047.81
404.869	7006.81
405.093	7251.81
405.317	7363.81
405.541	7419.81
405.765	6981.81
405.988	6838.81
406.212	7011.81
406.436	7065.81
406.66	7221.81
406.883	7351.81
407.107	7777.81
407.331	8399.81
407.555	8792.81
407.778	8426.81
408.002	7816.81
408.226	7533.81
408.449	7267.81
408.673	7226.81
408.896	7394.81
409.12	7415.81
409.344	7038.81
409.567	6784.81
409.791	6762.81
410.014	6666.81
410.238	6634.81
410.461	6652.81
410.685	6608.81
410.908	6711.81
411.132	6865.81
411.355	6950.81
411.578	6542.81
411.802	6418.81
412.025	6392.81
412.249	6571.81
412.472	6679.81
412.695	6716.81
412.919	6356.81
413.142	6236.81
413.365	6192.81
413.589	6185.81
413.812	6067.81
414.035	5949.81
414.258	6067.81
414.482	6042.81
414.705	6076.81
414.928	6056.81
415.151	6076.81
415.374	6048.81
415.597	6045.81
415.821	5938.81
416.044	5982.81
416.267	5969.81
416.49	5939.81
416.713	5859.81
416.936	5993.81
417.159	5981.81
417.382	5963.81
417.605	6000.81
417.828	6081.81
418.051	6231.81
418.274	6144.81
418.497	6032.81
418.72	6206.81
418.943	6067.81
419.166	6522.81
419.389	6891.81
419.611	6738.81
419.834	6633.81
420.057	6446.81
420.28	6292.81
420.503	6179.81
420.726	6179.81
420.948	6227.81
421.171	6567.81
421.394	6598.81
421.617	6199.81
421.839	6099.81
422.062	6268.81
422.285	6463.81
422.507	6956.81
422.73	7430.81
422.953	6923.81
423.175	6568.81
423.398	6573.81
423.621	6683.81
423.843	6866.81
424.066	6779.81
424.288	6728.81
424.511	6870.81
424.733	7265.81
424.956	7545.81
425.178	7259.81
425.401	7345.81
425.623	7197.81
425.846	6325.81
426.068	6201.81
426.291	6078.81
426.513	6197.81
426.735	6205.81
426.958	6688.81
427.18	7202.81
427.402	8259.81
427.625	8300.81
427.847	7067.81
428.069	6436.81
428.292	6034.81
428.514	5748.81
428.736	5616.81
428.958	5643.81
429.181	5474.81
429.403	5451.81
429.625	5681.81
429.847	5860.81
430.069	6359.81
430.292	5985.81
430.514	5498.81
430.736	5396.81
430.958	5384.81
431.18	5284.81
431.402	5355.81
431.624	5353.81
431.846	5436.81
432.068	5466.81
432.29	5588.81
432.512	5455.81
432.734	5605.81
432.956	5375.81
433.178	5506.81
433.4	5401.81
433.622	5366.81
433.844	5467.81
434.066	5415.81
434.287	5554.81
434.509	5832.81
434.731	5983.81
434.953	6107.81
435.175	6217.81
435.397	6342.81
435.618	6279.81
435.84	6517.81
436.062	7192.81
436.284	7238.81
436.505	6087.81
436.727	5828.81
436.949	5634.81
437.17	5515.81
437.392	5459.81
437.614	5544.81
437.835	5903.81
438.057	6746.81
438.278	7279.81
438.5	7269.81
438.721	8039.81
438.943	7052.81
439.165	5914.81
439.386	5827.81
439.608	5831.81
439.829	5865.81
440.05	6169.81
440.272	6487.81
440.493	5966.81
440.715	5679.81
440.936	5592.81
441.158	5753.81
441.379	5862.81
441.6	6247.81
441.822	6365.81
442.043	6800.81
442.264	7462.81
442.486	7257.81
442.707	6454.81
442.928	6318.81
443.149	6434.81
443.371	6631.81
443.592	7134.81
443.813	7972.81
444.034	7992.81
444.255	7029.81
444.476	6932.81
444.698	7184.81
444.919	7246.81
445.14	7026.81
445.361	6693.81
445.582	6850.81
445.803	7378.81
446.024	7884.81
446.245	7535.81
446.466	6878.81
446.687	6114.81
446.908	5792.81
447.129	5428.81
447.35	5416.81
447.571	5291.81
447.792	5218.81
448.013	5318.81
448.234	5501.81
448.455	6044.81
448.675	7140.81
448.896	7449.81
449.117	6250.81
449.338	6391.81
449.559	7679.81
449.779	7754.81
450	5993.81
450.221	5364.81
450.442	5199.81
450.662	5122.81
450.883	5155.81
451.104	5312.81
451.324	5126.81
451.545	4989.81
451.766	4906.81
451.986	4861.81
452.207	4806.81
452.428	4738.81
452.648	4768.81
452.869	4809.81
453.089	4852.81
453.31	4975.81
453.53	4747.81
453.751	4728.81
453.971	4738.81
454.192	4841.81
454.412	4637.81
454.633	4591.81
454.853	4590.81
455.073	4670.81
455.294	4980.81
455.514	5384.81
455.734	5058.81
455.955	4532.81
456.175	4526.81
456.395	4372.81
456.616	4343.81
456.836	4377.81
457.056	4361.81
457.276	4311.81
457.497	4441.81
457.717	4396.81
457.937	4468.81
458.157	4579.81
458.377	4655.81
458.598	4918.81
458.818	5488.81
459.038	6173.81
459.258	6060.81
459.478	5636.81
459.698	5527.81
459.918	5582.81
460.138	5701.81
460.358	5975.81
460.578	5914.81
460.798	6145.81
461.018	6066.81
461.238	5927.81
461.458	5884.81
461.678	5838.81
461.898	6016.81
462.118	6098.81
462.338	6376.81
462.558	6498.81
462.777	6895.81
462.997	7405.81
463.217	7839.81
463.437	7537.81
463.657	6929.81
463.876	6767.81
464.096	6821.81
464.316	6886.81
464.536	6818.81
464.755	6619.81
464.975	6524.81
465.195	6558.81
465.414	6503.81
465.634	5781.81
465.854	5541.81
466.073	5284.81
466.293	5151.81
466.512	5039.81
466.732	4966.81
466.951	4904.81
467.171	4959.81
467.391	4983.81
467.61	5030.81
467.829	5033.81
468.049	4933.81
468.268	4862.81
468.488	4738.81
468.707	4694.81
468.927	4762.81
469.146	4757.81
469.365	4823.81
469.585	4827.81
469.804	4991.81
470.023	5128.81
470.243	5155.81
470.462	5162.81
470.681	5317.81
470.901	5189.81
471.12	5066.81
471.339	5013.81
471.558	4984.81
471.777	4896.81
471.997	4834.81
472.216	4845.81
472.435	4996.81
472.654	4822.81
472.873	4695.81
473.092	4744.81
473.311	4703.81
473.53	4752.81
473.749	4844.81
473.968	5278.81
474.187	6122.81
474.406	5734.81
474.625	4951.81
474.844	4781.81
475.063	4757.81
475.282	4756.81
475.501	4813.81
475.72	4847.81
475.939	4924.81
476.158	4973.81
476.377	4928.81
476.596	4893.81
476.814	5038.81
477.033	5074.81
477.252	5169.81
477.471	5283.81
477.69	5360.81
477.908	5461.81
478.127	5608.81
478.346	5666.81
478.564	5734.81
478.783	5942.81
479.002	6052.81
479.22	5951.81
479.439	5959.81
479.658	6117.81
479.876	6134.81
480.095	6386.81
480.313	6697.81
480.532	6674.81
480.751	6446.81
480.969	6548.81
481.188	6673.81
481.406	6473.81
481.624	6031.81
481.843	5847.81
482.061	5688.81
482.28	5620.81
482.498	5610.81
482.717	5510.81
482.935	5597.81
483.153	5559.81
483.372	5578.81
483.59	5599.81
483.808	5567.81
484.027	5564.81
484.245	5591.81
484.463	5648.81
484.681	5693.81
484.9	5722.81
485.118	5733.81
485.336	5840.81
485.554	5897.81
485.772	5951.81
485.99	5881.81
486.209	5898.81
486.427	5989.81
486.645	5982.81
486.863	6071.81
487.081	6019.81
487.299	5973.81
487.517	5991.81
487.735	5939.81
487.953	5953.81
