Data from Uncirc_2009_H10_HRD10591_00035.txt Node
Date: Wed Jan 03 10:12:08 EST 2024
User: Yrep
Spectrometer: HR+D1059
Trigger mode: 1
Integration Time (sec): 1.000000E-1
Scans to average: 1
Electric dark correction enabled: true
Nonlinearity correction enabled: false
Boxcar width: 0
XAxis mode: Wavelengths
Number of Pixels in Spectrum: 2048
>>>>>Begin Spectral Data<<<<<
223.165	-17.12
223.4	-17.12
223.635	-17.12
223.869	-19.12
224.104	-32.12
224.338	-8.12
224.573	-25.12
224.808	-13.12
225.042	-10.12
225.277	6.88
225.511	-2.12
225.746	3.88
225.98	-15.12
226.215	3.88
226.449	27.88
226.683	25.88
226.918	28.88
227.152	44.88
227.387	33.88
227.621	34.88
227.856	31.88
228.09	44.88
228.324	53.88
228.559	47.88
228.793	57.88
229.027	56.88
229.262	69.88
229.496	68.88
229.73	76.88
229.964	80.88
230.199	69.88
230.433	74.88
230.667	79.88
230.901	71.88
231.136	74.88
231.37	67.88
231.604	72.88
231.838	89.88
232.072	80.88
232.306	78.88
232.541	80.88
232.775	67.88
233.009	72.88
233.243	80.88
233.477	55.88
233.711	78.88
233.945	91.88
234.179	77.88
234.413	73.88
234.647	73.88
234.881	69.88
235.115	67.88
235.349	71.88
235.583	73.88
235.817	78.88
236.051	78.88
236.285	83.88
236.519	86.88
236.753	61.88
236.987	71.88
237.221	80.88
237.455	69.88
237.689	74.88
237.922	77.88
238.156	72.88
238.39	82.88
238.624	79.88
238.858	70.88
239.091	82.88
239.325	72.88
239.559	71.88
239.793	79.88
240.027	77.88
240.26	72.88
240.494	94.88
240.728	69.88
240.961	80.88
241.195	91.88
241.429	90.88
241.662	74.88
241.896	74.88
242.13	77.88
242.363	76.88
242.597	83.88
242.83	88.88
243.064	63.88
243.298	104.88
243.531	76.88
243.765	84.88
243.998	84.88
244.232	84.88
244.465	76.88
244.699	78.88
244.932	83.88
245.166	82.88
245.399	81.88
245.633	70.88
245.866	78.88
246.099	85.88
246.333	69.88
246.566	73.88
246.8	74.88
247.033	84.88
247.266	76.88
247.5	68.88
247.733	82.88
247.966	83.88
248.2	66.88
248.433	68.88
248.666	79.88
248.899	69.88
249.133	93.88
249.366	103.88
249.599	91.88
249.832	78.88
250.066	78.88
250.299	82.88
250.532	86.88
250.765	74.88
250.998	83.88
251.231	80.88
251.465	72.88
251.698	83.88
251.931	74.88
252.164	80.88
252.397	77.88
252.63	71.88
252.863	82.88
253.096	78.88
253.329	75.88
253.562	87.88
253.795	78.88
254.028	94.88
254.261	74.88
254.494	80.88
254.727	97.88
254.96	87.88
255.193	88.88
255.426	89.88
255.659	83.88
255.892	84.88
256.124	75.88
256.357	85.88
256.59	82.88
256.823	84.88
257.056	82.88
257.289	78.88
257.521	64.88
257.754	82.88
257.987	81.88
258.22	92.88
258.452	71.88
258.685	78.88
258.918	82.88
259.151	83.88
259.383	83.88
259.616	84.88
259.849	90.88
260.081	80.88
260.314	83.88
260.547	80.88
260.779	73.88
261.012	81.88
261.244	79.88
261.477	82.88
261.71	77.88
261.942	94.88
262.175	115.88
262.407	77.88
262.64	77.88
262.872	67.88
263.105	77.88
263.337	94.88
263.57	94.88
263.802	83.88
264.035	89.88
264.267	80.88
264.499	56.88
264.732	91.88
264.964	86.88
265.197	81.88
265.429	86.88
265.661	88.88
265.894	89.88
266.126	79.88
266.358	82.88
266.591	86.88
266.823	86.88
267.055	80.88
267.287	80.88
267.52	94.88
267.752	88.88
267.984	95.88
268.216	77.88
268.448	94.88
268.681	80.88
268.913	83.88
269.145	87.88
269.377	78.88
269.609	91.88
269.841	84.88
270.073	77.88
270.306	83.88
270.538	90.88
270.77	80.88
271.002	83.88
271.234	79.88
271.466	81.88
271.698	88.88
271.93	87.88
272.162	81.88
272.394	79.88
272.626	85.88
272.858	72.88
273.09	80.88
273.322	90.88
273.553	76.88
273.785	85.88
274.017	83.88
274.249	87.88
274.481	94.88
274.713	91.88
274.945	71.88
275.176	87.88
275.408	90.88
275.64	99.88
275.872	91.88
276.104	83.88
276.335	76.88
276.567	82.88
276.799	99.88
277.031	100.88
277.262	103.88
277.494	88.88
277.726	90.88
277.957	81.88
278.189	88.88
278.421	83.88
278.652	89.88
278.884	95.88
279.115	79.88
279.347	84.88
279.579	100.88
279.81	89.88
280.042	88.88
280.273	82.88
280.505	77.88
280.736	86.88
280.968	78.88
281.199	91.88
281.431	93.88
281.662	80.88
281.894	85.88
282.125	97.88
282.356	115.88
282.588	118.88
282.819	87.88
283.051	94.88
283.282	81.88
283.513	90.88
283.745	93.88
283.976	102.88
284.207	98.88
284.439	96.88
284.67	92.88
284.901	84.88
285.132	83.88
285.364	94.88
285.595	89.88
285.826	81.88
286.057	83.88
286.288	89.88
286.52	109.88
286.751	104.88
286.982	87.88
287.213	82.88
287.444	88.88
287.675	93.88
287.906	95.88
288.138	78.88
288.369	85.88
288.6	87.88
288.831	82.88
289.062	74.88
289.293	95.88
289.524	86.88
289.755	81.88
289.986	102.88
290.217	87.88
290.448	81.88
290.679	88.88
290.91	94.88
291.141	91.88
291.371	91.88
291.602	99.88
291.833	92.88
292.064	75.88
292.295	94.88
292.526	75.88
292.757	104.88
292.987	77.88
293.218	92.88
293.449	77.88
293.68	86.88
293.91	94.88
294.141	101.88
294.372	86.88
294.603	96.88
294.833	82.88
295.064	79.88
295.295	107.88
295.525	83.88
295.756	96.88
295.987	119.88
296.217	112.88
296.448	118.88
296.679	88.88
296.909	105.88
297.14	89.88
297.37	90.88
297.601	106.88
297.831	97.88
298.062	103.88
298.292	79.88
298.523	89.88
298.753	92.88
298.984	98.88
299.214	94.88
299.445	82.88
299.675	85.88
299.905	88.88
300.136	92.88
300.366	86.88
300.597	105.88
300.827	103.88
301.057	115.88
301.288	98.88
301.518	103.88
301.748	105.88
301.979	103.88
302.209	97.88
302.439	79.88
302.669	80.88
302.9	90.88
303.13	98.88
303.36	102.88
303.59	110.88
303.82	92.88
304.051	79.88
304.281	91.88
304.511	104.88
304.741	80.88
304.971	86.88
305.201	93.88
305.431	75.88
305.661	90.88
305.891	94.88
306.121	98.88
306.352	86.88
306.582	93.88
306.812	82.88
307.042	87.88
307.272	83.88
307.502	93.88
307.731	89.88
307.961	85.88
308.191	93.88
308.421	78.88
308.651	94.88
308.881	85.88
309.111	77.88
309.341	103.88
309.571	106.88
309.8	87.88
310.03	110.88
310.26	105.88
310.49	88.88
310.72	86.88
310.949	103.88
311.179	98.88
311.409	91.88
311.639	104.88
311.868	100.88
312.098	90.88
312.328	87.88
312.557	89.88
312.787	97.88
313.017	110.88
313.246	93.88
313.476	90.88
313.706	80.88
313.935	95.88
314.165	101.88
314.394	89.88
314.624	88.88
314.853	83.88
315.083	81.88
315.312	92.88
315.542	86.88
315.771	95.88
316.001	91.88
316.23	94.88
316.46	99.88
316.689	104.88
316.919	97.88
317.148	94.88
317.377	105.88
317.607	113.88
317.836	101.88
318.065	98.88
318.295	98.88
318.524	98.88
318.753	78.88
318.983	89.88
319.212	90.88
319.441	106.88
319.67	79.88
319.9	82.88
320.129	89.88
320.358	83.88
320.587	92.88
320.816	99.88
321.046	92.88
321.275	106.88
321.504	90.88
321.733	98.88
321.962	89.88
322.191	96.88
322.42	113.88
322.649	101.88
322.878	96.88
323.108	117.88
323.337	103.88
323.566	127.88
323.795	137.88
324.024	185.88
324.253	312.88
324.482	663.88
324.71	1294.88
324.939	1759.88
325.168	653.88
325.397	210.88
325.626	148.88
325.855	135.88
326.084	120.88
326.313	127.88
326.542	160.88
326.77	201.88
326.999	377.88
327.228	789.88
327.457	1371.88
327.686	1096.88
327.914	309.88
328.143	139.88
328.372	129.88
328.6	100.88
328.829	117.88
329.058	112.88
329.287	121.88
329.515	108.88
329.744	102.88
329.972	85.88
330.201	96.88
330.43	127.88
330.658	109.88
330.887	102.88
331.115	100.88
331.344	108.88
331.572	102.88
331.801	104.88
332.03	112.88
332.258	86.88
332.486	103.88
332.715	98.88
332.943	89.88
333.172	92.88
333.4	105.88
333.629	117.88
333.857	102.88
334.085	112.88
334.314	126.88
334.542	122.88
334.771	100.88
334.999	106.88
335.227	95.88
335.455	95.88
335.684	100.88
335.912	96.88
336.14	81.88
336.369	95.88
336.597	81.88
336.825	94.88
337.053	93.88
337.281	85.88
337.51	96.88
337.738	89.88
337.966	90.88
338.194	89.88
338.422	83.88
338.65	82.88
338.878	95.88
339.106	77.88
339.334	93.88
339.562	91.88
339.79	90.88
340.018	93.88
340.246	119.88
340.474	89.88
340.702	103.88
340.93	80.88
341.158	110.88
341.386	86.88
341.614	86.88
341.842	81.88
342.07	102.88
342.298	88.88
342.526	92.88
342.754	99.88
342.981	95.88
343.209	97.88
343.437	103.88
343.665	91.88
343.893	85.88
344.12	94.88
344.348	92.88
344.576	90.88
344.804	109.88
345.031	95.88
345.259	86.88
345.487	81.88
345.714	82.88
345.942	93.88
346.17	98.88
346.397	74.88
346.625	98.88
346.853	90.88
347.08	98.88
347.308	97.88
347.535	103.88
347.763	89.88
347.99	99.88
348.218	93.88
348.445	82.88
348.673	113.88
348.9	91.88
349.128	98.88
349.355	94.88
349.583	96.88
349.81	89.88
350.037	80.88
350.265	100.88
350.492	107.88
350.72	95.88
350.947	99.88
351.174	123.88
351.402	110.88
351.629	95.88
351.856	110.88
352.083	107.88
352.311	115.88
352.538	96.88
352.765	91.88
352.992	113.88
353.22	117.88
353.447	98.88
353.674	94.88
353.901	103.88
354.128	100.88
354.355	105.88
354.583	88.88
354.81	91.88
355.037	82.88
355.264	97.88
355.491	92.88
355.718	93.88
355.945	96.88
356.172	94.88
356.399	103.88
356.626	96.88
356.853	94.88
357.08	91.88
357.307	99.88
357.534	71.88
357.761	94.88
357.988	93.88
358.215	92.88
358.441	96.88
358.668	89.88
358.895	102.88
359.122	86.88
359.349	93.88
359.576	89.88
359.802	93.88
360.029	94.88
360.256	98.88
360.483	89.88
360.709	88.88
360.936	80.88
361.163	101.88
361.39	96.88
361.616	79.88
361.843	92.88
362.07	84.88
362.296	101.88
362.523	82.88
362.749	93.88
362.976	98.88
363.203	96.88
363.429	82.88
363.656	79.88
363.882	76.88
364.109	90.88
364.335	102.88
364.562	98.88
364.788	93.88
365.015	85.88
365.241	99.88
365.468	105.88
365.694	105.88
365.92	93.88
366.147	85.88
366.373	75.88
366.599	74.88
366.826	88.88
367.052	86.88
367.278	87.88
367.505	90.88
367.731	96.88
367.957	91.88
368.184	88.88
368.41	95.88
368.636	106.88
368.862	106.88
369.089	98.88
369.315	97.88
369.541	101.88
369.767	101.88
369.993	89.88
370.219	85.88
370.445	89.88
370.672	83.88
370.898	88.88
371.124	99.88
371.35	90.88
371.576	89.88
371.802	98.88
372.028	80.88
372.254	87.88
372.48	95.88
372.706	81.88
372.932	79.88
373.158	94.88
373.384	90.88
373.61	94.88
373.835	91.88
374.061	97.88
374.287	77.88
374.513	81.88
374.739	80.88
374.965	97.88
375.191	90.88
375.416	103.88
375.642	87.88
375.868	73.88
376.094	79.88
376.319	76.88
376.545	87.88
376.771	89.88
376.997	71.88
377.222	98.88
377.448	92.88
377.674	95.88
377.899	87.88
378.125	101.88
378.35	78.88
378.576	81.88
378.802	103.88
379.027	85.88
379.253	82.88
379.478	93.88
379.704	89.88
379.929	90.88
380.155	114.88
380.38	82.88
380.606	82.88
380.831	89.88
381.057	83.88
381.282	89.88
381.507	94.88
381.733	90.88
381.958	94.88
382.184	103.88
382.409	85.88
382.634	102.88
382.86	102.88
383.085	97.88
383.31	82.88
383.535	104.88
383.761	87.88
383.986	106.88
384.211	88.88
384.436	98.88
384.662	90.88
384.887	94.88
385.112	119.88
385.337	101.88
385.562	83.88
385.787	110.88
386.013	118.88
386.238	96.88
386.463	113.88
386.688	101.88
386.913	94.88
387.138	99.88
387.363	106.88
387.588	97.88
387.813	102.88
388.038	106.88
388.263	103.88
388.488	111.88
388.713	92.88
388.938	98.88
389.163	91.88
389.387	90.88
389.612	98.88
389.837	97.88
390.062	92.88
390.287	88.88
390.512	103.88
390.736	94.88
390.961	97.88
391.186	90.88
391.411	107.88
391.636	101.88
391.86	90.88
392.085	90.88
392.31	79.88
392.534	84.88
392.759	86.88
392.984	96.88
393.208	90.88
393.433	92.88
393.658	75.88
393.882	74.88
394.107	93.88
394.331	81.88
394.556	88.88
394.78	89.88
395.005	74.88
395.229	79.88
395.454	95.88
395.678	91.88
395.903	93.88
396.127	91.88
396.352	82.88
396.576	78.88
396.801	89.88
397.025	94.88
397.249	83.88
397.474	92.88
397.698	86.88
397.922	83.88
398.147	80.88
398.371	77.88
398.595	83.88
398.82	90.88
399.044	77.88
399.268	88.88
399.492	89.88
399.717	82.88
399.941	89.88
400.165	89.88
400.389	83.88
400.613	89.88
400.837	88.88
401.062	82.88
401.286	79.88
401.51	69.88
401.734	90.88
401.958	90.88
402.182	113.88
402.406	129.88
402.63	90.88
402.854	82.88
403.078	83.88
403.302	73.88
403.526	86.88
403.75	90.88
403.974	96.88
404.198	101.88
404.422	96.88
404.645	85.88
404.869	87.88
405.093	86.88
405.317	96.88
405.541	99.88
405.765	98.88
405.988	99.88
406.212	147.88
406.436	169.88
406.66	121.88
406.883	96.88
407.107	83.88
407.331	101.88
407.555	105.88
407.778	105.88
408.002	85.88
408.226	103.88
408.449	94.88
408.673	98.88
408.896	91.88
409.12	93.88
409.344	79.88
409.567	76.88
409.791	99.88
410.014	93.88
410.238	76.88
410.461	93.88
410.685	82.88
410.908	92.88
411.132	91.88
411.355	90.88
411.578	88.88
411.802	71.88
412.025	94.88
412.249	89.88
412.472	91.88
412.695	92.88
412.919	90.88
413.142	78.88
413.365	86.88
413.589	106.88
413.812	79.88
414.035	109.88
414.258	88.88
414.482	89.88
414.705	89.88
414.928	95.88
415.151	87.88
415.374	83.88
415.597	87.88
415.821	99.88
416.044	83.88
416.267	88.88
416.49	90.88
416.713	98.88
416.936	92.88
417.159	81.88
417.382	104.88
417.605	93.88
417.828	91.88
418.051	87.88
418.274	87.88
418.497	83.88
418.72	80.88
418.943	86.88
419.166	93.88
419.389	86.88
419.611	97.88
419.834	73.88
420.057	84.88
420.28	96.88
420.503	100.88
420.726	99.88
420.948	92.88
421.171	92.88
421.394	79.88
421.617	87.88
421.839	88.88
422.062	83.88
422.285	86.88
422.507	110.88
422.73	103.88
422.953	81.88
423.175	96.88
423.398	93.88
423.621	91.88
423.843	72.88
424.066	74.88
424.288	89.88
424.511	80.88
424.733	99.88
424.956	99.88
425.178	90.88
425.401	93.88
425.623	102.88
425.846	93.88
426.068	92.88
426.291	90.88
426.513	90.88
426.735	101.88
426.958	102.88
427.18	89.88
427.402	131.88
427.625	125.88
427.847	113.88
428.069	106.88
428.292	93.88
428.514	90.88
428.736	86.88
428.958	100.88
429.181	96.88
429.403	92.88
429.625	92.88
429.847	93.88
430.069	90.88
430.292	105.88
430.514	81.88
430.736	77.88
430.958	87.88
431.18	77.88
431.402	77.88
431.624	83.88
431.846	96.88
432.068	96.88
432.29	94.88
432.512	77.88
432.734	88.88
432.956	90.88
433.178	87.88
433.4	101.88
433.622	92.88
433.844	87.88
434.066	93.88
434.287	91.88
434.509	92.88
434.731	72.88
434.953	78.88
435.175	85.88
435.397	85.88
435.618	88.88
435.84	102.88
436.062	120.88
436.284	102.88
436.505	93.88
436.727	100.88
436.949	91.88
437.17	87.88
437.392	80.88
437.614	77.88
437.835	99.88
438.057	94.88
438.278	93.88
438.5	86.88
438.721	112.88
438.943	99.88
439.165	95.88
439.386	89.88
439.608	95.88
439.829	87.88
440.05	102.88
440.272	110.88
440.493	102.88
440.715	75.88
440.936	82.88
441.158	97.88
441.379	80.88
441.6	97.88
441.822	91.88
442.043	96.88
442.264	89.88
442.486	87.88
442.707	103.88
442.928	88.88
443.149	112.88
443.371	107.88
443.592	97.88
443.813	99.88
444.034	95.88
444.255	62.88
444.476	87.88
444.698	84.88
444.919	88.88
445.14	125.88
445.361	121.88
445.582	89.88
445.803	112.88
446.024	118.88
446.245	121.88
446.466	106.88
446.687	82.88
446.908	86.88
447.129	73.88
447.35	79.88
447.571	84.88
447.792	94.88
448.013	81.88
448.234	98.88
448.455	100.88
448.675	94.88
448.896	87.88
449.117	87.88
449.338	104.88
449.559	105.88
449.779	118.88
450	106.88
450.221	82.88
450.442	80.88
450.662	90.88
450.883	98.88
451.104	96.88
451.324	85.88
451.545	100.88
451.766	89.88
451.986	94.88
452.207	87.88
452.428	96.88
452.648	103.88
452.869	112.88
453.089	96.88
453.31	113.88
453.53	108.88
453.751	88.88
453.971	98.88
454.192	95.88
454.412	82.88
454.633	79.88
454.853	80.88
455.073	62.88
455.294	78.88
455.514	99.88
455.734	98.88
455.955	86.88
456.175	75.88
456.395	88.88
456.616	87.88
456.836	76.88
457.056	76.88
457.276	83.88
457.497	86.88
457.717	83.88
457.937	82.88
458.157	83.88
458.377	80.88
458.598	91.88
458.818	113.88
459.038	137.88
459.258	102.88
459.478	89.88
459.698	110.88
459.918	87.88
460.138	100.88
460.358	87.88
460.578	77.88
460.798	81.88
461.018	91.88
461.238	79.88
461.458	87.88
461.678	66.88
461.898	89.88
462.118	94.88
462.338	87.88
462.558	86.88
462.777	88.88
462.997	81.88
463.217	82.88
463.437	96.88
463.657	86.88
463.876	82.88
464.096	108.88
464.316	94.88
464.536	90.88
464.755	87.88
464.975	97.88
465.195	115.88
465.414	133.88
465.634	83.88
465.854	93.88
466.073	78.88
466.293	89.88
466.512	94.88
466.732	83.88
466.951	87.88
467.171	105.88
467.391	104.88
467.61	95.88
467.829	89.88
468.049	99.88
468.268	93.88
468.488	85.88
468.707	90.88
468.927	76.88
469.146	85.88
469.365	83.88
469.585	96.88
469.804	92.88
470.023	70.88
470.243	94.88
470.462	94.88
470.681	108.88
470.901	79.88
471.12	79.88
471.339	97.88
471.558	88.88
471.777	83.88
471.997	87.88
472.216	113.88
472.435	119.88
472.654	85.88
472.873	80.88
473.092	80.88
473.311	90.88
473.53	89.88
473.749	86.88
473.968	87.88
474.187	71.88
474.406	83.88
474.625	96.88
474.844	98.88
475.063	83.88
475.282	88.88
475.501	91.88
475.72	98.88
475.939	91.88
476.158	78.88
476.377	81.88
476.596	91.88
476.814	87.88
477.033	90.88
477.252	97.88
477.471	85.88
477.69	79.88
477.908	83.88
478.127	91.88
478.346	90.88
478.564	78.88
478.783	103.88
479.002	82.88
479.22	81.88
479.439	84.88
479.658	82.88
479.876	103.88
480.095	91.88
480.313	89.88
480.532	90.88
480.751	97.88
480.969	113.88
481.188	141.88
481.406	122.88
481.624	103.88
481.843	95.88
482.061	90.88
482.28	90.88
482.498	89.88
482.717	82.88
482.935	89.88
483.153	92.88
483.372	75.88
483.59	92.88
483.808	97.88
484.027	93.88
484.245	88.88
484.463	92.88
484.681	87.88
484.9	102.88
485.118	98.88
485.336	111.88
485.554	87.88
485.772	94.88
485.99	107.88
486.209	91.88
486.427	107.88
486.645	102.88
486.863	103.88
487.081	91.88
487.299	99.88
487.517	91.88
487.735	103.88
487.953	91.88
488.171	92.88
488.389	91.88
488.607	90.88
488.825	89.88
489.043	91.88
489.261	93.88
489.479	88.88
489.696	94.88
489.914	89.88
490.132	92.88
490.35	96.88
490.568	90.88
490.786	75.88
491.003	97.88
491.221	103.88
491.439	100.88
491.657	95.88
491.874	92.88
492.092	74.88
492.31	83.88
492.527	87.88
492.745	87.88
492.963	88.88
493.18	92.88
493.398	100.88
493.615	90.88
493.833	98.88
494.05	85.88
494.268	88.88
494.485	90.88
494.703	101.88
494.92	84.88
495.138	85.88
495.355	81.88
495.573	80.88
495.79	73.88
496.008	103.88
496.225	94.88
496.442	89.88
496.66	87.88
496.877	86.88
497.094	90.88
497.312	79.88
497.529	103.88
497.746	94.88
497.963	99.88
498.181	80.88
498.398	90.88
498.615	94.88
498.832	106.88
499.049	93.88
499.267	82.88
499.484	88.88
499.701	93.88
499.918	88.88
500.135	92.88
500.352	101.88
500.569	95.88
500.786	91.88
501.003	102.88
501.22	89.88
501.437	78.88
501.654	99.88
501.871	103.88
502.088	92.88
502.305	97.88
502.522	73.88
502.739	87.88
502.956	82.88
503.172	100.88
503.389	92.88
503.606	95.88
503.823	100.88
504.04	96.88
504.256	93.88
504.473	86.88
504.69	94.88
504.907	105.88
505.123	78.88
505.34	92.88
505.557	106.88
505.773	106.88
505.99	76.88
506.207	92.88
506.423	89.88
506.64	75.88
506.856	94.88
507.073	102.88
507.289	97.88
507.506	111.88
507.722	107.88
507.939	91.88
508.155	107.88
508.372	104.88
508.588	85.88
508.805	95.88
509.021	96.88
509.238	83.88
509.454	96.88
509.67	87.88
509.887	99.88
510.103	113.88
510.319	175.88
510.536	545.88
510.752	1595.88
510.968	490.88
511.184	135.88
511.401	118.88
511.617	97.88
511.833	97.88
512.049	81.88
512.265	94.88
512.481	98.88
512.698	80.88
512.914	87.88
513.13	86.88
513.346	97.88
513.562	88.88
513.778	85.88
513.994	99.88
514.21	103.88
514.426	109.88
514.642	125.88
514.858	106.88
515.074	147.88
515.29	307.88
515.506	901.88
515.721	376.88
515.937	114.88
516.153	102.88
516.369	97.88
