Data from Uncirc_2009_H10_HRD10591_00008.txt Node
Date: Wed Jan 03 10:12:03 EST 2024
User: Yrep
Spectrometer: HR+D1059
Trigger mode: 1
Integration Time (sec): 1.000000E-1
Scans to average: 1
Electric dark correction enabled: true
Nonlinearity correction enabled: false
Boxcar width: 0
XAxis mode: Wavelengths
Number of Pixels in Spectrum: 2048
>>>>>Begin Spectral Data<<<<<
223.165	-25.88
223.4	-25.88
223.635	-25.88
223.869	-12.88
224.104	-22.88
224.338	-17.88
224.573	-20.88
224.808	-13.88
225.042	-24.88
225.277	5.12
225.511	-13.88
225.746	4.12
225.98	3.12
226.215	15.12
226.449	20.12
226.683	36.12
226.918	35.12
227.152	34.12
227.387	34.12
227.621	49.12
227.856	53.12
228.09	48.12
228.324	44.12
228.559	61.12
228.793	77.12
229.027	66.12
229.262	75.12
229.496	60.12
229.73	80.12
229.964	70.12
230.199	80.12
230.433	81.12
230.667	68.12
230.901	79.12
231.136	90.12
231.37	87.12
231.604	79.12
231.838	85.12
232.072	97.12
232.306	81.12
232.541	86.12
232.775	75.12
233.009	84.12
233.243	93.12
233.477	77.12
233.711	75.12
233.945	71.12
234.179	75.12
234.413	90.12
234.647	78.12
234.881	66.12
235.115	86.12
235.349	84.12
235.583	68.12
235.817	89.12
236.051	83.12
236.285	85.12
236.519	81.12
236.753	79.12
236.987	75.12
237.221	95.12
237.455	76.12
237.689	74.12
237.922	73.12
238.156	73.12
238.39	79.12
238.624	75.12
238.858	78.12
239.091	92.12
239.325	80.12
239.559	87.12
239.793	78.12
240.027	81.12
240.26	70.12
240.494	76.12
240.728	88.12
240.961	80.12
241.195	81.12
241.429	67.12
241.662	86.12
241.896	81.12
242.13	73.12
242.363	70.12
242.597	77.12
242.83	74.12
243.064	73.12
243.298	85.12
243.531	90.12
243.765	81.12
243.998	75.12
244.232	81.12
244.465	82.12
244.699	91.12
244.932	80.12
245.166	83.12
245.399	71.12
245.633	75.12
245.866	76.12
246.099	101.12
246.333	83.12
246.566	70.12
246.8	90.12
247.033	79.12
247.266	78.12
247.5	87.12
247.733	79.12
247.966	76.12
248.2	90.12
248.433	82.12
248.666	82.12
248.899	89.12
249.133	88.12
249.366	82.12
249.599	89.12
249.832	69.12
250.066	74.12
250.299	73.12
250.532	82.12
250.765	85.12
250.998	81.12
251.231	94.12
251.465	88.12
251.698	83.12
251.931	82.12
252.164	91.12
252.397	86.12
252.63	74.12
252.863	84.12
253.096	93.12
253.329	78.12
253.562	79.12
253.795	85.12
254.028	91.12
254.261	82.12
254.494	76.12
254.727	71.12
254.96	90.12
255.193	83.12
255.426	76.12
255.659	80.12
255.892	90.12
256.124	96.12
256.357	85.12
256.59	85.12
256.823	77.12
257.056	79.12
257.289	80.12
257.521	84.12
257.754	68.12
257.987	81.12
258.22	81.12
258.452	86.12
258.685	83.12
258.918	79.12
259.151	84.12
259.383	85.12
259.616	77.12
259.849	79.12
260.081	74.12
260.314	74.12
260.547	76.12
260.779	82.12
261.012	65.12
261.244	75.12
261.477	92.12
261.71	93.12
261.942	99.12
262.175	95.12
262.407	90.12
262.64	81.12
262.872	84.12
263.105	87.12
263.337	81.12
263.57	97.12
263.802	97.12
264.035	79.12
264.267	76.12
264.499	81.12
264.732	88.12
264.964	87.12
265.197	98.12
265.429	81.12
265.661	83.12
265.894	77.12
266.126	77.12
266.358	90.12
266.591	88.12
266.823	84.12
267.055	84.12
267.287	99.12
267.52	96.12
267.752	94.12
267.984	91.12
268.216	87.12
268.448	94.12
268.681	93.12
268.913	87.12
269.145	90.12
269.377	95.12
269.609	90.12
269.841	76.12
270.073	89.12
270.306	84.12
270.538	82.12
270.77	92.12
271.002	92.12
271.234	82.12
271.466	81.12
271.698	84.12
271.93	73.12
272.162	81.12
272.394	103.12
272.626	83.12
272.858	93.12
273.09	87.12
273.322	87.12
273.553	87.12
273.785	82.12
274.017	89.12
274.249	87.12
274.481	80.12
274.713	90.12
274.945	85.12
275.176	89.12
275.408	74.12
275.64	85.12
275.872	77.12
276.104	82.12
276.335	81.12
276.567	99.12
276.799	91.12
277.031	99.12
277.262	107.12
277.494	80.12
277.726	84.12
277.957	87.12
278.189	78.12
278.421	86.12
278.652	83.12
278.884	80.12
279.115	81.12
279.347	92.12
279.579	98.12
279.81	75.12
280.042	87.12
280.273	80.12
280.505	86.12
280.736	86.12
280.968	89.12
281.199	91.12
281.431	95.12
281.662	95.12
281.894	93.12
282.125	99.12
282.356	107.12
282.588	120.12
282.819	99.12
283.051	96.12
283.282	95.12
283.513	94.12
283.745	95.12
283.976	96.12
284.207	97.12
284.439	88.12
284.67	99.12
284.901	99.12
285.132	93.12
285.364	79.12
285.595	81.12
285.826	83.12
286.057	94.12
286.288	101.12
286.52	97.12
286.751	82.12
286.982	72.12
287.213	86.12
287.444	74.12
287.675	91.12
287.906	91.12
288.138	65.12
288.369	84.12
288.6	98.12
288.831	89.12
289.062	94.12
289.293	92.12
289.524	91.12
289.755	77.12
289.986	94.12
290.217	93.12
290.448	102.12
290.679	100.12
290.91	100.12
291.141	92.12
291.371	91.12
291.602	96.12
291.833	92.12
292.064	92.12
292.295	87.12
292.526	85.12
292.757	103.12
292.987	94.12
293.218	97.12
293.449	104.12
293.68	86.12
293.91	84.12
294.141	83.12
294.372	87.12
294.603	98.12
294.833	79.12
295.064	98.12
295.295	77.12
295.525	90.12
295.756	97.12
295.987	98.12
296.217	116.12
296.448	112.12
296.679	88.12
296.909	92.12
297.14	81.12
297.37	90.12
297.601	94.12
297.831	81.12
298.062	83.12
298.292	87.12
298.523	96.12
298.753	81.12
298.984	86.12
299.214	92.12
299.445	84.12
299.675	96.12
299.905	110.12
300.136	98.12
300.366	89.12
300.597	102.12
300.827	99.12
301.057	96.12
301.288	101.12
301.518	87.12
301.748	96.12
301.979	87.12
302.209	107.12
302.439	87.12
302.669	70.12
302.9	89.12
303.13	91.12
303.36	99.12
303.59	100.12
303.82	104.12
304.051	80.12
304.281	81.12
304.511	91.12
304.741	98.12
304.971	108.12
305.201	75.12
305.431	93.12
305.661	84.12
305.891	92.12
306.121	101.12
306.352	98.12
306.582	105.12
306.812	94.12
307.042	99.12
307.272	88.12
307.502	95.12
307.731	90.12
307.961	86.12
308.191	90.12
308.421	84.12
308.651	91.12
308.881	84.12
309.111	88.12
309.341	102.12
309.571	82.12
309.8	100.12
310.03	92.12
310.26	105.12
310.49	96.12
310.72	100.12
310.949	107.12
311.179	105.12
311.409	85.12
311.639	98.12
311.868	96.12
312.098	106.12
312.328	86.12
312.557	107.12
312.787	99.12
313.017	103.12
313.246	93.12
313.476	95.12
313.706	84.12
313.935	93.12
314.165	101.12
314.394	100.12
314.624	99.12
314.853	99.12
315.083	93.12
315.312	97.12
315.542	91.12
315.771	84.12
316.001	99.12
316.23	97.12
316.46	99.12
316.689	97.12
316.919	105.12
317.148	105.12
317.377	118.12
317.607	113.12
317.836	95.12
318.065	87.12
318.295	90.12
318.524	82.12
318.753	84.12
318.983	89.12
319.212	98.12
319.441	90.12
319.67	82.12
319.9	96.12
320.129	96.12
320.358	92.12
320.587	95.12
320.816	90.12
321.046	97.12
321.275	89.12
321.504	84.12
321.733	103.12
321.962	98.12
322.191	95.12
322.42	93.12
322.649	103.12
322.878	102.12
323.108	108.12
323.337	129.12
323.566	102.12
323.795	125.12
324.024	168.12
324.253	328.12
324.482	654.12
324.71	1309.12
324.939	1703.12
325.168	624.12
325.397	202.12
325.626	154.12
325.855	145.12
326.084	120.12
326.313	139.12
326.542	164.12
326.77	206.12
326.999	380.12
327.228	755.12
327.457	1346.12
327.686	1102.12
327.914	304.12
328.143	161.12
328.372	121.12
328.6	114.12
328.829	116.12
329.058	100.12
329.287	99.12
329.515	95.12
329.744	105.12
329.972	102.12
330.201	97.12
330.43	106.12
330.658	110.12
330.887	123.12
331.115	112.12
331.344	104.12
331.572	97.12
331.801	97.12
332.03	83.12
332.258	95.12
332.486	88.12
332.715	105.12
332.943	95.12
333.172	107.12
333.4	101.12
333.629	97.12
333.857	98.12
334.085	94.12
334.314	103.12
334.542	110.12
334.771	109.12
334.999	106.12
335.227	96.12
335.455	100.12
335.684	85.12
335.912	93.12
336.14	107.12
336.369	87.12
336.597	89.12
336.825	99.12
337.053	96.12
337.281	91.12
337.51	89.12
337.738	99.12
337.966	94.12
338.194	100.12
338.422	83.12
338.65	94.12
338.878	83.12
339.106	99.12
339.334	84.12
339.562	83.12
339.79	84.12
340.018	93.12
340.246	91.12
340.474	93.12
340.702	94.12
340.93	105.12
341.158	85.12
341.386	92.12
341.614	77.12
341.842	86.12
342.07	90.12
342.298	80.12
342.526	92.12
342.754	100.12
342.981	94.12
343.209	86.12
343.437	102.12
343.665	84.12
343.893	87.12
344.12	97.12
344.348	82.12
344.576	96.12
344.804	87.12
345.031	99.12
345.259	95.12
345.487	101.12
345.714	100.12
345.942	82.12
346.17	99.12
346.397	87.12
346.625	97.12
346.853	108.12
347.08	68.12
347.308	99.12
347.535	101.12
347.763	90.12
347.99	107.12
348.218	95.12
348.445	96.12
348.673	98.12
348.9	83.12
349.128	99.12
349.355	91.12
349.583	103.12
349.81	91.12
350.037	99.12
350.265	90.12
350.492	102.12
350.72	98.12
350.947	95.12
351.174	93.12
351.402	99.12
351.629	100.12
351.856	100.12
352.083	94.12
352.311	110.12
352.538	101.12
352.765	100.12
352.992	94.12
353.22	109.12
353.447	119.12
353.674	85.12
353.901	106.12
354.128	107.12
354.355	103.12
354.583	97.12
354.81	103.12
355.037	95.12
355.264	89.12
355.491	94.12
355.718	89.12
355.945	101.12
356.172	94.12
356.399	107.12
356.626	86.12
356.853	108.12
357.08	99.12
357.307	99.12
357.534	95.12
357.761	94.12
357.988	115.12
358.215	100.12
358.441	98.12
358.668	79.12
358.895	83.12
359.122	82.12
359.349	92.12
359.576	94.12
359.802	101.12
360.029	90.12
360.256	86.12
360.483	90.12
360.709	89.12
360.936	97.12
361.163	98.12
361.39	93.12
361.616	86.12
361.843	84.12
362.07	96.12
362.296	90.12
362.523	92.12
362.749	70.12
362.976	84.12
363.203	88.12
363.429	99.12
363.656	95.12
363.882	89.12
364.109	92.12
364.335	98.12
364.562	87.12
364.788	91.12
365.015	83.12
365.241	90.12
365.468	86.12
365.694	96.12
365.92	98.12
366.147	84.12
366.373	91.12
366.599	95.12
366.826	83.12
367.052	81.12
367.278	102.12
367.505	89.12
367.731	99.12
367.957	101.12
368.184	100.12
368.41	102.12
368.636	113.12
368.862	109.12
369.089	95.12
369.315	96.12
369.541	109.12
369.767	91.12
369.993	84.12
370.219	80.12
370.445	92.12
370.672	94.12
370.898	87.12
371.124	94.12
371.35	94.12
371.576	87.12
371.802	94.12
372.028	95.12
372.254	95.12
372.48	81.12
372.706	91.12
372.932	99.12
373.158	87.12
373.384	96.12
373.61	83.12
373.835	86.12
374.061	88.12
374.287	109.12
374.513	90.12
374.739	78.12
374.965	92.12
375.191	85.12
375.416	90.12
375.642	106.12
375.868	86.12
376.094	93.12
376.319	88.12
376.545	87.12
376.771	94.12
376.997	93.12
377.222	93.12
377.448	86.12
377.674	97.12
377.899	83.12
378.125	93.12
378.35	99.12
378.576	88.12
378.802	96.12
379.027	94.12
379.253	91.12
379.478	94.12
379.704	101.12
379.929	108.12
380.155	104.12
380.38	97.12
380.606	96.12
380.831	98.12
381.057	107.12
381.282	98.12
381.507	105.12
381.733	97.12
381.958	84.12
382.184	83.12
382.409	103.12
382.634	110.12
382.86	90.12
383.085	118.12
383.31	115.12
383.535	112.12
383.761	101.12
383.986	109.12
384.211	110.12
384.436	101.12
384.662	112.12
384.887	112.12
385.112	109.12
385.337	98.12
385.562	103.12
385.787	110.12
386.013	102.12
386.238	108.12
386.463	108.12
386.688	114.12
386.913	108.12
387.138	112.12
387.363	114.12
387.588	98.12
387.813	105.12
388.038	105.12
388.263	105.12
388.488	120.12
388.713	107.12
388.938	97.12
389.163	95.12
389.387	86.12
389.612	90.12
389.837	84.12
390.062	103.12
390.287	95.12
390.512	106.12
390.736	98.12
390.961	101.12
391.186	93.12
391.411	107.12
391.636	97.12
391.86	82.12
392.085	82.12
392.31	95.12
392.534	96.12
392.759	75.12
392.984	73.12
393.208	96.12
393.433	90.12
393.658	91.12
393.882	86.12
394.107	94.12
394.331	87.12
394.556	86.12
394.78	82.12
395.005	102.12
395.229	92.12
395.454	84.12
395.678	75.12
395.903	89.12
396.127	86.12
396.352	98.12
396.576	76.12
396.801	87.12
397.025	93.12
397.249	95.12
397.474	83.12
397.698	85.12
397.922	81.12
398.147	90.12
398.371	83.12
398.595	87.12
398.82	79.12
399.044	86.12
399.268	93.12
399.492	71.12
399.717	89.12
399.941	90.12
400.165	91.12
400.389	109.12
400.613	91.12
400.837	93.12
401.062	75.12
401.286	89.12
401.51	80.12
401.734	77.12
401.958	82.12
402.182	122.12
402.406	131.12
402.63	98.12
402.854	82.12
403.078	94.12
403.302	84.12
403.526	75.12
403.75	88.12
403.974	90.12
404.198	97.12
404.422	75.12
404.645	82.12
404.869	88.12
405.093	88.12
405.317	96.12
405.541	94.12
405.765	95.12
405.988	98.12
406.212	138.12
406.436	170.12
406.66	116.12
406.883	97.12
407.107	93.12
407.331	90.12
407.555	86.12
407.778	82.12
408.002	104.12
408.226	101.12
408.449	76.12
408.673	90.12
408.896	84.12
409.12	98.12
409.344	84.12
409.567	80.12
409.791	75.12
410.014	95.12
410.238	95.12
410.461	97.12
410.685	94.12
410.908	103.12
411.132	86.12
411.355	94.12
411.578	106.12
411.802	84.12
412.025	86.12
412.249	89.12
412.472	81.12
412.695	86.12
412.919	80.12
413.142	91.12
413.365	92.12
413.589	101.12
413.812	88.12
414.035	85.12
414.258	87.12
414.482	99.12
414.705	79.12
414.928	92.12
415.151	88.12
415.374	107.12
415.597	91.12
415.821	94.12
416.044	88.12
416.267	90.12
416.49	95.12
416.713	115.12
416.936	83.12
417.159	81.12
417.382	81.12
417.605	90.12
417.828	86.12
418.051	85.12
418.274	105.12
418.497	86.12
418.72	80.12
418.943	94.12
419.166	83.12
419.389	100.12
419.611	90.12
419.834	99.12
420.057	91.12
420.28	87.12
420.503	99.12
420.726	96.12
420.948	86.12
421.171	93.12
421.394	84.12
421.617	95.12
421.839	92.12
422.062	83.12
422.285	101.12
422.507	94.12
422.73	86.12
422.953	87.12
423.175	94.12
423.398	80.12
423.621	76.12
423.843	85.12
424.066	102.12
424.288	95.12
424.511	102.12
424.733	95.12
424.956	118.12
425.178	102.12
425.401	86.12
425.623	101.12
425.846	92.12
426.068	97.12
426.291	87.12
426.513	94.12
426.735	82.12
426.958	88.12
427.18	102.12
427.402	128.12
427.625	137.12
427.847	114.12
428.069	102.12
428.292	98.12
428.514	80.12
428.736	88.12
428.958	88.12
429.181	88.12
429.403	95.12
429.625	95.12
429.847	81.12
430.069	99.12
430.292	90.12
430.514	97.12
430.736	83.12
430.958	75.12
431.18	92.12
431.402	88.12
431.624	89.12
431.846	84.12
432.068	87.12
432.29	81.12
432.512	96.12
432.734	90.12
432.956	93.12
433.178	83.12
433.4	87.12
433.622	95.12
433.844	104.12
434.066	110.12
434.287	89.12
434.509	83.12
434.731	90.12
434.953	89.12
435.175	82.12
435.397	92.12
435.618	90.12
435.84	84.12
436.062	93.12
436.284	98.12
436.505	97.12
436.727	105.12
436.949	78.12
437.17	78.12
437.392	83.12
437.614	94.12
437.835	98.12
438.057	114.12
438.278	98.12
438.5	87.12
438.721	115.12
438.943	102.12
439.165	87.12
439.386	91.12
439.608	76.12
439.829	83.12
440.05	97.12
440.272	131.12
440.493	101.12
440.715	80.12
440.936	86.12
441.158	76.12
441.379	99.12
441.6	88.12
441.822	75.12
442.043	99.12
442.264	88.12
442.486	96.12
442.707	90.12
442.928	100.12
443.149	97.12
443.371	111.12
443.592	106.12
443.813	96.12
444.034	103.12
444.255	106.12
444.476	87.12
444.698	106.12
444.919	85.12
445.14	135.12
445.361	115.12
445.582	106.12
445.803	112.12
446.024	105.12
446.245	108.12
446.466	95.12
446.687	79.12
446.908	91.12
447.129	98.12
447.35	81.12
447.571	98.12
447.792	87.12
448.013	89.12
448.234	103.12
448.455	95.12
448.675	98.12
448.896	97.12
449.117	74.12
449.338	82.12
449.559	118.12
449.779	120.12
450	87.12
450.221	84.12
450.442	93.12
450.662	90.12
450.883	100.12
451.104	91.12
451.324	89.12
451.545	83.12
451.766	92.12
451.986	85.12
452.207	84.12
452.428	84.12
452.648	106.12
452.869	110.12
453.089	111.12
453.31	91.12
453.53	102.12
453.751	79.12
453.971	100.12
454.192	94.12
454.412	73.12
454.633	94.12
454.853	76.12
455.073	98.12
455.294	84.12
455.514	84.12
455.734	97.12
455.955	86.12
456.175	91.12
456.395	98.12
456.616	87.12
456.836	105.12
457.056	78.12
457.276	87.12
457.497	91.12
457.717	91.12
457.937	84.12
458.157	73.12
458.377	84.12
458.598	103.12
458.818	115.12
459.038	120.12
459.258	99.12
459.478	90.12
459.698	92.12
459.918	83.12
460.138	84.12
460.358	87.12
460.578	87.12
460.798	80.12
461.018	89.12
461.238	86.12
461.458	79.12
461.678	84.12
461.898	78.12
462.118	81.12
462.338	75.12
462.558	106.12
462.777	87.12
462.997	97.12
463.217	74.12
463.437	93.12
463.657	78.12
463.876	84.12
464.096	97.12
464.316	91.12
464.536	99.12
464.755	89.12
464.975	105.12
465.195	148.12
465.414	123.12
465.634	98.12
465.854	86.12
466.073	88.12
466.293	84.12
466.512	89.12
466.732	82.12
466.951	78.12
467.171	96.12
467.391	98.12
467.61	99.12
467.829	98.12
468.049	80.12
468.268	90.12
468.488	66.12
468.707	84.12
468.927	88.12
469.146	96.12
469.365	91.12
469.585	99.12
469.804	90.12
470.023	94.12
470.243	99.12
470.462	94.12
470.681	102.12
470.901	67.12
471.12	99.12
471.339	96.12
471.558	89.12
471.777	84.12
471.997	96.12
472.216	101.12
472.435	121.12
472.654	89.12
472.873	86.12
473.092	91.12
473.311	84.12
473.53	88.12
473.749	87.12
473.968	100.12
474.187	105.12
474.406	92.12
474.625	92.12
474.844	96.12
475.063	82.12
475.282	87.12
475.501	95.12
475.72	85.12
475.939	82.12
476.158	90.12
476.377	103.12
476.596	82.12
476.814	87.12
477.033	92.12
477.252	89.12
477.471	82.12
477.69	89.12
477.908	75.12
478.127	100.12
478.346	90.12
478.564	94.12
478.783	96.12
479.002	79.12
479.22	86.12
479.439	96.12
479.658	93.12
479.876	81.12
480.095	88.12
480.313	92.12
480.532	89.12
480.751	90.12
480.969	101.12
481.188	163.12
481.406	119.12
481.624	110.12
481.843	91.12
482.061	97.12
482.28	88.12
482.498	85.12
482.717	94.12
482.935	94.12
483.153	88.12
483.372	95.12
483.59	84.12
483.808	95.12
484.027	92.12
484.245	114.12
484.463	88.12
484.681	99.12
484.9	92.12
485.118	105.12
485.336	104.12
485.554	97.12
485.772	94.12
485.99	96.12
486.209	88.12
486.427	103.12
486.645	91.12
486.863	95.12
487.081	88.12
487.299	84.12
487.517	93.12
487.735	106.12
487.953	88.12
488.171	88.12
488.389	87.12
488.607	91.12
488.825	95.12
489.043	94.12
489.261	88.12
489.479	83.12
489.696	88.12
489.914	98.12
490.132	100.12
490.35	80.12
490.568	82.12
490.786	97.12
491.003	91.12
491.221	92.12
491.439	103.12
491.657	100.12
491.874	98.12
492.092	89.12
492.31	90.12
492.527	95.12
492.745	94.12
492.963	97.12
493.18	97.12
493.398	105.12
493.615	97.12
493.833	80.12
494.05	94.12
494.268	94.12
494.485	85.12
494.703	94.12
494.92	105.12
495.138	97.12
495.355	80.12
495.573	96.12
495.79	100.12
496.008	102.12
496.225	95.12
496.442	89.12
496.66	96.12
496.877	89.12
497.094	86.12
497.312	78.12
497.529	85.12
497.746	86.12
497.963	89.12
498.181	84.12
498.398	115.12
498.615	86.12
498.832	112.12
499.049	91.12
499.267	88.12
499.484	89.12
499.701	88.12
499.918	98.12
500.135	95.12
500.352	84.12
500.569	84.12
500.786	81.12
501.003	80.12
501.22	96.12
501.437	90.12
501.654	89.12
501.871	86.12
502.088	90.12
502.305	81.12
502.522	81.12
502.739	89.12
502.956	99.12
503.172	89.12
503.389	105.12
503.606	95.12
503.823	95.12
504.04	93.12
504.256	92.12
504.473	91.12
504.69	96.12
504.907	91.12
505.123	89.12
505.34	92.12
505.557	82.12
505.773	81.12
505.99	82.12
506.207	101.12
506.423	99.12
506.64	99.12
506.856	88.12
507.073	83.12
507.289	86.12
507.506	100.12
507.722	104.12
507.939	112.12
508.155	108.12
508.372	107.12
508.588	88.12
508.805	81.12
509.021	102.12
509.238	94.12
509.454	91.12
509.67	97.12
509.887	110.12
510.103	130.12
510.319	174.12
510.536	554.12
510.752	1549.12
510.968	467.12
511.184	125.12
511.401	104.12
511.617	89.12
511.833	84.12
512.049	102.12
512.265	82.12
512.481	88.12
512.698	97.12
512.914	91.12
513.13	89.12
513.346	90.12
513.562	79.12
513.778	88.12
513.994	92.12
514.21	87.12
514.426	108.12
514.642	118.12
514.858	104.12
515.074	128.12
515.29	311.12
515.506	882.12
515.721	367.12
515.937	129.12
516.153	91.12
