Data from Uncirc_2009_H10_HRD10591_00054.txt Node
Date: Wed Jan 03 10:12:12 EST 2024
User: Yrep
Spectrometer: HR+D1059
Trigger mode: 1
Integration Time (sec): 1.000000E-1
Scans to average: 1
Electric dark correction enabled: true
Nonlinearity correction enabled: false
Boxcar width: 0
XAxis mode: Wavelengths
Number of Pixels in Spectrum: 2048
>>>>>Begin Spectral Data<<<<<
223.165	-23
223.4	-23
223.635	-23
223.869	-15
224.104	-27
224.338	-15
224.573	-4
224.808	-7
225.042	-17
225.277	-12
225.511	-4
225.746	-6
225.98	11
226.215	6
226.449	10
226.683	22
226.918	39
227.152	42
227.387	28
227.621	34
227.856	45
228.09	49
228.324	45
228.559	48
228.793	60
229.027	77
229.262	49
229.496	73
229.73	76
229.964	96
230.199	80
230.433	75
230.667	69
230.901	67
231.136	72
231.37	65
231.604	78
231.838	81
232.072	93
232.306	68
232.541	74
232.775	76
233.009	83
233.243	76
233.477	87
233.711	79
233.945	73
234.179	91
234.413	78
234.647	81
234.881	86
235.115	70
235.349	68
235.583	74
235.817	93
236.051	72
236.285	80
236.519	81
236.753	82
236.987	70
237.221	72
237.455	89
237.689	76
237.922	78
238.156	83
238.39	72
238.624	76
238.858	72
239.091	78
239.325	83
239.559	79
239.793	78
240.027	80
240.26	69
240.494	74
240.728	69
240.961	77
241.195	78
241.429	72
241.662	79
241.896	85
242.13	70
242.363	68
242.597	92
242.83	86
243.064	69
243.298	81
243.531	74
243.765	74
243.998	95
244.232	72
244.465	86
244.699	95
244.932	87
245.166	78
245.399	69
245.633	76
245.866	66
246.099	77
246.333	87
246.566	68
246.8	88
247.033	89
247.266	79
247.5	64
247.733	69
247.966	82
248.2	79
248.433	78
248.666	73
248.899	81
249.133	84
249.366	92
249.599	86
249.832	73
250.066	77
250.299	92
250.532	95
250.765	58
250.998	73
251.231	77
251.465	83
251.698	72
251.931	74
252.164	80
252.397	82
252.63	78
252.863	82
253.096	81
253.329	77
253.562	89
253.795	75
254.028	86
254.261	73
254.494	76
254.727	93
254.96	68
255.193	83
255.426	96
255.659	82
255.892	73
256.124	92
256.357	91
256.59	89
256.823	76
257.056	71
257.289	74
257.521	80
257.754	78
257.987	83
258.22	81
258.452	86
258.685	86
258.918	77
259.151	90
259.383	68
259.616	84
259.849	81
260.081	86
260.314	95
260.547	81
260.779	91
261.012	92
261.244	98
261.477	83
261.71	95
261.942	105
262.175	104
262.407	88
262.64	72
262.872	85
263.105	86
263.337	82
263.57	74
263.802	89
264.035	77
264.267	88
264.499	74
264.732	91
264.964	87
265.197	64
265.429	86
265.661	72
265.894	92
266.126	81
266.358	83
266.591	77
266.823	80
267.055	84
267.287	94
267.52	93
267.752	80
267.984	95
268.216	78
268.448	90
268.681	66
268.913	87
269.145	77
269.377	76
269.609	87
269.841	77
270.073	94
270.306	82
270.538	81
270.77	101
271.002	93
271.234	82
271.466	86
271.698	92
271.93	79
272.162	80
272.394	88
272.626	90
272.858	101
273.09	82
273.322	80
273.553	77
273.785	73
274.017	83
274.249	90
274.481	90
274.713	89
274.945	81
275.176	71
275.408	78
275.64	104
275.872	99
276.104	91
276.335	74
276.567	95
276.799	106
277.031	88
277.262	84
277.494	85
277.726	96
277.957	95
278.189	81
278.421	92
278.652	100
278.884	85
279.115	85
279.347	89
279.579	75
279.81	80
280.042	89
280.273	90
280.505	85
280.736	85
280.968	82
281.199	92
281.431	88
281.662	86
281.894	85
282.125	92
282.356	92
282.588	101
282.819	103
283.051	73
283.282	84
283.513	94
283.745	97
283.976	98
284.207	94
284.439	91
284.67	91
284.901	82
285.132	88
285.364	92
285.595	97
285.826	90
286.057	93
286.288	87
286.52	94
286.751	91
286.982	91
287.213	90
287.444	90
287.675	81
287.906	81
288.138	74
288.369	83
288.6	109
288.831	93
289.062	97
289.293	87
289.524	86
289.755	80
289.986	98
290.217	80
290.448	93
290.679	79
290.91	91
291.141	87
291.371	89
291.602	85
291.833	97
292.064	89
292.295	85
292.526	75
292.757	86
292.987	87
293.218	84
293.449	75
293.68	84
293.91	83
294.141	99
294.372	101
294.603	104
294.833	84
295.064	81
295.295	82
295.525	87
295.756	90
295.987	97
296.217	112
296.448	109
296.679	95
296.909	97
297.14	95
297.37	95
297.601	92
297.831	91
298.062	83
298.292	77
298.523	81
298.753	92
298.984	80
299.214	85
299.445	84
299.675	90
299.905	79
300.136	98
300.366	96
300.597	102
300.827	104
301.057	89
301.288	107
301.518	95
301.748	94
301.979	105
302.209	84
302.439	83
302.669	98
302.9	90
303.13	99
303.36	123
303.59	114
303.82	116
304.051	90
304.281	86
304.511	96
304.741	82
304.971	95
305.201	97
305.431	80
305.661	90
305.891	90
306.121	97
306.352	100
306.582	102
306.812	88
307.042	97
307.272	90
307.502	87
307.731	99
307.961	99
308.191	106
308.421	103
308.651	97
308.881	98
309.111	84
309.341	96
309.571	92
309.8	101
310.03	90
310.26	89
310.49	97
310.72	104
310.949	96
311.179	88
311.409	98
311.639	89
311.868	96
312.098	81
312.328	94
312.557	81
312.787	95
313.017	104
313.246	99
313.476	76
313.706	108
313.935	99
314.165	96
314.394	87
314.624	84
314.853	85
315.083	102
315.312	102
315.542	84
315.771	85
316.001	83
316.23	95
316.46	99
316.689	81
316.919	85
317.148	121
317.377	103
317.607	105
317.836	112
318.065	95
318.295	86
318.524	90
318.753	85
318.983	82
319.212	89
319.441	95
319.67	100
319.9	94
320.129	88
320.358	79
320.587	100
320.816	107
321.046	94
321.275	88
321.504	96
321.733	89
321.962	103
322.191	104
322.42	102
322.649	114
322.878	106
323.108	95
323.337	114
323.566	134
323.795	136
324.024	180
324.253	338
324.482	665
324.71	1308
324.939	1737
325.168	636
325.397	207
325.626	141
325.855	131
326.084	141
326.313	152
326.542	150
326.77	208
326.999	392
327.228	762
327.457	1365
327.686	1096
327.914	299
328.143	162
328.372	136
328.6	116
328.829	98
329.058	118
329.287	112
329.515	92
329.744	110
329.972	104
330.201	125
330.43	110
330.658	108
330.887	92
331.115	107
331.344	105
331.572	90
331.801	95
332.03	95
332.258	92
332.486	87
332.715	93
332.943	80
333.172	92
333.4	105
333.629	100
333.857	104
334.085	93
334.314	97
334.542	111
334.771	113
334.999	90
335.227	84
335.455	91
335.684	98
335.912	95
336.14	106
336.369	98
336.597	105
336.825	94
337.053	81
337.281	84
337.51	95
337.738	91
337.966	92
338.194	101
338.422	105
338.65	100
338.878	95
339.106	91
339.334	90
339.562	91
339.79	93
340.018	94
340.246	102
340.474	106
340.702	84
340.93	92
341.158	102
341.386	103
341.614	91
341.842	89
342.07	92
342.298	94
342.526	76
342.754	81
342.981	102
343.209	90
343.437	107
343.665	84
343.893	110
344.12	95
344.348	87
344.576	93
344.804	88
345.031	97
345.259	94
345.487	96
345.714	92
345.942	101
346.17	89
346.397	94
346.625	101
346.853	91
347.08	84
347.308	90
347.535	85
347.763	92
347.99	90
348.218	96
348.445	97
348.673	95
348.9	95
349.128	95
349.355	94
349.583	91
349.81	94
350.037	96
350.265	98
350.492	89
350.72	88
350.947	115
351.174	95
351.402	106
351.629	100
351.856	87
352.083	99
352.311	112
352.538	91
352.765	94
352.992	110
353.22	114
353.447	103
353.674	102
353.901	110
354.128	102
354.355	80
354.583	93
354.81	92
355.037	86
355.264	109
355.491	85
355.718	90
355.945	103
356.172	95
356.399	84
356.626	86
356.853	90
357.08	98
357.307	93
357.534	92
357.761	96
357.988	84
358.215	95
358.441	94
358.668	87
358.895	83
359.122	88
359.349	111
359.576	82
359.802	92
360.029	98
360.256	97
360.483	94
360.709	102
360.936	93
361.163	87
361.39	99
361.616	82
361.843	92
362.07	88
362.296	88
362.523	104
362.749	97
362.976	72
363.203	85
363.429	106
363.656	95
363.882	82
364.109	96
364.335	78
364.562	85
364.788	82
365.015	92
365.241	87
365.468	100
365.694	101
365.92	85
366.147	92
366.373	100
366.599	89
366.826	86
367.052	79
367.278	94
367.505	88
367.731	95
367.957	88
368.184	88
368.41	103
368.636	100
368.862	113
369.089	111
369.315	85
369.541	89
369.767	76
369.993	85
370.219	100
370.445	98
370.672	77
370.898	81
371.124	95
371.35	95
371.576	87
371.802	89
372.028	81
372.254	97
372.48	90
372.706	92
372.932	93
373.158	85
373.384	92
373.61	90
373.835	101
374.061	84
374.287	102
374.513	79
374.739	87
374.965	83
375.191	83
375.416	75
375.642	97
375.868	95
376.094	88
376.319	97
376.545	97
376.771	81
376.997	97
377.222	87
377.448	84
377.674	90
377.899	92
378.125	81
378.35	83
378.576	80
378.802	84
379.027	80
379.253	91
379.478	103
379.704	89
379.929	104
380.155	105
380.38	87
380.606	76
380.831	105
381.057	84
381.282	95
381.507	91
381.733	109
381.958	99
382.184	109
382.409	100
382.634	103
382.86	94
383.085	103
383.31	88
383.535	97
383.761	96
383.986	106
384.211	103
384.436	95
384.662	98
384.887	102
385.112	96
385.337	85
385.562	109
385.787	107
386.013	102
386.238	112
386.463	105
386.688	104
386.913	101
387.138	101
387.363	104
387.588	112
387.813	106
388.038	103
388.263	96
388.488	119
388.713	97
388.938	96
389.163	95
389.387	90
389.612	88
389.837	85
390.062	99
390.287	101
390.512	100
390.736	97
390.961	84
391.186	78
391.411	81
391.636	86
391.86	87
392.085	88
392.31	84
392.534	95
392.759	80
392.984	92
393.208	88
393.433	74
393.658	61
393.882	81
394.107	88
394.331	88
394.556	88
394.78	96
395.005	89
395.229	93
395.454	74
395.678	96
395.903	90
396.127	98
396.352	94
396.576	85
396.801	79
397.025	94
397.249	100
397.474	84
397.698	82
397.922	93
398.147	95
398.371	73
398.595	89
398.82	82
399.044	85
399.268	74
399.492	79
399.717	78
399.941	81
400.165	93
400.389	100
400.613	85
400.837	77
401.062	86
401.286	89
401.51	88
401.734	78
401.958	93
402.182	114
402.406	142
402.63	122
402.854	101
403.078	85
403.302	97
403.526	80
403.75	96
403.974	82
404.198	82
404.422	69
404.645	96
404.869	77
405.093	100
405.317	101
405.541	101
405.765	84
405.988	103
406.212	130
406.436	166
406.66	107
406.883	106
407.107	90
407.331	91
407.555	97
407.778	91
408.002	83
408.226	90
408.449	87
408.673	96
408.896	87
409.12	91
409.344	91
409.567	78
409.791	88
410.014	92
410.238	89
410.461	105
410.685	97
410.908	92
411.132	114
411.355	82
411.578	97
411.802	80
412.025	77
412.249	86
412.472	89
412.695	86
412.919	76
413.142	78
413.365	87
413.589	86
413.812	76
414.035	88
414.258	77
414.482	87
414.705	80
414.928	95
415.151	83
415.374	99
415.597	101
415.821	92
416.044	86
416.267	89
416.49	82
416.713	88
416.936	82
417.159	84
417.382	96
417.605	85
417.828	86
418.051	86
418.274	83
418.497	88
418.72	82
418.943	96
419.166	82
419.389	80
419.611	80
419.834	96
420.057	98
420.28	72
420.503	67
420.726	80
420.948	79
421.171	110
421.394	94
421.617	93
421.839	95
422.062	85
422.285	87
422.507	96
422.73	97
422.953	83
423.175	86
423.398	95
423.621	98
423.843	96
424.066	87
424.288	87
424.511	85
424.733	87
424.956	92
425.178	103
425.401	91
425.623	98
425.846	77
426.068	77
426.291	90
426.513	89
426.735	92
426.958	86
427.18	96
427.402	128
427.625	139
427.847	109
428.069	97
428.292	68
428.514	85
428.736	67
428.958	76
429.181	86
429.403	91
429.625	85
429.847	90
430.069	84
430.292	91
430.514	91
430.736	84
430.958	92
431.18	82
431.402	65
431.624	71
431.846	79
432.068	99
432.29	78
432.512	101
432.734	86
432.956	116
433.178	93
433.4	96
433.622	93
433.844	88
434.066	87
434.287	88
434.509	94
434.731	89
434.953	87
435.175	85
435.397	88
435.618	101
435.84	94
436.062	109
436.284	103
436.505	98
436.727	99
436.949	77
437.17	82
437.392	103
437.614	89
437.835	98
438.057	105
438.278	98
438.5	97
438.721	106
438.943	86
439.165	92
439.386	81
439.608	91
439.829	103
440.05	110
440.272	128
440.493	87
440.715	96
440.936	96
441.158	82
441.379	97
441.6	88
441.822	100
442.043	92
442.264	92
442.486	110
442.707	86
442.928	96
443.149	117
443.371	113
443.592	103
443.813	96
444.034	108
444.255	95
444.476	77
444.698	97
444.919	82
445.14	138
445.361	117
445.582	104
445.803	113
446.024	115
446.245	116
446.466	86
446.687	88
446.908	95
447.129	96
447.35	81
447.571	89
447.792	96
448.013	88
448.234	96
448.455	89
448.675	92
448.896	108
449.117	104
449.338	86
449.559	110
449.779	113
450	83
450.221	86
450.442	83
450.662	96
450.883	90
451.104	104
451.324	75
451.545	60
451.766	95
451.986	79
452.207	90
452.428	105
452.648	90
452.869	109
453.089	108
453.31	100
453.53	87
453.751	93
453.971	90
454.192	98
454.412	75
454.633	80
454.853	85
455.073	98
455.294	75
455.514	87
455.734	76
455.955	90
456.175	85
456.395	73
456.616	87
456.836	80
457.056	80
457.276	79
457.497	82
457.717	84
457.937	90
458.157	88
458.377	96
458.598	108
458.818	134
459.038	122
459.258	100
459.478	99
459.698	80
459.918	100
460.138	93
460.358	87
460.578	86
460.798	87
461.018	89
461.238	81
461.458	95
461.678	83
461.898	77
462.118	79
462.338	92
462.558	84
462.777	83
462.997	84
463.217	84
463.437	73
463.657	90
463.876	83
464.096	79
464.316	87
464.536	80
464.755	95
464.975	98
465.195	117
465.414	116
465.634	103
465.854	88
466.073	89
466.293	80
466.512	79
466.732	92
466.951	74
467.171	84
467.391	93
467.61	95
467.829	79
468.049	86
468.268	88
468.488	88
468.707	86
468.927	73
469.146	86
469.365	87
469.585	89
469.804	72
470.023	90
470.243	84
470.462	95
470.681	86
470.901	75
471.12	82
471.339	81
471.558	80
471.777	85
471.997	93
472.216	105
472.435	119
472.654	88
472.873	82
473.092	95
473.311	87
473.53	92
473.749	88
473.968	94
474.187	92
474.406	84
474.625	88
474.844	84
475.063	68
475.282	79
475.501	81
475.72	70
475.939	80
476.158	82
476.377	80
476.596	88
476.814	98
477.033	89
477.252	82
477.471	89
477.69	81
477.908	83
478.127	91
478.346	96
478.564	81
478.783	84
479.002	97
479.22	80
479.439	93
479.658	97
479.876	102
480.095	83
480.313	109
480.532	100
480.751	92
480.969	110
481.188	150
481.406	116
481.624	81
481.843	89
482.061	74
482.28	97
482.498	77
482.717	90
482.935	88
483.153	90
483.372	82
483.59	98
483.808	85
484.027	96
484.245	90
484.463	96
484.681	87
484.9	95
485.118	97
485.336	77
485.554	99
485.772	96
485.99	108
486.209	103
486.427	91
486.645	98
486.863	87
487.081	87
487.299	92
487.517	101
487.735	106
487.953	81
488.171	81
488.389	96
488.607	93
488.825	86
489.043	90
489.261	90
489.479	79
489.696	89
489.914	93
490.132	84
490.35	81
490.568	88
490.786	91
491.003	80
491.221	105
491.439	79
491.657	96
491.874	88
492.092	100
492.31	82
492.527	89
492.745	95
492.963	93
493.18	102
493.398	89
493.615	82
493.833	88
494.05	88
494.268	88
494.485	89
494.703	89
494.92	85
495.138	84
495.355	98
495.573	92
495.79	96
496.008	101
496.225	87
496.442	90
496.66	97
496.877	89
497.094	98
497.312	84
497.529	87
497.746	86
497.963	79
498.181	92
498.398	83
498.615	94
498.832	95
499.049	87
499.267	89
499.484	85
499.701	81
499.918	93
500.135	96
500.352	80
500.569	90
500.786	87
501.003	99
501.22	95
501.437	87
501.654	99
501.871	100
502.088	79
502.305	99
502.522	90
502.739	76
502.956	89
503.172	94
503.389	92
503.606	98
503.823	91
504.04	94
504.256	101
504.473	97
504.69	85
504.907	87
505.123	90
505.34	85
505.557	82
505.773	88
505.99	98
506.207	87
506.423	98
506.64	96
506.856	90
507.073	95
507.289	88
507.506	90
507.722	91
507.939	100
508.155	92
508.372	88
508.588	80
508.805	83
509.021	96
509.238	81
509.454	99
509.67	82
509.887	114
510.103	125
510.319	178
510.536	539
510.752	1613
510.968	485
511.184	137
511.401	89
511.617	90
511.833	86
512.049	91
512.265	96
512.481	88
512.698	81
512.914	84
513.13	82
513.346	80
513.562	92
513.778	94
513.994	103
514.21	90
514.426	111
514.642	109
514.858	107
515.074	125
515.29	308
515.506	967
515.721	391
515.937	136
516.153	95
516.369	83
516.585	78
516.801	85
517.016	94
517.232	86
517.448	87
517.664	97
517.879	98
518.095	95
518.311	79
518.527	92
518.742	94
518.958	103
519.173	103
519.389	88
519.605	101
519.82	108
520.036	84
520.251	111
520.467	106
520.682	104
520.898	100
521.113	110
521.329	110
521.544	185
521.76	410
521.975	1511
522.19	970
522.406	244
522.621	124
522.836	101
523.052	95
523.267	101
523.482	89
523.698	82
523.913	113
524.128	97
524.343	83
524.559	75
524.774	96
524.989	92
525.204	112
525.419	92
525.634	105
525.849	86
526.064	87
526.28	96
526.495	94
526.71	92
526.925	82
527.14	93
527.355	95
527.57	94
527.785	88
527.999	82
528.214	100
528.429	84
528.644	97
528.859	88
529.074	103
529.289	91
529.503	146
529.718	94
529.933	93
530.148	90
530.363	97
530.577	105
530.792	103
531.007	103
531.221	100
531.436	92
531.651	95
531.865	87
532.08	89
532.295	102
532.509	89
532.724	88
532.938	96
533.153	98
533.367	93
533.582	102
533.796	87
534.011	80
534.225	87
534.44	89
534.654	97
534.868	92
535.083	77
535.297	99
535.511	96
535.726	94
535.94	99
536.154	92
536.369	103
536.583	86
536.797	86
537.011	96
537.225	105
537.44	96
537.654	88
537.868	85
538.082	97
538.296	94
538.51	84
538.724	79
538.938	88
539.153	102
539.367	101
539.581	89
539.795	90
540.009	87
540.222	88
540.436	82
540.65	86
540.864	82
541.078	96
541.292	95
541.506	97
541.72	85
541.934	96
542.147	96
542.361	95
542.575	80
542.789	90
543.002	86
543.216	97
543.43	102
543.644	80
543.857	93
544.071	91
544.285	96
544.498	92
544.712	79
544.925	103
545.139	91
545.352	95
545.566	85
545.779	92
545.993	85
546.206	100
546.42	85
546.633	96
546.847	93
547.06	88
547.274	92
547.487	82
547.7	74
547.914	92
548.127	81
548.34	99
548.554	104
548.767	88
548.98	78
549.193	79
549.407	75
549.62	80
549.833	88
550.046	81
550.259	97
550.473	86
550.686	86
550.899	95
551.112	87
551.325	79
551.538	90
551.751	84
551.964	95
552.177	80
552.39	86
552.603	81
552.816	88
553.029	81
553.242	94
553.455	97
553.667	111
553.88	95
554.093	86
554.306	80
554.519	81
554.732	75
554.944	91
555.157	83
555.37	79
555.583	75
555.795	99
556.008	79
556.221	90
556.433	90
556.646	93
556.859	84
557.071	93
557.284	85
557.496	81
557.709	89
557.921	103
558.134	85
558.346	92
558.559	81
558.771	84
558.984	96
559.196	89
559.409	79
559.621	78
559.833	99
560.046	78
560.258	92
560.47	84
560.683	93
560.895	91
561.107	97
561.32	101
561.532	87
561.744	103
561.956	102
562.168	81
562.381	98
562.593	92
562.805	89
563.017	94
563.229	101
563.441	94
563.653	93
563.865	85
564.077	105
564.289	82
564.501	76
564.713	82
564.925	101
565.137	94
565.349	90
565.561	76
565.773	86
565.985	65
566.197	82
566.408	74
566.62	93
566.832	86
567.044	87
567.255	80
567.467	94
567.679	81
567.891	87
568.102	82
568.314	81
568.526	73
568.737	82
568.949	82
569.161	88
569.372	73
569.584	87
569.795	90
570.007	85
570.218	189
570.43	122
570.641	97
570.853	88
571.064	85
571.276	70
571.487	74
571.698	87
571.91	88
572.121	94
572.333	90
572.544	96
572.755	90
572.966	85
573.178	85
573.389	88
573.6	80
573.811	84
574.023	97
574.234	93
574.445	88
574.656	87
574.867	86
575.078	97
575.289	83
575.501	88
575.712	95
575.923	91
576.134	90
576.345	87
576.556	78
576.767	76
576.978	89
577.188	81
577.399	94
577.61	87
577.821	97
578.032	108
578.243	210
578.454	559
578.665	168
578.875	103
579.086	87
579.297	89
579.508	86
579.718	96
579.929	89
580.14	79
580.35	82
580.561	87
580.772	83
580.982	93
581.193	86
581.403	84
581.614	77
581.825	94
582.035	93
582.246	77
582.456	95
582.667	102
582.877	92
583.087	88
583.298	81
583.508	84
583.719	93
583.929	86
584.139	101
584.35	85
584.56	94
584.77	92
584.981	90
585.191	79
585.401	91
585.611	86
