Data from Uncirc_2009_H10_HRD10591_00046.txt Node
Date: Wed Jan 03 10:12:11 EST 2024
User: Yrep
Spectrometer: HR+D1059
Trigger mode: 1
Integration Time (sec): 1.000000E-1
Scans to average: 1
Electric dark correction enabled: true
Nonlinearity correction enabled: false
Boxcar width: 0
XAxis mode: Wavelengths
Number of Pixels in Spectrum: 2048
>>>>>Begin Spectral Data<<<<<
223.165	-11.44
223.4	-11.44
223.635	-11.44
223.869	-15.44
224.104	-18.44
224.338	-14.44
224.573	-18.44
224.808	-7.44
225.042	-6.44
225.277	-12.44
225.511	1.56
225.746	0.56
225.98	8.56
226.215	15.56
226.449	22.56
226.683	6.56
226.918	24.56
227.152	24.56
227.387	35.56
227.621	39.56
227.856	41.56
228.09	54.56
228.324	37.56
228.559	37.56
228.793	44.56
229.027	59.56
229.262	61.56
229.496	63.56
229.73	62.56
229.964	77.56
230.199	83.56
230.433	85.56
230.667	77.56
230.901	83.56
231.136	70.56
231.37	77.56
231.604	76.56
231.838	88.56
232.072	75.56
232.306	53.56
232.541	92.56
232.775	72.56
233.009	85.56
233.243	81.56
233.477	87.56
233.711	80.56
233.945	86.56
234.179	74.56
234.413	82.56
234.647	89.56
234.881	80.56
235.115	72.56
235.349	88.56
235.583	86.56
235.817	63.56
236.051	76.56
236.285	70.56
236.519	68.56
236.753	75.56
236.987	65.56
237.221	81.56
237.455	77.56
237.689	74.56
237.922	73.56
238.156	64.56
238.39	71.56
238.624	76.56
238.858	71.56
239.091	96.56
239.325	83.56
239.559	74.56
239.793	93.56
240.027	80.56
240.26	77.56
240.494	81.56
240.728	73.56
240.961	74.56
241.195	71.56
241.429	86.56
241.662	75.56
241.896	64.56
242.13	75.56
242.363	69.56
242.597	66.56
242.83	73.56
243.064	88.56
243.298	87.56
243.531	90.56
243.765	77.56
243.998	64.56
244.232	80.56
244.465	85.56
244.699	77.56
244.932	77.56
245.166	96.56
245.399	81.56
245.633	81.56
245.866	79.56
246.099	72.56
246.333	77.56
246.566	78.56
246.8	70.56
247.033	82.56
247.266	89.56
247.5	84.56
247.733	87.56
247.966	82.56
248.2	84.56
248.433	79.56
248.666	80.56
248.899	92.56
249.133	79.56
249.366	92.56
249.599	96.56
249.832	82.56
250.066	80.56
250.299	86.56
250.532	96.56
250.765	89.56
250.998	88.56
251.231	81.56
251.465	83.56
251.698	83.56
251.931	70.56
252.164	82.56
252.397	51.56
252.63	89.56
252.863	78.56
253.096	78.56
253.329	85.56
253.562	76.56
253.795	68.56
254.028	79.56
254.261	72.56
254.494	78.56
254.727	86.56
254.96	86.56
255.193	82.56
255.426	105.56
255.659	84.56
255.892	90.56
256.124	79.56
256.357	81.56
256.59	70.56
256.823	72.56
257.056	80.56
257.289	87.56
257.521	80.56
257.754	85.56
257.987	77.56
258.22	85.56
258.452	75.56
258.685	74.56
258.918	82.56
259.151	90.56
259.383	85.56
259.616	69.56
259.849	80.56
260.081	85.56
260.314	69.56
260.547	93.56
260.779	81.56
261.012	83.56
261.244	85.56
261.477	71.56
261.71	89.56
261.942	100.56
262.175	86.56
262.407	74.56
262.64	78.56
262.872	79.56
263.105	69.56
263.337	82.56
263.57	79.56
263.802	84.56
264.035	77.56
264.267	81.56
264.499	77.56
264.732	81.56
264.964	95.56
265.197	79.56
265.429	80.56
265.661	87.56
265.894	83.56
266.126	73.56
266.358	88.56
266.591	83.56
266.823	74.56
267.055	90.56
267.287	78.56
267.52	91.56
267.752	94.56
267.984	80.56
268.216	68.56
268.448	89.56
268.681	82.56
268.913	82.56
269.145	72.56
269.377	94.56
269.609	91.56
269.841	89.56
270.073	81.56
270.306	83.56
270.538	88.56
270.77	82.56
271.002	88.56
271.234	83.56
271.466	93.56
271.698	77.56
271.93	105.56
272.162	90.56
272.394	79.56
272.626	99.56
272.858	88.56
273.09	85.56
273.322	77.56
273.553	94.56
273.785	79.56
274.017	87.56
274.249	86.56
274.481	92.56
274.713	91.56
274.945	79.56
275.176	63.56
275.408	78.56
275.64	77.56
275.872	86.56
276.104	74.56
276.335	84.56
276.567	90.56
276.799	89.56
277.031	90.56
277.262	93.56
277.494	84.56
277.726	98.56
277.957	76.56
278.189	86.56
278.421	91.56
278.652	74.56
278.884	82.56
279.115	78.56
279.347	92.56
279.579	88.56
279.81	92.56
280.042	98.56
280.273	81.56
280.505	81.56
280.736	88.56
280.968	84.56
281.199	99.56
281.431	93.56
281.662	83.56
281.894	90.56
282.125	86.56
282.356	103.56
282.588	111.56
282.819	90.56
283.051	101.56
283.282	92.56
283.513	101.56
283.745	92.56
283.976	88.56
284.207	94.56
284.439	76.56
284.67	81.56
284.901	96.56
285.132	97.56
285.364	79.56
285.595	90.56
285.826	94.56
286.057	86.56
286.288	92.56
286.52	112.56
286.751	82.56
286.982	95.56
287.213	88.56
287.444	89.56
287.675	76.56
287.906	93.56
288.138	85.56
288.369	78.56
288.6	89.56
288.831	90.56
289.062	92.56
289.293	90.56
289.524	85.56
289.755	96.56
289.986	103.56
290.217	81.56
290.448	102.56
290.679	83.56
290.91	88.56
291.141	81.56
291.371	100.56
291.602	92.56
291.833	92.56
292.064	89.56
292.295	75.56
292.526	88.56
292.757	90.56
292.987	93.56
293.218	97.56
293.449	84.56
293.68	84.56
293.91	81.56
294.141	91.56
294.372	89.56
294.603	89.56
294.833	81.56
295.064	88.56
295.295	95.56
295.525	92.56
295.756	93.56
295.987	101.56
296.217	126.56
296.448	109.56
296.679	86.56
296.909	108.56
297.14	77.56
297.37	83.56
297.601	89.56
297.831	85.56
298.062	100.56
298.292	64.56
298.523	94.56
298.753	86.56
298.984	90.56
299.214	83.56
299.445	92.56
299.675	94.56
299.905	97.56
300.136	80.56
300.366	91.56
300.597	80.56
300.827	101.56
301.057	108.56
301.288	98.56
301.518	100.56
301.748	89.56
301.979	90.56
302.209	87.56
302.439	86.56
302.669	99.56
302.9	82.56
303.13	91.56
303.36	100.56
303.59	109.56
303.82	106.56
304.051	85.56
304.281	89.56
304.511	89.56
304.741	89.56
304.971	102.56
305.201	98.56
305.431	88.56
305.661	99.56
305.891	86.56
306.121	96.56
306.352	104.56
306.582	100.56
306.812	99.56
307.042	87.56
307.272	81.56
307.502	95.56
307.731	94.56
307.961	88.56
308.191	95.56
308.421	78.56
308.651	96.56
308.881	85.56
309.111	101.56
309.341	93.56
309.571	97.56
309.8	85.56
310.03	93.56
310.26	96.56
310.49	101.56
310.72	84.56
310.949	104.56
311.179	89.56
311.409	84.56
311.639	97.56
311.868	89.56
312.098	86.56
312.328	88.56
312.557	105.56
312.787	97.56
313.017	79.56
313.246	111.56
313.476	88.56
313.706	99.56
313.935	77.56
314.165	90.56
314.394	85.56
314.624	94.56
314.853	82.56
315.083	88.56
315.312	92.56
315.542	99.56
315.771	97.56
316.001	96.56
316.23	95.56
316.46	85.56
316.689	101.56
316.919	96.56
317.148	106.56
317.377	110.56
317.607	126.56
317.836	100.56
318.065	95.56
318.295	81.56
318.524	81.56
318.753	95.56
318.983	109.56
319.212	81.56
319.441	102.56
319.67	96.56
319.9	84.56
320.129	91.56
320.358	79.56
320.587	91.56
320.816	100.56
321.046	96.56
321.275	88.56
321.504	101.56
321.733	107.56
321.962	93.56
322.191	105.56
322.42	89.56
322.649	99.56
322.878	118.56
323.108	116.56
323.337	107.56
323.566	121.56
323.795	126.56
324.024	184.56
324.253	320.56
324.482	672.56
324.71	1369.56
324.939	1741.56
325.168	661.56
325.397	206.56
325.626	118.56
325.855	115.56
326.084	144.56
326.313	153.56
326.542	156.56
326.77	211.56
326.999	374.56
327.228	790.56
327.457	1377.56
327.686	1089.56
327.914	316.56
328.143	161.56
328.372	134.56
328.6	121.56
328.829	116.56
329.058	104.56
329.287	108.56
329.515	108.56
329.744	102.56
329.972	98.56
330.201	104.56
330.43	107.56
330.658	95.56
330.887	122.56
331.115	112.56
331.344	105.56
331.572	99.56
331.801	88.56
332.03	83.56
332.258	82.56
332.486	93.56
332.715	94.56
332.943	102.56
333.172	84.56
333.4	87.56
333.629	106.56
333.857	101.56
334.085	107.56
334.314	109.56
334.542	123.56
334.771	108.56
334.999	98.56
335.227	103.56
335.455	101.56
335.684	103.56
335.912	92.56
336.14	89.56
336.369	102.56
336.597	94.56
336.825	78.56
337.053	99.56
337.281	99.56
337.51	82.56
337.738	98.56
337.966	87.56
338.194	90.56
338.422	95.56
338.65	93.56
338.878	86.56
339.106	107.56
339.334	89.56
339.562	95.56
339.79	88.56
340.018	96.56
340.246	95.56
340.474	95.56
340.702	81.56
340.93	86.56
341.158	76.56
341.386	96.56
341.614	84.56
341.842	103.56
342.07	78.56
342.298	73.56
342.526	92.56
342.754	80.56
342.981	91.56
343.209	89.56
343.437	91.56
343.665	92.56
343.893	88.56
344.12	90.56
344.348	91.56
344.576	103.56
344.804	80.56
345.031	83.56
345.259	97.56
345.487	84.56
345.714	90.56
345.942	101.56
346.17	92.56
346.397	102.56
346.625	107.56
346.853	82.56
347.08	91.56
347.308	111.56
347.535	105.56
347.763	73.56
347.99	99.56
348.218	100.56
348.445	108.56
348.673	85.56
348.9	96.56
349.128	97.56
349.355	84.56
349.583	105.56
349.81	97.56
350.037	92.56
350.265	104.56
350.492	104.56
350.72	101.56
350.947	111.56
351.174	108.56
351.402	87.56
351.629	87.56
351.856	95.56
352.083	101.56
352.311	116.56
352.538	107.56
352.765	110.56
352.992	104.56
353.22	103.56
353.447	101.56
353.674	103.56
353.901	104.56
354.128	101.56
354.355	97.56
354.583	103.56
354.81	93.56
355.037	104.56
355.264	100.56
355.491	93.56
355.718	93.56
355.945	106.56
356.172	94.56
356.399	95.56
356.626	111.56
356.853	96.56
357.08	118.56
357.307	93.56
357.534	88.56
357.761	85.56
357.988	93.56
358.215	92.56
358.441	86.56
358.668	86.56
358.895	90.56
359.122	88.56
359.349	98.56
359.576	91.56
359.802	87.56
360.029	107.56
360.256	91.56
360.483	86.56
360.709	95.56
360.936	90.56
361.163	93.56
361.39	74.56
361.616	88.56
361.843	87.56
362.07	88.56
362.296	84.56
362.523	80.56
362.749	91.56
362.976	79.56
363.203	89.56
363.429	86.56
363.656	89.56
363.882	113.56
364.109	80.56
364.335	88.56
364.562	80.56
364.788	76.56
365.015	86.56
365.241	93.56
365.468	106.56
365.694	91.56
365.92	85.56
366.147	77.56
366.373	102.56
366.599	84.56
366.826	76.56
367.052	92.56
367.278	100.56
367.505	100.56
367.731	87.56
367.957	91.56
368.184	88.56
368.41	97.56
368.636	111.56
368.862	117.56
369.089	104.56
369.315	94.56
369.541	90.56
369.767	79.56
369.993	88.56
370.219	92.56
370.445	82.56
370.672	78.56
370.898	89.56
371.124	103.56
371.35	92.56
371.576	91.56
371.802	97.56
372.028	87.56
372.254	93.56
372.48	103.56
372.706	86.56
372.932	85.56
373.158	85.56
373.384	93.56
373.61	97.56
373.835	90.56
374.061	84.56
374.287	85.56
374.513	89.56
374.739	90.56
374.965	80.56
375.191	78.56
375.416	96.56
375.642	90.56
375.868	97.56
376.094	94.56
376.319	85.56
376.545	83.56
376.771	87.56
376.997	85.56
377.222	77.56
377.448	93.56
377.674	89.56
377.899	102.56
378.125	93.56
378.35	92.56
378.576	82.56
378.802	89.56
379.027	90.56
379.253	98.56
379.478	87.56
379.704	98.56
379.929	101.56
380.155	115.56
380.38	88.56
380.606	95.56
380.831	90.56
381.057	101.56
381.282	105.56
381.507	98.56
381.733	91.56
381.958	82.56
382.184	105.56
382.409	106.56
382.634	94.56
382.86	102.56
383.085	88.56
383.31	101.56
383.535	99.56
383.761	105.56
383.986	101.56
384.211	88.56
384.436	87.56
384.662	96.56
384.887	102.56
385.112	107.56
385.337	99.56
385.562	95.56
385.787	120.56
386.013	96.56
386.238	117.56
386.463	104.56
386.688	117.56
386.913	102.56
387.138	98.56
387.363	99.56
387.588	93.56
387.813	106.56
388.038	125.56
388.263	98.56
388.488	108.56
388.713	105.56
388.938	99.56
389.163	95.56
389.387	100.56
389.612	96.56
389.837	98.56
390.062	101.56
390.287	85.56
390.512	90.56
390.736	91.56
390.961	94.56
391.186	92.56
391.411	82.56
391.636	100.56
391.86	88.56
392.085	89.56
392.31	75.56
392.534	87.56
392.759	86.56
392.984	87.56
393.208	78.56
393.433	82.56
393.658	82.56
393.882	82.56
394.107	91.56
394.331	81.56
394.556	78.56
394.78	88.56
395.005	85.56
395.229	98.56
395.454	85.56
395.678	86.56
395.903	81.56
396.127	86.56
396.352	100.56
396.576	101.56
396.801	92.56
397.025	82.56
397.249	77.56
397.474	85.56
397.698	86.56
397.922	80.56
398.147	82.56
398.371	87.56
398.595	81.56
398.82	96.56
399.044	95.56
399.268	82.56
399.492	79.56
399.717	90.56
399.941	90.56
400.165	89.56
400.389	91.56
400.613	104.56
400.837	88.56
401.062	100.56
401.286	74.56
401.51	94.56
401.734	86.56
401.958	95.56
402.182	100.56
402.406	126.56
402.63	104.56
402.854	89.56
403.078	86.56
403.302	86.56
403.526	85.56
403.75	89.56
403.974	84.56
404.198	79.56
404.422	101.56
404.645	85.56
404.869	88.56
405.093	91.56
405.317	97.56
405.541	82.56
405.765	90.56
405.988	106.56
406.212	145.56
406.436	164.56
406.66	110.56
406.883	95.56
407.107	90.56
407.331	100.56
407.555	105.56
407.778	99.56
408.002	92.56
408.226	88.56
408.449	89.56
408.673	92.56
408.896	99.56
409.12	113.56
409.344	90.56
409.567	92.56
409.791	91.56
410.014	86.56
410.238	87.56
410.461	105.56
410.685	97.56
410.908	100.56
411.132	92.56
411.355	96.56
411.578	90.56
411.802	87.56
412.025	90.56
412.249	109.56
412.472	111.56
412.695	101.56
412.919	103.56
413.142	85.56
413.365	96.56
413.589	78.56
413.812	96.56
414.035	80.56
414.258	92.56
414.482	93.56
414.705	100.56
414.928	89.56
415.151	76.56
415.374	67.56
415.597	74.56
415.821	92.56
416.044	94.56
416.267	90.56
416.49	76.56
416.713	81.56
416.936	95.56
417.159	73.56
417.382	87.56
417.605	90.56
417.828	86.56
418.051	83.56
418.274	95.56
418.497	87.56
418.72	87.56
418.943	86.56
419.166	74.56
419.389	91.56
419.611	86.56
419.834	87.56
420.057	93.56
420.28	86.56
420.503	106.56
420.726	83.56
420.948	105.56
421.171	102.56
421.394	82.56
421.617	97.56
421.839	90.56
422.062	89.56
422.285	100.56
422.507	113.56
422.73	102.56
422.953	89.56
423.175	74.56
423.398	85.56
423.621	87.56
423.843	88.56
424.066	97.56
424.288	98.56
424.511	100.56
424.733	89.56
424.956	93.56
425.178	102.56
425.401	102.56
425.623	113.56
425.846	92.56
426.068	94.56
426.291	78.56
426.513	92.56
426.735	82.56
426.958	84.56
427.18	103.56
427.402	124.56
427.625	146.56
427.847	113.56
428.069	104.56
428.292	88.56
428.514	87.56
428.736	94.56
428.958	74.56
429.181	81.56
429.403	81.56
429.625	83.56
429.847	83.56
430.069	95.56
430.292	93.56
430.514	83.56
430.736	81.56
430.958	108.56
431.18	89.56
431.402	85.56
431.624	88.56
431.846	79.56
432.068	86.56
432.29	84.56
432.512	90.56
432.734	79.56
432.956	87.56
433.178	90.56
433.4	95.56
433.622	85.56
433.844	77.56
434.066	105.56
434.287	79.56
434.509	75.56
434.731	84.56
434.953	86.56
435.175	84.56
435.397	105.56
435.618	90.56
435.84	103.56
436.062	119.56
436.284	99.56
436.505	89.56
436.727	95.56
436.949	88.56
437.17	82.56
437.392	88.56
437.614	89.56
437.835	93.56
438.057	97.56
438.278	106.56
438.5	91.56
438.721	113.56
438.943	95.56
439.165	90.56
439.386	91.56
439.608	82.56
439.829	86.56
440.05	94.56
440.272	124.56
440.493	95.56
440.715	84.56
440.936	85.56
441.158	88.56
441.379	94.56
441.6	74.56
441.822	93.56
442.043	92.56
442.264	96.56
442.486	94.56
442.707	85.56
442.928	104.56
443.149	97.56
443.371	103.56
443.592	98.56
443.813	96.56
444.034	102.56
444.255	81.56
444.476	70.56
444.698	101.56
444.919	84.56
445.14	140.56
445.361	113.56
445.582	103.56
445.803	111.56
446.024	116.56
446.245	120.56
446.466	105.56
446.687	94.56
446.908	90.56
447.129	93.56
447.35	81.56
447.571	88.56
447.792	97.56
448.013	104.56
448.234	89.56
448.455	95.56
448.675	102.56
448.896	95.56
449.117	97.56
449.338	97.56
449.559	111.56
449.779	130.56
450	92.56
450.221	85.56
450.442	73.56
450.662	91.56
450.883	97.56
451.104	103.56
451.324	86.56
451.545	85.56
451.766	72.56
451.986	85.56
452.207	84.56
452.428	97.56
452.648	89.56
452.869	108.56
453.089	88.56
453.31	113.56
453.53	96.56
453.751	92.56
453.971	98.56
454.192	102.56
454.412	94.56
454.633	87.56
454.853	100.56
455.073	80.56
455.294	104.56
455.514	105.56
455.734	92.56
455.955	82.56
456.175	79.56
456.395	90.56
456.616	89.56
456.836	86.56
457.056	95.56
457.276	80.56
457.497	69.56
457.717	93.56
457.937	87.56
458.157	89.56
458.377	78.56
458.598	96.56
458.818	131.56
459.038	129.56
459.258	97.56
459.478	84.56
459.698	74.56
459.918	79.56
460.138	106.56
460.358	87.56
460.578	94.56
460.798	93.56
461.018	93.56
461.238	87.56
461.458	99.56
461.678	79.56
461.898	82.56
462.118	84.56
462.338	90.56
462.558	78.56
462.777	87.56
462.997	87.56
463.217	80.56
463.437	92.56
463.657	82.56
463.876	88.56
464.096	76.56
464.316	82.56
464.536	92.56
464.755	73.56
464.975	96.56
465.195	110.56
465.414	128.56
465.634	88.56
465.854	103.56
466.073	93.56
466.293	85.56
466.512	87.56
466.732	84.56
466.951	90.56
467.171	84.56
467.391	91.56
467.61	95.56
467.829	101.56
468.049	87.56
468.268	90.56
468.488	82.56
468.707	75.56
468.927	88.56
469.146	97.56
469.365	89.56
469.585	89.56
469.804	96.56
470.023	89.56
470.243	88.56
470.462	87.56
470.681	77.56
470.901	90.56
471.12	94.56
471.339	94.56
471.558	82.56
471.777	93.56
471.997	92.56
472.216	109.56
472.435	134.56
472.654	92.56
472.873	96.56
473.092	81.56
473.311	88.56
473.53	89.56
473.749	94.56
473.968	89.56
474.187	99.56
474.406	76.56
474.625	93.56
474.844	92.56
475.063	80.56
475.282	93.56
475.501	80.56
475.72	76.56
475.939	81.56
476.158	71.56
476.377	72.56
476.596	85.56
476.814	90.56
477.033	105.56
477.252	87.56
477.471	88.56
477.69	73.56
477.908	92.56
478.127	73.56
478.346	84.56
478.564	89.56
478.783	99.56
479.002	91.56
479.22	104.56
479.439	97.56
479.658	86.56
479.876	97.56
480.095	84.56
480.313	87.56
480.532	86.56
480.751	97.56
480.969	118.56
481.188	151.56
481.406	107.56
481.624	88.56
481.843	78.56
482.061	81.56
482.28	96.56
482.498	93.56
482.717	95.56
482.935	82.56
483.153	86.56
483.372	90.56
483.59	80.56
483.808	95.56
484.027	89.56
484.245	86.56
484.463	102.56
484.681	97.56
484.9	98.56
485.118	102.56
485.336	92.56
485.554	88.56
485.772	96.56
485.99	114.56
486.209	107.56
486.427	110.56
486.645	93.56
486.863	95.56
487.081	96.56
487.299	96.56
487.517	91.56
487.735	104.56
487.953	93.56
488.171	89.56
488.389	89.56
488.607	93.56
488.825	85.56
489.043	75.56
489.261	101.56
489.479	87.56
489.696	87.56
489.914	73.56
490.132	89.56
490.35	91.56
490.568	86.56
490.786	80.56
491.003	87.56
491.221	94.56
491.439	103.56
491.657	96.56
491.874	91.56
492.092	92.56
492.31	101.56
492.527	104.56
492.745	107.56
492.963	92.56
493.18	101.56
493.398	100.56
493.615	92.56
493.833	97.56
494.05	80.56
494.268	102.56
494.485	99.56
494.703	100.56
494.92	87.56
495.138	89.56
495.355	94.56
495.573	90.56
495.79	95.56
496.008	94.56
496.225	95.56
496.442	97.56
496.66	93.56
496.877	107.56
497.094	92.56
497.312	92.56
497.529	85.56
497.746	100.56
497.963	95.56
498.181	78.56
498.398	98.56
498.615	101.56
498.832	100.56
499.049	85.56
499.267	94.56
499.484	75.56
499.701	88.56
499.918	86.56
500.135	91.56
500.352	106.56
500.569	97.56
500.786	92.56
501.003	74.56
501.22	85.56
501.437	107.56
501.654	102.56
501.871	104.56
502.088	85.56
502.305	93.56
502.522	87.56
502.739	80.56
502.956	97.56
503.172	95.56
503.389	86.56
503.606	92.56
503.823	87.56
504.04	89.56
504.256	89.56
504.473	74.56
504.69	81.56
504.907	85.56
505.123	91.56
505.34	91.56
505.557	90.56
505.773	100.56
505.99	90.56
506.207	92.56
506.423	88.56
506.64	96.56
506.856	100.56
507.073	90.56
507.289	96.56
507.506	91.56
507.722	81.56
507.939	105.56
508.155	77.56
508.372	88.56
508.588	92.56
508.805	99.56
509.021	95.56
509.238	108.56
509.454	93.56
509.67	100.56
509.887	97.56
510.103	108.56
510.319	170.56
510.536	520.56
510.752	1616.56
510.968	484.56
511.184	141.56
511.401	104.56
511.617	116.56
511.833	95.56
512.049	92.56
512.265	97.56
512.481	89.56
512.698	94.56
512.914	90.56
513.13	89.56
513.346	97.56
513.562	89.56
513.778	96.56
513.994	86.56
514.21	99.56
514.426	112.56
514.642	134.56
514.858	106.56
515.074	141.56
515.29	292.56
515.506	908.56
515.721	392.56
515.937	122.56
516.153	95.56
