Data from Uncirc_2009_H10_HRD10591_00009.txt Node
Date: Wed Jan 03 10:12:03 EST 2024
User: Yrep
Spectrometer: HR+D1059
Trigger mode: 1
Integration Time (sec): 1.000000E-1
Scans to average: 1
Electric dark correction enabled: true
Nonlinearity correction enabled: false
Boxcar width: 0
XAxis mode: Wavelengths
Number of Pixels in Spectrum: 2048
>>>>>Begin Spectral Data<<<<<
223.165	-24.94
223.4	-24.94
223.635	-24.94
223.869	-26.94
224.104	-14.94
224.338	-13.94
224.573	-9.94
224.808	-4.94
225.042	-0.94
225.277	-6.94
225.511	-8.94
225.746	5.06
225.98	1.06
226.215	3.06
226.449	17.06
226.683	21.06
226.918	27.06
227.152	38.06
227.387	42.06
227.621	35.06
227.856	50.06
228.09	51.06
228.324	48.06
228.559	61.06
228.793	59.06
229.027	57.06
229.262	87.06
229.496	71.06
229.73	76.06
229.964	77.06
230.199	69.06
230.433	90.06
230.667	66.06
230.901	59.06
231.136	76.06
231.37	85.06
231.604	78.06
231.838	82.06
232.072	80.06
232.306	89.06
232.541	94.06
232.775	87.06
233.009	94.06
233.243	82.06
233.477	85.06
233.711	77.06
233.945	98.06
234.179	82.06
234.413	72.06
234.647	94.06
234.881	90.06
235.115	73.06
235.349	91.06
235.583	85.06
235.817	82.06
236.051	77.06
236.285	80.06
236.519	82.06
236.753	83.06
236.987	71.06
237.221	77.06
237.455	76.06
237.689	82.06
237.922	67.06
238.156	76.06
238.39	80.06
238.624	69.06
238.858	97.06
239.091	83.06
239.325	81.06
239.559	76.06
239.793	81.06
240.027	74.06
240.26	80.06
240.494	81.06
240.728	80.06
240.961	61.06
241.195	81.06
241.429	81.06
241.662	74.06
241.896	73.06
242.13	64.06
242.363	65.06
242.597	90.06
242.83	59.06
243.064	79.06
243.298	82.06
243.531	72.06
243.765	74.06
243.998	69.06
244.232	80.06
244.465	75.06
244.699	70.06
244.932	75.06
245.166	60.06
245.399	81.06
245.633	78.06
245.866	74.06
246.099	77.06
246.333	81.06
246.566	91.06
246.8	86.06
247.033	89.06
247.266	79.06
247.5	75.06
247.733	86.06
247.966	74.06
248.2	66.06
248.433	69.06
248.666	77.06
248.899	83.06
249.133	86.06
249.366	102.06
249.599	96.06
249.832	94.06
250.066	83.06
250.299	83.06
250.532	73.06
250.765	87.06
250.998	79.06
251.231	73.06
251.465	87.06
251.698	81.06
251.931	92.06
252.164	86.06
252.397	93.06
252.63	89.06
252.863	89.06
253.096	87.06
253.329	91.06
253.562	89.06
253.795	83.06
254.028	86.06
254.261	84.06
254.494	91.06
254.727	83.06
254.96	90.06
255.193	73.06
255.426	73.06
255.659	91.06
255.892	82.06
256.124	82.06
256.357	75.06
256.59	87.06
256.823	78.06
257.056	100.06
257.289	93.06
257.521	77.06
257.754	81.06
257.987	83.06
258.22	71.06
258.452	88.06
258.685	96.06
258.918	84.06
259.151	87.06
259.383	78.06
259.616	86.06
259.849	83.06
260.081	90.06
260.314	83.06
260.547	83.06
260.779	94.06
261.012	81.06
261.244	90.06
261.477	95.06
261.71	79.06
261.942	98.06
262.175	106.06
262.407	85.06
262.64	88.06
262.872	86.06
263.105	88.06
263.337	88.06
263.57	98.06
263.802	81.06
264.035	71.06
264.267	76.06
264.499	89.06
264.732	86.06
264.964	98.06
265.197	81.06
265.429	83.06
265.661	80.06
265.894	99.06
266.126	88.06
266.358	96.06
266.591	87.06
266.823	82.06
267.055	75.06
267.287	85.06
267.52	96.06
267.752	101.06
267.984	78.06
268.216	59.06
268.448	65.06
268.681	100.06
268.913	87.06
269.145	83.06
269.377	85.06
269.609	97.06
269.841	83.06
270.073	83.06
270.306	73.06
270.538	85.06
270.77	89.06
271.002	86.06
271.234	82.06
271.466	85.06
271.698	77.06
271.93	69.06
272.162	97.06
272.394	88.06
272.626	89.06
272.858	88.06
273.09	86.06
273.322	98.06
273.553	91.06
273.785	91.06
274.017	90.06
274.249	79.06
274.481	74.06
274.713	97.06
274.945	96.06
275.176	90.06
275.408	99.06
275.64	86.06
275.872	84.06
276.104	95.06
276.335	108.06
276.567	90.06
276.799	87.06
277.031	92.06
277.262	91.06
277.494	89.06
277.726	97.06
277.957	76.06
278.189	77.06
278.421	76.06
278.652	91.06
278.884	77.06
279.115	78.06
279.347	69.06
279.579	84.06
279.81	86.06
280.042	95.06
280.273	83.06
280.505	87.06
280.736	94.06
280.968	100.06
281.199	84.06
281.431	89.06
281.662	93.06
281.894	93.06
282.125	95.06
282.356	100.06
282.588	127.06
282.819	106.06
283.051	89.06
283.282	88.06
283.513	95.06
283.745	104.06
283.976	89.06
284.207	105.06
284.439	92.06
284.67	83.06
284.901	100.06
285.132	84.06
285.364	104.06
285.595	95.06
285.826	75.06
286.057	93.06
286.288	97.06
286.52	107.06
286.751	89.06
286.982	83.06
287.213	88.06
287.444	81.06
287.675	86.06
287.906	92.06
288.138	70.06
288.369	84.06
288.6	97.06
288.831	85.06
289.062	89.06
289.293	73.06
289.524	86.06
289.755	82.06
289.986	94.06
290.217	96.06
290.448	86.06
290.679	86.06
290.91	107.06
291.141	82.06
291.371	91.06
291.602	101.06
291.833	98.06
292.064	99.06
292.295	83.06
292.526	84.06
292.757	86.06
292.987	88.06
293.218	102.06
293.449	89.06
293.68	97.06
293.91	79.06
294.141	106.06
294.372	101.06
294.603	78.06
294.833	91.06
295.064	93.06
295.295	77.06
295.525	79.06
295.756	91.06
295.987	101.06
296.217	108.06
296.448	109.06
296.679	101.06
296.909	98.06
297.14	85.06
297.37	87.06
297.601	82.06
297.831	88.06
298.062	93.06
298.292	95.06
298.523	96.06
298.753	88.06
298.984	86.06
299.214	98.06
299.445	93.06
299.675	101.06
299.905	91.06
300.136	92.06
300.366	80.06
300.597	90.06
300.827	102.06
301.057	106.06
301.288	102.06
301.518	82.06
301.748	95.06
301.979	85.06
302.209	89.06
302.439	84.06
302.669	80.06
302.9	104.06
303.13	97.06
303.36	98.06
303.59	108.06
303.82	102.06
304.051	103.06
304.281	88.06
304.511	102.06
304.741	85.06
304.971	102.06
305.201	80.06
305.431	98.06
305.661	82.06
305.891	103.06
306.121	85.06
306.352	94.06
306.582	88.06
306.812	111.06
307.042	87.06
307.272	109.06
307.502	92.06
307.731	77.06
307.961	85.06
308.191	90.06
308.421	97.06
308.651	89.06
308.881	89.06
309.111	96.06
309.341	102.06
309.571	95.06
309.8	94.06
310.03	90.06
310.26	92.06
310.49	98.06
310.72	88.06
310.949	87.06
311.179	99.06
311.409	78.06
311.639	89.06
311.868	102.06
312.098	105.06
312.328	93.06
312.557	103.06
312.787	98.06
313.017	96.06
313.246	93.06
313.476	92.06
313.706	90.06
313.935	96.06
314.165	89.06
314.394	112.06
314.624	93.06
314.853	101.06
315.083	85.06
315.312	94.06
315.542	86.06
315.771	90.06
316.001	112.06
316.23	77.06
316.46	91.06
316.689	93.06
316.919	92.06
317.148	101.06
317.377	108.06
317.607	104.06
317.836	99.06
318.065	88.06
318.295	90.06
318.524	86.06
318.753	85.06
318.983	78.06
319.212	92.06
319.441	89.06
319.67	98.06
319.9	91.06
320.129	104.06
320.358	91.06
320.587	94.06
320.816	91.06
321.046	101.06
321.275	98.06
321.504	94.06
321.733	102.06
321.962	95.06
322.191	93.06
322.42	112.06
322.649	124.06
322.878	99.06
323.108	132.06
323.337	119.06
323.566	120.06
323.795	122.06
324.024	181.06
324.253	354.06
324.482	715.06
324.71	1404.06
324.939	1741.06
325.168	662.06
325.397	203.06
325.626	153.06
325.855	135.06
326.084	136.06
326.313	151.06
326.542	155.06
326.77	221.06
326.999	400.06
327.228	793.06
327.457	1399.06
327.686	1104.06
327.914	293.06
328.143	159.06
328.372	119.06
328.6	129.06
328.829	123.06
329.058	104.06
329.287	98.06
329.515	103.06
329.744	110.06
329.972	109.06
330.201	113.06
330.43	122.06
330.658	125.06
330.887	111.06
331.115	114.06
331.344	101.06
331.572	103.06
331.801	101.06
332.03	88.06
332.258	80.06
332.486	85.06
332.715	96.06
332.943	112.06
333.172	107.06
333.4	91.06
333.629	112.06
333.857	108.06
334.085	104.06
334.314	109.06
334.542	106.06
334.771	117.06
334.999	109.06
335.227	105.06
335.455	83.06
335.684	94.06
335.912	101.06
336.14	113.06
336.369	103.06
336.597	125.06
336.825	97.06
337.053	94.06
337.281	91.06
337.51	88.06
337.738	106.06
337.966	103.06
338.194	120.06
338.422	95.06
338.65	92.06
338.878	96.06
339.106	81.06
339.334	90.06
339.562	93.06
339.79	93.06
340.018	109.06
340.246	87.06
340.474	77.06
340.702	88.06
340.93	81.06
341.158	106.06
341.386	102.06
341.614	95.06
341.842	94.06
342.07	90.06
342.298	93.06
342.526	80.06
342.754	87.06
342.981	98.06
343.209	87.06
343.437	96.06
343.665	95.06
343.893	90.06
344.12	99.06
344.348	90.06
344.576	97.06
344.804	86.06
345.031	99.06
345.259	95.06
345.487	104.06
345.714	106.06
345.942	89.06
346.17	87.06
346.397	101.06
346.625	100.06
346.853	104.06
347.08	91.06
347.308	89.06
347.535	103.06
347.763	97.06
347.99	98.06
348.218	103.06
348.445	96.06
348.673	96.06
348.9	86.06
349.128	93.06
349.355	90.06
349.583	94.06
349.81	84.06
350.037	81.06
350.265	96.06
350.492	94.06
350.72	94.06
350.947	101.06
351.174	113.06
351.402	95.06
351.629	94.06
351.856	96.06
352.083	107.06
352.311	99.06
352.538	104.06
352.765	111.06
352.992	117.06
353.22	111.06
353.447	98.06
353.674	106.06
353.901	95.06
354.128	97.06
354.355	91.06
354.583	106.06
354.81	114.06
355.037	107.06
355.264	102.06
355.491	106.06
355.718	82.06
355.945	82.06
356.172	108.06
356.399	99.06
356.626	111.06
356.853	102.06
357.08	91.06
357.307	93.06
357.534	81.06
357.761	88.06
357.988	97.06
358.215	106.06
358.441	90.06
358.668	82.06
358.895	88.06
359.122	96.06
359.349	86.06
359.576	99.06
359.802	102.06
360.029	100.06
360.256	94.06
360.483	93.06
360.709	101.06
360.936	91.06
361.163	82.06
361.39	81.06
361.616	89.06
361.843	88.06
362.07	92.06
362.296	91.06
362.523	85.06
362.749	102.06
362.976	91.06
363.203	99.06
363.429	85.06
363.656	88.06
363.882	98.06
364.109	99.06
364.335	91.06
364.562	82.06
364.788	90.06
365.015	77.06
365.241	98.06
365.468	93.06
365.694	102.06
365.92	94.06
366.147	106.06
366.373	87.06
366.599	88.06
366.826	90.06
367.052	93.06
367.278	102.06
367.505	102.06
367.731	87.06
367.957	103.06
368.184	86.06
368.41	106.06
368.636	92.06
368.862	112.06
369.089	94.06
369.315	85.06
369.541	77.06
369.767	81.06
369.993	95.06
370.219	100.06
370.445	97.06
370.672	82.06
370.898	93.06
371.124	89.06
371.35	85.06
371.576	92.06
371.802	97.06
372.028	93.06
372.254	88.06
372.48	95.06
372.706	87.06
372.932	106.06
373.158	102.06
373.384	105.06
373.61	90.06
373.835	102.06
374.061	105.06
374.287	83.06
374.513	83.06
374.739	101.06
374.965	96.06
375.191	82.06
375.416	96.06
375.642	99.06
375.868	90.06
376.094	94.06
376.319	96.06
376.545	84.06
376.771	102.06
376.997	82.06
377.222	95.06
377.448	93.06
377.674	105.06
377.899	96.06
378.125	100.06
378.35	102.06
378.576	90.06
378.802	81.06
379.027	103.06
379.253	93.06
379.478	94.06
379.704	106.06
379.929	99.06
380.155	106.06
380.38	93.06
380.606	93.06
380.831	105.06
381.057	98.06
381.282	103.06
381.507	103.06
381.733	92.06
381.958	87.06
382.184	116.06
382.409	100.06
382.634	102.06
382.86	96.06
383.085	103.06
383.31	101.06
383.535	102.06
383.761	95.06
383.986	100.06
384.211	102.06
384.436	105.06
384.662	103.06
384.887	106.06
385.112	113.06
385.337	108.06
385.562	127.06
385.787	110.06
386.013	117.06
386.238	107.06
386.463	92.06
386.688	106.06
386.913	124.06
387.138	123.06
387.363	98.06
387.588	131.06
387.813	112.06
388.038	107.06
388.263	119.06
388.488	115.06
388.713	99.06
388.938	93.06
389.163	86.06
389.387	104.06
389.612	104.06
389.837	102.06
390.062	86.06
390.287	94.06
390.512	88.06
390.736	107.06
390.961	83.06
391.186	95.06
391.411	106.06
391.636	105.06
391.86	112.06
392.085	103.06
392.31	80.06
392.534	94.06
392.759	96.06
392.984	88.06
393.208	86.06
393.433	94.06
393.658	99.06
393.882	78.06
394.107	90.06
394.331	86.06
394.556	86.06
394.78	88.06
395.005	102.06
395.229	90.06
395.454	103.06
395.678	89.06
395.903	103.06
396.127	96.06
396.352	93.06
396.576	85.06
396.801	89.06
397.025	83.06
397.249	94.06
397.474	87.06
397.698	99.06
397.922	71.06
398.147	89.06
398.371	81.06
398.595	93.06
398.82	93.06
399.044	88.06
399.268	85.06
399.492	89.06
399.717	89.06
399.941	102.06
400.165	98.06
400.389	86.06
400.613	98.06
400.837	97.06
401.062	92.06
401.286	97.06
401.51	91.06
401.734	88.06
401.958	87.06
402.182	111.06
402.406	150.06
402.63	102.06
402.854	99.06
403.078	90.06
403.302	76.06
403.526	93.06
403.75	90.06
403.974	90.06
404.198	91.06
404.422	98.06
404.645	87.06
404.869	104.06
405.093	95.06
405.317	105.06
405.541	101.06
405.765	99.06
405.988	115.06
406.212	134.06
406.436	166.06
406.66	140.06
406.883	96.06
407.107	102.06
407.331	106.06
407.555	96.06
407.778	90.06
408.002	80.06
408.226	95.06
408.449	100.06
408.673	82.06
408.896	84.06
409.12	98.06
409.344	88.06
409.567	90.06
409.791	96.06
410.014	98.06
410.238	99.06
410.461	100.06
410.685	105.06
410.908	97.06
411.132	103.06
411.355	102.06
411.578	91.06
411.802	80.06
412.025	94.06
412.249	98.06
412.472	82.06
412.695	102.06
412.919	84.06
413.142	90.06
413.365	86.06
413.589	90.06
413.812	95.06
414.035	96.06
414.258	96.06
414.482	102.06
414.705	77.06
414.928	94.06
415.151	84.06
415.374	92.06
415.597	88.06
415.821	91.06
416.044	90.06
416.267	86.06
416.49	89.06
416.713	93.06
416.936	86.06
417.159	97.06
417.382	91.06
417.605	97.06
417.828	99.06
418.051	108.06
418.274	106.06
418.497	96.06
418.72	96.06
418.943	90.06
419.166	97.06
419.389	89.06
419.611	76.06
419.834	92.06
420.057	75.06
420.28	93.06
420.503	89.06
420.726	90.06
420.948	90.06
421.171	80.06
421.394	98.06
421.617	82.06
421.839	91.06
422.062	77.06
422.285	88.06
422.507	112.06
422.73	98.06
422.953	101.06
423.175	79.06
423.398	87.06
423.621	87.06
423.843	92.06
424.066	98.06
424.288	95.06
424.511	85.06
424.733	92.06
424.956	93.06
425.178	99.06
425.401	112.06
425.623	104.06
425.846	86.06
426.068	95.06
426.291	95.06
426.513	86.06
426.735	79.06
426.958	110.06
427.18	114.06
427.402	140.06
427.625	136.06
427.847	115.06
428.069	92.06
428.292	93.06
428.514	85.06
428.736	69.06
428.958	89.06
429.181	89.06
429.403	82.06
429.625	83.06
429.847	99.06
430.069	94.06
430.292	96.06
430.514	70.06
430.736	81.06
430.958	96.06
431.18	93.06
431.402	85.06
431.624	92.06
431.846	86.06
432.068	96.06
432.29	83.06
432.512	105.06
432.734	104.06
432.956	86.06
433.178	82.06
433.4	81.06
433.622	93.06
433.844	100.06
434.066	95.06
434.287	90.06
434.509	94.06
434.731	91.06
434.953	87.06
435.175	101.06
435.397	86.06
435.618	94.06
435.84	111.06
436.062	104.06
436.284	111.06
436.505	100.06
436.727	104.06
436.949	105.06
437.17	84.06
437.392	84.06
437.614	92.06
437.835	98.06
438.057	109.06
438.278	96.06
438.5	92.06
438.721	114.06
438.943	95.06
439.165	89.06
439.386	98.06
439.608	86.06
439.829	107.06
440.05	107.06
440.272	105.06
440.493	84.06
440.715	98.06
440.936	95.06
441.158	83.06
441.379	82.06
441.6	103.06
441.822	103.06
442.043	98.06
442.264	86.06
442.486	98.06
442.707	85.06
442.928	94.06
443.149	112.06
443.371	105.06
443.592	93.06
443.813	96.06
444.034	109.06
444.255	87.06
444.476	95.06
444.698	76.06
444.919	77.06
445.14	122.06
445.361	110.06
445.582	115.06
445.803	119.06
446.024	123.06
446.245	105.06
446.466	114.06
446.687	90.06
446.908	94.06
447.129	84.06
447.35	95.06
447.571	95.06
447.792	83.06
448.013	89.06
448.234	86.06
448.455	92.06
448.675	91.06
448.896	119.06
449.117	87.06
449.338	81.06
449.559	108.06
449.779	134.06
450	89.06
450.221	89.06
450.442	90.06
450.662	99.06
450.883	94.06
451.104	92.06
451.324	88.06
451.545	91.06
451.766	103.06
451.986	86.06
452.207	86.06
452.428	82.06
452.648	115.06
452.869	131.06
453.089	109.06
453.31	95.06
453.53	94.06
453.751	93.06
453.971	95.06
454.192	110.06
454.412	105.06
454.633	77.06
454.853	86.06
455.073	90.06
455.294	90.06
455.514	88.06
455.734	83.06
455.955	86.06
456.175	94.06
456.395	79.06
456.616	91.06
456.836	97.06
457.056	87.06
457.276	92.06
457.497	78.06
457.717	81.06
457.937	95.06
458.157	81.06
458.377	95.06
458.598	109.06
458.818	103.06
459.038	121.06
459.258	96.06
459.478	90.06
459.698	73.06
459.918	83.06
460.138	89.06
460.358	89.06
460.578	106.06
460.798	96.06
461.018	91.06
461.238	91.06
461.458	86.06
461.678	82.06
461.898	83.06
462.118	88.06
462.338	75.06
462.558	80.06
462.777	77.06
462.997	94.06
463.217	79.06
463.437	97.06
463.657	89.06
463.876	102.06
464.096	91.06
464.316	77.06
464.536	83.06
464.755	99.06
464.975	100.06
465.195	134.06
465.414	120.06
465.634	99.06
465.854	102.06
466.073	84.06
466.293	94.06
466.512	73.06
466.732	91.06
466.951	97.06
467.171	97.06
467.391	87.06
467.61	92.06
467.829	83.06
468.049	88.06
468.268	85.06
468.488	90.06
468.707	92.06
468.927	109.06
469.146	79.06
469.365	86.06
469.585	73.06
469.804	84.06
470.023	90.06
470.243	85.06
470.462	95.06
470.681	105.06
470.901	81.06
471.12	74.06
471.339	86.06
471.558	87.06
471.777	86.06
471.997	83.06
472.216	102.06
472.435	119.06
472.654	101.06
472.873	93.06
473.092	97.06
473.311	93.06
473.53	80.06
473.749	78.06
473.968	94.06
474.187	79.06
474.406	97.06
474.625	86.06
474.844	92.06
475.063	88.06
475.282	95.06
475.501	87.06
475.72	88.06
475.939	90.06
476.158	91.06
476.377	96.06
476.596	100.06
476.814	77.06
477.033	87.06
477.252	90.06
477.471	93.06
477.69	96.06
477.908	98.06
478.127	93.06
478.346	94.06
478.564	97.06
478.783	91.06
479.002	87.06
479.22	95.06
479.439	115.06
479.658	94.06
479.876	97.06
480.095	89.06
480.313	86.06
480.532	86.06
480.751	105.06
480.969	119.06
481.188	158.06
481.406	139.06
481.624	102.06
481.843	84.06
482.061	86.06
482.28	81.06
482.498	89.06
482.717	81.06
482.935	91.06
483.153	89.06
483.372	83.06
483.59	89.06
483.808	93.06
484.027	87.06
484.245	84.06
484.463	85.06
484.681	88.06
484.9	96.06
485.118	103.06
485.336	89.06
485.554	67.06
485.772	87.06
485.99	91.06
486.209	102.06
486.427	91.06
486.645	103.06
486.863	104.06
487.081	99.06
487.299	81.06
487.517	89.06
487.735	92.06
487.953	95.06
488.171	103.06
488.389	94.06
488.607	89.06
488.825	97.06
489.043	77.06
489.261	92.06
489.479	89.06
489.696	93.06
489.914	92.06
490.132	95.06
490.35	93.06
490.568	95.06
490.786	98.06
491.003	96.06
491.221	82.06
491.439	90.06
491.657	105.06
491.874	80.06
492.092	92.06
492.31	80.06
492.527	91.06
492.745	85.06
492.963	92.06
493.18	89.06
493.398	96.06
493.615	88.06
493.833	90.06
494.05	82.06
494.268	95.06
494.485	99.06
494.703	85.06
494.92	88.06
495.138	86.06
495.355	91.06
495.573	83.06
495.79	89.06
496.008	86.06
496.225	96.06
496.442	82.06
496.66	88.06
496.877	102.06
497.094	94.06
497.312	87.06
497.529	82.06
497.746	101.06
497.963	102.06
498.181	87.06
498.398	91.06
498.615	102.06
498.832	120.06
499.049	81.06
499.267	93.06
499.484	89.06
499.701	92.06
499.918	106.06
500.135	98.06
500.352	93.06
500.569	88.06
500.786	88.06
501.003	88.06
501.22	74.06
501.437	92.06
501.654	81.06
501.871	96.06
502.088	97.06
502.305	96.06
502.522	85.06
502.739	86.06
502.956	96.06
503.172	103.06
503.389	104.06
503.606	99.06
503.823	98.06
504.04	97.06
504.256	76.06
504.473	80.06
504.69	83.06
504.907	90.06
505.123	93.06
505.34	87.06
505.557	88.06
505.773	91.06
505.99	94.06
506.207	83.06
506.423	93.06
506.64	88.06
506.856	82.06
507.073	84.06
507.289	96.06
507.506	99.06
507.722	108.06
507.939	105.06
508.155	102.06
508.372	87.06
508.588	87.06
508.805	98.06
509.021	96.06
509.238	99.06
509.454	92.06
509.67	104.06
509.887	101.06
510.103	119.06
510.319	171.06
510.536	550.06
510.752	1551.06
510.968	486.06
511.184	136.06
511.401	115.06
511.617	100.06
511.833	85.06
512.049	102.06
512.265	87.06
512.481	100.06
512.698	99.06
512.914	86.06
513.13	85.06
513.346	93.06
513.562	67.06
513.778	73.06
513.994	90.06
514.21	94.06
514.426	112.06
514.642	127.06
514.858	111.06
515.074	141.06
515.29	319.06
515.506	964.06
