Data from Uncirc_2009_H10_HRD10591_00055.txt Node
Date: Wed Jan 03 10:12:12 EST 2024
User: Yrep
Spectrometer: HR+D1059
Trigger mode: 1
Integration Time (sec): 1.000000E-1
Scans to average: 1
Electric dark correction enabled: true
Nonlinearity correction enabled: false
Boxcar width: 0
XAxis mode: Wavelengths
Number of Pixels in Spectrum: 2048
>>>>>Begin Spectral Data<<<<<
223.165	-8.62
223.4	-8.62
223.635	-8.62
223.869	-19.62
224.104	-13.62
224.338	-17.62
224.573	-12.62
224.808	-10.62
225.042	-6.62
225.277	-19.62
225.511	-15.62
225.746	6.38
225.98	11.38
226.215	25.38
226.449	16.38
226.683	22.38
226.918	13.38
227.152	29.38
227.387	40.38
227.621	38.38
227.856	52.38
228.09	59.38
228.324	46.38
228.559	46.38
228.793	72.38
229.027	65.38
229.262	69.38
229.496	71.38
229.73	71.38
229.964	80.38
230.199	64.38
230.433	64.38
230.667	90.38
230.901	86.38
231.136	88.38
231.37	74.38
231.604	91.38
231.838	77.38
232.072	83.38
232.306	67.38
232.541	79.38
232.775	74.38
233.009	71.38
233.243	72.38
233.477	76.38
233.711	73.38
233.945	78.38
234.179	69.38
234.413	67.38
234.647	71.38
234.881	84.38
235.115	70.38
235.349	81.38
235.583	75.38
235.817	78.38
236.051	85.38
236.285	68.38
236.519	72.38
236.753	59.38
236.987	91.38
237.221	86.38
237.455	79.38
237.689	77.38
237.922	71.38
238.156	81.38
238.39	60.38
238.624	75.38
238.858	92.38
239.091	73.38
239.325	61.38
239.559	80.38
239.793	78.38
240.027	76.38
240.26	80.38
240.494	80.38
240.728	63.38
240.961	89.38
241.195	81.38
241.429	71.38
241.662	65.38
241.896	90.38
242.13	66.38
242.363	60.38
242.597	79.38
242.83	77.38
243.064	71.38
243.298	72.38
243.531	83.38
243.765	75.38
243.998	74.38
244.232	61.38
244.465	75.38
244.699	77.38
244.932	60.38
245.166	74.38
245.399	90.38
245.633	68.38
245.866	73.38
246.099	93.38
246.333	75.38
246.566	60.38
246.8	82.38
247.033	79.38
247.266	78.38
247.5	76.38
247.733	82.38
247.966	76.38
248.2	74.38
248.433	76.38
248.666	84.38
248.899	94.38
249.133	66.38
249.366	81.38
249.599	79.38
249.832	82.38
250.066	69.38
250.299	83.38
250.532	89.38
250.765	73.38
250.998	73.38
251.231	81.38
251.465	84.38
251.698	70.38
251.931	78.38
252.164	79.38
252.397	64.38
252.63	70.38
252.863	91.38
253.096	87.38
253.329	82.38
253.562	67.38
253.795	84.38
254.028	86.38
254.261	79.38
254.494	91.38
254.727	86.38
254.96	81.38
255.193	74.38
255.426	81.38
255.659	79.38
255.892	72.38
256.124	85.38
256.357	79.38
256.59	76.38
256.823	69.38
257.056	84.38
257.289	75.38
257.521	74.38
257.754	76.38
257.987	78.38
258.22	83.38
258.452	97.38
258.685	90.38
258.918	83.38
259.151	74.38
259.383	71.38
259.616	76.38
259.849	74.38
260.081	72.38
260.314	88.38
260.547	88.38
260.779	65.38
261.012	84.38
261.244	73.38
261.477	99.38
261.71	87.38
261.942	108.38
262.175	91.38
262.407	88.38
262.64	84.38
262.872	75.38
263.105	62.38
263.337	91.38
263.57	88.38
263.802	73.38
264.035	90.38
264.267	81.38
264.499	83.38
264.732	79.38
264.964	75.38
265.197	67.38
265.429	79.38
265.661	81.38
265.894	75.38
266.126	79.38
266.358	97.38
266.591	81.38
266.823	93.38
267.055	101.38
267.287	100.38
267.52	81.38
267.752	81.38
267.984	88.38
268.216	81.38
268.448	86.38
268.681	92.38
268.913	86.38
269.145	87.38
269.377	64.38
269.609	75.38
269.841	86.38
270.073	80.38
270.306	88.38
270.538	95.38
270.77	78.38
271.002	93.38
271.234	76.38
271.466	88.38
271.698	89.38
271.93	86.38
272.162	78.38
272.394	92.38
272.626	85.38
272.858	90.38
273.09	83.38
273.322	82.38
273.553	84.38
273.785	80.38
274.017	86.38
274.249	86.38
274.481	75.38
274.713	84.38
274.945	73.38
275.176	100.38
275.408	93.38
275.64	89.38
275.872	80.38
276.104	91.38
276.335	90.38
276.567	83.38
276.799	96.38
277.031	96.38
277.262	84.38
277.494	83.38
277.726	91.38
277.957	84.38
278.189	93.38
278.421	84.38
278.652	79.38
278.884	96.38
279.115	85.38
279.347	88.38
279.579	84.38
279.81	80.38
280.042	80.38
280.273	81.38
280.505	76.38
280.736	91.38
280.968	91.38
281.199	81.38
281.431	73.38
281.662	80.38
281.894	84.38
282.125	86.38
282.356	117.38
282.588	125.38
282.819	86.38
283.051	70.38
283.282	84.38
283.513	74.38
283.745	93.38
283.976	96.38
284.207	116.38
284.439	101.38
284.67	82.38
284.901	88.38
285.132	86.38
285.364	96.38
285.595	80.38
285.826	87.38
286.057	98.38
286.288	95.38
286.52	93.38
286.751	95.38
286.982	93.38
287.213	71.38
287.444	75.38
287.675	92.38
287.906	84.38
288.138	76.38
288.369	84.38
288.6	87.38
288.831	88.38
289.062	78.38
289.293	83.38
289.524	85.38
289.755	96.38
289.986	78.38
290.217	91.38
290.448	76.38
290.679	81.38
290.91	80.38
291.141	72.38
291.371	91.38
291.602	94.38
291.833	94.38
292.064	80.38
292.295	90.38
292.526	93.38
292.757	91.38
292.987	88.38
293.218	76.38
293.449	89.38
293.68	89.38
293.91	79.38
294.141	96.38
294.372	86.38
294.603	87.38
294.833	76.38
295.064	83.38
295.295	85.38
295.525	73.38
295.756	92.38
295.987	108.38
296.217	109.38
296.448	108.38
296.679	77.38
296.909	84.38
297.14	81.38
297.37	84.38
297.601	94.38
297.831	81.38
298.062	78.38
298.292	84.38
298.523	97.38
298.753	76.38
298.984	74.38
299.214	81.38
299.445	89.38
299.675	98.38
299.905	87.38
300.136	85.38
300.366	88.38
300.597	76.38
300.827	94.38
301.057	100.38
301.288	99.38
301.518	86.38
301.748	85.38
301.979	107.38
302.209	97.38
302.439	98.38
302.669	95.38
302.9	82.38
303.13	94.38
303.36	89.38
303.59	110.38
303.82	105.38
304.051	90.38
304.281	89.38
304.511	89.38
304.741	81.38
304.971	87.38
305.201	80.38
305.431	86.38
305.661	85.38
305.891	91.38
306.121	82.38
306.352	94.38
306.582	94.38
306.812	94.38
307.042	87.38
307.272	89.38
307.502	86.38
307.731	95.38
307.961	86.38
308.191	93.38
308.421	88.38
308.651	85.38
308.881	86.38
309.111	92.38
309.341	90.38
309.571	72.38
309.8	92.38
310.03	90.38
310.26	88.38
310.49	85.38
310.72	88.38
310.949	89.38
311.179	92.38
311.409	92.38
311.639	87.38
311.868	99.38
312.098	82.38
312.328	94.38
312.557	87.38
312.787	92.38
313.017	87.38
313.246	89.38
313.476	92.38
313.706	88.38
313.935	85.38
314.165	81.38
314.394	91.38
314.624	81.38
314.853	89.38
315.083	101.38
315.312	83.38
315.542	108.38
315.771	94.38
316.001	89.38
316.23	70.38
316.46	94.38
316.689	95.38
316.919	94.38
317.148	102.38
317.377	109.38
317.607	110.38
317.836	120.38
318.065	99.38
318.295	87.38
318.524	92.38
318.753	85.38
318.983	92.38
319.212	102.38
319.441	101.38
319.67	94.38
319.9	91.38
320.129	87.38
320.358	88.38
320.587	110.38
320.816	89.38
321.046	86.38
321.275	95.38
321.504	89.38
321.733	81.38
321.962	95.38
322.191	104.38
322.42	99.38
322.649	91.38
322.878	92.38
323.108	103.38
323.337	122.38
323.566	108.38
323.795	150.38
324.024	191.38
324.253	340.38
324.482	670.38
324.71	1392.38
324.939	1828.38
325.168	654.38
325.397	215.38
325.626	137.38
325.855	135.38
326.084	124.38
326.313	143.38
326.542	156.38
326.77	222.38
326.999	398.38
327.228	791.38
327.457	1474.38
327.686	1162.38
327.914	316.38
328.143	165.38
328.372	136.38
328.6	103.38
328.829	111.38
329.058	116.38
329.287	117.38
329.515	85.38
329.744	102.38
329.972	94.38
330.201	108.38
330.43	109.38
330.658	118.38
330.887	112.38
331.115	107.38
331.344	95.38
331.572	88.38
331.801	92.38
332.03	101.38
332.258	100.38
332.486	94.38
332.715	94.38
332.943	73.38
333.172	92.38
333.4	98.38
333.629	106.38
333.857	105.38
334.085	100.38
334.314	108.38
334.542	126.38
334.771	108.38
334.999	101.38
335.227	85.38
335.455	85.38
335.684	91.38
335.912	87.38
336.14	88.38
336.369	105.38
336.597	91.38
336.825	88.38
337.053	92.38
337.281	92.38
337.51	92.38
337.738	82.38
337.966	94.38
338.194	97.38
338.422	91.38
338.65	94.38
338.878	87.38
339.106	90.38
339.334	85.38
339.562	100.38
339.79	90.38
340.018	77.38
340.246	90.38
340.474	104.38
340.702	80.38
340.93	96.38
341.158	89.38
341.386	93.38
341.614	89.38
341.842	78.38
342.07	93.38
342.298	93.38
342.526	86.38
342.754	71.38
342.981	91.38
343.209	86.38
343.437	105.38
343.665	91.38
343.893	77.38
344.12	91.38
344.348	82.38
344.576	98.38
344.804	90.38
345.031	92.38
345.259	101.38
345.487	103.38
345.714	84.38
345.942	101.38
346.17	88.38
346.397	78.38
346.625	79.38
346.853	87.38
347.08	79.38
347.308	101.38
347.535	91.38
347.763	100.38
347.99	102.38
348.218	96.38
348.445	104.38
348.673	101.38
348.9	97.38
349.128	96.38
349.355	92.38
349.583	106.38
349.81	92.38
350.037	94.38
350.265	88.38
350.492	92.38
350.72	102.38
350.947	101.38
351.174	108.38
351.402	102.38
351.629	99.38
351.856	86.38
352.083	102.38
352.311	115.38
352.538	80.38
352.765	98.38
352.992	113.38
353.22	99.38
353.447	87.38
353.674	92.38
353.901	110.38
354.128	81.38
354.355	87.38
354.583	91.38
354.81	85.38
355.037	85.38
355.264	90.38
355.491	101.38
355.718	101.38
355.945	95.38
356.172	83.38
356.399	102.38
356.626	91.38
356.853	99.38
357.08	80.38
357.307	97.38
357.534	96.38
357.761	99.38
357.988	103.38
358.215	99.38
358.441	86.38
358.668	86.38
358.895	77.38
359.122	96.38
359.349	96.38
359.576	97.38
359.802	92.38
360.029	108.38
360.256	81.38
360.483	111.38
360.709	94.38
360.936	92.38
361.163	90.38
361.39	87.38
361.616	89.38
361.843	89.38
362.07	93.38
362.296	84.38
362.523	84.38
362.749	88.38
362.976	97.38
363.203	100.38
363.429	90.38
363.656	87.38
363.882	99.38
364.109	87.38
364.335	93.38
364.562	83.38
364.788	77.38
365.015	85.38
365.241	94.38
365.468	99.38
365.694	92.38
365.92	99.38
366.147	102.38
366.373	77.38
366.599	82.38
366.826	92.38
367.052	93.38
367.278	96.38
367.505	85.38
367.731	89.38
367.957	95.38
368.184	91.38
368.41	102.38
368.636	109.38
368.862	100.38
369.089	96.38
369.315	88.38
369.541	76.38
369.767	83.38
369.993	80.38
370.219	102.38
370.445	99.38
370.672	91.38
370.898	92.38
371.124	96.38
371.35	91.38
371.576	76.38
371.802	80.38
372.028	87.38
372.254	87.38
372.48	100.38
372.706	89.38
372.932	92.38
373.158	99.38
373.384	81.38
373.61	89.38
373.835	93.38
374.061	100.38
374.287	94.38
374.513	97.38
374.739	86.38
374.965	81.38
375.191	90.38
375.416	87.38
375.642	82.38
375.868	96.38
376.094	100.38
376.319	97.38
376.545	93.38
376.771	75.38
376.997	89.38
377.222	89.38
377.448	93.38
377.674	76.38
377.899	89.38
378.125	94.38
378.35	92.38
378.576	95.38
378.802	88.38
379.027	104.38
379.253	95.38
379.478	98.38
379.704	98.38
379.929	111.38
380.155	100.38
380.38	111.38
380.606	103.38
380.831	98.38
381.057	92.38
381.282	111.38
381.507	98.38
381.733	83.38
381.958	92.38
382.184	88.38
382.409	99.38
382.634	104.38
382.86	80.38
383.085	108.38
383.31	99.38
383.535	79.38
383.761	103.38
383.986	93.38
384.211	95.38
384.436	101.38
384.662	93.38
384.887	75.38
385.112	104.38
385.337	92.38
385.562	91.38
385.787	102.38
386.013	96.38
386.238	115.38
386.463	101.38
386.688	111.38
386.913	102.38
387.138	100.38
387.363	88.38
387.588	99.38
387.813	99.38
388.038	88.38
388.263	102.38
388.488	102.38
388.713	99.38
388.938	96.38
389.163	96.38
389.387	96.38
389.612	97.38
389.837	91.38
390.062	86.38
390.287	94.38
390.512	88.38
390.736	90.38
390.961	87.38
391.186	92.38
391.411	93.38
391.636	94.38
391.86	94.38
392.085	91.38
392.31	84.38
392.534	90.38
392.759	93.38
392.984	75.38
393.208	92.38
393.433	86.38
393.658	77.38
393.882	84.38
394.107	84.38
394.331	81.38
394.556	92.38
394.78	81.38
395.005	83.38
395.229	95.38
395.454	91.38
395.678	73.38
395.903	91.38
396.127	94.38
396.352	89.38
396.576	85.38
396.801	80.38
397.025	93.38
397.249	84.38
397.474	89.38
397.698	85.38
397.922	81.38
398.147	79.38
398.371	83.38
398.595	95.38
398.82	82.38
399.044	94.38
399.268	91.38
399.492	90.38
399.717	95.38
399.941	99.38
400.165	91.38
400.389	85.38
400.613	84.38
400.837	77.38
401.062	80.38
401.286	79.38
401.51	85.38
401.734	95.38
401.958	92.38
402.182	107.38
402.406	132.38
402.63	110.38
402.854	83.38
403.078	95.38
403.302	92.38
403.526	88.38
403.75	88.38
403.974	93.38
404.198	80.38
404.422	89.38
404.645	77.38
404.869	87.38
405.093	70.38
405.317	96.38
405.541	96.38
405.765	98.38
405.988	109.38
406.212	142.38
406.436	191.38
406.66	131.38
406.883	86.38
407.107	88.38
407.331	97.38
407.555	101.38
407.778	88.38
408.002	88.38
408.226	94.38
408.449	83.38
408.673	86.38
408.896	68.38
409.12	89.38
409.344	92.38
409.567	95.38
409.791	91.38
410.014	92.38
410.238	90.38
410.461	81.38
410.685	70.38
410.908	94.38
411.132	92.38
411.355	100.38
411.578	89.38
411.802	88.38
412.025	85.38
412.249	108.38
412.472	86.38
412.695	101.38
412.919	77.38
413.142	91.38
413.365	95.38
413.589	99.38
413.812	96.38
414.035	85.38
414.258	91.38
414.482	92.38
414.705	80.38
414.928	98.38
415.151	95.38
415.374	95.38
415.597	79.38
415.821	106.38
416.044	87.38
416.267	75.38
416.49	87.38
416.713	83.38
416.936	93.38
417.159	96.38
417.382	78.38
417.605	87.38
417.828	93.38
418.051	83.38
418.274	91.38
418.497	101.38
418.72	93.38
418.943	85.38
419.166	94.38
419.389	98.38
419.611	91.38
419.834	81.38
420.057	93.38
420.28	94.38
420.503	84.38
420.726	74.38
420.948	89.38
421.171	94.38
421.394	84.38
421.617	87.38
421.839	87.38
422.062	99.38
422.285	87.38
422.507	100.38
422.73	102.38
422.953	105.38
423.175	93.38
423.398	100.38
423.621	99.38
423.843	81.38
424.066	96.38
424.288	89.38
424.511	88.38
424.733	99.38
424.956	95.38
425.178	92.38
425.401	99.38
425.623	99.38
425.846	84.38
426.068	87.38
426.291	81.38
426.513	78.38
426.735	91.38
426.958	95.38
427.18	107.38
427.402	113.38
427.625	145.38
427.847	122.38
428.069	122.38
428.292	81.38
428.514	79.38
428.736	90.38
428.958	73.38
429.181	83.38
429.403	83.38
429.625	87.38
429.847	94.38
430.069	109.38
430.292	87.38
430.514	85.38
430.736	93.38
430.958	106.38
431.18	95.38
431.402	95.38
431.624	73.38
431.846	89.38
432.068	87.38
432.29	89.38
432.512	83.38
432.734	84.38
432.956	81.38
433.178	89.38
433.4	88.38
433.622	92.38
433.844	79.38
434.066	85.38
434.287	79.38
434.509	92.38
434.731	87.38
434.953	97.38
435.175	90.38
435.397	87.38
435.618	79.38
435.84	105.38
436.062	120.38
436.284	115.38
436.505	80.38
436.727	98.38
436.949	87.38
437.17	74.38
437.392	93.38
437.614	82.38
437.835	99.38
438.057	105.38
438.278	99.38
438.5	105.38
438.721	105.38
438.943	100.38
439.165	93.38
439.386	70.38
439.608	93.38
439.829	77.38
440.05	101.38
440.272	120.38
440.493	112.38
440.715	77.38
440.936	77.38
441.158	90.38
441.379	91.38
441.6	96.38
441.822	97.38
442.043	77.38
442.264	94.38
442.486	110.38
442.707	106.38
442.928	111.38
443.149	107.38
443.371	106.38
443.592	95.38
443.813	99.38
444.034	105.38
444.255	100.38
444.476	86.38
444.698	88.38
444.919	92.38
445.14	119.38
445.361	102.38
445.582	94.38
445.803	130.38
446.024	123.38
446.245	115.38
446.466	96.38
446.687	97.38
446.908	78.38
447.129	98.38
447.35	90.38
447.571	78.38
447.792	101.38
448.013	96.38
448.234	108.38
448.455	97.38
448.675	122.38
448.896	95.38
449.117	74.38
449.338	83.38
449.559	123.38
449.779	116.38
450	95.38
450.221	80.38
450.442	87.38
450.662	91.38
450.883	101.38
451.104	100.38
451.324	86.38
451.545	75.38
451.766	86.38
451.986	81.38
452.207	91.38
452.428	90.38
452.648	104.38
452.869	112.38
453.089	100.38
453.31	96.38
453.53	83.38
453.751	94.38
453.971	116.38
454.192	94.38
454.412	88.38
454.633	87.38
454.853	79.38
455.073	85.38
455.294	88.38
455.514	99.38
455.734	78.38
455.955	74.38
456.175	84.38
456.395	76.38
456.616	84.38
456.836	74.38
457.056	89.38
457.276	84.38
457.497	76.38
457.717	84.38
457.937	82.38
458.157	73.38
458.377	81.38
458.598	103.38
458.818	125.38
459.038	137.38
459.258	110.38
459.478	85.38
459.698	92.38
459.918	92.38
460.138	79.38
460.358	85.38
460.578	92.38
460.798	79.38
461.018	78.38
461.238	86.38
461.458	86.38
461.678	66.38
461.898	88.38
462.118	87.38
462.338	67.38
462.558	76.38
462.777	83.38
462.997	94.38
463.217	80.38
463.437	86.38
463.657	94.38
463.876	93.38
464.096	88.38
464.316	87.38
464.536	85.38
464.755	93.38
464.975	102.38
465.195	138.38
465.414	133.38
465.634	100.38
465.854	73.38
466.073	81.38
466.293	79.38
466.512	74.38
466.732	77.38
466.951	92.38
467.171	87.38
467.391	75.38
467.61	86.38
467.829	88.38
468.049	83.38
468.268	91.38
468.488	88.38
468.707	100.38
468.927	81.38
469.146	79.38
469.365	76.38
469.585	84.38
469.804	91.38
470.023	97.38
470.243	105.38
470.462	83.38
470.681	88.38
470.901	80.38
471.12	84.38
471.339	95.38
471.558	82.38
471.777	76.38
471.997	93.38
472.216	104.38
472.435	128.38
472.654	91.38
472.873	100.38
473.092	85.38
473.311	94.38
473.53	94.38
473.749	86.38
473.968	80.38
474.187	90.38
474.406	83.38
474.625	74.38
474.844	83.38
475.063	94.38
475.282	93.38
475.501	90.38
475.72	86.38
475.939	82.38
476.158	87.38
476.377	83.38
476.596	85.38
476.814	94.38
477.033	83.38
477.252	79.38
477.471	93.38
477.69	100.38
477.908	80.38
478.127	84.38
478.346	96.38
478.564	85.38
478.783	97.38
479.002	87.38
479.22	98.38
479.439	94.38
479.658	108.38
479.876	79.38
480.095	78.38
480.313	91.38
480.532	84.38
480.751	98.38
480.969	116.38
481.188	158.38
481.406	132.38
481.624	92.38
481.843	81.38
482.061	103.38
482.28	80.38
482.498	91.38
482.717	83.38
482.935	80.38
483.153	72.38
483.372	80.38
483.59	94.38
483.808	85.38
484.027	95.38
484.245	94.38
484.463	100.38
484.681	86.38
484.9	92.38
485.118	100.38
485.336	98.38
485.554	99.38
485.772	84.38
485.99	80.38
486.209	103.38
486.427	107.38
486.645	89.38
486.863	100.38
487.081	93.38
487.299	84.38
487.517	89.38
487.735	84.38
487.953	89.38
488.171	105.38
488.389	99.38
488.607	83.38
488.825	85.38
489.043	100.38
489.261	86.38
489.479	96.38
489.696	93.38
489.914	84.38
490.132	92.38
490.35	91.38
490.568	99.38
490.786	77.38
491.003	99.38
491.221	89.38
491.439	102.38
491.657	93.38
491.874	87.38
492.092	79.38
492.31	84.38
492.527	101.38
492.745	91.38
492.963	102.38
493.18	103.38
493.398	95.38
493.615	95.38
493.833	97.38
494.05	90.38
494.268	96.38
494.485	76.38
494.703	94.38
494.92	99.38
495.138	93.38
495.355	93.38
495.573	82.38
495.79	88.38
496.008	78.38
496.225	104.38
496.442	95.38
496.66	91.38
496.877	92.38
497.094	85.38
497.312	88.38
497.529	84.38
497.746	80.38
497.963	89.38
498.181	94.38
498.398	83.38
498.615	101.38
498.832	94.38
499.049	96.38
499.267	96.38
499.484	82.38
499.701	94.38
499.918	89.38
500.135	86.38
500.352	99.38
500.569	87.38
500.786	86.38
501.003	84.38
501.22	89.38
501.437	96.38
501.654	102.38
501.871	106.38
502.088	76.38
502.305	86.38
502.522	73.38
502.739	75.38
502.956	75.38
503.172	84.38
503.389	91.38
503.606	99.38
503.823	94.38
504.04	93.38
504.256	105.38
504.473	91.38
504.69	86.38
504.907	94.38
505.123	94.38
505.34	90.38
505.557	78.38
505.773	88.38
505.99	76.38
506.207	82.38
506.423	98.38
506.64	92.38
506.856	94.38
507.073	80.38
507.289	85.38
507.506	99.38
507.722	93.38
507.939	99.38
508.155	93.38
508.372	79.38
508.588	85.38
508.805	94.38
509.021	101.38
509.238	89.38
509.454	86.38
509.67	80.38
509.887	94.38
510.103	113.38
510.319	166.38
510.536	561.38
510.752	1660.38
510.968	513.38
511.184	132.38
511.401	95.38
511.617	105.38
511.833	92.38
512.049	90.38
512.265	98.38
512.481	101.38
512.698	102.38
512.914	81.38
513.13	78.38
513.346	90.38
513.562	78.38
513.778	87.38
513.994	99.38
514.21	99.38
514.426	103.38
514.642	104.38
514.858	107.38
515.074	149.38
515.29	325.38
515.506	1011.38
515.721	421.38
515.937	128.38
516.153	96.38
516.369	97.38
516.585	87.38
516.801	88.38
