Data from Uncirc_2009_H10_HRD10591_00079.txt Node
Date: Wed Jan 03 10:12:17 EST 2024
User: Yrep
Spectrometer: HR+D1059
Trigger mode: 1
Integration Time (sec): 1.000000E-1
Scans to average: 1
Electric dark correction enabled: true
Nonlinearity correction enabled: false
Boxcar width: 0
XAxis mode: Wavelengths
Number of Pixels in Spectrum: 2048
>>>>>Begin Spectral Data<<<<<
223.165	-28.62
223.4	-28.62
223.635	-28.62
223.869	-24.62
224.104	-16.62
224.338	-18.62
224.573	-17.62
224.808	-15.62
225.042	3.38
225.277	-10.62
225.511	1.38
225.746	5.38
225.98	-4.62
226.215	15.38
226.449	18.38
226.683	23.38
226.918	30.38
227.152	39.38
227.387	40.38
227.621	29.38
227.856	51.38
228.09	48.38
228.324	57.38
228.559	62.38
228.793	55.38
229.027	77.38
229.262	70.38
229.496	71.38
229.73	74.38
229.964	67.38
230.199	60.38
230.433	83.38
230.667	67.38
230.901	74.38
231.136	70.38
231.37	87.38
231.604	91.38
231.838	57.38
232.072	92.38
232.306	94.38
232.541	72.38
232.775	75.38
233.009	86.38
233.243	72.38
233.477	80.38
233.711	84.38
233.945	61.38
234.179	81.38
234.413	80.38
234.647	73.38
234.881	68.38
235.115	89.38
235.349	69.38
235.583	71.38
235.817	84.38
236.051	73.38
236.285	73.38
236.519	79.38
236.753	67.38
236.987	80.38
237.221	89.38
237.455	79.38
237.689	77.38
237.922	88.38
238.156	73.38
238.39	71.38
238.624	95.38
238.858	61.38
239.091	75.38
239.325	90.38
239.559	72.38
239.793	78.38
240.027	72.38
240.26	75.38
240.494	72.38
240.728	89.38
240.961	79.38
241.195	75.38
241.429	77.38
241.662	76.38
241.896	75.38
242.13	80.38
242.363	81.38
242.597	81.38
242.83	86.38
243.064	79.38
243.298	74.38
243.531	84.38
243.765	74.38
243.998	92.38
244.232	91.38
244.465	77.38
244.699	94.38
244.932	73.38
245.166	62.38
245.399	71.38
245.633	72.38
245.866	81.38
246.099	75.38
246.333	78.38
246.566	80.38
246.8	79.38
247.033	73.38
247.266	80.38
247.5	90.38
247.733	82.38
247.966	75.38
248.2	77.38
248.433	71.38
248.666	66.38
248.899	72.38
249.133	75.38
249.366	95.38
249.599	87.38
249.832	83.38
250.066	78.38
250.299	86.38
250.532	81.38
250.765	74.38
250.998	93.38
251.231	76.38
251.465	79.38
251.698	78.38
251.931	93.38
252.164	95.38
252.397	87.38
252.63	80.38
252.863	88.38
253.096	81.38
253.329	83.38
253.562	71.38
253.795	75.38
254.028	76.38
254.261	83.38
254.494	78.38
254.727	103.38
254.96	78.38
255.193	73.38
255.426	64.38
255.659	79.38
255.892	70.38
256.124	84.38
256.357	80.38
256.59	68.38
256.823	75.38
257.056	74.38
257.289	80.38
257.521	82.38
257.754	91.38
257.987	84.38
258.22	83.38
258.452	84.38
258.685	74.38
258.918	85.38
259.151	76.38
259.383	77.38
259.616	73.38
259.849	78.38
260.081	86.38
260.314	95.38
260.547	79.38
260.779	94.38
261.012	86.38
261.244	81.38
261.477	86.38
261.71	94.38
261.942	109.38
262.175	90.38
262.407	87.38
262.64	77.38
262.872	81.38
263.105	84.38
263.337	76.38
263.57	78.38
263.802	81.38
264.035	75.38
264.267	76.38
264.499	85.38
264.732	88.38
264.964	88.38
265.197	83.38
265.429	79.38
265.661	82.38
265.894	83.38
266.126	85.38
266.358	86.38
266.591	90.38
266.823	82.38
267.055	78.38
267.287	85.38
267.52	85.38
267.752	74.38
267.984	89.38
268.216	84.38
268.448	80.38
268.681	80.38
268.913	90.38
269.145	90.38
269.377	81.38
269.609	88.38
269.841	99.38
270.073	99.38
270.306	93.38
270.538	85.38
270.77	91.38
271.002	80.38
271.234	76.38
271.466	65.38
271.698	80.38
271.93	85.38
272.162	90.38
272.394	91.38
272.626	88.38
272.858	71.38
273.09	85.38
273.322	90.38
273.553	78.38
273.785	71.38
274.017	85.38
274.249	86.38
274.481	85.38
274.713	83.38
274.945	72.38
275.176	88.38
275.408	77.38
275.64	83.38
275.872	89.38
276.104	81.38
276.335	80.38
276.567	88.38
276.799	95.38
277.031	90.38
277.262	86.38
277.494	86.38
277.726	72.38
277.957	85.38
278.189	85.38
278.421	85.38
278.652	100.38
278.884	84.38
279.115	100.38
279.347	79.38
279.579	87.38
279.81	78.38
280.042	95.38
280.273	85.38
280.505	77.38
280.736	87.38
280.968	85.38
281.199	76.38
281.431	76.38
281.662	85.38
281.894	77.38
282.125	85.38
282.356	103.38
282.588	96.38
282.819	96.38
283.051	81.38
283.282	76.38
283.513	84.38
283.745	93.38
283.976	86.38
284.207	95.38
284.439	94.38
284.67	97.38
284.901	84.38
285.132	88.38
285.364	83.38
285.595	72.38
285.826	78.38
286.057	85.38
286.288	93.38
286.52	103.38
286.751	87.38
286.982	86.38
287.213	89.38
287.444	81.38
287.675	93.38
287.906	90.38
288.138	85.38
288.369	85.38
288.6	85.38
288.831	84.38
289.062	80.38
289.293	85.38
289.524	80.38
289.755	89.38
289.986	79.38
290.217	86.38
290.448	100.38
290.679	93.38
290.91	90.38
291.141	88.38
291.371	80.38
291.602	84.38
291.833	86.38
292.064	83.38
292.295	91.38
292.526	81.38
292.757	78.38
292.987	76.38
293.218	64.38
293.449	92.38
293.68	91.38
293.91	73.38
294.141	80.38
294.372	94.38
294.603	102.38
294.833	74.38
295.064	92.38
295.295	74.38
295.525	92.38
295.756	95.38
295.987	104.38
296.217	123.38
296.448	109.38
296.679	99.38
296.909	100.38
297.14	94.38
297.37	86.38
297.601	88.38
297.831	93.38
298.062	77.38
298.292	78.38
298.523	89.38
298.753	76.38
298.984	75.38
299.214	88.38
299.445	84.38
299.675	92.38
299.905	82.38
300.136	81.38
300.366	85.38
300.597	86.38
300.827	94.38
301.057	86.38
301.288	111.38
301.518	94.38
301.748	86.38
301.979	96.38
302.209	94.38
302.439	83.38
302.669	83.38
302.9	100.38
303.13	103.38
303.36	102.38
303.59	99.38
303.82	101.38
304.051	87.38
304.281	89.38
304.511	87.38
304.741	90.38
304.971	95.38
305.201	90.38
305.431	88.38
305.661	96.38
305.891	84.38
306.121	94.38
306.352	105.38
306.582	105.38
306.812	93.38
307.042	101.38
307.272	95.38
307.502	102.38
307.731	106.38
307.961	109.38
308.191	89.38
308.421	89.38
308.651	85.38
308.881	95.38
309.111	80.38
309.341	85.38
309.571	93.38
309.8	81.38
310.03	97.38
310.26	89.38
310.49	101.38
310.72	91.38
310.949	86.38
311.179	98.38
311.409	83.38
311.639	84.38
311.868	73.38
312.098	72.38
312.328	85.38
312.557	96.38
312.787	111.38
313.017	98.38
313.246	92.38
313.476	84.38
313.706	89.38
313.935	91.38
314.165	94.38
314.394	89.38
314.624	94.38
314.853	92.38
315.083	91.38
315.312	92.38
315.542	88.38
315.771	79.38
316.001	84.38
316.23	71.38
316.46	81.38
316.689	72.38
316.919	98.38
317.148	95.38
317.377	119.38
317.607	115.38
317.836	99.38
318.065	92.38
318.295	94.38
318.524	88.38
318.753	98.38
318.983	86.38
319.212	93.38
319.441	85.38
319.67	91.38
319.9	96.38
320.129	91.38
320.358	100.38
320.587	95.38
320.816	97.38
321.046	95.38
321.275	92.38
321.504	95.38
321.733	102.38
321.962	83.38
322.191	87.38
322.42	91.38
322.649	104.38
322.878	111.38
323.108	111.38
323.337	101.38
323.566	124.38
323.795	148.38
324.024	176.38
324.253	343.38
324.482	672.38
324.71	1388.38
324.939	1821.38
325.168	656.38
325.397	218.38
325.626	149.38
325.855	138.38
326.084	129.38
326.313	155.38
326.542	158.38
326.77	214.38
326.999	379.38
327.228	799.38
327.457	1452.38
327.686	1128.38
327.914	309.38
328.143	179.38
328.372	131.38
328.6	130.38
328.829	101.38
329.058	117.38
329.287	111.38
329.515	102.38
329.744	90.38
329.972	102.38
330.201	95.38
330.43	116.38
330.658	95.38
330.887	104.38
331.115	89.38
331.344	91.38
331.572	88.38
331.801	107.38
332.03	103.38
332.258	112.38
332.486	101.38
332.715	88.38
332.943	92.38
333.172	106.38
333.4	96.38
333.629	101.38
333.857	88.38
334.085	108.38
334.314	107.38
334.542	111.38
334.771	99.38
334.999	96.38
335.227	93.38
335.455	96.38
335.684	85.38
335.912	100.38
336.14	94.38
336.369	97.38
336.597	87.38
336.825	72.38
337.053	96.38
337.281	96.38
337.51	83.38
337.738	93.38
337.966	92.38
338.194	92.38
338.422	86.38
338.65	84.38
338.878	81.38
339.106	97.38
339.334	80.38
339.562	76.38
339.79	82.38
340.018	88.38
340.246	84.38
340.474	98.38
340.702	76.38
340.93	89.38
341.158	96.38
341.386	90.38
341.614	79.38
341.842	90.38
342.07	91.38
342.298	93.38
342.526	76.38
342.754	96.38
342.981	94.38
343.209	90.38
343.437	112.38
343.665	83.38
343.893	92.38
344.12	90.38
344.348	87.38
344.576	82.38
344.804	85.38
345.031	78.38
345.259	90.38
345.487	95.38
345.714	87.38
345.942	98.38
346.17	94.38
346.397	104.38
346.625	88.38
346.853	90.38
347.08	89.38
347.308	80.38
347.535	87.38
347.763	87.38
347.99	89.38
348.218	97.38
348.445	97.38
348.673	96.38
348.9	88.38
349.128	96.38
349.355	81.38
349.583	94.38
349.81	97.38
350.037	87.38
350.265	96.38
350.492	99.38
350.72	87.38
350.947	95.38
351.174	107.38
351.402	103.38
351.629	99.38
351.856	93.38
352.083	96.38
352.311	98.38
352.538	83.38
352.765	118.38
352.992	96.38
353.22	107.38
353.447	105.38
353.674	96.38
353.901	101.38
354.128	101.38
354.355	85.38
354.583	87.38
354.81	93.38
355.037	97.38
355.264	92.38
355.491	96.38
355.718	75.38
355.945	88.38
356.172	95.38
356.399	90.38
356.626	83.38
356.853	97.38
357.08	101.38
357.307	93.38
357.534	90.38
357.761	102.38
357.988	95.38
358.215	91.38
358.441	84.38
358.668	81.38
358.895	87.38
359.122	80.38
359.349	88.38
359.576	93.38
359.802	87.38
360.029	97.38
360.256	107.38
360.483	93.38
360.709	84.38
360.936	100.38
361.163	94.38
361.39	96.38
361.616	94.38
361.843	96.38
362.07	87.38
362.296	90.38
362.523	82.38
362.749	86.38
362.976	99.38
363.203	96.38
363.429	93.38
363.656	75.38
363.882	92.38
364.109	71.38
364.335	71.38
364.562	92.38
364.788	99.38
365.015	91.38
365.241	97.38
365.468	102.38
365.694	92.38
365.92	80.38
366.147	85.38
366.373	86.38
366.599	85.38
366.826	78.38
367.052	73.38
367.278	88.38
367.505	80.38
367.731	94.38
367.957	101.38
368.184	90.38
368.41	88.38
368.636	92.38
368.862	108.38
369.089	97.38
369.315	95.38
369.541	97.38
369.767	87.38
369.993	90.38
370.219	81.38
370.445	93.38
370.672	82.38
370.898	93.38
371.124	75.38
371.35	81.38
371.576	80.38
371.802	87.38
372.028	100.38
372.254	91.38
372.48	79.38
372.706	94.38
372.932	83.38
373.158	95.38
373.384	78.38
373.61	92.38
373.835	65.38
374.061	95.38
374.287	84.38
374.513	82.38
374.739	93.38
374.965	91.38
375.191	83.38
375.416	83.38
375.642	82.38
375.868	83.38
376.094	91.38
376.319	80.38
376.545	92.38
376.771	94.38
376.997	85.38
377.222	87.38
377.448	89.38
377.674	89.38
377.899	90.38
378.125	91.38
378.35	87.38
378.576	83.38
378.802	85.38
379.027	96.38
379.253	80.38
379.478	85.38
379.704	88.38
379.929	83.38
380.155	100.38
380.38	98.38
380.606	99.38
380.831	89.38
381.057	88.38
381.282	90.38
381.507	89.38
381.733	97.38
381.958	99.38
382.184	80.38
382.409	86.38
382.634	101.38
382.86	95.38
383.085	98.38
383.31	96.38
383.535	80.38
383.761	101.38
383.986	84.38
384.211	87.38
384.436	97.38
384.662	96.38
384.887	95.38
385.112	82.38
385.337	87.38
385.562	82.38
385.787	88.38
386.013	100.38
386.238	102.38
386.463	99.38
386.688	110.38
386.913	107.38
387.138	104.38
387.363	99.38
387.588	91.38
387.813	100.38
388.038	112.38
388.263	104.38
388.488	106.38
388.713	93.38
388.938	86.38
389.163	94.38
389.387	95.38
389.612	84.38
389.837	90.38
390.062	90.38
390.287	96.38
390.512	97.38
390.736	86.38
390.961	80.38
391.186	97.38
391.411	97.38
391.636	85.38
391.86	84.38
392.085	101.38
392.31	80.38
392.534	85.38
392.759	84.38
392.984	71.38
393.208	87.38
393.433	81.38
393.658	76.38
393.882	74.38
394.107	86.38
394.331	92.38
394.556	80.38
394.78	78.38
395.005	76.38
395.229	80.38
395.454	91.38
395.678	93.38
395.903	87.38
396.127	85.38
396.352	84.38
396.576	84.38
396.801	86.38
397.025	86.38
397.249	88.38
397.474	86.38
397.698	88.38
397.922	80.38
398.147	74.38
398.371	92.38
398.595	92.38
398.82	70.38
399.044	88.38
399.268	75.38
399.492	88.38
399.717	85.38
399.941	98.38
400.165	89.38
400.389	89.38
400.613	76.38
400.837	65.38
401.062	71.38
401.286	86.38
401.51	96.38
401.734	86.38
401.958	96.38
402.182	116.38
402.406	121.38
402.63	95.38
402.854	88.38
403.078	94.38
403.302	78.38
403.526	92.38
403.75	97.38
403.974	79.38
404.198	71.38
404.422	81.38
404.645	95.38
404.869	80.38
405.093	88.38
405.317	96.38
405.541	104.38
405.765	96.38
405.988	115.38
406.212	127.38
406.436	152.38
406.66	122.38
406.883	96.38
407.107	83.38
407.331	80.38
407.555	80.38
407.778	93.38
408.002	89.38
408.226	80.38
408.449	80.38
408.673	86.38
408.896	81.38
409.12	84.38
409.344	87.38
409.567	80.38
409.791	84.38
410.014	84.38
410.238	83.38
410.461	86.38
410.685	94.38
410.908	90.38
411.132	92.38
411.355	97.38
411.578	87.38
411.802	89.38
412.025	85.38
412.249	75.38
412.472	91.38
412.695	101.38
412.919	97.38
413.142	81.38
413.365	70.38
413.589	96.38
413.812	93.38
414.035	94.38
414.258	89.38
414.482	85.38
414.705	95.38
414.928	85.38
415.151	83.38
415.374	84.38
415.597	88.38
415.821	91.38
416.044	77.38
416.267	92.38
416.49	78.38
416.713	72.38
416.936	95.38
417.159	75.38
417.382	67.38
417.605	93.38
417.828	85.38
418.051	92.38
418.274	87.38
418.497	80.38
418.72	76.38
418.943	81.38
419.166	92.38
419.389	84.38
419.611	104.38
419.834	95.38
420.057	88.38
420.28	86.38
420.503	83.38
420.726	80.38
420.948	81.38
421.171	91.38
421.394	90.38
421.617	90.38
421.839	88.38
422.062	92.38
422.285	79.38
422.507	95.38
422.73	103.38
422.953	89.38
423.175	78.38
423.398	78.38
423.621	92.38
423.843	94.38
424.066	94.38
424.288	69.38
424.511	87.38
424.733	104.38
424.956	91.38
425.178	92.38
425.401	102.38
425.623	90.38
425.846	87.38
426.068	94.38
426.291	98.38
426.513	78.38
426.735	85.38
426.958	97.38
427.18	91.38
427.402	106.38
427.625	119.38
427.847	112.38
428.069	99.38
428.292	95.38
428.514	82.38
428.736	72.38
428.958	71.38
429.181	85.38
429.403	85.38
429.625	100.38
429.847	97.38
430.069	103.38
430.292	87.38
430.514	86.38
430.736	95.38
430.958	80.38
431.18	87.38
431.402	88.38
431.624	85.38
431.846	83.38
432.068	87.38
432.29	75.38
432.512	90.38
432.734	94.38
432.956	100.38
433.178	102.38
433.4	88.38
433.622	92.38
433.844	92.38
434.066	85.38
434.287	79.38
434.509	88.38
434.731	102.38
434.953	71.38
435.175	76.38
435.397	85.38
435.618	87.38
435.84	91.38
436.062	113.38
436.284	108.38
436.505	90.38
436.727	93.38
436.949	87.38
437.17	80.38
437.392	73.38
437.614	89.38
437.835	101.38
438.057	113.38
438.278	87.38
438.5	101.38
438.721	120.38
438.943	96.38
439.165	91.38
439.386	89.38
439.608	72.38
439.829	92.38
440.05	110.38
440.272	132.38
440.493	97.38
440.715	80.38
440.936	78.38
441.158	75.38
441.379	92.38
441.6	84.38
441.822	86.38
442.043	91.38
442.264	84.38
442.486	91.38
442.707	101.38
442.928	99.38
443.149	115.38
443.371	111.38
443.592	103.38
443.813	117.38
444.034	85.38
444.255	85.38
444.476	88.38
444.698	96.38
444.919	91.38
445.14	116.38
445.361	107.38
445.582	98.38
445.803	116.38
446.024	107.38
446.245	108.38
446.466	99.38
446.687	70.38
446.908	79.38
447.129	87.38
447.35	85.38
447.571	95.38
447.792	79.38
448.013	89.38
448.234	100.38
448.455	88.38
448.675	109.38
448.896	88.38
449.117	89.38
449.338	76.38
449.559	115.38
449.779	121.38
450	69.38
450.221	83.38
450.442	87.38
450.662	77.38
450.883	80.38
451.104	91.38
451.324	82.38
451.545	84.38
451.766	92.38
451.986	80.38
452.207	86.38
452.428	71.38
452.648	93.38
452.869	85.38
453.089	108.38
453.31	108.38
453.53	86.38
453.751	95.38
453.971	113.38
454.192	103.38
454.412	92.38
454.633	84.38
454.853	87.38
455.073	78.38
455.294	81.38
455.514	87.38
455.734	93.38
455.955	85.38
456.175	87.38
456.395	86.38
456.616	77.38
456.836	76.38
457.056	73.38
457.276	86.38
457.497	86.38
457.717	101.38
457.937	85.38
458.157	91.38
458.377	85.38
458.598	78.38
458.818	108.38
459.038	118.38
459.258	99.38
459.478	90.38
459.698	79.38
459.918	84.38
460.138	83.38
460.358	81.38
460.578	86.38
460.798	92.38
461.018	96.38
461.238	96.38
461.458	83.38
461.678	92.38
461.898	90.38
462.118	94.38
462.338	76.38
462.558	71.38
462.777	83.38
462.997	87.38
463.217	93.38
463.437	77.38
463.657	79.38
463.876	77.38
464.096	78.38
464.316	74.38
464.536	81.38
464.755	89.38
464.975	102.38
465.195	132.38
465.414	117.38
465.634	81.38
465.854	93.38
466.073	96.38
466.293	70.38
466.512	79.38
466.732	86.38
466.951	93.38
467.171	85.38
467.391	98.38
467.61	95.38
467.829	93.38
468.049	98.38
468.268	95.38
468.488	76.38
468.707	84.38
468.927	85.38
469.146	89.38
469.365	73.38
469.585	76.38
469.804	90.38
470.023	81.38
470.243	99.38
470.462	107.38
470.681	95.38
470.901	70.38
471.12	77.38
471.339	94.38
471.558	102.38
471.777	89.38
471.997	86.38
472.216	104.38
472.435	105.38
472.654	80.38
472.873	99.38
473.092	75.38
473.311	76.38
473.53	76.38
473.749	71.38
473.968	81.38
474.187	90.38
474.406	89.38
474.625	75.38
474.844	89.38
475.063	89.38
475.282	94.38
475.501	76.38
475.72	87.38
475.939	80.38
476.158	84.38
476.377	82.38
476.596	74.38
476.814	80.38
477.033	88.38
477.252	93.38
477.471	83.38
477.69	82.38
477.908	91.38
478.127	96.38
478.346	69.38
478.564	92.38
478.783	90.38
479.002	85.38
479.22	103.38
479.439	96.38
479.658	95.38
479.876	84.38
480.095	87.38
480.313	96.38
480.532	95.38
480.751	91.38
480.969	80.38
481.188	153.38
481.406	137.38
481.624	94.38
481.843	101.38
482.061	95.38
482.28	99.38
482.498	85.38
482.717	79.38
482.935	65.38
483.153	90.38
483.372	80.38
483.59	94.38
483.808	110.38
484.027	111.38
484.245	93.38
484.463	88.38
484.681	89.38
484.9	83.38
485.118	99.38
485.336	102.38
485.554	90.38
485.772	85.38
485.99	98.38
486.209	104.38
486.427	110.38
486.645	112.38
486.863	104.38
487.081	89.38
487.299	92.38
487.517	93.38
487.735	96.38
487.953	94.38
488.171	88.38
488.389	84.38
488.607	89.38
488.825	104.38
489.043	104.38
489.261	94.38
489.479	84.38
489.696	77.38
489.914	100.38
490.132	87.38
490.35	93.38
490.568	92.38
490.786	93.38
491.003	87.38
491.221	93.38
491.439	89.38
491.657	89.38
491.874	89.38
492.092	97.38
492.31	99.38
492.527	85.38
492.745	88.38
492.963	107.38
493.18	94.38
493.398	92.38
493.615	100.38
493.833	96.38
494.05	88.38
494.268	92.38
494.485	77.38
494.703	83.38
494.92	97.38
495.138	80.38
495.355	95.38
495.573	97.38
495.79	89.38
496.008	96.38
496.225	92.38
496.442	78.38
496.66	81.38
496.877	86.38
497.094	89.38
497.312	93.38
497.529	81.38
497.746	90.38
497.963	97.38
498.181	91.38
498.398	88.38
498.615	104.38
498.832	96.38
499.049	87.38
499.267	100.38
499.484	99.38
499.701	99.38
499.918	100.38
500.135	99.38
500.352	93.38
500.569	108.38
500.786	100.38
501.003	93.38
501.22	71.38
501.437	90.38
501.654	85.38
501.871	92.38
502.088	95.38
502.305	94.38
502.522	85.38
502.739	79.38
502.956	92.38
503.172	93.38
503.389	103.38
503.606	96.38
503.823	87.38
504.04	93.38
504.256	81.38
504.473	100.38
504.69	96.38
504.907	88.38
505.123	87.38
505.34	93.38
505.557	89.38
505.773	94.38
505.99	86.38
506.207	88.38
506.423	90.38
506.64	87.38
506.856	90.38
507.073	94.38
507.289	89.38
507.506	100.38
507.722	96.38
507.939	95.38
508.155	83.38
508.372	87.38
508.588	93.38
508.805	81.38
509.021	80.38
509.238	94.38
509.454	93.38
509.67	91.38
509.887	105.38
510.103	120.38
510.319	162.38
510.536	536.38
510.752	1565.38
510.968	458.38
511.184	137.38
511.401	111.38
511.617	95.38
511.833	92.38
512.049	98.38
512.265	90.38
512.481	71.38
512.698	97.38
512.914	89.38
513.13	104.38
513.346	77.38
513.562	88.38
513.778	99.38
513.994	93.38
514.21	96.38
514.426	104.38
514.642	101.38
514.858	104.38
515.074	126.38
515.29	303.38
515.506	931.38
515.721	361.38
515.937	112.38
516.153	100.38
516.369	91.38
516.585	89.38
516.801	73.38
517.016	104.38
517.232	85.38
