Data from Uncirc_2009_H10_HRD10591_00005.txt Node
Date: Wed Jan 03 10:12:02 EST 2024
User: Yrep
Spectrometer: HR+D1059
Trigger mode: 1
Integration Time (sec): 1.000000E-1
Scans to average: 1
Electric dark correction enabled: true
Nonlinearity correction enabled: false
Boxcar width: 0
XAxis mode: Wavelengths
Number of Pixels in Spectrum: 2048
>>>>>Begin Spectral Data<<<<<
223.165	-27.31
223.4	-27.31
223.635	-27.31
223.869	-17.31
224.104	-20.31
224.338	-20.31
224.573	-3.31
224.808	-10.31
225.042	-13.31
225.277	-0.31
225.511	3.69
225.746	11.69
225.98	8.69
226.215	6.69
226.449	10.69
226.683	18.69
226.918	20.69
227.152	31.69
227.387	37.69
227.621	20.69
227.856	48.69
228.09	40.69
228.324	41.69
228.559	57.69
228.793	63.69
229.027	70.69
229.262	47.69
229.496	64.69
229.73	92.69
229.964	91.69
230.199	59.69
230.433	71.69
230.667	76.69
230.901	77.69
231.136	70.69
231.37	96.69
231.604	80.69
231.838	74.69
232.072	82.69
232.306	92.69
232.541	87.69
232.775	92.69
233.009	87.69
233.243	102.69
233.477	84.69
233.711	78.69
233.945	81.69
234.179	72.69
234.413	75.69
234.647	82.69
234.881	78.69
235.115	85.69
235.349	86.69
235.583	83.69
235.817	74.69
236.051	77.69
236.285	85.69
236.519	77.69
236.753	70.69
236.987	83.69
237.221	76.69
237.455	82.69
237.689	74.69
237.922	78.69
238.156	69.69
238.39	80.69
238.624	76.69
238.858	89.69
239.091	74.69
239.325	75.69
239.559	78.69
239.793	76.69
240.027	85.69
240.26	77.69
240.494	85.69
240.728	69.69
240.961	78.69
241.195	85.69
241.429	72.69
241.662	84.69
241.896	81.69
242.13	71.69
242.363	76.69
242.597	66.69
242.83	97.69
243.064	88.69
243.298	66.69
243.531	69.69
243.765	63.69
243.998	80.69
244.232	77.69
244.465	83.69
244.699	83.69
244.932	88.69
245.166	81.69
245.399	83.69
245.633	98.69
245.866	63.69
246.099	71.69
246.333	90.69
246.566	89.69
246.8	65.69
247.033	70.69
247.266	67.69
247.5	73.69
247.733	67.69
247.966	61.69
248.2	86.69
248.433	70.69
248.666	78.69
248.899	78.69
249.133	97.69
249.366	88.69
249.599	86.69
249.832	82.69
250.066	89.69
250.299	78.69
250.532	79.69
250.765	82.69
250.998	86.69
251.231	89.69
251.465	80.69
251.698	87.69
251.931	75.69
252.164	77.69
252.397	83.69
252.63	75.69
252.863	88.69
253.096	79.69
253.329	86.69
253.562	87.69
253.795	86.69
254.028	101.69
254.261	89.69
254.494	81.69
254.727	86.69
254.96	92.69
255.193	70.69
255.426	77.69
255.659	80.69
255.892	73.69
256.124	76.69
256.357	79.69
256.59	82.69
256.823	83.69
257.056	84.69
257.289	79.69
257.521	95.69
257.754	93.69
257.987	86.69
258.22	75.69
258.452	73.69
258.685	80.69
258.918	62.69
259.151	79.69
259.383	87.69
259.616	86.69
259.849	88.69
260.081	99.69
260.314	83.69
260.547	77.69
260.779	91.69
261.012	78.69
261.244	86.69
261.477	82.69
261.71	86.69
261.942	93.69
262.175	102.69
262.407	88.69
262.64	93.69
262.872	90.69
263.105	88.69
263.337	66.69
263.57	96.69
263.802	86.69
264.035	83.69
264.267	83.69
264.499	83.69
264.732	83.69
264.964	83.69
265.197	77.69
265.429	82.69
265.661	96.69
265.894	82.69
266.126	73.69
266.358	89.69
266.591	89.69
266.823	69.69
267.055	94.69
267.287	83.69
267.52	92.69
267.752	72.69
267.984	83.69
268.216	68.69
268.448	93.69
268.681	93.69
268.913	77.69
269.145	83.69
269.377	93.69
269.609	86.69
269.841	88.69
270.073	83.69
270.306	85.69
270.538	96.69
270.77	83.69
271.002	83.69
271.234	83.69
271.466	85.69
271.698	81.69
271.93	85.69
272.162	87.69
272.394	90.69
272.626	85.69
272.858	80.69
273.09	90.69
273.322	99.69
273.553	86.69
273.785	73.69
274.017	93.69
274.249	90.69
274.481	83.69
274.713	80.69
274.945	88.69
275.176	73.69
275.408	86.69
275.64	83.69
275.872	84.69
276.104	82.69
276.335	90.69
276.567	87.69
276.799	93.69
277.031	90.69
277.262	93.69
277.494	81.69
277.726	74.69
277.957	71.69
278.189	95.69
278.421	91.69
278.652	91.69
278.884	92.69
279.115	93.69
279.347	102.69
279.579	94.69
279.81	86.69
280.042	82.69
280.273	89.69
280.505	86.69
280.736	92.69
280.968	90.69
281.199	96.69
281.431	106.69
281.662	74.69
281.894	87.69
282.125	96.69
282.356	111.69
282.588	115.69
282.819	111.69
283.051	72.69
283.282	81.69
283.513	79.69
283.745	94.69
283.976	99.69
284.207	80.69
284.439	88.69
284.67	87.69
284.901	79.69
285.132	90.69
285.364	74.69
285.595	97.69
285.826	85.69
286.057	83.69
286.288	83.69
286.52	101.69
286.751	88.69
286.982	88.69
287.213	86.69
287.444	93.69
287.675	76.69
287.906	105.69
288.138	83.69
288.369	90.69
288.6	84.69
288.831	89.69
289.062	73.69
289.293	87.69
289.524	85.69
289.755	93.69
289.986	97.69
290.217	96.69
290.448	84.69
290.679	82.69
290.91	90.69
291.141	87.69
291.371	94.69
291.602	90.69
291.833	79.69
292.064	95.69
292.295	94.69
292.526	86.69
292.757	90.69
292.987	90.69
293.218	86.69
293.449	82.69
293.68	89.69
293.91	85.69
294.141	96.69
294.372	88.69
294.603	79.69
294.833	89.69
295.064	80.69
295.295	92.69
295.525	92.69
295.756	98.69
295.987	94.69
296.217	126.69
296.448	109.69
296.679	93.69
296.909	87.69
297.14	95.69
297.37	92.69
297.601	77.69
297.831	84.69
298.062	95.69
298.292	80.69
298.523	85.69
298.753	86.69
298.984	72.69
299.214	85.69
299.445	91.69
299.675	103.69
299.905	99.69
300.136	88.69
300.366	103.69
300.597	88.69
300.827	101.69
301.057	109.69
301.288	101.69
301.518	92.69
301.748	98.69
301.979	98.69
302.209	94.69
302.439	88.69
302.669	83.69
302.9	94.69
303.13	91.69
303.36	107.69
303.59	110.69
303.82	95.69
304.051	83.69
304.281	88.69
304.511	88.69
304.741	93.69
304.971	72.69
305.201	89.69
305.431	91.69
305.661	97.69
305.891	91.69
306.121	89.69
306.352	95.69
306.582	98.69
306.812	101.69
307.042	102.69
307.272	79.69
307.502	92.69
307.731	90.69
307.961	96.69
308.191	83.69
308.421	89.69
308.651	91.69
308.881	86.69
309.111	95.69
309.341	98.69
309.571	99.69
309.8	96.69
310.03	87.69
310.26	84.69
310.49	85.69
310.72	88.69
310.949	88.69
311.179	94.69
311.409	94.69
311.639	87.69
311.868	104.69
312.098	98.69
312.328	100.69
312.557	97.69
312.787	96.69
313.017	95.69
313.246	104.69
313.476	98.69
313.706	104.69
313.935	87.69
314.165	103.69
314.394	99.69
314.624	100.69
314.853	82.69
315.083	91.69
315.312	104.69
315.542	104.69
315.771	101.69
316.001	106.69
316.23	98.69
316.46	90.69
316.689	80.69
316.919	82.69
317.148	99.69
317.377	119.69
317.607	106.69
317.836	112.69
318.065	91.69
318.295	94.69
318.524	81.69
318.753	92.69
318.983	93.69
319.212	99.69
319.441	97.69
319.67	105.69
319.9	85.69
320.129	93.69
320.358	98.69
320.587	98.69
320.816	90.69
321.046	94.69
321.275	83.69
321.504	100.69
321.733	103.69
321.962	92.69
322.191	96.69
322.42	102.69
322.649	89.69
322.878	98.69
323.108	122.69
323.337	117.69
323.566	134.69
323.795	141.69
324.024	171.69
324.253	314.69
324.482	681.69
324.71	1305.69
324.939	1733.69
325.168	638.69
325.397	206.69
325.626	138.69
325.855	119.69
326.084	111.69
326.313	148.69
326.542	145.69
326.77	203.69
326.999	391.69
327.228	779.69
327.457	1360.69
327.686	1069.69
327.914	283.69
328.143	160.69
328.372	131.69
328.6	117.69
328.829	103.69
329.058	120.69
329.287	105.69
329.515	100.69
329.744	106.69
329.972	112.69
330.201	124.69
330.43	120.69
330.658	106.69
330.887	121.69
331.115	98.69
331.344	105.69
331.572	91.69
331.801	91.69
332.03	98.69
332.258	103.69
332.486	83.69
332.715	90.69
332.943	95.69
333.172	89.69
333.4	94.69
333.629	117.69
333.857	117.69
334.085	93.69
334.314	89.69
334.542	115.69
334.771	109.69
334.999	99.69
335.227	98.69
335.455	92.69
335.684	103.69
335.912	90.69
336.14	89.69
336.369	94.69
336.597	101.69
336.825	90.69
337.053	90.69
337.281	93.69
337.51	90.69
337.738	87.69
337.966	68.69
338.194	91.69
338.422	106.69
338.65	99.69
338.878	92.69
339.106	74.69
339.334	90.69
339.562	89.69
339.79	88.69
340.018	91.69
340.246	93.69
340.474	83.69
340.702	82.69
340.93	83.69
341.158	86.69
341.386	90.69
341.614	98.69
341.842	94.69
342.07	85.69
342.298	85.69
342.526	96.69
342.754	94.69
342.981	94.69
343.209	101.69
343.437	105.69
343.665	91.69
343.893	80.69
344.12	93.69
344.348	90.69
344.576	89.69
344.804	90.69
345.031	91.69
345.259	87.69
345.487	96.69
345.714	82.69
345.942	99.69
346.17	89.69
346.397	93.69
346.625	99.69
346.853	106.69
347.08	87.69
347.308	90.69
347.535	108.69
347.763	94.69
347.99	87.69
348.218	92.69
348.445	100.69
348.673	84.69
348.9	97.69
349.128	93.69
349.355	93.69
349.583	88.69
349.81	82.69
350.037	89.69
350.265	99.69
350.492	91.69
350.72	101.69
350.947	106.69
351.174	111.69
351.402	110.69
351.629	109.69
351.856	102.69
352.083	111.69
352.311	107.69
352.538	93.69
352.765	89.69
352.992	104.69
353.22	116.69
353.447	106.69
353.674	104.69
353.901	105.69
354.128	108.69
354.355	102.69
354.583	102.69
354.81	90.69
355.037	93.69
355.264	97.69
355.491	107.69
355.718	92.69
355.945	89.69
356.172	94.69
356.399	89.69
356.626	93.69
356.853	100.69
357.08	89.69
357.307	106.69
357.534	91.69
357.761	87.69
357.988	100.69
358.215	98.69
358.441	100.69
358.668	88.69
358.895	82.69
359.122	109.69
359.349	83.69
359.576	81.69
359.802	91.69
360.029	104.69
360.256	95.69
360.483	88.69
360.709	89.69
360.936	100.69
361.163	86.69
361.39	86.69
361.616	88.69
361.843	81.69
362.07	90.69
362.296	101.69
362.523	89.69
362.749	99.69
362.976	96.69
363.203	83.69
363.429	79.69
363.656	85.69
363.882	80.69
364.109	98.69
364.335	85.69
364.562	101.69
364.788	96.69
365.015	105.69
365.241	104.69
365.468	107.69
365.694	91.69
365.92	90.69
366.147	92.69
366.373	82.69
366.599	98.69
366.826	93.69
367.052	81.69
367.278	77.69
367.505	84.69
367.731	82.69
367.957	93.69
368.184	98.69
368.41	101.69
368.636	90.69
368.862	111.69
369.089	105.69
369.315	93.69
369.541	78.69
369.767	85.69
369.993	95.69
370.219	102.69
370.445	86.69
370.672	86.69
370.898	94.69
371.124	88.69
371.35	95.69
371.576	85.69
371.802	88.69
372.028	88.69
372.254	90.69
372.48	98.69
372.706	95.69
372.932	96.69
373.158	82.69
373.384	104.69
373.61	98.69
373.835	86.69
374.061	91.69
374.287	98.69
374.513	98.69
374.739	93.69
374.965	94.69
375.191	105.69
375.416	91.69
375.642	91.69
375.868	96.69
376.094	98.69
376.319	93.69
376.545	90.69
376.771	90.69
376.997	82.69
377.222	85.69
377.448	89.69
377.674	100.69
377.899	93.69
378.125	73.69
378.35	95.69
378.576	87.69
378.802	90.69
379.027	98.69
379.253	101.69
379.478	94.69
379.704	85.69
379.929	103.69
380.155	119.69
380.38	102.69
380.606	89.69
380.831	88.69
381.057	96.69
381.282	96.69
381.507	93.69
381.733	108.69
381.958	93.69
382.184	94.69
382.409	110.69
382.634	111.69
382.86	111.69
383.085	106.69
383.31	109.69
383.535	88.69
383.761	104.69
383.986	99.69
384.211	108.69
384.436	97.69
384.662	102.69
384.887	110.69
385.112	111.69
385.337	113.69
385.562	100.69
385.787	112.69
386.013	119.69
386.238	105.69
386.463	111.69
386.688	119.69
386.913	120.69
387.138	108.69
387.363	123.69
387.588	99.69
387.813	107.69
388.038	116.69
388.263	109.69
388.488	135.69
388.713	88.69
388.938	113.69
389.163	90.69
389.387	101.69
389.612	98.69
389.837	95.69
390.062	86.69
390.287	94.69
390.512	84.69
390.736	90.69
390.961	91.69
391.186	95.69
391.411	94.69
391.636	101.69
391.86	79.69
392.085	95.69
392.31	84.69
392.534	83.69
392.759	86.69
392.984	89.69
393.208	87.69
393.433	89.69
393.658	89.69
393.882	79.69
394.107	93.69
394.331	86.69
394.556	80.69
394.78	87.69
395.005	82.69
395.229	87.69
395.454	96.69
395.678	84.69
395.903	96.69
396.127	88.69
396.352	76.69
396.576	90.69
396.801	79.69
397.025	101.69
397.249	94.69
397.474	98.69
397.698	87.69
397.922	88.69
398.147	84.69
398.371	85.69
398.595	96.69
398.82	92.69
399.044	71.69
399.268	97.69
399.492	94.69
399.717	86.69
399.941	87.69
400.165	76.69
400.389	90.69
400.613	87.69
400.837	79.69
401.062	87.69
401.286	98.69
401.51	91.69
401.734	97.69
401.958	89.69
402.182	108.69
402.406	126.69
402.63	96.69
402.854	94.69
403.078	90.69
403.302	91.69
403.526	91.69
403.75	81.69
403.974	84.69
404.198	93.69
404.422	91.69
404.645	89.69
404.869	82.69
405.093	82.69
405.317	93.69
405.541	107.69
405.765	111.69
405.988	96.69
406.212	127.69
406.436	183.69
406.66	120.69
406.883	87.69
407.107	89.69
407.331	88.69
407.555	90.69
407.778	83.69
408.002	91.69
408.226	103.69
408.449	86.69
408.673	90.69
408.896	100.69
409.12	89.69
409.344	93.69
409.567	94.69
409.791	95.69
410.014	100.69
410.238	105.69
410.461	102.69
410.685	104.69
410.908	101.69
411.132	113.69
411.355	113.69
411.578	97.69
411.802	95.69
412.025	86.69
412.249	91.69
412.472	96.69
412.695	94.69
412.919	83.69
413.142	85.69
413.365	89.69
413.589	85.69
413.812	72.69
414.035	106.69
414.258	91.69
414.482	94.69
414.705	81.69
414.928	92.69
415.151	96.69
415.374	90.69
415.597	85.69
415.821	96.69
416.044	85.69
416.267	98.69
416.49	83.69
416.713	87.69
416.936	93.69
417.159	79.69
417.382	95.69
417.605	97.69
417.828	95.69
418.051	80.69
418.274	107.69
418.497	81.69
418.72	84.69
418.943	83.69
419.166	91.69
419.389	88.69
419.611	87.69
419.834	80.69
420.057	92.69
420.28	86.69
420.503	85.69
420.726	79.69
420.948	85.69
421.171	96.69
421.394	102.69
421.617	94.69
421.839	93.69
422.062	96.69
422.285	97.69
422.507	87.69
422.73	95.69
422.953	89.69
423.175	89.69
423.398	88.69
423.621	88.69
423.843	101.69
424.066	85.69
424.288	91.69
424.511	93.69
424.733	95.69
424.956	102.69
425.178	99.69
425.401	109.69
425.623	94.69
425.846	93.69
426.068	88.69
426.291	86.69
426.513	87.69
426.735	93.69
426.958	86.69
427.18	101.69
427.402	120.69
427.625	125.69
427.847	119.69
428.069	103.69
428.292	89.69
428.514	90.69
428.736	88.69
428.958	91.69
429.181	98.69
429.403	94.69
429.625	97.69
429.847	89.69
430.069	77.69
430.292	88.69
430.514	85.69
430.736	93.69
430.958	80.69
431.18	88.69
431.402	88.69
431.624	87.69
431.846	93.69
432.068	81.69
432.29	82.69
432.512	82.69
432.734	97.69
432.956	90.69
433.178	96.69
433.4	97.69
433.622	87.69
433.844	95.69
434.066	95.69
434.287	96.69
434.509	103.69
434.731	100.69
434.953	81.69
435.175	91.69
435.397	91.69
435.618	94.69
435.84	108.69
436.062	111.69
436.284	103.69
436.505	103.69
436.727	91.69
436.949	82.69
437.17	93.69
437.392	79.69
437.614	92.69
437.835	96.69
438.057	110.69
438.278	104.69
438.5	99.69
438.721	113.69
438.943	105.69
439.165	81.69
439.386	86.69
439.608	84.69
439.829	83.69
440.05	104.69
440.272	119.69
440.493	94.69
440.715	75.69
440.936	86.69
441.158	85.69
441.379	93.69
441.6	96.69
441.822	76.69
442.043	89.69
442.264	74.69
442.486	91.69
442.707	89.69
442.928	110.69
443.149	115.69
443.371	104.69
443.592	107.69
443.813	104.69
444.034	90.69
444.255	87.69
444.476	67.69
444.698	83.69
444.919	88.69
445.14	137.69
445.361	107.69
445.582	116.69
445.803	113.69
446.024	103.69
446.245	118.69
446.466	103.69
446.687	87.69
446.908	99.69
447.129	96.69
447.35	75.69
447.571	93.69
447.792	74.69
448.013	94.69
448.234	99.69
448.455	93.69
448.675	104.69
448.896	96.69
449.117	94.69
449.338	104.69
449.559	107.69
449.779	103.69
450	75.69
450.221	75.69
450.442	95.69
450.662	103.69
450.883	106.69
451.104	106.69
451.324	99.69
451.545	95.69
451.766	88.69
451.986	90.69
452.207	83.69
452.428	86.69
452.648	99.69
452.869	79.69
453.089	85.69
453.31	91.69
453.53	97.69
453.751	90.69
453.971	86.69
454.192	91.69
454.412	85.69
454.633	82.69
454.853	81.69
455.073	81.69
455.294	96.69
455.514	71.69
455.734	94.69
455.955	87.69
456.175	78.69
456.395	91.69
456.616	90.69
456.836	83.69
457.056	94.69
457.276	89.69
457.497	71.69
457.717	89.69
457.937	90.69
458.157	96.69
458.377	92.69
458.598	108.69
458.818	114.69
459.038	121.69
459.258	110.69
459.478	83.69
459.698	88.69
459.918	95.69
460.138	99.69
460.358	88.69
460.578	90.69
460.798	85.69
461.018	93.69
461.238	81.69
461.458	85.69
461.678	80.69
461.898	98.69
462.118	109.69
462.338	85.69
462.558	87.69
462.777	85.69
462.997	88.69
463.217	86.69
463.437	77.69
463.657	87.69
463.876	93.69
464.096	93.69
464.316	95.69
464.536	98.69
464.755	94.69
464.975	91.69
465.195	123.69
465.414	125.69
465.634	100.69
465.854	87.69
466.073	91.69
466.293	72.69
466.512	91.69
466.732	89.69
466.951	94.69
467.171	86.69
467.391	71.69
467.61	99.69
467.829	94.69
468.049	92.69
468.268	105.69
468.488	76.69
468.707	97.69
468.927	88.69
469.146	91.69
469.365	77.69
469.585	94.69
469.804	95.69
470.023	88.69
470.243	79.69
470.462	95.69
470.681	96.69
470.901	94.69
471.12	86.69
471.339	92.69
471.558	91.69
471.777	78.69
471.997	98.69
472.216	89.69
472.435	114.69
472.654	102.69
472.873	73.69
473.092	89.69
473.311	83.69
473.53	92.69
473.749	87.69
473.968	107.69
474.187	97.69
474.406	98.69
474.625	87.69
474.844	84.69
475.063	96.69
475.282	84.69
475.501	97.69
475.72	90.69
475.939	85.69
476.158	86.69
476.377	86.69
476.596	67.69
476.814	87.69
477.033	81.69
477.252	103.69
477.471	89.69
477.69	83.69
477.908	106.69
478.127	87.69
478.346	79.69
478.564	102.69
478.783	113.69
479.002	89.69
479.22	91.69
479.439	100.69
479.658	83.69
479.876	80.69
480.095	102.69
480.313	94.69
480.532	96.69
480.751	98.69
480.969	98.69
481.188	145.69
481.406	129.69
481.624	87.69
481.843	92.69
482.061	85.69
482.28	78.69
482.498	98.69
482.717	92.69
482.935	82.69
483.153	101.69
483.372	87.69
483.59	92.69
483.808	100.69
484.027	98.69
484.245	87.69
484.463	102.69
484.681	98.69
484.9	90.69
485.118	105.69
485.336	97.69
485.554	104.69
485.772	109.69
485.99	102.69
486.209	103.69
486.427	88.69
486.645	94.69
486.863	104.69
487.081	97.69
487.299	95.69
487.517	103.69
487.735	93.69
487.953	91.69
488.171	87.69
488.389	106.69
488.607	92.69
488.825	96.69
489.043	96.69
489.261	102.69
489.479	91.69
489.696	80.69
489.914	90.69
490.132	83.69
490.35	97.69
490.568	88.69
490.786	91.69
491.003	89.69
491.221	99.69
491.439	88.69
491.657	78.69
491.874	83.69
492.092	90.69
492.31	84.69
492.527	98.69
492.745	103.69
492.963	92.69
493.18	91.69
493.398	109.69
493.615	94.69
493.833	91.69
494.05	95.69
494.268	88.69
494.485	81.69
494.703	107.69
494.92	96.69
495.138	97.69
495.355	94.69
495.573	94.69
495.79	95.69
496.008	93.69
496.225	84.69
496.442	97.69
496.66	109.69
496.877	107.69
497.094	102.69
497.312	101.69
497.529	100.69
497.746	93.69
497.963	76.69
498.181	94.69
498.398	99.69
498.615	93.69
498.832	97.69
499.049	100.69
499.267	98.69
499.484	97.69
499.701	82.69
499.918	95.69
500.135	92.69
500.352	95.69
500.569	105.69
500.786	80.69
501.003	69.69
501.22	92.69
501.437	87.69
501.654	94.69
501.871	81.69
502.088	112.69
502.305	92.69
502.522	87.69
502.739	87.69
502.956	90.69
503.172	86.69
503.389	95.69
503.606	88.69
503.823	102.69
504.04	95.69
504.256	98.69
504.473	84.69
504.69	89.69
504.907	110.69
505.123	106.69
505.34	89.69
505.557	76.69
505.773	79.69
505.99	92.69
506.207	86.69
506.423	92.69
506.64	92.69
506.856	98.69
507.073	102.69
507.289	96.69
507.506	93.69
507.722	96.69
507.939	99.69
508.155	93.69
508.372	84.69
508.588	93.69
508.805	100.69
509.021	95.69
509.238	84.69
509.454	93.69
509.67	104.69
509.887	100.69
510.103	113.69
510.319	156.69
510.536	519.69
510.752	1517.69
510.968	486.69
511.184	138.69
511.401	114.69
511.617	106.69
511.833	87.69
512.049	83.69
512.265	97.69
512.481	93.69
512.698	96.69
512.914	87.69
513.13	91.69
513.346	98.69
513.562	97.69
513.778	109.69
513.994	91.69
514.21	79.69
514.426	108.69
514.642	107.69
514.858	90.69
515.074	146.69
515.29	313.69
515.506	919.69
515.721	372.69
515.937	125.69
516.153	108.69
