Data from Uncirc_2009_H10_HRD10591_00063.txt Node
Date: Wed Jan 03 10:12:14 EST 2024
User: Yrep
Spectrometer: HR+D1059
Trigger mode: 1
Integration Time (sec): 1.000000E-1
Scans to average: 1
Electric dark correction enabled: true
Nonlinearity correction enabled: false
Boxcar width: 0
XAxis mode: Wavelengths
Number of Pixels in Spectrum: 2048
>>>>>Begin Spectral Data<<<<<
223.165	-5.94
223.4	-5.94
223.635	-5.94
223.869	-18.94
224.104	-19.94
224.338	4.06
224.573	-6.94
224.808	-13.94
225.042	-14.94
225.277	-5.94
225.511	2.06
225.746	-2.94
225.98	3.06
226.215	13.06
226.449	15.06
226.683	6.06
226.918	15.06
227.152	31.06
227.387	46.06
227.621	31.06
227.856	47.06
228.09	46.06
228.324	52.06
228.559	54.06
228.793	61.06
229.027	81.06
229.262	71.06
229.496	73.06
229.73	93.06
229.964	81.06
230.199	67.06
230.433	78.06
230.667	75.06
230.901	63.06
231.136	82.06
231.37	61.06
231.604	64.06
231.838	87.06
232.072	79.06
232.306	86.06
232.541	81.06
232.775	86.06
233.009	71.06
233.243	75.06
233.477	78.06
233.711	81.06
233.945	77.06
234.179	74.06
234.413	74.06
234.647	88.06
234.881	82.06
235.115	75.06
235.349	83.06
235.583	92.06
235.817	82.06
236.051	76.06
236.285	80.06
236.519	83.06
236.753	77.06
236.987	71.06
237.221	79.06
237.455	73.06
237.689	83.06
237.922	79.06
238.156	78.06
238.39	76.06
238.624	73.06
238.858	81.06
239.091	71.06
239.325	83.06
239.559	86.06
239.793	80.06
240.027	79.06
240.26	95.06
240.494	88.06
240.728	86.06
240.961	66.06
241.195	78.06
241.429	83.06
241.662	85.06
241.896	63.06
242.13	82.06
242.363	94.06
242.597	79.06
242.83	76.06
243.064	80.06
243.298	80.06
243.531	102.06
243.765	72.06
243.998	76.06
244.232	75.06
244.465	73.06
244.699	79.06
244.932	80.06
245.166	72.06
245.399	84.06
245.633	88.06
245.866	78.06
246.099	73.06
246.333	84.06
246.566	83.06
246.8	74.06
247.033	78.06
247.266	73.06
247.5	81.06
247.733	59.06
247.966	77.06
248.2	76.06
248.433	82.06
248.666	92.06
248.899	77.06
249.133	84.06
249.366	88.06
249.599	101.06
249.832	80.06
250.066	86.06
250.299	96.06
250.532	81.06
250.765	83.06
250.998	65.06
251.231	86.06
251.465	87.06
251.698	82.06
251.931	83.06
252.164	86.06
252.397	71.06
252.63	80.06
252.863	81.06
253.096	84.06
253.329	85.06
253.562	83.06
253.795	89.06
254.028	77.06
254.261	89.06
254.494	68.06
254.727	78.06
254.96	70.06
255.193	88.06
255.426	69.06
255.659	80.06
255.892	87.06
256.124	94.06
256.357	85.06
256.59	78.06
256.823	78.06
257.056	73.06
257.289	68.06
257.521	83.06
257.754	84.06
257.987	81.06
258.22	82.06
258.452	96.06
258.685	78.06
258.918	82.06
259.151	102.06
259.383	85.06
259.616	91.06
259.849	87.06
260.081	84.06
260.314	78.06
260.547	90.06
260.779	90.06
261.012	71.06
261.244	89.06
261.477	102.06
261.71	95.06
261.942	96.06
262.175	90.06
262.407	74.06
262.64	87.06
262.872	91.06
263.105	89.06
263.337	72.06
263.57	97.06
263.802	98.06
264.035	82.06
264.267	76.06
264.499	82.06
264.732	86.06
264.964	73.06
265.197	76.06
265.429	71.06
265.661	93.06
265.894	95.06
266.126	98.06
266.358	86.06
266.591	95.06
266.823	74.06
267.055	85.06
267.287	73.06
267.52	74.06
267.752	72.06
267.984	103.06
268.216	86.06
268.448	97.06
268.681	85.06
268.913	82.06
269.145	82.06
269.377	81.06
269.609	88.06
269.841	85.06
270.073	85.06
270.306	93.06
270.538	87.06
270.77	75.06
271.002	83.06
271.234	85.06
271.466	78.06
271.698	74.06
271.93	82.06
272.162	78.06
272.394	88.06
272.626	90.06
272.858	86.06
273.09	98.06
273.322	88.06
273.553	78.06
273.785	89.06
274.017	79.06
274.249	84.06
274.481	93.06
274.713	88.06
274.945	87.06
275.176	82.06
275.408	88.06
275.64	84.06
275.872	81.06
276.104	92.06
276.335	82.06
276.567	73.06
276.799	80.06
277.031	98.06
277.262	94.06
277.494	90.06
277.726	94.06
277.957	73.06
278.189	86.06
278.421	79.06
278.652	79.06
278.884	85.06
279.115	81.06
279.347	89.06
279.579	100.06
279.81	86.06
280.042	93.06
280.273	96.06
280.505	90.06
280.736	98.06
280.968	88.06
281.199	97.06
281.431	82.06
281.662	88.06
281.894	99.06
282.125	95.06
282.356	112.06
282.588	125.06
282.819	93.06
283.051	92.06
283.282	87.06
283.513	89.06
283.745	86.06
283.976	90.06
284.207	97.06
284.439	85.06
284.67	95.06
284.901	83.06
285.132	76.06
285.364	87.06
285.595	91.06
285.826	92.06
286.057	90.06
286.288	107.06
286.52	104.06
286.751	88.06
286.982	92.06
287.213	90.06
287.444	88.06
287.675	78.06
287.906	87.06
288.138	84.06
288.369	96.06
288.6	90.06
288.831	92.06
289.062	80.06
289.293	82.06
289.524	62.06
289.755	91.06
289.986	82.06
290.217	82.06
290.448	82.06
290.679	87.06
290.91	91.06
291.141	89.06
291.371	83.06
291.602	85.06
291.833	83.06
292.064	78.06
292.295	87.06
292.526	83.06
292.757	100.06
292.987	90.06
293.218	89.06
293.449	93.06
293.68	77.06
293.91	86.06
294.141	92.06
294.372	79.06
294.603	91.06
294.833	101.06
295.064	87.06
295.295	86.06
295.525	94.06
295.756	94.06
295.987	94.06
296.217	108.06
296.448	108.06
296.679	99.06
296.909	89.06
297.14	88.06
297.37	93.06
297.601	93.06
297.831	94.06
298.062	83.06
298.292	74.06
298.523	90.06
298.753	91.06
298.984	88.06
299.214	85.06
299.445	97.06
299.675	101.06
299.905	80.06
300.136	90.06
300.366	89.06
300.597	87.06
300.827	87.06
301.057	105.06
301.288	93.06
301.518	105.06
301.748	98.06
301.979	101.06
302.209	79.06
302.439	82.06
302.669	96.06
302.9	74.06
303.13	110.06
303.36	101.06
303.59	111.06
303.82	102.06
304.051	103.06
304.281	104.06
304.511	104.06
304.741	93.06
304.971	85.06
305.201	87.06
305.431	90.06
305.661	102.06
305.891	81.06
306.121	91.06
306.352	87.06
306.582	92.06
306.812	89.06
307.042	80.06
307.272	80.06
307.502	106.06
307.731	88.06
307.961	87.06
308.191	80.06
308.421	89.06
308.651	98.06
308.881	95.06
309.111	83.06
309.341	82.06
309.571	94.06
309.8	109.06
310.03	91.06
310.26	92.06
310.49	91.06
310.72	97.06
310.949	97.06
311.179	108.06
311.409	77.06
311.639	91.06
311.868	112.06
312.098	91.06
312.328	95.06
312.557	98.06
312.787	105.06
313.017	88.06
313.246	97.06
313.476	94.06
313.706	90.06
313.935	82.06
314.165	80.06
314.394	83.06
314.624	105.06
314.853	94.06
315.083	84.06
315.312	81.06
315.542	107.06
315.771	89.06
316.001	95.06
316.23	97.06
316.46	79.06
316.689	93.06
316.919	87.06
317.148	107.06
317.377	108.06
317.607	128.06
317.836	103.06
318.065	106.06
318.295	95.06
318.524	91.06
318.753	86.06
318.983	92.06
319.212	84.06
319.441	116.06
319.67	102.06
319.9	100.06
320.129	104.06
320.358	92.06
320.587	67.06
320.816	98.06
321.046	106.06
321.275	120.06
321.504	89.06
321.733	89.06
321.962	91.06
322.191	104.06
322.42	120.06
322.649	100.06
322.878	115.06
323.108	111.06
323.337	114.06
323.566	113.06
323.795	135.06
324.024	189.06
324.253	342.06
324.482	698.06
324.71	1425.06
324.939	1819.06
325.168	663.06
325.397	205.06
325.626	139.06
325.855	126.06
326.084	125.06
326.313	147.06
326.542	155.06
326.77	200.06
326.999	395.06
327.228	794.06
327.457	1442.06
327.686	1152.06
327.914	319.06
328.143	173.06
328.372	125.06
328.6	119.06
328.829	104.06
329.058	108.06
329.287	113.06
329.515	107.06
329.744	110.06
329.972	122.06
330.201	108.06
330.43	110.06
330.658	106.06
330.887	118.06
331.115	110.06
331.344	113.06
331.572	90.06
331.801	98.06
332.03	101.06
332.258	111.06
332.486	99.06
332.715	98.06
332.943	109.06
333.172	99.06
333.4	99.06
333.629	93.06
333.857	102.06
334.085	114.06
334.314	107.06
334.542	123.06
334.771	115.06
334.999	98.06
335.227	93.06
335.455	96.06
335.684	102.06
335.912	94.06
336.14	103.06
336.369	105.06
336.597	85.06
336.825	102.06
337.053	94.06
337.281	96.06
337.51	94.06
337.738	101.06
337.966	104.06
338.194	101.06
338.422	79.06
338.65	93.06
338.878	92.06
339.106	94.06
339.334	98.06
339.562	104.06
339.79	81.06
340.018	93.06
340.246	81.06
340.474	106.06
340.702	92.06
340.93	106.06
341.158	96.06
341.386	90.06
341.614	90.06
341.842	96.06
342.07	99.06
342.298	97.06
342.526	90.06
342.754	85.06
342.981	86.06
343.209	99.06
343.437	107.06
343.665	96.06
343.893	91.06
344.12	101.06
344.348	75.06
344.576	99.06
344.804	90.06
345.031	98.06
345.259	97.06
345.487	95.06
345.714	90.06
345.942	94.06
346.17	98.06
346.397	80.06
346.625	93.06
346.853	114.06
347.08	78.06
347.308	89.06
347.535	101.06
347.763	91.06
347.99	94.06
348.218	92.06
348.445	97.06
348.673	88.06
348.9	112.06
349.128	88.06
349.355	97.06
349.583	86.06
349.81	90.06
350.037	84.06
350.265	99.06
350.492	95.06
350.72	80.06
350.947	97.06
351.174	102.06
351.402	100.06
351.629	90.06
351.856	94.06
352.083	92.06
352.311	110.06
352.538	121.06
352.765	116.06
352.992	118.06
353.22	104.06
353.447	104.06
353.674	94.06
353.901	99.06
354.128	98.06
354.355	95.06
354.583	95.06
354.81	108.06
355.037	93.06
355.264	89.06
355.491	97.06
355.718	93.06
355.945	91.06
356.172	109.06
356.399	97.06
356.626	87.06
356.853	93.06
357.08	89.06
357.307	95.06
357.534	81.06
357.761	76.06
357.988	100.06
358.215	109.06
358.441	78.06
358.668	92.06
358.895	89.06
359.122	105.06
359.349	88.06
359.576	87.06
359.802	77.06
360.029	104.06
360.256	106.06
360.483	92.06
360.709	96.06
360.936	104.06
361.163	90.06
361.39	98.06
361.616	90.06
361.843	94.06
362.07	95.06
362.296	106.06
362.523	97.06
362.749	83.06
362.976	103.06
363.203	95.06
363.429	92.06
363.656	98.06
363.882	97.06
364.109	88.06
364.335	78.06
364.562	81.06
364.788	87.06
365.015	82.06
365.241	89.06
365.468	101.06
365.694	92.06
365.92	99.06
366.147	89.06
366.373	85.06
366.599	90.06
366.826	83.06
367.052	104.06
367.278	87.06
367.505	90.06
367.731	103.06
367.957	96.06
368.184	92.06
368.41	90.06
368.636	101.06
368.862	113.06
369.089	95.06
369.315	102.06
369.541	98.06
369.767	90.06
369.993	91.06
370.219	74.06
370.445	83.06
370.672	95.06
370.898	98.06
371.124	81.06
371.35	89.06
371.576	78.06
371.802	92.06
372.028	74.06
372.254	95.06
372.48	86.06
372.706	73.06
372.932	87.06
373.158	101.06
373.384	91.06
373.61	95.06
373.835	97.06
374.061	82.06
374.287	97.06
374.513	88.06
374.739	81.06
374.965	85.06
375.191	88.06
375.416	88.06
375.642	98.06
375.868	102.06
376.094	97.06
376.319	87.06
376.545	97.06
376.771	97.06
376.997	82.06
377.222	99.06
377.448	93.06
377.674	97.06
377.899	97.06
378.125	101.06
378.35	97.06
378.576	114.06
378.802	101.06
379.027	97.06
379.253	83.06
379.478	81.06
379.704	75.06
379.929	112.06
380.155	114.06
380.38	97.06
380.606	87.06
380.831	96.06
381.057	101.06
381.282	88.06
381.507	96.06
381.733	97.06
381.958	105.06
382.184	83.06
382.409	79.06
382.634	105.06
382.86	90.06
383.085	97.06
383.31	95.06
383.535	96.06
383.761	93.06
383.986	92.06
384.211	92.06
384.436	98.06
384.662	93.06
384.887	88.06
385.112	91.06
385.337	92.06
385.562	99.06
385.787	98.06
386.013	84.06
386.238	111.06
386.463	103.06
386.688	117.06
386.913	112.06
387.138	108.06
387.363	112.06
387.588	85.06
387.813	97.06
388.038	102.06
388.263	111.06
388.488	102.06
388.713	86.06
388.938	88.06
389.163	96.06
389.387	84.06
389.612	93.06
389.837	87.06
390.062	114.06
390.287	84.06
390.512	91.06
390.736	106.06
390.961	79.06
391.186	108.06
391.411	89.06
391.636	88.06
391.86	85.06
392.085	86.06
392.31	67.06
392.534	82.06
392.759	92.06
392.984	103.06
393.208	99.06
393.433	82.06
393.658	102.06
393.882	102.06
394.107	77.06
394.331	91.06
394.556	86.06
394.78	82.06
395.005	72.06
395.229	73.06
395.454	94.06
395.678	102.06
395.903	100.06
396.127	96.06
396.352	106.06
396.576	92.06
396.801	78.06
397.025	67.06
397.249	92.06
397.474	88.06
397.698	93.06
397.922	75.06
398.147	106.06
398.371	91.06
398.595	82.06
398.82	86.06
399.044	86.06
399.268	82.06
399.492	91.06
399.717	97.06
399.941	89.06
400.165	88.06
400.389	86.06
400.613	82.06
400.837	82.06
401.062	93.06
401.286	108.06
401.51	96.06
401.734	77.06
401.958	93.06
402.182	97.06
402.406	125.06
402.63	98.06
402.854	83.06
403.078	77.06
403.302	92.06
403.526	86.06
403.75	82.06
403.974	69.06
404.198	96.06
404.422	84.06
404.645	90.06
404.869	82.06
405.093	92.06
405.317	86.06
405.541	87.06
405.765	102.06
405.988	107.06
406.212	133.06
406.436	172.06
406.66	116.06
406.883	93.06
407.107	96.06
407.331	86.06
407.555	89.06
407.778	83.06
408.002	94.06
408.226	74.06
408.449	81.06
408.673	91.06
408.896	90.06
409.12	83.06
409.344	96.06
409.567	77.06
409.791	93.06
410.014	91.06
410.238	88.06
410.461	101.06
410.685	83.06
410.908	102.06
411.132	112.06
411.355	104.06
411.578	102.06
411.802	95.06
412.025	98.06
412.249	95.06
412.472	95.06
412.695	89.06
412.919	89.06
413.142	92.06
413.365	88.06
413.589	85.06
413.812	89.06
414.035	89.06
414.258	90.06
414.482	91.06
414.705	94.06
414.928	104.06
415.151	92.06
415.374	101.06
415.597	79.06
415.821	78.06
416.044	88.06
416.267	101.06
416.49	77.06
416.713	86.06
416.936	97.06
417.159	83.06
417.382	96.06
417.605	89.06
417.828	99.06
418.051	114.06
418.274	105.06
418.497	86.06
418.72	82.06
418.943	105.06
419.166	85.06
419.389	90.06
419.611	94.06
419.834	89.06
420.057	87.06
420.28	84.06
420.503	97.06
420.726	85.06
420.948	76.06
421.171	91.06
421.394	88.06
421.617	83.06
421.839	94.06
422.062	88.06
422.285	86.06
422.507	93.06
422.73	100.06
422.953	98.06
423.175	91.06
423.398	86.06
423.621	96.06
423.843	87.06
424.066	87.06
424.288	81.06
424.511	92.06
424.733	94.06
424.956	100.06
425.178	103.06
425.401	89.06
425.623	85.06
425.846	94.06
426.068	89.06
426.291	91.06
426.513	82.06
426.735	89.06
426.958	102.06
427.18	112.06
427.402	123.06
427.625	134.06
427.847	99.06
428.069	113.06
428.292	93.06
428.514	90.06
428.736	88.06
428.958	79.06
429.181	92.06
429.403	86.06
429.625	102.06
429.847	90.06
430.069	78.06
430.292	90.06
430.514	94.06
430.736	98.06
430.958	88.06
431.18	103.06
431.402	101.06
431.624	86.06
431.846	84.06
432.068	82.06
432.29	86.06
432.512	100.06
432.734	96.06
432.956	97.06
433.178	97.06
433.4	98.06
433.622	79.06
433.844	84.06
434.066	85.06
434.287	83.06
434.509	79.06
434.731	91.06
434.953	86.06
435.175	94.06
435.397	96.06
435.618	90.06
435.84	92.06
436.062	121.06
436.284	104.06
436.505	108.06
436.727	107.06
436.949	80.06
437.17	80.06
437.392	82.06
437.614	86.06
437.835	98.06
438.057	110.06
438.278	90.06
438.5	94.06
438.721	111.06
438.943	97.06
439.165	101.06
439.386	96.06
439.608	89.06
439.829	78.06
440.05	107.06
440.272	136.06
440.493	86.06
440.715	94.06
440.936	102.06
441.158	89.06
441.379	89.06
441.6	96.06
441.822	99.06
442.043	101.06
442.264	95.06
442.486	88.06
442.707	88.06
442.928	83.06
443.149	120.06
443.371	110.06
443.592	90.06
443.813	104.06
444.034	101.06
444.255	102.06
444.476	79.06
444.698	97.06
444.919	76.06
445.14	127.06
445.361	121.06
445.582	107.06
445.803	102.06
446.024	110.06
446.245	115.06
446.466	103.06
446.687	91.06
446.908	88.06
447.129	77.06
447.35	90.06
447.571	88.06
447.792	74.06
448.013	94.06
448.234	93.06
448.455	96.06
448.675	110.06
448.896	110.06
449.117	95.06
449.338	93.06
449.559	107.06
449.779	116.06
450	94.06
450.221	90.06
450.442	93.06
450.662	88.06
450.883	84.06
451.104	102.06
451.324	87.06
451.545	95.06
451.766	82.06
451.986	96.06
452.207	79.06
452.428	95.06
452.648	92.06
452.869	110.06
453.089	97.06
453.31	103.06
453.53	101.06
453.751	83.06
453.971	105.06
454.192	104.06
454.412	107.06
454.633	91.06
454.853	101.06
455.073	84.06
455.294	81.06
455.514	94.06
455.734	90.06
455.955	64.06
456.175	89.06
456.395	101.06
456.616	88.06
456.836	80.06
457.056	93.06
457.276	77.06
457.497	79.06
457.717	88.06
457.937	93.06
458.157	94.06
458.377	99.06
458.598	87.06
458.818	109.06
459.038	126.06
459.258	109.06
459.478	96.06
459.698	93.06
459.918	88.06
460.138	76.06
460.358	81.06
460.578	78.06
460.798	92.06
461.018	92.06
461.238	82.06
461.458	80.06
461.678	82.06
461.898	73.06
462.118	93.06
462.338	97.06
462.558	84.06
462.777	88.06
462.997	88.06
463.217	86.06
463.437	83.06
463.657	94.06
463.876	89.06
464.096	72.06
464.316	92.06
464.536	92.06
464.755	83.06
464.975	93.06
465.195	124.06
465.414	119.06
465.634	105.06
465.854	91.06
466.073	99.06
466.293	98.06
466.512	84.06
466.732	83.06
466.951	76.06
467.171	88.06
467.391	95.06
467.61	95.06
467.829	99.06
468.049	88.06
468.268	92.06
468.488	99.06
468.707	83.06
468.927	81.06
469.146	86.06
469.365	86.06
469.585	106.06
469.804	83.06
470.023	87.06
470.243	95.06
470.462	78.06
470.681	98.06
470.901	97.06
471.12	75.06
471.339	80.06
471.558	93.06
471.777	86.06
471.997	102.06
472.216	109.06
472.435	125.06
472.654	98.06
472.873	79.06
473.092	88.06
473.311	83.06
473.53	81.06
473.749	97.06
473.968	96.06
474.187	90.06
474.406	107.06
474.625	85.06
474.844	86.06
475.063	71.06
475.282	95.06
475.501	73.06
475.72	79.06
475.939	70.06
476.158	86.06
476.377	93.06
476.596	91.06
476.814	84.06
477.033	98.06
477.252	113.06
477.471	80.06
477.69	98.06
477.908	82.06
478.127	93.06
478.346	98.06
478.564	90.06
478.783	94.06
479.002	86.06
479.22	79.06
479.439	99.06
479.658	92.06
479.876	97.06
480.095	95.06
480.313	74.06
480.532	96.06
480.751	109.06
480.969	91.06
481.188	147.06
481.406	135.06
481.624	91.06
481.843	82.06
482.061	85.06
482.28	79.06
482.498	92.06
482.717	77.06
482.935	85.06
483.153	98.06
483.372	85.06
483.59	104.06
483.808	91.06
484.027	85.06
484.245	88.06
484.463	80.06
484.681	105.06
484.9	87.06
485.118	105.06
485.336	93.06
485.554	101.06
485.772	95.06
485.99	106.06
486.209	96.06
486.427	94.06
486.645	95.06
486.863	103.06
487.081	102.06
487.299	82.06
487.517	82.06
487.735	91.06
487.953	94.06
488.171	95.06
488.389	91.06
488.607	90.06
488.825	70.06
489.043	94.06
489.261	85.06
489.479	105.06
489.696	89.06
489.914	81.06
490.132	99.06
490.35	99.06
490.568	86.06
490.786	86.06
491.003	90.06
491.221	90.06
491.439	81.06
491.657	82.06
491.874	84.06
492.092	88.06
492.31	89.06
492.527	107.06
492.745	98.06
492.963	96.06
493.18	89.06
493.398	99.06
493.615	82.06
493.833	94.06
494.05	88.06
494.268	91.06
494.485	88.06
494.703	82.06
494.92	103.06
495.138	85.06
495.355	89.06
495.573	103.06
495.79	82.06
496.008	107.06
496.225	89.06
496.442	85.06
496.66	82.06
496.877	89.06
497.094	85.06
497.312	89.06
497.529	90.06
497.746	102.06
497.963	81.06
498.181	92.06
498.398	92.06
498.615	105.06
498.832	101.06
499.049	83.06
499.267	97.06
499.484	94.06
499.701	89.06
499.918	94.06
500.135	96.06
500.352	87.06
500.569	85.06
500.786	87.06
501.003	90.06
501.22	104.06
501.437	104.06
501.654	94.06
501.871	122.06
502.088	97.06
502.305	80.06
502.522	93.06
502.739	80.06
502.956	82.06
503.172	82.06
503.389	89.06
503.606	114.06
503.823	82.06
504.04	90.06
504.256	82.06
504.473	96.06
504.69	90.06
504.907	80.06
505.123	93.06
505.34	96.06
505.557	82.06
505.773	91.06
505.99	87.06
506.207	89.06
506.423	94.06
506.64	95.06
506.856	91.06
507.073	77.06
507.289	85.06
507.506	75.06
507.722	106.06
507.939	114.06
508.155	90.06
508.372	88.06
508.588	100.06
508.805	83.06
509.021	83.06
509.238	95.06
509.454	105.06
509.67	97.06
509.887	95.06
510.103	114.06
510.319	175.06
510.536	563.06
510.752	1650.06
510.968	488.06
511.184	145.06
511.401	93.06
511.617	105.06
511.833	106.06
512.049	78.06
512.265	105.06
512.481	91.06
512.698	96.06
512.914	101.06
513.13	89.06
513.346	80.06
513.562	94.06
513.778	99.06
513.994	86.06
514.21	91.06
514.426	122.06
514.642	114.06
514.858	111.06
515.074	137.06
515.29	330.06
515.506	975.06
515.721	385.06
515.937	132.06
516.153	100.06
