Data from Uncirc_2009_H10_HRD10591_00050.txt Node
Date: Wed Jan 03 10:12:11 EST 2024
User: Yrep
Spectrometer: HR+D1059
Trigger mode: 1
Integration Time (sec): 1.000000E-1
Scans to average: 1
Electric dark correction enabled: true
Nonlinearity correction enabled: false
Boxcar width: 0
XAxis mode: Wavelengths
Number of Pixels in Spectrum: 2048
>>>>>Begin Spectral Data<<<<<
223.165	-16.19
223.4	-16.19
223.635	-16.19
223.869	-14.19
224.104	-26.19
224.338	-14.19
224.573	-23.19
224.808	-30.19
225.042	-10.19
225.277	-6.19
225.511	2.81
225.746	15.81
225.98	-5.19
226.215	7.81
226.449	37.81
226.683	32.81
226.918	19.81
227.152	28.81
227.387	38.81
227.621	24.81
227.856	43.81
228.09	42.81
228.324	45.81
228.559	49.81
228.793	61.81
229.027	78.81
229.262	79.81
229.496	72.81
229.73	86.81
229.964	88.81
230.199	74.81
230.433	87.81
230.667	74.81
230.901	92.81
231.136	86.81
231.37	73.81
231.604	93.81
231.838	88.81
232.072	99.81
232.306	83.81
232.541	87.81
232.775	74.81
233.009	70.81
233.243	101.81
233.477	89.81
233.711	79.81
233.945	82.81
234.179	96.81
234.413	102.81
234.647	98.81
234.881	85.81
235.115	88.81
235.349	84.81
235.583	98.81
235.817	74.81
236.051	77.81
236.285	77.81
236.519	91.81
236.753	82.81
236.987	73.81
237.221	85.81
237.455	71.81
237.689	76.81
237.922	86.81
238.156	74.81
238.39	77.81
238.624	79.81
238.858	84.81
239.091	81.81
239.325	75.81
239.559	75.81
239.793	84.81
240.027	66.81
240.26	84.81
240.494	70.81
240.728	76.81
240.961	89.81
241.195	82.81
241.429	74.81
241.662	88.81
241.896	76.81
242.13	79.81
242.363	76.81
242.597	84.81
242.83	74.81
243.064	73.81
243.298	68.81
243.531	83.81
243.765	90.81
243.998	90.81
244.232	83.81
244.465	101.81
244.699	84.81
244.932	68.81
245.166	73.81
245.399	68.81
245.633	72.81
245.866	80.81
246.099	75.81
246.333	71.81
246.566	93.81
246.8	83.81
247.033	89.81
247.266	84.81
247.5	79.81
247.733	75.81
247.966	74.81
248.2	94.81
248.433	86.81
248.666	81.81
248.899	76.81
249.133	86.81
249.366	83.81
249.599	84.81
249.832	85.81
250.066	76.81
250.299	77.81
250.532	82.81
250.765	87.81
250.998	70.81
251.231	79.81
251.465	74.81
251.698	79.81
251.931	81.81
252.164	77.81
252.397	81.81
252.63	91.81
252.863	81.81
253.096	79.81
253.329	90.81
253.562	75.81
253.795	85.81
254.028	94.81
254.261	80.81
254.494	84.81
254.727	83.81
254.96	78.81
255.193	86.81
255.426	87.81
255.659	76.81
255.892	80.81
256.124	83.81
256.357	72.81
256.59	91.81
256.823	71.81
257.056	83.81
257.289	97.81
257.521	85.81
257.754	88.81
257.987	90.81
258.22	86.81
258.452	69.81
258.685	85.81
258.918	103.81
259.151	97.81
259.383	84.81
259.616	91.81
259.849	81.81
260.081	92.81
260.314	82.81
260.547	80.81
260.779	91.81
261.012	90.81
261.244	88.81
261.477	81.81
261.71	83.81
261.942	94.81
262.175	101.81
262.407	79.81
262.64	86.81
262.872	80.81
263.105	96.81
263.337	96.81
263.57	77.81
263.802	92.81
264.035	87.81
264.267	83.81
264.499	98.81
264.732	81.81
264.964	94.81
265.197	84.81
265.429	84.81
265.661	80.81
265.894	101.81
266.126	87.81
266.358	92.81
266.591	91.81
266.823	74.81
267.055	94.81
267.287	72.81
267.52	83.81
267.752	84.81
267.984	75.81
268.216	79.81
268.448	90.81
268.681	79.81
268.913	84.81
269.145	88.81
269.377	79.81
269.609	75.81
269.841	74.81
270.073	84.81
270.306	76.81
270.538	103.81
270.77	95.81
271.002	94.81
271.234	96.81
271.466	94.81
271.698	80.81
271.93	89.81
272.162	91.81
272.394	103.81
272.626	80.81
272.858	81.81
273.09	87.81
273.322	89.81
273.553	76.81
273.785	84.81
274.017	90.81
274.249	94.81
274.481	104.81
274.713	85.81
274.945	78.81
275.176	103.81
275.408	96.81
275.64	94.81
275.872	78.81
276.104	87.81
276.335	98.81
276.567	88.81
276.799	96.81
277.031	96.81
277.262	93.81
277.494	78.81
277.726	78.81
277.957	79.81
278.189	93.81
278.421	80.81
278.652	90.81
278.884	75.81
279.115	88.81
279.347	84.81
279.579	98.81
279.81	94.81
280.042	90.81
280.273	98.81
280.505	81.81
280.736	89.81
280.968	97.81
281.199	79.81
281.431	99.81
281.662	86.81
281.894	93.81
282.125	91.81
282.356	112.81
282.588	115.81
282.819	108.81
283.051	101.81
283.282	82.81
283.513	90.81
283.745	89.81
283.976	94.81
284.207	101.81
284.439	99.81
284.67	92.81
284.901	82.81
285.132	84.81
285.364	91.81
285.595	77.81
285.826	86.81
286.057	77.81
286.288	99.81
286.52	100.81
286.751	92.81
286.982	94.81
287.213	92.81
287.444	92.81
287.675	80.81
287.906	100.81
288.138	97.81
288.369	97.81
288.6	79.81
288.831	91.81
289.062	95.81
289.293	100.81
289.524	96.81
289.755	80.81
289.986	99.81
290.217	94.81
290.448	90.81
290.679	80.81
290.91	94.81
291.141	88.81
291.371	83.81
291.602	95.81
291.833	92.81
292.064	80.81
292.295	85.81
292.526	81.81
292.757	81.81
292.987	93.81
293.218	82.81
293.449	83.81
293.68	84.81
293.91	83.81
294.141	81.81
294.372	90.81
294.603	99.81
294.833	73.81
295.064	94.81
295.295	91.81
295.525	91.81
295.756	100.81
295.987	95.81
296.217	127.81
296.448	130.81
296.679	112.81
296.909	82.81
297.14	75.81
297.37	89.81
297.601	100.81
297.831	91.81
298.062	88.81
298.292	98.81
298.523	88.81
298.753	93.81
298.984	103.81
299.214	90.81
299.445	84.81
299.675	75.81
299.905	95.81
300.136	86.81
300.366	87.81
300.597	99.81
300.827	88.81
301.057	98.81
301.288	98.81
301.518	102.81
301.748	94.81
301.979	104.81
302.209	90.81
302.439	89.81
302.669	83.81
302.9	90.81
303.13	109.81
303.36	106.81
303.59	121.81
303.82	100.81
304.051	98.81
304.281	103.81
304.511	90.81
304.741	91.81
304.971	79.81
305.201	90.81
305.431	83.81
305.661	87.81
305.891	84.81
306.121	101.81
306.352	106.81
306.582	101.81
306.812	73.81
307.042	90.81
307.272	95.81
307.502	100.81
307.731	86.81
307.961	91.81
308.191	80.81
308.421	105.81
308.651	96.81
308.881	101.81
309.111	89.81
309.341	95.81
309.571	81.81
309.8	100.81
310.03	94.81
310.26	86.81
310.49	89.81
310.72	103.81
310.949	106.81
311.179	98.81
311.409	90.81
311.639	80.81
311.868	88.81
312.098	99.81
312.328	85.81
312.557	100.81
312.787	112.81
313.017	93.81
313.246	96.81
313.476	95.81
313.706	91.81
313.935	111.81
314.165	111.81
314.394	96.81
314.624	104.81
314.853	92.81
315.083	105.81
315.312	82.81
315.542	83.81
315.771	83.81
316.001	88.81
316.23	94.81
316.46	84.81
316.689	91.81
316.919	92.81
317.148	108.81
317.377	117.81
317.607	131.81
317.836	96.81
318.065	94.81
318.295	96.81
318.524	88.81
318.753	88.81
318.983	80.81
319.212	97.81
319.441	85.81
319.67	84.81
319.9	83.81
320.129	81.81
320.358	100.81
320.587	100.81
320.816	80.81
321.046	106.81
321.275	98.81
321.504	95.81
321.733	92.81
321.962	115.81
322.191	112.81
322.42	94.81
322.649	115.81
322.878	97.81
323.108	106.81
323.337	131.81
323.566	118.81
323.795	152.81
324.024	179.81
324.253	335.81
324.482	660.81
324.71	1406.81
324.939	1802.81
325.168	674.81
325.397	218.81
325.626	147.81
325.855	131.81
326.084	134.81
326.313	157.81
326.542	153.81
326.77	201.81
326.999	402.81
327.228	782.81
327.457	1405.81
327.686	1116.81
327.914	312.81
328.143	154.81
328.372	138.81
328.6	119.81
328.829	97.81
329.058	117.81
329.287	109.81
329.515	103.81
329.744	110.81
329.972	94.81
330.201	120.81
330.43	122.81
330.658	115.81
330.887	104.81
331.115	100.81
331.344	84.81
331.572	104.81
331.801	105.81
332.03	99.81
332.258	81.81
332.486	93.81
332.715	84.81
332.943	88.81
333.172	100.81
333.4	104.81
333.629	97.81
333.857	111.81
334.085	107.81
334.314	108.81
334.542	106.81
334.771	102.81
334.999	100.81
335.227	96.81
335.455	89.81
335.684	105.81
335.912	104.81
336.14	105.81
336.369	107.81
336.597	96.81
336.825	93.81
337.053	99.81
337.281	81.81
337.51	82.81
337.738	91.81
337.966	92.81
338.194	99.81
338.422	88.81
338.65	91.81
338.878	95.81
339.106	77.81
339.334	93.81
339.562	84.81
339.79	89.81
340.018	108.81
340.246	95.81
340.474	82.81
340.702	98.81
340.93	90.81
341.158	78.81
341.386	88.81
341.614	102.81
341.842	97.81
342.07	84.81
342.298	87.81
342.526	78.81
342.754	98.81
342.981	106.81
343.209	86.81
343.437	95.81
343.665	88.81
343.893	99.81
344.12	94.81
344.348	77.81
344.576	95.81
344.804	96.81
345.031	93.81
345.259	95.81
345.487	118.81
345.714	113.81
345.942	104.81
346.17	116.81
346.397	101.81
346.625	87.81
346.853	89.81
347.08	82.81
347.308	97.81
347.535	94.81
347.763	93.81
347.99	91.81
348.218	98.81
348.445	114.81
348.673	95.81
348.9	90.81
349.128	106.81
349.355	93.81
349.583	102.81
349.81	103.81
350.037	108.81
350.265	106.81
350.492	91.81
350.72	102.81
350.947	97.81
351.174	90.81
351.402	99.81
351.629	101.81
351.856	103.81
352.083	113.81
352.311	113.81
352.538	106.81
352.765	114.81
352.992	110.81
353.22	105.81
353.447	91.81
353.674	120.81
353.901	103.81
354.128	103.81
354.355	109.81
354.583	91.81
354.81	91.81
355.037	104.81
355.264	106.81
355.491	80.81
355.718	84.81
355.945	79.81
356.172	92.81
356.399	108.81
356.626	100.81
356.853	98.81
357.08	84.81
357.307	99.81
357.534	95.81
357.761	99.81
357.988	97.81
358.215	84.81
358.441	103.81
358.668	99.81
358.895	84.81
359.122	87.81
359.349	83.81
359.576	87.81
359.802	99.81
360.029	106.81
360.256	103.81
360.483	104.81
360.709	94.81
360.936	96.81
361.163	106.81
361.39	93.81
361.616	103.81
361.843	100.81
362.07	93.81
362.296	88.81
362.523	80.81
362.749	85.81
362.976	84.81
363.203	87.81
363.429	98.81
363.656	92.81
363.882	89.81
364.109	89.81
364.335	75.81
364.562	101.81
364.788	81.81
365.015	101.81
365.241	96.81
365.468	106.81
365.694	93.81
365.92	85.81
366.147	94.81
366.373	67.81
366.599	98.81
366.826	88.81
367.052	74.81
367.278	97.81
367.505	98.81
367.731	107.81
367.957	92.81
368.184	81.81
368.41	88.81
368.636	108.81
368.862	104.81
369.089	102.81
369.315	93.81
369.541	92.81
369.767	92.81
369.993	82.81
370.219	93.81
370.445	90.81
370.672	91.81
370.898	96.81
371.124	86.81
371.35	82.81
371.576	88.81
371.802	100.81
372.028	81.81
372.254	94.81
372.48	82.81
372.706	87.81
372.932	95.81
373.158	90.81
373.384	92.81
373.61	112.81
373.835	78.81
374.061	74.81
374.287	99.81
374.513	86.81
374.739	102.81
374.965	96.81
375.191	90.81
375.416	90.81
375.642	92.81
375.868	81.81
376.094	97.81
376.319	99.81
376.545	102.81
376.771	105.81
376.997	87.81
377.222	89.81
377.448	97.81
377.674	92.81
377.899	84.81
378.125	80.81
378.35	101.81
378.576	88.81
378.802	79.81
379.027	94.81
379.253	95.81
379.478	88.81
379.704	95.81
379.929	107.81
380.155	93.81
380.38	98.81
380.606	83.81
380.831	98.81
381.057	93.81
381.282	94.81
381.507	96.81
381.733	90.81
381.958	88.81
382.184	81.81
382.409	93.81
382.634	94.81
382.86	95.81
383.085	106.81
383.31	105.81
383.535	106.81
383.761	97.81
383.986	105.81
384.211	109.81
384.436	98.81
384.662	102.81
384.887	95.81
385.112	99.81
385.337	96.81
385.562	92.81
385.787	99.81
386.013	100.81
386.238	102.81
386.463	99.81
386.688	113.81
386.913	113.81
387.138	104.81
387.363	106.81
387.588	83.81
387.813	93.81
388.038	117.81
388.263	118.81
388.488	102.81
388.713	104.81
388.938	103.81
389.163	95.81
389.387	92.81
389.612	93.81
389.837	108.81
390.062	104.81
390.287	91.81
390.512	81.81
390.736	88.81
390.961	95.81
391.186	101.81
391.411	90.81
391.636	91.81
391.86	87.81
392.085	88.81
392.31	75.81
392.534	87.81
392.759	102.81
392.984	100.81
393.208	92.81
393.433	88.81
393.658	85.81
393.882	86.81
394.107	79.81
394.331	92.81
394.556	89.81
394.78	80.81
395.005	89.81
395.229	83.81
395.454	100.81
395.678	94.81
395.903	82.81
396.127	94.81
396.352	86.81
396.576	89.81
396.801	89.81
397.025	84.81
397.249	79.81
397.474	78.81
397.698	97.81
397.922	82.81
398.147	82.81
398.371	87.81
398.595	90.81
398.82	89.81
399.044	82.81
399.268	88.81
399.492	91.81
399.717	85.81
399.941	96.81
400.165	96.81
400.389	89.81
400.613	88.81
400.837	113.81
401.062	96.81
401.286	86.81
401.51	76.81
401.734	87.81
401.958	98.81
402.182	107.81
402.406	138.81
402.63	130.81
402.854	86.81
403.078	96.81
403.302	86.81
403.526	88.81
403.75	78.81
403.974	95.81
404.198	96.81
404.422	94.81
404.645	80.81
404.869	95.81
405.093	95.81
405.317	88.81
405.541	107.81
405.765	103.81
405.988	114.81
406.212	149.81
406.436	194.81
406.66	134.81
406.883	92.81
407.107	89.81
407.331	101.81
407.555	99.81
407.778	105.81
408.002	80.81
408.226	82.81
408.449	92.81
408.673	95.81
408.896	99.81
409.12	85.81
409.344	93.81
409.567	93.81
409.791	87.81
410.014	92.81
410.238	95.81
410.461	94.81
410.685	84.81
410.908	95.81
411.132	96.81
411.355	100.81
411.578	94.81
411.802	103.81
412.025	103.81
412.249	78.81
412.472	97.81
412.695	107.81
412.919	83.81
413.142	78.81
413.365	83.81
413.589	102.81
413.812	90.81
414.035	98.81
414.258	85.81
414.482	102.81
414.705	87.81
414.928	106.81
415.151	85.81
415.374	76.81
415.597	84.81
415.821	97.81
416.044	96.81
416.267	92.81
416.49	80.81
416.713	83.81
416.936	90.81
417.159	88.81
417.382	103.81
417.605	89.81
417.828	89.81
418.051	104.81
418.274	92.81
418.497	80.81
418.72	103.81
418.943	78.81
419.166	92.81
419.389	97.81
419.611	100.81
419.834	100.81
420.057	103.81
420.28	102.81
420.503	88.81
420.726	89.81
420.948	93.81
421.171	92.81
421.394	98.81
421.617	95.81
421.839	93.81
422.062	89.81
422.285	91.81
422.507	90.81
422.73	95.81
422.953	89.81
423.175	88.81
423.398	83.81
423.621	83.81
423.843	93.81
424.066	72.81
424.288	79.81
424.511	93.81
424.733	99.81
424.956	102.81
425.178	102.81
425.401	96.81
425.623	106.81
425.846	89.81
426.068	88.81
426.291	76.81
426.513	80.81
426.735	94.81
426.958	96.81
427.18	100.81
427.402	128.81
427.625	142.81
427.847	122.81
428.069	113.81
428.292	86.81
428.514	92.81
428.736	96.81
428.958	95.81
429.181	88.81
429.403	89.81
429.625	84.81
429.847	92.81
430.069	99.81
430.292	97.81
430.514	78.81
430.736	84.81
430.958	92.81
431.18	88.81
431.402	94.81
431.624	80.81
431.846	89.81
432.068	93.81
432.29	100.81
432.512	93.81
432.734	90.81
432.956	94.81
433.178	85.81
433.4	86.81
433.622	94.81
433.844	92.81
434.066	98.81
434.287	106.81
434.509	89.81
434.731	83.81
434.953	90.81
435.175	87.81
435.397	94.81
435.618	103.81
435.84	94.81
436.062	119.81
436.284	107.81
436.505	108.81
436.727	109.81
436.949	102.81
437.17	80.81
437.392	81.81
437.614	85.81
437.835	108.81
438.057	96.81
438.278	95.81
438.5	102.81
438.721	93.81
438.943	95.81
439.165	80.81
439.386	72.81
439.608	87.81
439.829	85.81
440.05	98.81
440.272	130.81
440.493	99.81
440.715	89.81
440.936	104.81
441.158	84.81
441.379	93.81
441.6	95.81
441.822	88.81
442.043	81.81
442.264	111.81
442.486	92.81
442.707	82.81
442.928	96.81
443.149	116.81
443.371	110.81
443.592	96.81
443.813	110.81
444.034	99.81
444.255	95.81
444.476	100.81
444.698	79.81
444.919	82.81
445.14	136.81
445.361	114.81
445.582	99.81
445.803	125.81
446.024	116.81
446.245	125.81
446.466	94.81
446.687	95.81
446.908	88.81
447.129	80.81
447.35	87.81
447.571	90.81
447.792	93.81
448.013	105.81
448.234	100.81
448.455	107.81
448.675	96.81
448.896	96.81
449.117	96.81
449.338	102.81
449.559	109.81
449.779	114.81
450	108.81
450.221	90.81
450.442	97.81
450.662	83.81
450.883	110.81
451.104	106.81
451.324	83.81
451.545	97.81
451.766	102.81
451.986	89.81
452.207	94.81
452.428	91.81
452.648	97.81
452.869	105.81
453.089	101.81
453.31	119.81
453.53	90.81
453.751	83.81
453.971	103.81
454.192	96.81
454.412	93.81
454.633	86.81
454.853	91.81
455.073	102.81
455.294	89.81
455.514	108.81
455.734	97.81
455.955	80.81
456.175	94.81
456.395	79.81
456.616	76.81
456.836	85.81
457.056	98.81
457.276	83.81
457.497	87.81
457.717	84.81
457.937	93.81
458.157	87.81
458.377	95.81
458.598	96.81
458.818	113.81
459.038	135.81
459.258	104.81
459.478	106.81
459.698	80.81
459.918	87.81
460.138	88.81
460.358	83.81
460.578	82.81
460.798	89.81
461.018	101.81
461.238	84.81
461.458	98.81
461.678	77.81
461.898	81.81
462.118	98.81
462.338	86.81
462.558	91.81
462.777	85.81
462.997	95.81
463.217	92.81
463.437	96.81
463.657	89.81
463.876	91.81
464.096	93.81
464.316	84.81
464.536	87.81
464.755	86.81
464.975	98.81
465.195	146.81
465.414	138.81
465.634	97.81
465.854	89.81
466.073	87.81
466.293	92.81
466.512	83.81
466.732	103.81
466.951	91.81
467.171	97.81
467.391	113.81
467.61	84.81
467.829	83.81
468.049	94.81
468.268	85.81
468.488	89.81
468.707	88.81
468.927	93.81
469.146	80.81
469.365	86.81
469.585	102.81
469.804	70.81
470.023	84.81
470.243	86.81
470.462	91.81
470.681	98.81
470.901	95.81
471.12	90.81
471.339	81.81
471.558	87.81
471.777	91.81
471.997	96.81
472.216	107.81
472.435	116.81
472.654	101.81
472.873	99.81
473.092	84.81
473.311	87.81
473.53	80.81
473.749	82.81
473.968	86.81
474.187	105.81
474.406	89.81
474.625	84.81
474.844	99.81
475.063	78.81
475.282	100.81
475.501	94.81
475.72	89.81
475.939	89.81
476.158	99.81
476.377	99.81
476.596	91.81
476.814	82.81
477.033	98.81
477.252	106.81
477.471	99.81
477.69	95.81
477.908	103.81
478.127	84.81
478.346	105.81
478.564	96.81
478.783	83.81
479.002	101.81
479.22	91.81
479.439	91.81
479.658	96.81
479.876	98.81
480.095	82.81
480.313	81.81
480.532	87.81
480.751	88.81
480.969	97.81
481.188	156.81
481.406	126.81
481.624	84.81
481.843	84.81
482.061	90.81
482.28	93.81
482.498	84.81
482.717	105.81
482.935	94.81
483.153	72.81
483.372	103.81
483.59	91.81
483.808	106.81
484.027	85.81
484.245	95.81
484.463	96.81
484.681	101.81
484.9	80.81
485.118	95.81
485.336	92.81
485.554	103.81
485.772	95.81
485.99	90.81
486.209	111.81
486.427	112.81
486.645	97.81
486.863	99.81
487.081	105.81
487.299	84.81
487.517	100.81
487.735	92.81
487.953	77.81
488.171	102.81
488.389	99.81
488.607	102.81
488.825	71.81
489.043	84.81
489.261	92.81
489.479	98.81
489.696	88.81
489.914	96.81
490.132	97.81
490.35	93.81
490.568	96.81
490.786	99.81
491.003	77.81
491.221	99.81
491.439	97.81
491.657	90.81
491.874	98.81
492.092	96.81
492.31	91.81
492.527	90.81
492.745	95.81
492.963	78.81
493.18	80.81
493.398	96.81
493.615	101.81
493.833	84.81
494.05	103.81
494.268	86.81
494.485	103.81
494.703	92.81
494.92	97.81
495.138	79.81
495.355	107.81
495.573	95.81
495.79	86.81
496.008	100.81
496.225	106.81
496.442	97.81
496.66	81.81
496.877	94.81
497.094	81.81
497.312	87.81
497.529	78.81
497.746	98.81
497.963	90.81
498.181	78.81
498.398	75.81
498.615	94.81
498.832	91.81
499.049	97.81
499.267	89.81
499.484	99.81
499.701	96.81
499.918	102.81
500.135	100.81
500.352	87.81
500.569	88.81
500.786	91.81
501.003	95.81
501.22	93.81
501.437	94.81
501.654	78.81
501.871	91.81
502.088	109.81
502.305	95.81
502.522	90.81
502.739	104.81
502.956	87.81
503.172	87.81
503.389	90.81
503.606	87.81
503.823	99.81
504.04	80.81
504.256	103.81
504.473	79.81
504.69	89.81
504.907	96.81
505.123	95.81
505.34	84.81
505.557	87.81
505.773	83.81
505.99	88.81
506.207	89.81
506.423	90.81
506.64	95.81
506.856	104.81
507.073	93.81
507.289	94.81
507.506	98.81
507.722	99.81
507.939	87.81
508.155	99.81
508.372	75.81
508.588	96.81
508.805	97.81
509.021	94.81
509.238	86.81
509.454	86.81
509.67	103.81
509.887	95.81
510.103	109.81
510.319	170.81
510.536	564.81
510.752	1718.81
510.968	507.81
511.184	123.81
511.401	105.81
511.617	94.81
511.833	96.81
512.049	90.81
512.265	88.81
512.481	84.81
512.698	103.81
512.914	84.81
513.13	81.81
513.346	98.81
513.562	107.81
513.778	88.81
513.994	100.81
514.21	110.81
514.426	105.81
514.642	130.81
514.858	115.81
515.074	137.81
515.29	345.81
515.506	1026.81
