Data from Uncirc_2004_H10_HRD10591_00024.txt Node
Date: Wed Jan 03 10:32:17 EST 2024
User: Yrep
Spectrometer: HR+D1059
Trigger mode: 1
Integration Time (sec): 1.000000E-1
Scans to average: 1
Electric dark correction enabled: true
Nonlinearity correction enabled: false
Boxcar width: 0
XAxis mode: Wavelengths
Number of Pixels in Spectrum: 2048
>>>>>Begin Spectral Data<<<<<
223.165	-12.69
223.4	-12.69
223.635	-12.69
223.869	-16.69
224.104	-9.69
224.338	-15.69
224.573	-4.69
224.808	-14.69
225.042	-4.69
225.277	-0.69
225.511	-7.69
225.746	-0.69
225.98	-2.69
226.215	9.31
226.449	16.31
226.683	16.31
226.918	24.31
227.152	24.31
227.387	35.31
227.621	34.31
227.856	42.31
228.09	56.31
228.324	47.31
228.559	62.31
228.793	64.31
229.027	60.31
229.262	70.31
229.496	75.31
229.73	72.31
229.964	88.31
230.199	81.31
230.433	87.31
230.667	75.31
230.901	73.31
231.136	84.31
231.37	89.31
231.604	96.31
231.838	83.31
232.072	90.31
232.306	71.31
232.541	76.31
232.775	71.31
233.009	79.31
233.243	79.31
233.477	93.31
233.711	82.31
233.945	79.31
234.179	85.31
234.413	79.31
234.647	81.31
234.881	87.31
235.115	71.31
235.349	70.31
235.583	78.31
235.817	84.31
236.051	88.31
236.285	75.31
236.519	67.31
236.753	75.31
236.987	79.31
237.221	78.31
237.455	91.31
237.689	79.31
237.922	81.31
238.156	83.31
238.39	72.31
238.624	71.31
238.858	75.31
239.091	75.31
239.325	79.31
239.559	100.31
239.793	77.31
240.027	82.31
240.26	74.31
240.494	78.31
240.728	67.31
240.961	63.31
241.195	77.31
241.429	80.31
241.662	69.31
241.896	87.31
242.13	79.31
242.363	75.31
242.597	63.31
242.83	80.31
243.064	82.31
243.298	76.31
243.531	63.31
243.765	83.31
243.998	76.31
244.232	79.31
244.465	76.31
244.699	74.31
244.932	64.31
245.166	74.31
245.399	87.31
245.633	77.31
245.866	80.31
246.099	86.31
246.333	75.31
246.566	81.31
246.8	65.31
247.033	68.31
247.266	77.31
247.5	71.31
247.733	92.31
247.966	89.31
248.2	77.31
248.433	75.31
248.666	79.31
248.899	64.31
249.133	78.31
249.366	96.31
249.599	92.31
249.832	88.31
250.066	78.31
250.299	79.31
250.532	84.31
250.765	79.31
250.998	82.31
251.231	72.31
251.465	85.31
251.698	75.31
251.931	83.31
252.164	75.31
252.397	71.31
252.63	84.31
252.863	95.31
253.096	79.31
253.329	77.31
253.562	85.31
253.795	89.31
254.028	73.31
254.261	91.31
254.494	75.31
254.727	86.31
254.96	87.31
255.193	74.31
255.426	86.31
255.659	87.31
255.892	77.31
256.124	82.31
256.357	88.31
256.59	85.31
256.823	70.31
257.056	88.31
257.289	78.31
257.521	77.31
257.754	89.31
257.987	87.31
258.22	81.31
258.452	92.31
258.685	79.31
258.918	74.31
259.151	92.31
259.383	86.31
259.616	81.31
259.849	80.31
260.081	91.31
260.314	73.31
260.547	71.31
260.779	83.31
261.012	69.31
261.244	74.31
261.477	94.31
261.71	86.31
261.942	115.31
262.175	111.31
262.407	72.31
262.64	88.31
262.872	78.31
263.105	78.31
263.337	82.31
263.57	79.31
263.802	86.31
264.035	81.31
264.267	70.31
264.499	77.31
264.732	84.31
264.964	86.31
265.197	65.31
265.429	89.31
265.661	79.31
265.894	85.31
266.126	78.31
266.358	75.31
266.591	93.31
266.823	86.31
267.055	72.31
267.287	87.31
267.52	80.31
267.752	87.31
267.984	96.31
268.216	86.31
268.448	91.31
268.681	73.31
268.913	84.31
269.145	89.31
269.377	84.31
269.609	76.31
269.841	80.31
270.073	83.31
270.306	81.31
270.538	85.31
270.77	70.31
271.002	66.31
271.234	100.31
271.466	87.31
271.698	83.31
271.93	96.31
272.162	83.31
272.394	81.31
272.626	78.31
272.858	81.31
273.09	78.31
273.322	87.31
273.553	80.31
273.785	83.31
274.017	79.31
274.249	79.31
274.481	89.31
274.713	90.31
274.945	81.31
275.176	88.31
275.408	76.31
275.64	79.31
275.872	88.31
276.104	83.31
276.335	102.31
276.567	100.31
276.799	106.31
277.031	100.31
277.262	91.31
277.494	89.31
277.726	69.31
277.957	87.31
278.189	85.31
278.421	95.31
278.652	101.31
278.884	72.31
279.115	79.31
279.347	89.31
279.579	87.31
279.81	89.31
280.042	79.31
280.273	88.31
280.505	98.31
280.736	90.31
280.968	69.31
281.199	88.31
281.431	88.31
281.662	77.31
281.894	89.31
282.125	94.31
282.356	120.31
282.588	137.31
282.819	111.31
283.051	86.31
283.282	83.31
283.513	97.31
283.745	90.31
283.976	76.31
284.207	84.31
284.439	103.31
284.67	89.31
284.901	96.31
285.132	93.31
285.364	94.31
285.595	112.31
285.826	83.31
286.057	96.31
286.288	79.31
286.52	80.31
286.751	93.31
286.982	97.31
287.213	85.31
287.444	89.31
287.675	87.31
287.906	98.31
288.138	93.31
288.369	92.31
288.6	93.31
288.831	84.31
289.062	92.31
289.293	98.31
289.524	79.31
289.755	88.31
289.986	91.31
290.217	99.31
290.448	77.31
290.679	83.31
290.91	94.31
291.141	83.31
291.371	83.31
291.602	86.31
291.833	75.31
292.064	83.31
292.295	88.31
292.526	88.31
292.757	92.31
292.987	76.31
293.218	96.31
293.449	88.31
293.68	73.31
293.91	101.31
294.141	94.31
294.372	104.31
294.603	95.31
294.833	86.31
295.064	62.31
295.295	83.31
295.525	86.31
295.756	104.31
295.987	101.31
296.217	135.31
296.448	115.31
296.679	92.31
296.909	97.31
297.14	87.31
297.37	79.31
297.601	79.31
297.831	96.31
298.062	89.31
298.292	89.31
298.523	94.31
298.753	94.31
298.984	87.31
299.214	84.31
299.445	67.31
299.675	93.31
299.905	81.31
300.136	89.31
300.366	84.31
300.597	96.31
300.827	85.31
301.057	104.31
301.288	88.31
301.518	89.31
301.748	84.31
301.979	96.31
302.209	94.31
302.439	86.31
302.669	97.31
302.9	109.31
303.13	82.31
303.36	81.31
303.59	112.31
303.82	97.31
304.051	94.31
304.281	80.31
304.511	86.31
304.741	76.31
304.971	76.31
305.201	98.31
305.431	88.31
305.661	76.31
305.891	82.31
306.121	92.31
306.352	92.31
306.582	94.31
306.812	98.31
307.042	97.31
307.272	96.31
307.502	92.31
307.731	97.31
307.961	88.31
308.191	84.31
308.421	88.31
308.651	89.31
308.881	89.31
309.111	84.31
309.341	97.31
309.571	98.31
309.8	99.31
310.03	103.31
310.26	90.31
310.49	84.31
310.72	103.31
310.949	112.31
311.179	100.31
311.409	94.31
311.639	102.31
311.868	94.31
312.098	96.31
312.328	89.31
312.557	90.31
312.787	109.31
313.017	108.31
313.246	87.31
313.476	84.31
313.706	85.31
313.935	101.31
314.165	100.31
314.394	82.31
314.624	103.31
314.853	83.31
315.083	91.31
315.312	85.31
315.542	79.31
315.771	80.31
316.001	96.31
316.23	89.31
316.46	87.31
316.689	67.31
316.919	89.31
317.148	85.31
317.377	91.31
317.607	89.31
317.836	91.31
318.065	93.31
318.295	108.31
318.524	95.31
318.753	85.31
318.983	69.31
319.212	97.31
319.441	96.31
319.67	126.31
319.9	102.31
320.129	95.31
320.358	87.31
320.587	88.31
320.816	96.31
321.046	87.31
321.275	95.31
321.504	97.31
321.733	96.31
321.962	95.31
322.191	102.31
322.42	91.31
322.649	109.31
322.878	113.31
323.108	105.31
323.337	120.31
323.566	139.31
323.795	168.31
324.024	226.31
324.253	420.31
324.482	864.31
324.71	1810.31
324.939	2343.31
325.168	823.31
325.397	246.31
325.626	145.31
325.855	140.31
326.084	115.31
326.313	135.31
326.542	164.31
326.77	245.31
326.999	493.31
327.228	1005.31
327.457	1861.31
327.686	1439.31
327.914	386.31
328.143	190.31
328.372	156.31
328.6	120.31
328.829	114.31
329.058	132.31
329.287	133.31
329.515	107.31
329.744	103.31
329.972	97.31
330.201	93.31
330.43	109.31
330.658	123.31
330.887	126.31
331.115	111.31
331.344	102.31
331.572	93.31
331.801	96.31
332.03	103.31
332.258	104.31
332.486	94.31
332.715	99.31
332.943	88.31
333.172	94.31
333.4	92.31
333.629	110.31
333.857	108.31
334.085	110.31
334.314	86.31
334.542	99.31
334.771	105.31
334.999	104.31
335.227	95.31
335.455	103.31
335.684	99.31
335.912	98.31
336.14	84.31
336.369	97.31
336.597	96.31
336.825	81.31
337.053	79.31
337.281	84.31
337.51	97.31
337.738	95.31
337.966	95.31
338.194	98.31
338.422	95.31
338.65	87.31
338.878	82.31
339.106	86.31
339.334	89.31
339.562	88.31
339.79	85.31
340.018	74.31
340.246	104.31
340.474	87.31
340.702	100.31
340.93	99.31
341.158	89.31
341.386	89.31
341.614	107.31
341.842	97.31
342.07	103.31
342.298	88.31
342.526	96.31
342.754	68.31
342.981	87.31
343.209	86.31
343.437	92.31
343.665	92.31
343.893	89.31
344.12	94.31
344.348	78.31
344.576	97.31
344.804	92.31
345.031	92.31
345.259	96.31
345.487	93.31
345.714	78.31
345.942	94.31
346.17	93.31
346.397	93.31
346.625	101.31
346.853	82.31
347.08	84.31
347.308	87.31
347.535	96.31
347.763	91.31
347.99	110.31
348.218	102.31
348.445	106.31
348.673	93.31
348.9	90.31
349.128	106.31
349.355	88.31
349.583	85.31
349.81	93.31
350.037	95.31
350.265	97.31
350.492	89.31
350.72	98.31
350.947	89.31
351.174	116.31
351.402	101.31
351.629	112.31
351.856	101.31
352.083	103.31
352.311	109.31
352.538	100.31
352.765	116.31
352.992	111.31
353.22	108.31
353.447	104.31
353.674	101.31
353.901	96.31
354.128	101.31
354.355	105.31
354.583	98.31
354.81	105.31
355.037	91.31
355.264	95.31
355.491	100.31
355.718	102.31
355.945	101.31
356.172	85.31
356.399	107.31
356.626	100.31
356.853	90.31
357.08	108.31
357.307	97.31
357.534	83.31
357.761	94.31
357.988	99.31
358.215	88.31
358.441	89.31
358.668	92.31
358.895	93.31
359.122	94.31
359.349	98.31
359.576	94.31
359.802	88.31
360.029	101.31
360.256	101.31
360.483	93.31
360.709	104.31
360.936	79.31
361.163	104.31
361.39	95.31
361.616	89.31
361.843	88.31
362.07	99.31
362.296	89.31
362.523	84.31
362.749	83.31
362.976	80.31
363.203	101.31
363.429	101.31
363.656	87.31
363.882	102.31
364.109	93.31
364.335	89.31
364.562	82.31
364.788	86.31
365.015	98.31
365.241	101.31
365.468	109.31
365.694	104.31
365.92	91.31
366.147	83.31
366.373	74.31
366.599	95.31
366.826	97.31
367.052	83.31
367.278	90.31
367.505	91.31
367.731	80.31
367.957	96.31
368.184	88.31
368.41	96.31
368.636	87.31
368.862	112.31
369.089	99.31
369.315	99.31
369.541	108.31
369.767	93.31
369.993	104.31
370.219	84.31
370.445	87.31
370.672	77.31
370.898	79.31
371.124	84.31
371.35	90.31
371.576	98.31
371.802	96.31
372.028	88.31
372.254	88.31
372.48	83.31
372.706	83.31
372.932	79.31
373.158	72.31
373.384	91.31
373.61	103.31
373.835	95.31
374.061	89.31
374.287	89.31
374.513	86.31
374.739	70.31
374.965	86.31
375.191	89.31
375.416	83.31
375.642	85.31
375.868	90.31
376.094	78.31
376.319	91.31
376.545	88.31
376.771	84.31
376.997	96.31
377.222	102.31
377.448	102.31
377.674	94.31
377.899	78.31
378.125	80.31
378.35	98.31
378.576	90.31
378.802	103.31
379.027	92.31
379.253	98.31
379.478	92.31
379.704	87.31
379.929	99.31
380.155	86.31
380.38	86.31
380.606	103.31
380.831	86.31
381.057	104.31
381.282	100.31
381.507	97.31
381.733	93.31
381.958	97.31
382.184	99.31
382.409	89.31
382.634	94.31
382.86	98.31
383.085	107.31
383.31	107.31
383.535	104.31
383.761	96.31
383.986	95.31
384.211	96.31
384.436	92.31
384.662	103.31
384.887	102.31
385.112	110.31
385.337	100.31
385.562	118.31
385.787	102.31
386.013	110.31
386.238	117.31
386.463	121.31
386.688	102.31
386.913	100.31
387.138	116.31
387.363	108.31
387.588	104.31
387.813	123.31
388.038	116.31
388.263	121.31
388.488	118.31
388.713	106.31
388.938	108.31
389.163	100.31
389.387	97.31
389.612	92.31
389.837	86.31
390.062	83.31
390.287	95.31
390.512	85.31
390.736	91.31
390.961	85.31
391.186	91.31
391.411	104.31
391.636	91.31
391.86	89.31
392.085	98.31
392.31	87.31
392.534	79.31
392.759	93.31
392.984	75.31
393.208	79.31
393.433	89.31
393.658	80.31
393.882	80.31
394.107	82.31
394.331	85.31
394.556	86.31
394.78	102.31
395.005	101.31
395.229	97.31
395.454	83.31
395.678	82.31
395.903	99.31
396.127	108.31
396.352	89.31
396.576	95.31
396.801	79.31
397.025	95.31
397.249	88.31
397.474	91.31
397.698	87.31
397.922	87.31
398.147	84.31
398.371	80.31
398.595	80.31
398.82	89.31
399.044	82.31
399.268	78.31
399.492	69.31
399.717	81.31
399.941	87.31
400.165	95.31
400.389	96.31
400.613	95.31
400.837	86.31
401.062	84.31
401.286	95.31
401.51	92.31
401.734	95.31
401.958	99.31
402.182	129.31
402.406	154.31
402.63	120.31
402.854	91.31
403.078	98.31
403.302	88.31
403.526	85.31
403.75	100.31
403.974	102.31
404.198	87.31
404.422	81.31
404.645	70.31
404.869	98.31
405.093	85.31
405.317	95.31
405.541	89.31
405.765	99.31
405.988	113.31
406.212	161.31
406.436	209.31
406.66	153.31
406.883	87.31
407.107	87.31
407.331	93.31
407.555	97.31
407.778	89.31
408.002	99.31
408.226	86.31
408.449	86.31
408.673	98.31
408.896	87.31
409.12	81.31
409.344	83.31
409.567	101.31
409.791	87.31
410.014	98.31
410.238	95.31
410.461	93.31
410.685	89.31
410.908	103.31
411.132	95.31
411.355	88.31
411.578	87.31
411.802	86.31
412.025	94.31
412.249	96.31
412.472	92.31
412.695	80.31
412.919	99.31
413.142	97.31
413.365	84.31
413.589	81.31
413.812	87.31
414.035	93.31
414.258	98.31
414.482	83.31
414.705	90.31
414.928	69.31
415.151	95.31
415.374	91.31
415.597	91.31
415.821	80.31
416.044	85.31
416.267	99.31
416.49	96.31
416.713	99.31
416.936	100.31
417.159	91.31
417.382	102.31
417.605	89.31
417.828	91.31
418.051	102.31
418.274	91.31
418.497	84.31
418.72	91.31
418.943	86.31
419.166	91.31
419.389	76.31
419.611	85.31
419.834	87.31
420.057	81.31
420.28	81.31
420.503	79.31
420.726	91.31
420.948	84.31
421.171	85.31
421.394	89.31
421.617	104.31
421.839	97.31
422.062	94.31
422.285	91.31
422.507	104.31
422.73	87.31
422.953	79.31
423.175	79.31
423.398	84.31
423.621	87.31
423.843	84.31
424.066	96.31
424.288	76.31
424.511	83.31
424.733	103.31
424.956	100.31
425.178	98.31
425.401	92.31
425.623	93.31
425.846	84.31
426.068	99.31
426.291	93.31
426.513	94.31
426.735	88.31
426.958	97.31
427.18	111.31
427.402	133.31
427.625	162.31
427.847	127.31
428.069	100.31
428.292	97.31
428.514	87.31
428.736	91.31
428.958	84.31
429.181	98.31
429.403	81.31
429.625	88.31
429.847	92.31
430.069	90.31
430.292	95.31
430.514	88.31
430.736	89.31
430.958	81.31
431.18	94.31
431.402	89.31
431.624	86.31
431.846	88.31
432.068	94.31
432.29	85.31
432.512	88.31
432.734	87.31
432.956	95.31
433.178	109.31
433.4	102.31
433.622	103.31
433.844	91.31
434.066	100.31
434.287	87.31
434.509	89.31
434.731	91.31
434.953	85.31
435.175	79.31
435.397	96.31
435.618	93.31
435.84	106.31
436.062	116.31
436.284	122.31
436.505	95.31
436.727	84.31
436.949	103.31
437.17	88.31
437.392	111.31
437.614	93.31
437.835	100.31
438.057	119.31
438.278	89.31
438.5	111.31
438.721	112.31
438.943	106.31
439.165	92.31
439.386	96.31
439.608	83.31
439.829	94.31
440.05	106.31
440.272	134.31
440.493	81.31
440.715	90.31
440.936	83.31
441.158	84.31
441.379	75.31
441.6	110.31
441.822	92.31
442.043	89.31
442.264	104.31
442.486	106.31
442.707	99.31
442.928	102.31
443.149	126.31
443.371	125.31
443.592	101.31
443.813	108.31
444.034	96.31
444.255	96.31
444.476	102.31
444.698	79.31
444.919	100.31
445.14	125.31
445.361	131.31
445.582	128.31
445.803	100.31
446.024	133.31
446.245	123.31
446.466	103.31
446.687	78.31
446.908	90.31
447.129	86.31
447.35	86.31
447.571	86.31
447.792	104.31
448.013	91.31
448.234	99.31
448.455	89.31
448.675	116.31
448.896	116.31
449.117	105.31
449.338	98.31
449.559	141.31
449.779	133.31
450	105.31
450.221	97.31
450.442	83.31
450.662	83.31
450.883	101.31
451.104	107.31
451.324	89.31
451.545	96.31
451.766	95.31
451.986	95.31
452.207	78.31
452.428	93.31
452.648	87.31
452.869	104.31
453.089	109.31
453.31	120.31
453.53	95.31
453.751	90.31
453.971	101.31
454.192	132.31
454.412	105.31
454.633	99.31
454.853	87.31
455.073	88.31
455.294	88.31
455.514	93.31
455.734	81.31
455.955	79.31
456.175	105.31
456.395	101.31
456.616	100.31
456.836	87.31
457.056	82.31
457.276	78.31
457.497	88.31
457.717	89.31
457.937	86.31
458.157	81.31
458.377	86.31
458.598	100.31
458.818	135.31
459.038	134.31
459.258	109.31
459.478	81.31
459.698	76.31
459.918	85.31
460.138	97.31
460.358	79.31
460.578	98.31
460.798	89.31
461.018	92.31
461.238	63.31
461.458	75.31
461.678	83.31
461.898	77.31
462.118	92.31
462.338	79.31
462.558	91.31
462.777	84.31
462.997	98.31
463.217	89.31
463.437	85.31
463.657	100.31
463.876	92.31
464.096	81.31
464.316	85.31
464.536	92.31
464.755	86.31
464.975	103.31
465.195	159.31
465.414	141.31
465.634	88.31
465.854	84.31
466.073	92.31
466.293	97.31
466.512	99.31
466.732	88.31
466.951	97.31
467.171	87.31
467.391	93.31
467.61	104.31
467.829	95.31
468.049	99.31
468.268	100.31
468.488	85.31
468.707	91.31
468.927	85.31
469.146	95.31
469.365	72.31
469.585	87.31
469.804	90.31
470.023	92.31
470.243	83.31
470.462	101.31
470.681	97.31
470.901	89.31
471.12	84.31
471.339	92.31
471.558	81.31
471.777	88.31
471.997	106.31
472.216	95.31
472.435	111.31
472.654	83.31
472.873	88.31
473.092	99.31
473.311	96.31
473.53	75.31
473.749	91.31
473.968	88.31
474.187	86.31
474.406	89.31
474.625	90.31
474.844	91.31
475.063	76.31
475.282	91.31
475.501	85.31
475.72	94.31
475.939	78.31
476.158	85.31
476.377	89.31
476.596	93.31
476.814	81.31
477.033	105.31
477.252	92.31
477.471	92.31
477.69	100.31
477.908	87.31
478.127	70.31
478.346	96.31
478.564	87.31
478.783	91.31
479.002	83.31
479.22	100.31
479.439	102.31
479.658	104.31
479.876	96.31
480.095	89.31
480.313	80.31
480.532	83.31
480.751	99.31
480.969	95.31
481.188	125.31
481.406	101.31
481.624	90.31
481.843	96.31
482.061	87.31
482.28	84.31
482.498	92.31
482.717	87.31
482.935	93.31
483.153	83.31
483.372	88.31
483.59	88.31
483.808	91.31
484.027	85.31
484.245	99.31
484.463	84.31
484.681	103.31
484.9	87.31
485.118	100.31
485.336	101.31
485.554	101.31
485.772	108.31
485.99	117.31
486.209	105.31
486.427	101.31
486.645	99.31
486.863	109.31
487.081	96.31
487.299	85.31
487.517	89.31
487.735	89.31
487.953	97.31
488.171	93.31
488.389	87.31
488.607	84.31
488.825	72.31
489.043	84.31
489.261	89.31
489.479	87.31
489.696	96.31
489.914	83.31
490.132	93.31
490.35	100.31
490.568	97.31
490.786	81.31
491.003	72.31
491.221	95.31
491.439	72.31
491.657	99.31
491.874	82.31
492.092	89.31
492.31	84.31
492.527	80.31
492.745	92.31
492.963	102.31
493.18	94.31
493.398	93.31
493.615	104.31
493.833	98.31
494.05	102.31
494.268	76.31
494.485	73.31
494.703	103.31
494.92	101.31
495.138	85.31
495.355	87.31
495.573	92.31
495.79	82.31
496.008	87.31
496.225	87.31
496.442	93.31
496.66	82.31
496.877	78.31
497.094	83.31
497.312	92.31
497.529	86.31
497.746	100.31
497.963	87.31
498.181	86.31
498.398	100.31
498.615	100.31
498.832	91.31
499.049	87.31
499.267	99.31
499.484	90.31
499.701	95.31
499.918	102.31
500.135	99.31
500.352	99.31
500.569	85.31
500.786	97.31
501.003	93.31
501.22	90.31
501.437	92.31
501.654	94.31
501.871	112.31
502.088	99.31
502.305	81.31
502.522	77.31
502.739	84.31
502.956	86.31
503.172	88.31
503.389	95.31
503.606	106.31
503.823	88.31
504.04	96.31
504.256	79.31
504.473	97.31
504.69	97.31
504.907	109.31
505.123	88.31
505.34	99.31
505.557	91.31
505.773	79.31
505.99	85.31
506.207	77.31
506.423	103.31
506.64	89.31
506.856	92.31
507.073	91.31
507.289	92.31
507.506	98.31
507.722	104.31
507.939	112.31
508.155	103.31
508.372	89.31
508.588	88.31
508.805	87.31
509.021	102.31
509.238	99.31
509.454	100.31
509.67	113.31
509.887	109.31
510.103	148.31
510.319	224.31
510.536	776.31
510.752	2436.31
510.968	651.31
511.184	161.31
511.401	91.31
511.617	98.31
511.833	76.31
512.049	94.31
512.265	95.31
512.481	86.31
512.698	88.31
512.914	87.31
513.13	96.31
513.346	90.31
513.562	97.31
513.778	97.31
513.994	104.31
514.21	103.31
514.426	113.31
514.642	132.31
514.858	132.31
515.074	168.31
515.29	449.31
515.506	1467.31
515.721	538.31
