Data from Uncirc_2004_H10_HRD10591_00072.txt Node
Date: Wed Jan 03 10:32:27 EST 2024
User: Yrep
Spectrometer: HR+D1059
Trigger mode: 1
Integration Time (sec): 1.000000E-1
Scans to average: 1
Electric dark correction enabled: true
Nonlinearity correction enabled: false
Boxcar width: 0
XAxis mode: Wavelengths
Number of Pixels in Spectrum: 2048
>>>>>Begin Spectral Data<<<<<
223.165	-23.44
223.4	-23.44
223.635	-23.44
223.869	-29.44
224.104	-15.44
224.338	-12.44
224.573	-16.44
224.808	-8.44
225.042	-8.44
225.277	-12.44
225.511	-0.44
225.746	15.56
225.98	5.56
226.215	6.56
226.449	14.56
226.683	12.56
226.918	26.56
227.152	45.56
227.387	19.56
227.621	43.56
227.856	42.56
228.09	45.56
228.324	46.56
228.559	59.56
228.793	54.56
229.027	45.56
229.262	62.56
229.496	68.56
229.73	90.56
229.964	75.56
230.199	66.56
230.433	76.56
230.667	102.56
230.901	74.56
231.136	83.56
231.37	75.56
231.604	84.56
231.838	82.56
232.072	95.56
232.306	88.56
232.541	66.56
232.775	73.56
233.009	74.56
233.243	84.56
233.477	70.56
233.711	80.56
233.945	94.56
234.179	84.56
234.413	93.56
234.647	78.56
234.881	82.56
235.115	90.56
235.349	77.56
235.583	84.56
235.817	84.56
236.051	68.56
236.285	74.56
236.519	80.56
236.753	73.56
236.987	89.56
237.221	79.56
237.455	78.56
237.689	88.56
237.922	60.56
238.156	80.56
238.39	63.56
238.624	75.56
238.858	82.56
239.091	76.56
239.325	75.56
239.559	74.56
239.793	82.56
240.027	84.56
240.26	74.56
240.494	88.56
240.728	86.56
240.961	71.56
241.195	82.56
241.429	79.56
241.662	64.56
241.896	70.56
242.13	79.56
242.363	82.56
242.597	76.56
242.83	72.56
243.064	69.56
243.298	80.56
243.531	84.56
243.765	69.56
243.998	80.56
244.232	71.56
244.465	80.56
244.699	77.56
244.932	72.56
245.166	78.56
245.399	65.56
245.633	79.56
245.866	87.56
246.099	78.56
246.333	69.56
246.566	76.56
246.8	69.56
247.033	74.56
247.266	82.56
247.5	79.56
247.733	82.56
247.966	85.56
248.2	87.56
248.433	84.56
248.666	75.56
248.899	83.56
249.133	87.56
249.366	91.56
249.599	99.56
249.832	86.56
250.066	84.56
250.299	74.56
250.532	74.56
250.765	79.56
250.998	73.56
251.231	75.56
251.465	74.56
251.698	75.56
251.931	77.56
252.164	81.56
252.397	77.56
252.63	83.56
252.863	82.56
253.096	64.56
253.329	84.56
253.562	64.56
253.795	90.56
254.028	84.56
254.261	78.56
254.494	70.56
254.727	79.56
254.96	90.56
255.193	78.56
255.426	83.56
255.659	94.56
255.892	80.56
256.124	71.56
256.357	79.56
256.59	85.56
256.823	71.56
257.056	84.56
257.289	73.56
257.521	74.56
257.754	87.56
257.987	89.56
258.22	75.56
258.452	64.56
258.685	78.56
258.918	81.56
259.151	77.56
259.383	66.56
259.616	82.56
259.849	76.56
260.081	80.56
260.314	74.56
260.547	69.56
260.779	92.56
261.012	69.56
261.244	84.56
261.477	100.56
261.71	101.56
261.942	117.56
262.175	95.56
262.407	79.56
262.64	79.56
262.872	79.56
263.105	72.56
263.337	70.56
263.57	87.56
263.802	83.56
264.035	81.56
264.267	92.56
264.499	83.56
264.732	90.56
264.964	85.56
265.197	67.56
265.429	76.56
265.661	83.56
265.894	78.56
266.126	79.56
266.358	80.56
266.591	80.56
266.823	82.56
267.055	85.56
267.287	93.56
267.52	93.56
267.752	70.56
267.984	80.56
268.216	79.56
268.448	99.56
268.681	74.56
268.913	93.56
269.145	85.56
269.377	91.56
269.609	78.56
269.841	82.56
270.073	79.56
270.306	75.56
270.538	75.56
270.77	68.56
271.002	91.56
271.234	92.56
271.466	85.56
271.698	80.56
271.93	81.56
272.162	88.56
272.394	77.56
272.626	78.56
272.858	93.56
273.09	88.56
273.322	83.56
273.553	72.56
273.785	82.56
274.017	77.56
274.249	92.56
274.481	76.56
274.713	100.56
274.945	86.56
275.176	90.56
275.408	76.56
275.64	78.56
275.872	85.56
276.104	85.56
276.335	80.56
276.567	102.56
276.799	88.56
277.031	80.56
277.262	82.56
277.494	91.56
277.726	93.56
277.957	86.56
278.189	93.56
278.421	82.56
278.652	78.56
278.884	82.56
279.115	100.56
279.347	86.56
279.579	78.56
279.81	77.56
280.042	86.56
280.273	85.56
280.505	86.56
280.736	82.56
280.968	79.56
281.199	87.56
281.431	88.56
281.662	76.56
281.894	96.56
282.125	94.56
282.356	137.56
282.588	146.56
282.819	104.56
283.051	82.56
283.282	85.56
283.513	76.56
283.745	85.56
283.976	80.56
284.207	80.56
284.439	86.56
284.67	83.56
284.901	71.56
285.132	84.56
285.364	75.56
285.595	85.56
285.826	93.56
286.057	88.56
286.288	87.56
286.52	83.56
286.751	92.56
286.982	87.56
287.213	72.56
287.444	93.56
287.675	95.56
287.906	80.56
288.138	85.56
288.369	98.56
288.6	72.56
288.831	91.56
289.062	86.56
289.293	98.56
289.524	85.56
289.755	90.56
289.986	82.56
290.217	79.56
290.448	93.56
290.679	87.56
290.91	70.56
291.141	71.56
291.371	78.56
291.602	85.56
291.833	81.56
292.064	76.56
292.295	74.56
292.526	82.56
292.757	84.56
292.987	84.56
293.218	81.56
293.449	87.56
293.68	84.56
293.91	79.56
294.141	72.56
294.372	79.56
294.603	91.56
294.833	87.56
295.064	86.56
295.295	72.56
295.525	101.56
295.756	101.56
295.987	122.56
296.217	124.56
296.448	112.56
296.679	91.56
296.909	87.56
297.14	77.56
297.37	84.56
297.601	101.56
297.831	90.56
298.062	92.56
298.292	94.56
298.523	77.56
298.753	92.56
298.984	87.56
299.214	93.56
299.445	80.56
299.675	68.56
299.905	96.56
300.136	81.56
300.366	79.56
300.597	83.56
300.827	80.56
301.057	93.56
301.288	78.56
301.518	87.56
301.748	84.56
301.979	96.56
302.209	82.56
302.439	88.56
302.669	88.56
302.9	96.56
303.13	79.56
303.36	94.56
303.59	97.56
303.82	98.56
304.051	86.56
304.281	90.56
304.511	89.56
304.741	87.56
304.971	74.56
305.201	91.56
305.431	77.56
305.661	88.56
305.891	96.56
306.121	104.56
306.352	98.56
306.582	116.56
306.812	79.56
307.042	96.56
307.272	92.56
307.502	79.56
307.731	77.56
307.961	89.56
308.191	97.56
308.421	84.56
308.651	86.56
308.881	94.56
309.111	86.56
309.341	86.56
309.571	104.56
309.8	102.56
310.03	103.56
310.26	114.56
310.49	94.56
310.72	104.56
310.949	93.56
311.179	79.56
311.409	74.56
311.639	85.56
311.868	99.56
312.098	94.56
312.328	99.56
312.557	94.56
312.787	99.56
313.017	84.56
313.246	86.56
313.476	79.56
313.706	100.56
313.935	91.56
314.165	97.56
314.394	97.56
314.624	95.56
314.853	101.56
315.083	87.56
315.312	90.56
315.542	88.56
315.771	92.56
316.001	82.56
316.23	96.56
316.46	82.56
316.689	86.56
316.919	87.56
317.148	103.56
317.377	95.56
317.607	88.56
317.836	79.56
318.065	100.56
318.295	90.56
318.524	90.56
318.753	102.56
318.983	99.56
319.212	105.56
319.441	95.56
319.67	102.56
319.9	88.56
320.129	93.56
320.358	98.56
320.587	116.56
320.816	106.56
321.046	95.56
321.275	96.56
321.504	96.56
321.733	87.56
321.962	91.56
322.191	95.56
322.42	105.56
322.649	111.56
322.878	104.56
323.108	99.56
323.337	130.56
323.566	134.56
323.795	156.56
324.024	200.56
324.253	430.56
324.482	871.56
324.71	1759.56
324.939	2238.56
325.168	812.56
325.397	238.56
325.626	161.56
325.855	120.56
326.084	111.56
326.313	147.56
326.542	157.56
326.77	230.56
326.999	490.56
327.228	963.56
327.457	1762.56
327.686	1375.56
327.914	371.56
328.143	190.56
328.372	130.56
328.6	113.56
328.829	110.56
329.058	122.56
329.287	126.56
329.515	106.56
329.744	107.56
329.972	107.56
330.201	96.56
330.43	109.56
330.658	125.56
330.887	148.56
331.115	118.56
331.344	100.56
331.572	102.56
331.801	88.56
332.03	113.56
332.258	95.56
332.486	93.56
332.715	84.56
332.943	82.56
333.172	88.56
333.4	88.56
333.629	89.56
333.857	133.56
334.085	101.56
334.314	99.56
334.542	98.56
334.771	104.56
334.999	78.56
335.227	104.56
335.455	98.56
335.684	115.56
335.912	90.56
336.14	98.56
336.369	97.56
336.597	98.56
336.825	100.56
337.053	96.56
337.281	82.56
337.51	85.56
337.738	90.56
337.966	87.56
338.194	92.56
338.422	92.56
338.65	98.56
338.878	78.56
339.106	91.56
339.334	91.56
339.562	82.56
339.79	86.56
340.018	87.56
340.246	98.56
340.474	99.56
340.702	82.56
340.93	88.56
341.158	98.56
341.386	95.56
341.614	86.56
341.842	96.56
342.07	85.56
342.298	90.56
342.526	101.56
342.754	92.56
342.981	81.56
343.209	79.56
343.437	91.56
343.665	92.56
343.893	71.56
344.12	87.56
344.348	84.56
344.576	89.56
344.804	70.56
345.031	95.56
345.259	107.56
345.487	106.56
345.714	103.56
345.942	88.56
346.17	76.56
346.397	90.56
346.625	88.56
346.853	98.56
347.08	96.56
347.308	92.56
347.535	96.56
347.763	100.56
347.99	96.56
348.218	102.56
348.445	103.56
348.673	94.56
348.9	91.56
349.128	92.56
349.355	97.56
349.583	82.56
349.81	99.56
350.037	84.56
350.265	84.56
350.492	109.56
350.72	96.56
350.947	97.56
351.174	102.56
351.402	101.56
351.629	90.56
351.856	82.56
352.083	102.56
352.311	107.56
352.538	105.56
352.765	92.56
352.992	107.56
353.22	99.56
353.447	108.56
353.674	109.56
353.901	105.56
354.128	98.56
354.355	88.56
354.583	90.56
354.81	96.56
355.037	102.56
355.264	100.56
355.491	80.56
355.718	91.56
355.945	90.56
356.172	97.56
356.399	92.56
356.626	95.56
356.853	88.56
357.08	91.56
357.307	79.56
357.534	82.56
357.761	92.56
357.988	102.56
358.215	86.56
358.441	88.56
358.668	93.56
358.895	88.56
359.122	95.56
359.349	74.56
359.576	85.56
359.802	104.56
360.029	115.56
360.256	108.56
360.483	98.56
360.709	84.56
360.936	100.56
361.163	78.56
361.39	89.56
361.616	103.56
361.843	87.56
362.07	92.56
362.296	95.56
362.523	80.56
362.749	87.56
362.976	93.56
363.203	83.56
363.429	81.56
363.656	74.56
363.882	79.56
364.109	99.56
364.335	87.56
364.562	98.56
364.788	78.56
365.015	105.56
365.241	102.56
365.468	105.56
365.694	100.56
365.92	86.56
366.147	94.56
366.373	106.56
366.599	93.56
366.826	87.56
367.052	82.56
367.278	99.56
367.505	84.56
367.731	106.56
367.957	95.56
368.184	86.56
368.41	88.56
368.636	102.56
368.862	122.56
369.089	102.56
369.315	89.56
369.541	101.56
369.767	97.56
369.993	80.56
370.219	98.56
370.445	86.56
370.672	92.56
370.898	83.56
371.124	85.56
371.35	92.56
371.576	91.56
371.802	92.56
372.028	76.56
372.254	84.56
372.48	84.56
372.706	80.56
372.932	84.56
373.158	88.56
373.384	101.56
373.61	89.56
373.835	96.56
374.061	90.56
374.287	91.56
374.513	106.56
374.739	85.56
374.965	82.56
375.191	88.56
375.416	98.56
375.642	84.56
375.868	100.56
376.094	73.56
376.319	80.56
376.545	88.56
376.771	86.56
376.997	99.56
377.222	103.56
377.448	86.56
377.674	99.56
377.899	85.56
378.125	91.56
378.35	92.56
378.576	80.56
378.802	85.56
379.027	95.56
379.253	86.56
379.478	71.56
379.704	89.56
379.929	91.56
380.155	91.56
380.38	96.56
380.606	107.56
380.831	91.56
381.057	92.56
381.282	112.56
381.507	100.56
381.733	108.56
381.958	96.56
382.184	91.56
382.409	96.56
382.634	95.56
382.86	94.56
383.085	91.56
383.31	101.56
383.535	97.56
383.761	97.56
383.986	96.56
384.211	98.56
384.436	106.56
384.662	91.56
384.887	98.56
385.112	85.56
385.337	102.56
385.562	105.56
385.787	99.56
386.013	105.56
386.238	112.56
386.463	106.56
386.688	115.56
386.913	105.56
387.138	114.56
387.363	103.56
387.588	94.56
387.813	102.56
388.038	95.56
388.263	103.56
388.488	112.56
388.713	90.56
388.938	94.56
389.163	114.56
389.387	90.56
389.612	103.56
389.837	93.56
390.062	95.56
390.287	86.56
390.512	83.56
390.736	108.56
390.961	93.56
391.186	92.56
391.411	106.56
391.636	78.56
391.86	78.56
392.085	98.56
392.31	86.56
392.534	91.56
392.759	81.56
392.984	102.56
393.208	84.56
393.433	82.56
393.658	77.56
393.882	87.56
394.107	99.56
394.331	98.56
394.556	90.56
394.78	85.56
395.005	99.56
395.229	95.56
395.454	82.56
395.678	79.56
395.903	87.56
396.127	80.56
396.352	96.56
396.576	86.56
396.801	89.56
397.025	96.56
397.249	87.56
397.474	100.56
397.698	76.56
397.922	89.56
398.147	84.56
398.371	84.56
398.595	76.56
398.82	76.56
399.044	83.56
399.268	101.56
399.492	82.56
399.717	98.56
399.941	86.56
400.165	93.56
400.389	82.56
400.613	86.56
400.837	89.56
401.062	94.56
401.286	100.56
401.51	81.56
401.734	88.56
401.958	104.56
402.182	130.56
402.406	172.56
402.63	114.56
402.854	93.56
403.078	84.56
403.302	88.56
403.526	90.56
403.75	74.56
403.974	79.56
404.198	87.56
404.422	92.56
404.645	83.56
404.869	95.56
405.093	98.56
405.317	106.56
405.541	94.56
405.765	98.56
405.988	110.56
406.212	172.56
406.436	233.56
406.66	139.56
406.883	96.56
407.107	83.56
407.331	95.56
407.555	87.56
407.778	95.56
408.002	108.56
408.226	94.56
408.449	84.56
408.673	91.56
408.896	96.56
409.12	95.56
409.344	83.56
409.567	82.56
409.791	92.56
410.014	85.56
410.238	97.56
410.461	89.56
410.685	90.56
410.908	98.56
411.132	111.56
411.355	81.56
411.578	85.56
411.802	79.56
412.025	88.56
412.249	96.56
412.472	88.56
412.695	94.56
412.919	98.56
413.142	84.56
413.365	85.56
413.589	98.56
413.812	77.56
414.035	85.56
414.258	100.56
414.482	83.56
414.705	86.56
414.928	88.56
415.151	95.56
415.374	94.56
415.597	84.56
415.821	81.56
416.044	83.56
416.267	74.56
416.49	84.56
416.713	86.56
416.936	93.56
417.159	79.56
417.382	72.56
417.605	89.56
417.828	101.56
418.051	88.56
418.274	97.56
418.497	92.56
418.72	96.56
418.943	84.56
419.166	94.56
419.389	87.56
419.611	90.56
419.834	90.56
420.057	96.56
420.28	104.56
420.503	90.56
420.726	95.56
420.948	82.56
421.171	87.56
421.394	96.56
421.617	95.56
421.839	90.56
422.062	88.56
422.285	83.56
422.507	92.56
422.73	97.56
422.953	92.56
423.175	97.56
423.398	91.56
423.621	92.56
423.843	75.56
424.066	98.56
424.288	101.56
424.511	85.56
424.733	91.56
424.956	98.56
425.178	86.56
425.401	86.56
425.623	106.56
425.846	92.56
426.068	91.56
426.291	88.56
426.513	87.56
426.735	84.56
426.958	87.56
427.18	103.56
427.402	139.56
427.625	158.56
427.847	115.56
428.069	102.56
428.292	83.56
428.514	74.56
428.736	80.56
428.958	96.56
429.181	90.56
429.403	89.56
429.625	86.56
429.847	91.56
430.069	93.56
430.292	81.56
430.514	85.56
430.736	78.56
430.958	80.56
431.18	94.56
431.402	86.56
431.624	86.56
431.846	86.56
432.068	75.56
432.29	90.56
432.512	90.56
432.734	85.56
432.956	106.56
433.178	96.56
433.4	95.56
433.622	84.56
433.844	79.56
434.066	88.56
434.287	90.56
434.509	87.56
434.731	87.56
434.953	84.56
435.175	88.56
435.397	97.56
435.618	90.56
435.84	113.56
436.062	118.56
436.284	115.56
436.505	103.56
436.727	99.56
436.949	111.56
437.17	97.56
437.392	90.56
437.614	82.56
437.835	108.56
438.057	108.56
438.278	93.56
438.5	94.56
438.721	115.56
438.943	112.56
439.165	96.56
439.386	95.56
439.608	97.56
439.829	105.56
440.05	104.56
440.272	118.56
440.493	99.56
440.715	86.56
440.936	94.56
441.158	78.56
441.379	83.56
441.6	92.56
441.822	93.56
442.043	95.56
442.264	95.56
442.486	86.56
442.707	83.56
442.928	104.56
443.149	118.56
443.371	137.56
443.592	103.56
443.813	114.56
444.034	97.56
444.255	82.56
444.476	75.56
444.698	98.56
444.919	87.56
445.14	136.56
445.361	127.56
445.582	116.56
445.803	120.56
446.024	141.56
446.245	135.56
446.466	107.56
446.687	90.56
446.908	88.56
447.129	88.56
447.35	103.56
447.571	93.56
447.792	93.56
448.013	96.56
448.234	95.56
448.455	91.56
448.675	117.56
448.896	116.56
449.117	91.56
449.338	114.56
449.559	123.56
449.779	120.56
450	102.56
450.221	90.56
450.442	74.56
450.662	92.56
450.883	97.56
451.104	106.56
451.324	86.56
451.545	92.56
451.766	83.56
451.986	82.56
452.207	91.56
452.428	89.56
452.648	95.56
452.869	108.56
453.089	113.56
453.31	120.56
453.53	93.56
453.751	77.56
453.971	93.56
454.192	126.56
454.412	100.56
454.633	94.56
454.853	92.56
455.073	84.56
455.294	95.56
455.514	94.56
455.734	96.56
455.955	85.56
456.175	83.56
456.395	72.56
456.616	86.56
456.836	89.56
457.056	82.56
457.276	86.56
457.497	91.56
457.717	88.56
457.937	81.56
458.157	84.56
458.377	94.56
458.598	118.56
458.818	151.56
459.038	148.56
459.258	112.56
459.478	86.56
459.698	90.56
459.918	85.56
460.138	88.56
460.358	92.56
460.578	86.56
460.798	93.56
461.018	98.56
461.238	82.56
461.458	72.56
461.678	83.56
461.898	85.56
462.118	100.56
462.338	83.56
462.558	75.56
462.777	86.56
462.997	80.56
463.217	92.56
463.437	95.56
463.657	83.56
463.876	99.56
464.096	88.56
464.316	102.56
464.536	85.56
464.755	90.56
464.975	123.56
465.195	184.56
465.414	158.56
465.634	104.56
465.854	79.56
466.073	70.56
466.293	99.56
466.512	84.56
466.732	79.56
466.951	74.56
467.171	88.56
467.391	97.56
467.61	90.56
467.829	98.56
468.049	93.56
468.268	88.56
468.488	92.56
468.707	81.56
468.927	82.56
469.146	87.56
469.365	75.56
469.585	98.56
469.804	93.56
470.023	95.56
470.243	94.56
470.462	95.56
470.681	108.56
470.901	93.56
471.12	83.56
471.339	90.56
471.558	91.56
471.777	75.56
471.997	75.56
472.216	91.56
472.435	113.56
472.654	80.56
472.873	93.56
473.092	94.56
473.311	83.56
473.53	91.56
473.749	87.56
473.968	95.56
474.187	101.56
474.406	87.56
474.625	104.56
474.844	76.56
475.063	104.56
475.282	97.56
475.501	94.56
475.72	86.56
475.939	92.56
476.158	103.56
476.377	92.56
476.596	83.56
476.814	91.56
477.033	106.56
477.252	98.56
477.471	83.56
477.69	97.56
477.908	93.56
478.127	86.56
478.346	87.56
478.564	84.56
478.783	86.56
479.002	96.56
479.22	95.56
479.439	85.56
479.658	105.56
479.876	96.56
480.095	98.56
480.313	82.56
480.532	97.56
480.751	100.56
480.969	100.56
481.188	117.56
481.406	114.56
481.624	104.56
481.843	92.56
482.061	86.56
482.28	97.56
482.498	88.56
482.717	90.56
482.935	91.56
483.153	86.56
483.372	104.56
483.59	80.56
483.808	78.56
484.027	94.56
484.245	87.56
484.463	90.56
484.681	88.56
484.9	95.56
485.118	93.56
485.336	104.56
485.554	94.56
485.772	88.56
485.99	107.56
486.209	99.56
486.427	102.56
486.645	108.56
486.863	117.56
487.081	90.56
487.299	103.56
487.517	104.56
487.735	97.56
487.953	79.56
488.171	94.56
488.389	85.56
488.607	109.56
488.825	82.56
489.043	87.56
489.261	88.56
489.479	89.56
489.696	98.56
489.914	79.56
490.132	93.56
490.35	92.56
490.568	96.56
490.786	85.56
491.003	91.56
491.221	93.56
491.439	85.56
491.657	93.56
491.874	102.56
492.092	78.56
492.31	95.56
492.527	108.56
492.745	90.56
492.963	95.56
493.18	88.56
493.398	70.56
493.615	101.56
493.833	105.56
494.05	75.56
494.268	90.56
494.485	87.56
494.703	83.56
494.92	85.56
495.138	82.56
495.355	107.56
495.573	97.56
495.79	101.56
496.008	98.56
496.225	95.56
496.442	93.56
496.66	90.56
496.877	81.56
497.094	81.56
497.312	83.56
497.529	82.56
497.746	93.56
497.963	93.56
498.181	93.56
498.398	99.56
498.615	110.56
498.832	93.56
499.049	94.56
499.267	87.56
499.484	103.56
499.701	84.56
499.918	98.56
500.135	86.56
500.352	92.56
500.569	86.56
500.786	91.56
501.003	103.56
501.22	89.56
501.437	88.56
501.654	110.56
501.871	106.56
502.088	86.56
502.305	85.56
502.522	98.56
502.739	95.56
502.956	103.56
503.172	96.56
503.389	88.56
503.606	115.56
503.823	97.56
504.04	97.56
504.256	101.56
504.473	76.56
504.69	97.56
504.907	93.56
505.123	90.56
505.34	96.56
505.557	100.56
505.773	91.56
505.99	104.56
506.207	81.56
506.423	92.56
506.64	95.56
506.856	85.56
507.073	82.56
507.289	96.56
507.506	95.56
507.722	109.56
507.939	98.56
508.155	89.56
508.372	87.56
508.588	99.56
508.805	99.56
509.021	102.56
509.238	92.56
509.454	96.56
509.67	108.56
509.887	102.56
510.103	144.56
510.319	232.56
510.536	850.56
510.752	2609.56
510.968	748.56
511.184	158.56
511.401	128.56
511.617	104.56
511.833	97.56
512.049	94.56
512.265	75.56
512.481	86.56
512.698	88.56
512.914	84.56
513.13	99.56
513.346	91.56
513.562	98.56
513.778	94.56
513.994	108.56
514.21	105.56
514.426	115.56
514.642	137.56
514.858	140.56
515.074	166.56
515.29	474.56
515.506	1631.56
515.721	600.56
515.937	150.56
516.153	124.56
