Data from Uncirc_2004_H10_HRD10591_00100.txt Node
Date: Wed Jan 03 10:32:32 EST 2024
User: Yrep
Spectrometer: HR+D1059
Trigger mode: 1
Integration Time (sec): 1.000000E-1
Scans to average: 1
Electric dark correction enabled: true
Nonlinearity correction enabled: false
Boxcar width: 0
XAxis mode: Wavelengths
Number of Pixels in Spectrum: 2048
>>>>>Begin Spectral Data<<<<<
223.165	-17.12
223.4	-17.12
223.635	-17.12
223.869	-26.12
224.104	-19.12
224.338	-6.12
224.573	-11.12
224.808	-17.12
225.042	-10.12
225.277	0.88
225.511	7.88
225.746	1.88
225.98	-2.12
226.215	4.88
226.449	18.88
226.683	8.88
226.918	31.88
227.152	33.88
227.387	35.88
227.621	35.88
227.856	45.88
228.09	54.88
228.324	46.88
228.559	72.88
228.793	163.88
229.027	445.88
229.262	507.88
229.496	613.88
229.73	791.88
229.964	820.88
230.199	552.88
230.433	479.88
230.667	467.88
230.901	445.88
231.136	456.88
231.37	438.88
231.604	441.88
231.838	431.88
232.072	460.88
232.306	453.88
232.541	494.88
232.775	463.88
233.009	473.88
233.243	470.88
233.477	478.88
233.711	510.88
233.945	507.88
234.179	515.88
234.413	503.88
234.647	517.88
234.881	503.88
235.115	520.88
235.349	543.88
235.583	573.88
235.817	604.88
236.051	625.88
236.285	612.88
236.519	597.88
236.753	697.88
236.987	911.88
237.221	1383.88
237.455	1505.88
237.689	892.88
237.922	728.88
238.156	691.88
238.39	671.88
238.624	623.88
238.858	632.88
239.091	638.88
239.325	677.88
239.559	698.88
239.793	693.88
240.027	761.88
240.26	899.88
240.494	938.88
240.728	949.88
240.961	886.88
241.195	812.88
241.429	790.88
241.662	763.88
241.896	753.88
242.13	784.88
242.363	763.88
242.597	812.88
242.83	851.88
243.064	788.88
243.298	835.88
243.531	845.88
243.765	816.88
243.998	839.88
244.232	845.88
244.465	887.88
244.699	886.88
244.932	874.88
245.166	896.88
245.399	869.88
245.633	900.88
245.866	897.88
246.099	908.88
246.333	963.88
246.566	940.88
246.8	953.88
247.033	1022.88
247.266	1009.88
247.5	1062.88
247.733	1161.88
247.966	1118.88
248.2	1175.88
248.433	1150.88
248.666	1213.88
248.899	1345.88
249.133	1399.88
249.366	1426.88
249.599	1315.88
249.832	1215.88
250.066	1225.88
250.299	1226.88
250.532	1328.88
250.765	1514.88
250.998	1718.88
251.231	1648.88
251.465	1522.88
251.698	1427.88
251.931	1427.88
252.164	1391.88
252.397	1371.88
252.63	1472.88
252.863	1526.88
253.096	1662.88
253.329	1718.88
253.562	1636.88
253.795	1557.88
254.028	1546.88
254.261	1622.88
254.494	1818.88
254.727	2129.88
254.96	2237.88
255.193	1941.88
255.426	1702.88
255.659	1613.88
255.892	1598.88
256.124	1552.88
256.357	1526.88
256.59	1542.88
256.823	1486.88
257.056	1484.88
257.289	1536.88
257.521	1517.88
257.754	1527.88
257.987	1537.88
258.22	1555.88
258.452	1542.88
258.685	1534.88
258.918	1564.88
259.151	1602.88
259.383	1716.88
259.616	1707.88
259.849	1795.88
260.081	1933.88
260.314	2119.88
260.547	2019.88
260.779	1850.88
261.012	1783.88
261.244	1737.88
261.477	1689.88
261.71	1681.88
261.942	1762.88
262.175	1770.88
262.407	1734.88
262.64	1675.88
262.872	1647.88
263.105	1645.88
263.337	1643.88
263.57	1680.88
263.802	1666.88
264.035	1661.88
264.267	1680.88
264.499	1671.88
264.732	1665.88
264.964	1677.88
265.197	1702.88
265.429	1694.88
265.661	1688.88
265.894	1704.88
266.126	1719.88
266.358	1738.88
266.591	1809.88
266.823	1863.88
267.055	1887.88
267.287	1890.88
267.52	1824.88
267.752	1873.88
267.984	1874.88
268.216	1938.88
268.448	1917.88
268.681	1997.88
268.913	2118.88
269.145	2306.88
269.377	2394.88
269.609	2280.88
269.841	2305.88
270.073	2385.88
270.306	2623.88
270.538	2838.88
270.77	2677.88
271.002	2532.88
271.234	2495.88
271.466	2676.88
271.698	2752.88
271.93	2765.88
272.162	2736.88
272.394	2714.88
272.626	2525.88
272.858	2406.88
273.09	2309.88
273.322	2263.88
273.553	2247.88
273.785	2229.88
274.017	2276.88
274.249	2249.88
274.481	2269.88
274.713	2271.88
274.945	2330.88
275.176	2290.88
275.408	2281.88
275.64	2265.88
275.872	2246.88
276.104	2324.88
276.335	2346.88
276.567	2429.88
276.799	2537.88
277.031	2782.88
277.262	2887.88
277.494	2757.88
277.726	2562.88
277.957	2480.88
278.189	2434.88
278.421	2370.88
278.652	2353.88
278.884	2376.88
279.115	2369.88
279.347	2369.88
279.579	2439.88
279.81	2397.88
280.042	2405.88
280.273	2386.88
280.505	2411.88
280.736	2430.88
280.968	2386.88
281.199	2478.88
281.431	2446.88
281.662	2498.88
281.894	2515.88
282.125	2537.88
282.356	2726.88
282.588	2846.88
282.819	2677.88
283.051	2569.88
283.282	2529.88
283.513	2562.88
283.745	2663.88
283.976	2712.88
284.207	2674.88
284.439	2657.88
284.67	2642.88
284.901	2682.88
285.132	2612.88
285.364	2680.88
285.595	2639.88
285.826	2637.88
286.057	2700.88
286.288	2673.88
286.52	2695.88
286.751	2723.88
286.982	2739.88
287.213	2760.88
287.444	2786.88
287.675	2841.88
287.906	2892.88
288.138	2960.88
288.369	2961.88
288.6	2934.88
288.831	2882.88
289.062	2871.88
289.293	2911.88
289.524	2866.88
289.755	2818.88
289.986	2844.88
290.217	2814.88
290.448	2849.88
290.679	2831.88
290.91	2862.88
291.141	2826.88
291.371	2840.88
291.602	2840.88
291.833	2843.88
292.064	2859.88
292.295	2824.88
292.526	2847.88
292.757	2843.88
292.987	2820.88
293.218	2894.88
293.449	2894.88
293.68	2882.88
293.91	2867.88
294.141	2847.88
294.372	2838.88
294.603	2922.88
294.833	2915.88
295.064	2860.88
295.295	2915.88
295.525	2971.88
295.756	2995.88
295.987	3019.88
296.217	3220.88
296.448	3184.88
296.679	2991.88
296.909	2998.88
297.14	3022.88
297.37	3082.88
297.601	3093.88
297.831	3043.88
298.062	3154.88
298.292	3118.88
298.523	3163.88
298.753	3119.88
298.984	3109.88
299.214	3131.88
299.445	3097.88
299.675	3134.88
299.905	3220.88
300.136	3187.88
300.366	3240.88
300.597	3237.88
300.827	3285.88
301.057	3362.88
301.288	3436.88
301.518	3359.88
301.748	3370.88
301.979	3426.88
302.209	3425.88
302.439	3417.88
302.669	3380.88
302.9	3361.88
303.13	3357.88
303.36	3311.88
303.59	3446.88
303.82	3431.88
304.051	3376.88
304.281	3405.88
304.511	3348.88
304.741	3400.88
304.971	3327.88
305.201	3323.88
305.431	3353.88
305.661	3353.88
305.891	3341.88
306.121	3324.88
306.352	3397.88
306.582	3381.88
306.812	3280.88
307.042	3320.88
307.272	3315.88
307.502	3298.88
307.731	3271.88
307.961	3273.88
308.191	3344.88
308.421	3316.88
308.651	3359.88
308.881	3325.88
309.111	3411.88
309.341	3388.88
309.571	3509.88
309.8	3562.88
310.03	3615.88
310.26	3647.88
310.49	3578.88
310.72	3747.88
310.949	3833.88
311.179	3866.88
311.409	3667.88
311.639	3695.88
311.868	3760.88
312.098	3794.88
312.328	3853.88
312.557	3991.88
312.787	4025.88
313.017	3886.88
313.246	3832.88
313.476	3799.88
313.706	3883.88
313.935	3935.88
314.165	3971.88
314.394	4021.88
314.624	3933.88
314.853	3918.88
315.083	3781.88
315.312	3791.88
315.542	3793.88
315.771	3690.88
316.001	3775.88
316.23	3710.88
316.46	3723.88
316.689	3774.88
316.919	3831.88
317.148	3805.88
317.377	3784.88
317.607	3767.88
317.836	3744.88
318.065	3727.88
318.295	3709.88
318.524	3729.88
318.753	3672.88
318.983	3746.88
319.212	3738.88
319.441	3828.88
319.67	3827.88
319.9	3760.88
320.129	3751.88
320.358	3818.88
320.587	3798.88
320.816	3895.88
321.046	3930.88
321.275	3874.88
321.504	3887.88
321.733	3981.88
321.962	4009.88
322.191	4115.88
322.42	4182.88
322.649	4243.88
322.878	4296.88
323.108	4402.88
323.337	4639.88
323.566	4719.88
323.795	5061.88
324.024	5656.88
324.253	7334.88
324.482	11044.88
324.71	15252.88
324.939	15611.88
325.168	12989.88
325.397	6642.88
325.626	5358.88
325.855	5006.88
326.084	4813.88
326.313	4837.88
326.542	4973.88
326.77	5645.88
326.999	7141.88
327.228	10403.88
327.457	14330.88
327.686	13540.88
327.914	7410.88
328.143	5856.88
328.372	5543.88
328.6	5276.88
328.829	5292.88
329.058	5414.88
329.287	5341.88
329.515	5024.88
329.744	4869.88
329.972	4898.88
330.201	4978.88
330.43	5183.88
330.658	5460.88
330.887	5802.88
331.115	5398.88
331.344	5035.88
331.572	4975.88
331.801	5105.88
332.03	5065.88
332.258	5024.88
332.486	5037.88
332.715	5131.88
332.943	5264.88
333.172	5395.88
333.4	5584.88
333.629	5678.88
333.857	5725.88
334.085	5691.88
334.314	5629.88
334.542	5554.88
334.771	5563.88
334.999	5357.88
335.227	5343.88
335.455	5213.88
335.684	5154.88
335.912	5057.88
336.14	5082.88
336.369	5049.88
336.597	5082.88
336.825	5070.88
337.053	4950.88
337.281	4866.88
337.51	4766.88
337.738	4794.88
337.966	4805.88
338.194	4781.88
338.422	4674.88
338.65	4679.88
338.878	4635.88
339.106	4623.88
339.334	4627.88
339.562	4576.88
339.79	4513.88
340.018	4469.88
340.246	4493.88
340.474	4463.88
340.702	4453.88
340.93	4533.88
341.158	4472.88
341.386	4462.88
341.614	4494.88
341.842	4469.88
342.07	4440.88
342.298	4385.88
342.526	4409.88
342.754	4391.88
342.981	4398.88
343.209	4549.88
343.437	4767.88
343.665	5055.88
343.893	5254.88
344.12	5322.88
344.348	5071.88
344.576	4926.88
344.804	4802.88
345.031	4730.88
345.259	4659.88
345.487	4520.88
345.714	4437.88
345.942	4339.88
346.17	4317.88
346.397	4288.88
346.625	4332.88
346.853	4258.88
347.08	4249.88
347.308	4378.88
347.535	4396.88
347.763	4385.88
347.99	4351.88
348.218	4443.88
348.445	4430.88
348.673	4310.88
348.9	4261.88
349.128	4222.88
349.355	4170.88
349.583	4202.88
349.81	4075.88
350.037	4186.88
350.265	4143.88
350.492	4101.88
350.72	4131.88
350.947	4192.88
351.174	4281.88
351.402	4303.88
351.629	4273.88
351.856	4223.88
352.083	4356.88
352.311	4344.88
352.538	4354.88
352.765	4271.88
352.992	4205.88
353.22	4205.88
353.447	4176.88
353.674	4108.88
353.901	4085.88
354.128	4051.88
354.355	4005.88
354.583	4107.88
354.81	4073.88
355.037	4069.88
355.264	4073.88
355.491	4032.88
355.718	4089.88
355.945	4102.88
356.172	4049.88
356.399	4062.88
356.626	4087.88
356.853	4042.88
357.08	4034.88
357.307	4076.88
357.534	4042.88
357.761	3969.88
357.988	4075.88
358.215	4060.88
358.441	4036.88
358.668	4084.88
358.895	4113.88
359.122	4147.88
359.349	4244.88
359.576	4341.88
359.802	4542.88
360.029	4631.88
360.256	4679.88
360.483	4503.88
360.709	4319.88
360.936	4245.88
361.163	4248.88
361.39	4317.88
361.616	4313.88
361.843	4263.88
362.07	4313.88
362.296	4264.88
362.523	4278.88
362.749	4171.88
362.976	4245.88
363.203	4171.88
363.429	4194.88
363.656	4193.88
363.882	4131.88
364.109	4078.88
364.335	4131.88
364.562	4128.88
364.788	4106.88
365.015	4097.88
365.241	4174.88
365.468	4143.88
365.694	4193.88
365.92	4123.88
366.147	4094.88
366.373	4078.88
366.599	4129.88
366.826	4141.88
367.052	4033.88
367.278	4137.88
367.505	4157.88
367.731	4111.88
367.957	4146.88
368.184	4182.88
368.41	4258.88
368.636	4348.88
368.862	4393.88
369.089	4252.88
369.315	4239.88
369.541	4200.88
369.767	4251.88
369.993	4289.88
370.219	4240.88
370.445	4243.88
370.672	4276.88
370.898	4350.88
371.124	4400.88
371.35	4408.88
371.576	4426.88
371.802	4388.88
372.028	4403.88
372.254	4392.88
372.48	4514.88
372.706	4594.88
372.932	4558.88
373.158	4521.88
373.384	4470.88
373.61	4420.88
373.835	4440.88
374.061	4434.88
374.287	4581.88
374.513	4554.88
374.739	4727.88
374.965	4825.88
375.191	4818.88
375.416	4720.88
375.642	4649.88
375.868	4558.88
376.094	4487.88
376.319	4446.88
376.545	4516.88
376.771	4466.88
376.997	4510.88
377.222	4444.88
377.448	4460.88
377.674	4366.88
377.899	4336.88
378.125	4406.88
378.35	4323.88
378.576	4339.88
378.802	4307.88
379.027	4400.88
379.253	4399.88
379.478	4351.88
379.704	4393.88
379.929	4434.88
380.155	4391.88
380.38	4419.88
380.606	4410.88
380.831	4375.88
381.057	4393.88
381.282	4430.88
381.507	4460.88
381.733	4570.88
381.958	4583.88
382.184	4545.88
382.409	4599.88
382.634	4702.88
382.86	4662.88
383.085	4721.88
383.31	4825.88
383.535	4936.88
383.761	4899.88
383.986	5000.88
384.211	5032.88
384.436	5129.88
384.662	5194.88
384.887	5302.88
385.112	5241.88
385.337	5370.88
385.562	5434.88
385.787	5416.88
386.013	5447.88
386.238	5473.88
386.463	5387.88
386.688	5358.88
386.913	5257.88
387.138	5251.88
387.363	5323.88
387.588	5232.88
387.813	5299.88
388.038	5304.88
388.263	5279.88
388.488	5333.88
388.713	5335.88
388.938	5234.88
389.163	5222.88
389.387	5202.88
389.612	5128.88
389.837	5246.88
390.062	5175.88
390.287	5256.88
390.512	5182.88
390.736	5353.88
390.961	5469.88
391.186	5475.88
391.411	5648.88
391.636	5759.88
391.86	5903.88
392.085	5918.88
392.31	5909.88
392.534	5776.88
392.759	5660.88
392.984	5546.88
393.208	5473.88
393.433	5484.88
393.658	5463.88
393.882	5579.88
394.107	5549.88
394.331	5581.88
394.556	5585.88
394.78	5589.88
395.005	5734.88
395.229	5685.88
395.454	5825.88
395.678	5953.88
395.903	6003.88
396.127	5929.88
396.352	5823.88
396.576	5666.88
396.801	5602.88
397.025	5768.88
397.249	5823.88
397.474	5995.88
397.698	6003.88
397.922	6188.88
398.147	6218.88
398.371	6309.88
398.595	6469.88
398.82	6797.88
399.044	7277.88
399.268	8141.88
399.492	9236.88
399.717	9894.88
399.941	9654.88
400.165	9037.88
400.389	8300.88
400.613	7461.88
400.837	7034.88
401.062	6875.88
401.286	6801.88
401.51	6701.88
401.734	6677.88
401.958	6812.88
402.182	6915.88
402.406	7043.88
402.63	7118.88
402.854	7231.88
403.078	7266.88
403.302	7380.88
403.526	7473.88
403.75	7553.88
403.974	7672.88
404.198	7597.88
404.422	7694.88
404.645	7697.88
404.869	7559.88
405.093	7634.88
405.317	7841.88
405.541	7829.88
405.765	7504.88
405.988	7397.88
406.212	7617.88
406.436	7809.88
406.66	7977.88
406.883	7931.88
407.107	8577.88
407.331	9065.88
407.555	9632.88
407.778	9274.88
408.002	8530.88
408.226	8067.88
408.449	8033.88
408.673	7881.88
408.896	7951.88
409.12	8126.88
409.344	7698.88
409.567	7323.88
409.791	7448.88
410.014	7208.88
410.238	7210.88
410.461	7200.88
410.685	7223.88
410.908	7307.88
411.132	7566.88
411.355	7593.88
411.578	7206.88
411.802	6926.88
412.025	6888.88
412.249	7013.88
412.472	7056.88
412.695	7073.88
412.919	6709.88
413.142	6667.88
413.365	6599.88
413.589	6680.88
413.812	6499.88
414.035	6450.88
414.258	6545.88
414.482	6596.88
414.705	6668.88
414.928	6591.88
415.151	6613.88
415.374	6563.88
415.597	6574.88
415.821	6434.88
416.044	6426.88
416.267	6429.88
416.49	6366.88
416.713	6434.88
416.936	6489.88
417.159	6479.88
417.382	6602.88
417.605	6590.88
417.828	6703.88
418.051	6851.88
418.274	6710.88
418.497	6628.88
418.72	6779.88
418.943	6680.88
419.166	7097.88
419.389	7536.88
419.611	7261.88
419.834	7082.88
420.057	6967.88
420.28	6847.88
420.503	6621.88
420.726	6706.88
420.948	6825.88
421.171	7257.88
421.394	7226.88
421.617	6811.88
421.839	6678.88
422.062	6901.88
422.285	6995.88
422.507	7659.88
422.73	8232.88
422.953	7531.88
423.175	7182.88
423.398	7189.88
423.621	7217.88
423.843	7494.88
424.066	7467.88
424.288	7368.88
424.511	7555.88
424.733	7981.88
424.956	8450.88
425.178	7953.88
425.401	8079.88
425.623	7958.88
425.846	7024.88
426.068	6832.88
426.291	6759.88
426.513	6695.88
426.735	6863.88
426.958	7266.88
427.18	8150.88
427.402	9225.88
427.625	9340.88
427.847	7783.88
428.069	6945.88
428.292	6529.88
428.514	6319.88
428.736	6110.88
428.958	6251.88
429.181	6000.88
429.403	5978.88
429.625	6151.88
429.847	6525.88
430.069	7043.88
430.292	6676.88
430.514	6101.88
430.736	5995.88
430.958	5901.88
431.18	5801.88
431.402	5852.88
431.624	5830.88
431.846	5791.88
432.068	5958.88
432.29	5989.88
432.512	5792.88
432.734	6019.88
432.956	5937.88
433.178	5975.88
433.4	5986.88
433.622	5978.88
433.844	6008.88
434.066	6040.88
434.287	6040.88
434.509	6237.88
434.731	6499.88
434.953	6673.88
435.175	6765.88
435.397	6915.88
435.618	6888.88
435.84	7193.88
436.062	8018.88
436.284	7977.88
436.505	6665.88
436.727	6435.88
436.949	6144.88
437.17	6014.88
437.392	5967.88
437.614	6098.88
437.835	6483.88
438.057	7522.88
438.278	8199.88
438.5	8097.88
438.721	8878.88
438.943	7851.88
439.165	6622.88
439.386	6449.88
439.608	6410.88
439.829	6505.88
440.05	6808.88
440.272	7219.88
440.493	6596.88
440.715	6234.88
440.936	6286.88
441.158	6259.88
441.379	6445.88
441.6	6770.88
441.822	7023.88
442.043	7478.88
442.264	8304.88
442.486	8037.88
442.707	7124.88
442.928	6959.88
443.149	7151.88
443.371	7299.88
443.592	7841.88
443.813	8875.88
444.034	8811.88
444.255	7696.88
444.476	7654.88
444.698	7790.88
444.919	7866.88
445.14	7658.88
445.361	7495.88
445.582	7571.88
445.803	8122.88
446.024	8781.88
446.245	8527.88
446.466	7630.88
446.687	6646.88
446.908	6351.88
447.129	6002.88
447.35	5810.88
447.571	5785.88
447.792	5723.88
448.013	5833.88
448.234	5999.88
448.455	6747.88
448.675	7886.88
448.896	8346.88
449.117	7002.88
449.338	7106.88
449.559	8439.88
449.779	8632.88
450	6709.88
450.221	5864.88
450.442	5720.88
450.662	5632.88
450.883	5610.88
451.104	5819.88
451.324	5688.88
451.545	5488.88
451.766	5307.88
451.986	5224.88
452.207	5293.88
452.428	5187.88
452.648	5143.88
452.869	5254.88
453.089	5357.88
453.31	5451.88
453.53	5271.88
453.751	5122.88
453.971	5191.88
454.192	5305.88
454.412	5119.88
454.633	5060.88
454.853	5073.88
455.073	5103.88
455.294	5477.88
455.514	6031.88
455.734	5484.88
455.955	4970.88
456.175	4870.88
456.395	4793.88
456.616	4737.88
456.836	4806.88
457.056	4797.88
457.276	4752.88
457.497	4833.88
457.717	4795.88
457.937	4968.88
458.157	4986.88
458.377	5129.88
458.598	5478.88
458.818	6169.88
459.038	6853.88
459.258	6835.88
459.478	6085.88
459.698	6006.88
459.918	6119.88
460.138	6284.88
460.358	6515.88
460.578	6455.88
460.798	6576.88
461.018	6637.88
461.238	6410.88
461.458	6474.88
461.678	6383.88
461.898	6560.88
462.118	6627.88
462.338	6974.88
462.558	7095.88
462.777	7414.88
462.997	8050.88
463.217	8398.88
463.437	8104.88
463.657	7609.88
463.876	7271.88
464.096	7342.88
464.316	7377.88
464.536	7538.88
464.755	7241.88
464.975	7094.88
465.195	7285.88
465.414	7229.88
465.634	6392.88
465.854	5978.88
466.073	5846.88
466.293	5716.88
466.512	5459.88
466.732	5382.88
466.951	5389.88
467.171	5381.88
467.391	5467.88
467.61	5497.88
467.829	5447.88
468.049	5406.88
468.268	5151.88
468.488	5190.88
468.707	5064.88
468.927	5159.88
469.146	5121.88
469.365	5254.88
469.585	5243.88
469.804	5339.88
470.023	5615.88
470.243	5585.88
470.462	5633.88
470.681	5825.88
470.901	5664.88
471.12	5572.88
471.339	5446.88
471.558	5368.88
471.777	5280.88
471.997	5236.88
472.216	5204.88
472.435	5276.88
472.654	5166.88
472.873	5062.88
473.092	5103.88
473.311	5078.88
473.53	5128.88
473.749	5288.88
473.968	5870.88
474.187	6783.88
474.406	6442.88
474.625	5400.88
474.844	5110.88
475.063	5146.88
475.282	5169.88
475.501	5203.88
475.72	5236.88
475.939	5231.88
476.158	5290.88
476.377	5275.88
476.596	5373.88
476.814	5584.88
477.033	5511.88
477.252	5605.88
477.471	5612.88
477.69	5822.88
477.908	5933.88
478.127	6053.88
478.346	6112.88
478.564	6276.88
478.783	6305.88
479.002	6499.88
479.22	6469.88
479.439	6556.88
479.658	6641.88
479.876	6785.88
480.095	6953.88
480.313	7442.88
480.532	7351.88
480.751	7171.88
480.969	7021.88
481.188	6968.88
481.406	6733.88
481.624	6456.88
481.843	6276.88
482.061	6145.88
482.28	6142.88
482.498	6184.88
482.717	6044.88
482.935	6036.88
483.153	6001.88
483.372	6106.88
483.59	5982.88
483.808	6093.88
484.027	6114.88
484.245	6015.88
484.463	6147.88
484.681	6160.88
484.9	6264.88
485.118	6285.88
485.336	6362.88
485.554	6408.88
485.772	6452.88
485.99	6506.88
486.209	6483.88
486.427	6526.88
486.645	6578.88
486.863	6654.88
487.081	6549.88
487.299	6497.88
487.517	6523.88
487.735	6429.88
487.953	6381.88
