Data from Uncirc_2004_H10_HRD10591_00040.txt Node
Date: Wed Jan 03 10:32:20 EST 2024
User: Yrep
Spectrometer: HR+D1059
Trigger mode: 1
Integration Time (sec): 1.000000E-1
Scans to average: 1
Electric dark correction enabled: true
Nonlinearity correction enabled: false
Boxcar width: 0
XAxis mode: Wavelengths
Number of Pixels in Spectrum: 2048
>>>>>Begin Spectral Data<<<<<
223.165	-17.44
223.4	-17.44
223.635	-17.44
223.869	-14.44
224.104	-19.44
224.338	-8.44
224.573	-11.44
224.808	-20.44
225.042	-1.44
225.277	-4.44
225.511	-11.44
225.746	7.56
225.98	7.56
226.215	10.56
226.449	12.56
226.683	33.56
226.918	16.56
227.152	20.56
227.387	35.56
227.621	35.56
227.856	45.56
228.09	45.56
228.324	60.56
228.559	66.56
228.793	63.56
229.027	72.56
229.262	61.56
229.496	85.56
229.73	57.56
229.964	87.56
230.199	75.56
230.433	66.56
230.667	68.56
230.901	69.56
231.136	79.56
231.37	69.56
231.604	72.56
231.838	69.56
232.072	80.56
232.306	81.56
232.541	82.56
232.775	84.56
233.009	87.56
233.243	78.56
233.477	77.56
233.711	91.56
233.945	89.56
234.179	75.56
234.413	86.56
234.647	73.56
234.881	56.56
235.115	77.56
235.349	79.56
235.583	70.56
235.817	79.56
236.051	72.56
236.285	78.56
236.519	81.56
236.753	75.56
236.987	73.56
237.221	81.56
237.455	80.56
237.689	77.56
237.922	64.56
238.156	63.56
238.39	67.56
238.624	85.56
238.858	81.56
239.091	74.56
239.325	94.56
239.559	85.56
239.793	82.56
240.027	79.56
240.26	83.56
240.494	77.56
240.728	78.56
240.961	76.56
241.195	70.56
241.429	67.56
241.662	69.56
241.896	77.56
242.13	58.56
242.363	67.56
242.597	78.56
242.83	85.56
243.064	84.56
243.298	62.56
243.531	67.56
243.765	81.56
243.998	64.56
244.232	78.56
244.465	73.56
244.699	82.56
244.932	71.56
245.166	68.56
245.399	88.56
245.633	85.56
245.866	71.56
246.099	50.56
246.333	75.56
246.566	71.56
246.8	77.56
247.033	84.56
247.266	93.56
247.5	83.56
247.733	86.56
247.966	79.56
248.2	61.56
248.433	79.56
248.666	75.56
248.899	83.56
249.133	89.56
249.366	95.56
249.599	97.56
249.832	80.56
250.066	75.56
250.299	73.56
250.532	89.56
250.765	74.56
250.998	80.56
251.231	79.56
251.465	92.56
251.698	78.56
251.931	71.56
252.164	75.56
252.397	65.56
252.63	77.56
252.863	77.56
253.096	72.56
253.329	69.56
253.562	46.56
253.795	76.56
254.028	87.56
254.261	85.56
254.494	75.56
254.727	75.56
254.96	79.56
255.193	83.56
255.426	76.56
255.659	85.56
255.892	83.56
256.124	75.56
256.357	71.56
256.59	75.56
256.823	82.56
257.056	81.56
257.289	67.56
257.521	77.56
257.754	75.56
257.987	83.56
258.22	81.56
258.452	88.56
258.685	84.56
258.918	77.56
259.151	84.56
259.383	73.56
259.616	87.56
259.849	79.56
260.081	87.56
260.314	95.56
260.547	75.56
260.779	77.56
261.012	88.56
261.244	83.56
261.477	81.56
261.71	92.56
261.942	92.56
262.175	110.56
262.407	88.56
262.64	79.56
262.872	84.56
263.105	78.56
263.337	86.56
263.57	83.56
263.802	70.56
264.035	78.56
264.267	88.56
264.499	83.56
264.732	88.56
264.964	88.56
265.197	78.56
265.429	95.56
265.661	88.56
265.894	77.56
266.126	74.56
266.358	71.56
266.591	79.56
266.823	81.56
267.055	82.56
267.287	90.56
267.52	72.56
267.752	104.56
267.984	81.56
268.216	93.56
268.448	91.56
268.681	90.56
268.913	81.56
269.145	79.56
269.377	69.56
269.609	89.56
269.841	82.56
270.073	81.56
270.306	80.56
270.538	75.56
270.77	81.56
271.002	86.56
271.234	88.56
271.466	68.56
271.698	80.56
271.93	93.56
272.162	73.56
272.394	85.56
272.626	85.56
272.858	67.56
273.09	80.56
273.322	93.56
273.553	94.56
273.785	74.56
274.017	71.56
274.249	88.56
274.481	81.56
274.713	80.56
274.945	82.56
275.176	84.56
275.408	75.56
275.64	93.56
275.872	79.56
276.104	96.56
276.335	95.56
276.567	96.56
276.799	100.56
277.031	84.56
277.262	75.56
277.494	75.56
277.726	95.56
277.957	86.56
278.189	85.56
278.421	88.56
278.652	79.56
278.884	78.56
279.115	100.56
279.347	93.56
279.579	82.56
279.81	90.56
280.042	79.56
280.273	73.56
280.505	89.56
280.736	82.56
280.968	79.56
281.199	95.56
281.431	85.56
281.662	84.56
281.894	95.56
282.125	98.56
282.356	114.56
282.588	129.56
282.819	116.56
283.051	86.56
283.282	84.56
283.513	111.56
283.745	83.56
283.976	86.56
284.207	85.56
284.439	88.56
284.67	77.56
284.901	69.56
285.132	101.56
285.364	84.56
285.595	87.56
285.826	79.56
286.057	96.56
286.288	73.56
286.52	81.56
286.751	68.56
286.982	87.56
287.213	85.56
287.444	85.56
287.675	95.56
287.906	105.56
288.138	85.56
288.369	92.56
288.6	85.56
288.831	78.56
289.062	85.56
289.293	85.56
289.524	97.56
289.755	89.56
289.986	80.56
290.217	86.56
290.448	86.56
290.679	79.56
290.91	79.56
291.141	94.56
291.371	95.56
291.602	92.56
291.833	85.56
292.064	87.56
292.295	100.56
292.526	84.56
292.757	95.56
292.987	84.56
293.218	70.56
293.449	89.56
293.68	98.56
293.91	97.56
294.141	90.56
294.372	73.56
294.603	82.56
294.833	89.56
295.064	81.56
295.295	108.56
295.525	98.56
295.756	97.56
295.987	113.56
296.217	131.56
296.448	108.56
296.679	93.56
296.909	90.56
297.14	87.56
297.37	93.56
297.601	78.56
297.831	111.56
298.062	79.56
298.292	86.56
298.523	88.56
298.753	94.56
298.984	103.56
299.214	75.56
299.445	92.56
299.675	81.56
299.905	76.56
300.136	89.56
300.366	82.56
300.597	88.56
300.827	97.56
301.057	104.56
301.288	109.56
301.518	94.56
301.748	87.56
301.979	95.56
302.209	85.56
302.439	89.56
302.669	79.56
302.9	85.56
303.13	88.56
303.36	99.56
303.59	85.56
303.82	93.56
304.051	88.56
304.281	78.56
304.511	80.56
304.741	89.56
304.971	69.56
305.201	74.56
305.431	95.56
305.661	75.56
305.891	88.56
306.121	85.56
306.352	94.56
306.582	83.56
306.812	80.56
307.042	87.56
307.272	97.56
307.502	89.56
307.731	88.56
307.961	102.56
308.191	96.56
308.421	94.56
308.651	95.56
308.881	92.56
309.111	87.56
309.341	99.56
309.571	101.56
309.8	85.56
310.03	98.56
310.26	95.56
310.49	102.56
310.72	87.56
310.949	103.56
311.179	97.56
311.409	96.56
311.639	99.56
311.868	83.56
312.098	84.56
312.328	93.56
312.557	94.56
312.787	99.56
313.017	111.56
313.246	90.56
313.476	87.56
313.706	94.56
313.935	89.56
314.165	95.56
314.394	94.56
314.624	107.56
314.853	82.56
315.083	92.56
315.312	86.56
315.542	81.56
315.771	90.56
316.001	73.56
316.23	75.56
316.46	92.56
316.689	99.56
316.919	97.56
317.148	88.56
317.377	101.56
317.607	91.56
317.836	95.56
318.065	97.56
318.295	73.56
318.524	90.56
318.753	89.56
318.983	85.56
319.212	101.56
319.441	94.56
319.67	95.56
319.9	97.56
320.129	92.56
320.358	83.56
320.587	102.56
320.816	103.56
321.046	104.56
321.275	100.56
321.504	87.56
321.733	103.56
321.962	120.56
322.191	118.56
322.42	110.56
322.649	104.56
322.878	107.56
323.108	105.56
323.337	117.56
323.566	124.56
323.795	129.56
324.024	210.56
324.253	404.56
324.482	823.56
324.71	1709.56
324.939	2238.56
325.168	793.56
325.397	228.56
325.626	143.56
325.855	128.56
326.084	127.56
326.313	143.56
326.542	148.56
326.77	225.56
326.999	471.56
327.228	953.56
327.457	1733.56
327.686	1379.56
327.914	351.56
328.143	189.56
328.372	145.56
328.6	116.56
328.829	125.56
329.058	131.56
329.287	119.56
329.515	95.56
329.744	111.56
329.972	87.56
330.201	112.56
330.43	108.56
330.658	123.56
330.887	131.56
331.115	118.56
331.344	95.56
331.572	108.56
331.801	105.56
332.03	102.56
332.258	93.56
332.486	97.56
332.715	101.56
332.943	97.56
333.172	109.56
333.4	106.56
333.629	100.56
333.857	95.56
334.085	99.56
334.314	96.56
334.542	101.56
334.771	112.56
334.999	97.56
335.227	89.56
335.455	105.56
335.684	98.56
335.912	99.56
336.14	93.56
336.369	81.56
336.597	103.56
336.825	110.56
337.053	87.56
337.281	91.56
337.51	92.56
337.738	85.56
337.966	76.56
338.194	94.56
338.422	99.56
338.65	94.56
338.878	93.56
339.106	87.56
339.334	78.56
339.562	80.56
339.79	86.56
340.018	86.56
340.246	91.56
340.474	91.56
340.702	95.56
340.93	89.56
341.158	92.56
341.386	91.56
341.614	94.56
341.842	94.56
342.07	92.56
342.298	104.56
342.526	91.56
342.754	89.56
342.981	106.56
343.209	88.56
343.437	97.56
343.665	99.56
343.893	83.56
344.12	111.56
344.348	96.56
344.576	89.56
344.804	98.56
345.031	85.56
345.259	84.56
345.487	101.56
345.714	93.56
345.942	93.56
346.17	81.56
346.397	95.56
346.625	93.56
346.853	95.56
347.08	89.56
347.308	95.56
347.535	100.56
347.763	97.56
347.99	102.56
348.218	95.56
348.445	96.56
348.673	104.56
348.9	103.56
349.128	81.56
349.355	93.56
349.583	98.56
349.81	94.56
350.037	72.56
350.265	94.56
350.492	97.56
350.72	95.56
350.947	110.56
351.174	100.56
351.402	105.56
351.629	95.56
351.856	78.56
352.083	102.56
352.311	100.56
352.538	126.56
352.765	111.56
352.992	101.56
353.22	104.56
353.447	110.56
353.674	119.56
353.901	92.56
354.128	108.56
354.355	81.56
354.583	101.56
354.81	97.56
355.037	95.56
355.264	78.56
355.491	84.56
355.718	85.56
355.945	99.56
356.172	108.56
356.399	95.56
356.626	98.56
356.853	110.56
357.08	91.56
357.307	84.56
357.534	96.56
357.761	98.56
357.988	95.56
358.215	93.56
358.441	82.56
358.668	101.56
358.895	88.56
359.122	76.56
359.349	87.56
359.576	100.56
359.802	107.56
360.029	111.56
360.256	98.56
360.483	97.56
360.709	101.56
360.936	104.56
361.163	98.56
361.39	88.56
361.616	99.56
361.843	102.56
362.07	97.56
362.296	93.56
362.523	93.56
362.749	95.56
362.976	79.56
363.203	98.56
363.429	97.56
363.656	97.56
363.882	91.56
364.109	94.56
364.335	76.56
364.562	93.56
364.788	90.56
365.015	93.56
365.241	102.56
365.468	103.56
365.694	107.56
365.92	101.56
366.147	88.56
366.373	103.56
366.599	88.56
366.826	107.56
367.052	98.56
367.278	89.56
367.505	99.56
367.731	95.56
367.957	92.56
368.184	98.56
368.41	99.56
368.636	101.56
368.862	120.56
369.089	104.56
369.315	105.56
369.541	96.56
369.767	88.56
369.993	98.56
370.219	88.56
370.445	87.56
370.672	78.56
370.898	98.56
371.124	82.56
371.35	70.56
371.576	83.56
371.802	79.56
372.028	90.56
372.254	101.56
372.48	77.56
372.706	81.56
372.932	82.56
373.158	94.56
373.384	84.56
373.61	95.56
373.835	96.56
374.061	98.56
374.287	82.56
374.513	81.56
374.739	82.56
374.965	87.56
375.191	86.56
375.416	94.56
375.642	75.56
375.868	89.56
376.094	86.56
376.319	92.56
376.545	99.56
376.771	80.56
376.997	106.56
377.222	84.56
377.448	91.56
377.674	87.56
377.899	96.56
378.125	100.56
378.35	94.56
378.576	84.56
378.802	88.56
379.027	95.56
379.253	96.56
379.478	98.56
379.704	107.56
379.929	96.56
380.155	96.56
380.38	101.56
380.606	106.56
380.831	88.56
381.057	78.56
381.282	94.56
381.507	100.56
381.733	109.56
381.958	104.56
382.184	110.56
382.409	100.56
382.634	109.56
382.86	110.56
383.085	109.56
383.31	111.56
383.535	103.56
383.761	92.56
383.986	111.56
384.211	95.56
384.436	104.56
384.662	96.56
384.887	100.56
385.112	88.56
385.337	105.56
385.562	86.56
385.787	119.56
386.013	114.56
386.238	117.56
386.463	108.56
386.688	111.56
386.913	117.56
387.138	111.56
387.363	95.56
387.588	109.56
387.813	94.56
388.038	113.56
388.263	126.56
388.488	117.56
388.713	89.56
388.938	101.56
389.163	109.56
389.387	105.56
389.612	90.56
389.837	101.56
390.062	97.56
390.287	96.56
390.512	101.56
390.736	105.56
390.961	85.56
391.186	93.56
391.411	96.56
391.636	113.56
391.86	97.56
392.085	77.56
392.31	65.56
392.534	88.56
392.759	86.56
392.984	91.56
393.208	96.56
393.433	89.56
393.658	94.56
393.882	94.56
394.107	80.56
394.331	84.56
394.556	88.56
394.78	79.56
395.005	81.56
395.229	94.56
395.454	85.56
395.678	85.56
395.903	90.56
396.127	88.56
396.352	76.56
396.576	84.56
396.801	87.56
397.025	95.56
397.249	93.56
397.474	86.56
397.698	91.56
397.922	86.56
398.147	86.56
398.371	92.56
398.595	88.56
398.82	78.56
399.044	81.56
399.268	80.56
399.492	89.56
399.717	77.56
399.941	93.56
400.165	86.56
400.389	96.56
400.613	86.56
400.837	77.56
401.062	83.56
401.286	85.56
401.51	86.56
401.734	76.56
401.958	107.56
402.182	124.56
402.406	153.56
402.63	114.56
402.854	96.56
403.078	87.56
403.302	85.56
403.526	94.56
403.75	93.56
403.974	81.56
404.198	100.56
404.422	85.56
404.645	74.56
404.869	89.56
405.093	102.56
405.317	104.56
405.541	98.56
405.765	91.56
405.988	110.56
406.212	180.56
406.436	202.56
406.66	138.56
406.883	107.56
407.107	90.56
407.331	88.56
407.555	100.56
407.778	102.56
408.002	94.56
408.226	97.56
408.449	73.56
408.673	81.56
408.896	89.56
409.12	91.56
409.344	97.56
409.567	101.56
409.791	96.56
410.014	81.56
410.238	95.56
410.461	99.56
410.685	107.56
410.908	93.56
411.132	100.56
411.355	91.56
411.578	101.56
411.802	89.56
412.025	94.56
412.249	88.56
412.472	89.56
412.695	91.56
412.919	114.56
413.142	90.56
413.365	90.56
413.589	77.56
413.812	94.56
414.035	107.56
414.258	79.56
414.482	84.56
414.705	108.56
414.928	92.56
415.151	110.56
415.374	86.56
415.597	94.56
415.821	88.56
416.044	79.56
416.267	90.56
416.49	85.56
416.713	94.56
416.936	99.56
417.159	93.56
417.382	81.56
417.605	98.56
417.828	103.56
418.051	98.56
418.274	90.56
418.497	76.56
418.72	85.56
418.943	87.56
419.166	90.56
419.389	95.56
419.611	96.56
419.834	86.56
420.057	88.56
420.28	99.56
420.503	104.56
420.726	82.56
420.948	95.56
421.171	90.56
421.394	93.56
421.617	87.56
421.839	88.56
422.062	85.56
422.285	87.56
422.507	97.56
422.73	92.56
422.953	101.56
423.175	96.56
423.398	76.56
423.621	81.56
423.843	84.56
424.066	84.56
424.288	103.56
424.511	93.56
424.733	90.56
424.956	106.56
425.178	106.56
425.401	79.56
425.623	98.56
425.846	84.56
426.068	88.56
426.291	89.56
426.513	94.56
426.735	88.56
426.958	107.56
427.18	96.56
427.402	130.56
427.625	144.56
427.847	111.56
428.069	104.56
428.292	94.56
428.514	81.56
428.736	87.56
428.958	83.56
429.181	89.56
429.403	94.56
429.625	89.56
429.847	86.56
430.069	92.56
430.292	93.56
430.514	99.56
430.736	95.56
430.958	92.56
431.18	103.56
431.402	103.56
431.624	88.56
431.846	99.56
432.068	84.56
432.29	97.56
432.512	95.56
432.734	86.56
432.956	96.56
433.178	93.56
433.4	103.56
433.622	79.56
433.844	98.56
434.066	99.56
434.287	87.56
434.509	84.56
434.731	92.56
434.953	92.56
435.175	88.56
435.397	96.56
435.618	95.56
435.84	82.56
436.062	113.56
436.284	101.56
436.505	99.56
436.727	112.56
436.949	100.56
437.17	91.56
437.392	91.56
437.614	101.56
437.835	105.56
438.057	114.56
438.278	98.56
438.5	104.56
438.721	106.56
438.943	86.56
439.165	88.56
439.386	89.56
439.608	87.56
439.829	99.56
440.05	107.56
440.272	125.56
440.493	98.56
440.715	103.56
440.936	82.56
441.158	71.56
441.379	72.56
441.6	92.56
441.822	84.56
442.043	94.56
442.264	96.56
442.486	93.56
442.707	93.56
442.928	92.56
443.149	126.56
443.371	103.56
443.592	113.56
443.813	123.56
444.034	107.56
444.255	84.56
444.476	84.56
444.698	80.56
444.919	94.56
445.14	135.56
445.361	115.56
445.582	112.56
445.803	140.56
446.024	122.56
446.245	119.56
446.466	120.56
446.687	74.56
446.908	85.56
447.129	99.56
447.35	100.56
447.571	94.56
447.792	100.56
448.013	110.56
448.234	107.56
448.455	95.56
448.675	98.56
448.896	112.56
449.117	88.56
449.338	88.56
449.559	117.56
449.779	123.56
450	91.56
450.221	93.56
450.442	91.56
450.662	77.56
450.883	94.56
451.104	104.56
451.324	97.56
451.545	88.56
451.766	96.56
451.986	77.56
452.207	99.56
452.428	90.56
452.648	105.56
452.869	99.56
453.089	97.56
453.31	114.56
453.53	83.56
453.751	80.56
453.971	104.56
454.192	104.56
454.412	86.56
454.633	78.56
454.853	77.56
455.073	81.56
455.294	88.56
455.514	95.56
455.734	79.56
455.955	86.56
456.175	88.56
456.395	85.56
456.616	88.56
456.836	73.56
457.056	69.56
457.276	85.56
457.497	77.56
457.717	96.56
457.937	95.56
458.157	97.56
458.377	81.56
458.598	105.56
458.818	128.56
459.038	151.56
459.258	104.56
459.478	101.56
459.698	92.56
459.918	87.56
460.138	81.56
460.358	76.56
460.578	94.56
460.798	69.56
461.018	88.56
461.238	85.56
461.458	83.56
461.678	92.56
461.898	96.56
462.118	91.56
462.338	86.56
462.558	77.56
462.777	84.56
462.997	92.56
463.217	75.56
463.437	93.56
463.657	94.56
463.876	87.56
464.096	75.56
464.316	78.56
464.536	74.56
464.755	82.56
464.975	110.56
465.195	155.56
465.414	147.56
465.634	94.56
465.854	79.56
466.073	81.56
466.293	77.56
466.512	84.56
466.732	81.56
466.951	78.56
467.171	102.56
467.391	96.56
467.61	110.56
467.829	87.56
468.049	109.56
468.268	96.56
468.488	89.56
468.707	75.56
468.927	88.56
469.146	85.56
469.365	83.56
469.585	84.56
469.804	92.56
470.023	100.56
470.243	92.56
470.462	95.56
470.681	107.56
470.901	89.56
471.12	81.56
471.339	86.56
471.558	85.56
471.777	90.56
471.997	94.56
472.216	100.56
472.435	101.56
472.654	103.56
472.873	88.56
473.092	85.56
473.311	84.56
473.53	71.56
473.749	81.56
473.968	99.56
474.187	91.56
474.406	85.56
474.625	80.56
474.844	82.56
475.063	75.56
475.282	92.56
475.501	96.56
475.72	86.56
475.939	77.56
476.158	79.56
476.377	93.56
476.596	88.56
476.814	97.56
477.033	87.56
477.252	86.56
477.471	91.56
477.69	88.56
477.908	91.56
478.127	86.56
478.346	89.56
478.564	88.56
478.783	78.56
479.002	94.56
479.22	96.56
479.439	84.56
479.658	96.56
479.876	80.56
480.095	100.56
480.313	95.56
480.532	91.56
480.751	84.56
480.969	94.56
481.188	118.56
481.406	111.56
481.624	89.56
481.843	105.56
482.061	94.56
482.28	84.56
482.498	88.56
482.717	84.56
482.935	82.56
483.153	89.56
483.372	86.56
483.59	83.56
483.808	86.56
484.027	87.56
484.245	105.56
484.463	92.56
484.681	80.56
484.9	89.56
485.118	99.56
485.336	108.56
485.554	100.56
485.772	96.56
485.99	80.56
486.209	91.56
486.427	97.56
486.645	100.56
486.863	92.56
487.081	114.56
487.299	109.56
487.517	92.56
487.735	78.56
487.953	91.56
488.171	100.56
488.389	92.56
488.607	94.56
488.825	97.56
489.043	94.56
489.261	100.56
489.479	87.56
489.696	86.56
489.914	82.56
490.132	91.56
490.35	93.56
490.568	101.56
490.786	96.56
491.003	77.56
491.221	87.56
491.439	91.56
491.657	96.56
491.874	80.56
492.092	83.56
492.31	92.56
492.527	94.56
492.745	95.56
492.963	80.56
493.18	98.56
493.398	89.56
493.615	95.56
493.833	99.56
494.05	87.56
494.268	86.56
494.485	92.56
494.703	95.56
494.92	84.56
495.138	99.56
495.355	100.56
495.573	102.56
495.79	89.56
496.008	106.56
496.225	86.56
496.442	93.56
496.66	100.56
496.877	73.56
497.094	90.56
497.312	82.56
497.529	89.56
497.746	89.56
497.963	100.56
498.181	100.56
498.398	92.56
498.615	108.56
498.832	98.56
499.049	104.56
499.267	94.56
499.484	86.56
499.701	83.56
499.918	91.56
500.135	97.56
500.352	83.56
500.569	95.56
500.786	88.56
501.003	89.56
501.22	87.56
501.437	86.56
501.654	96.56
501.871	92.56
502.088	103.56
502.305	102.56
502.522	95.56
502.739	99.56
502.956	73.56
503.172	81.56
503.389	90.56
503.606	112.56
503.823	106.56
504.04	100.56
504.256	94.56
504.473	89.56
504.69	87.56
504.907	87.56
505.123	92.56
505.34	94.56
505.557	94.56
505.773	97.56
505.99	98.56
506.207	84.56
506.423	90.56
506.64	97.56
506.856	76.56
507.073	80.56
507.289	105.56
507.506	83.56
507.722	96.56
507.939	105.56
508.155	115.56
508.372	91.56
508.588	109.56
508.805	99.56
509.021	92.56
509.238	84.56
509.454	97.56
509.67	111.56
509.887	114.56
510.103	141.56
510.319	231.56
510.536	774.56
510.752	2410.56
510.968	665.56
511.184	152.56
511.401	100.56
511.617	99.56
511.833	76.56
512.049	83.56
512.265	88.56
512.481	99.56
512.698	99.56
512.914	97.56
513.13	84.56
513.346	82.56
513.562	93.56
513.778	104.56
513.994	101.56
514.21	98.56
514.426	120.56
514.642	109.56
514.858	128.56
515.074	161.56
515.29	452.56
515.506	1399.56
515.721	547.56
