Data from Uncirc_2004_H10_HRD10591_00043.txt Node
Date: Wed Jan 03 10:32:21 EST 2024
User: Yrep
Spectrometer: HR+D1059
Trigger mode: 1
Integration Time (sec): 1.000000E-1
Scans to average: 1
Electric dark correction enabled: true
Nonlinearity correction enabled: false
Boxcar width: 0
XAxis mode: Wavelengths
Number of Pixels in Spectrum: 2048
>>>>>Begin Spectral Data<<<<<
223.165	-14.5
223.4	-14.5
223.635	-14.5
223.869	-17.5
224.104	-18.5
224.338	-19.5
224.573	-23.5
224.808	-7.5
225.042	2.5
225.277	-9.5
225.511	-3.5
225.746	-3.5
225.98	7.5
226.215	10.5
226.449	30.5
226.683	14.5
226.918	19.5
227.152	32.5
227.387	42.5
227.621	50.5
227.856	50.5
228.09	48.5
228.324	42.5
228.559	51.5
228.793	47.5
229.027	60.5
229.262	71.5
229.496	83.5
229.73	91.5
229.964	94.5
230.199	86.5
230.433	82.5
230.667	70.5
230.901	73.5
231.136	75.5
231.37	80.5
231.604	80.5
231.838	82.5
232.072	88.5
232.306	84.5
232.541	75.5
232.775	91.5
233.009	84.5
233.243	81.5
233.477	79.5
233.711	81.5
233.945	90.5
234.179	69.5
234.413	95.5
234.647	81.5
234.881	81.5
235.115	91.5
235.349	74.5
235.583	96.5
235.817	96.5
236.051	89.5
236.285	79.5
236.519	89.5
236.753	80.5
236.987	90.5
237.221	79.5
237.455	89.5
237.689	76.5
237.922	78.5
238.156	73.5
238.39	70.5
238.624	82.5
238.858	78.5
239.091	86.5
239.325	86.5
239.559	87.5
239.793	73.5
240.027	87.5
240.26	80.5
240.494	76.5
240.728	78.5
240.961	77.5
241.195	76.5
241.429	91.5
241.662	86.5
241.896	75.5
242.13	76.5
242.363	75.5
242.597	79.5
242.83	80.5
243.064	87.5
243.298	71.5
243.531	72.5
243.765	69.5
243.998	87.5
244.232	91.5
244.465	82.5
244.699	87.5
244.932	90.5
245.166	81.5
245.399	78.5
245.633	89.5
245.866	80.5
246.099	66.5
246.333	92.5
246.566	86.5
246.8	86.5
247.033	72.5
247.266	79.5
247.5	82.5
247.733	81.5
247.966	75.5
248.2	65.5
248.433	86.5
248.666	83.5
248.899	91.5
249.133	87.5
249.366	100.5
249.599	98.5
249.832	87.5
250.066	97.5
250.299	76.5
250.532	69.5
250.765	90.5
250.998	79.5
251.231	76.5
251.465	74.5
251.698	76.5
251.931	86.5
252.164	86.5
252.397	78.5
252.63	89.5
252.863	78.5
253.096	82.5
253.329	82.5
253.562	86.5
253.795	85.5
254.028	92.5
254.261	82.5
254.494	80.5
254.727	84.5
254.96	75.5
255.193	75.5
255.426	71.5
255.659	84.5
255.892	75.5
256.124	88.5
256.357	98.5
256.59	86.5
256.823	81.5
257.056	89.5
257.289	70.5
257.521	91.5
257.754	95.5
257.987	88.5
258.22	104.5
258.452	87.5
258.685	86.5
258.918	95.5
259.151	90.5
259.383	98.5
259.616	78.5
259.849	80.5
260.081	86.5
260.314	91.5
260.547	84.5
260.779	83.5
261.012	73.5
261.244	88.5
261.477	97.5
261.71	95.5
261.942	96.5
262.175	122.5
262.407	91.5
262.64	92.5
262.872	84.5
263.105	85.5
263.337	78.5
263.57	96.5
263.802	81.5
264.035	84.5
264.267	86.5
264.499	92.5
264.732	95.5
264.964	82.5
265.197	72.5
265.429	86.5
265.661	90.5
265.894	83.5
266.126	87.5
266.358	89.5
266.591	85.5
266.823	87.5
267.055	91.5
267.287	81.5
267.52	82.5
267.752	102.5
267.984	84.5
268.216	73.5
268.448	93.5
268.681	82.5
268.913	83.5
269.145	81.5
269.377	87.5
269.609	90.5
269.841	86.5
270.073	96.5
270.306	99.5
270.538	102.5
270.77	87.5
271.002	84.5
271.234	94.5
271.466	105.5
271.698	91.5
271.93	99.5
272.162	86.5
272.394	85.5
272.626	91.5
272.858	90.5
273.09	90.5
273.322	89.5
273.553	80.5
273.785	90.5
274.017	76.5
274.249	89.5
274.481	95.5
274.713	91.5
274.945	88.5
275.176	82.5
275.408	95.5
275.64	87.5
275.872	96.5
276.104	102.5
276.335	94.5
276.567	95.5
276.799	105.5
277.031	99.5
277.262	74.5
277.494	100.5
277.726	95.5
277.957	97.5
278.189	76.5
278.421	91.5
278.652	81.5
278.884	86.5
279.115	90.5
279.347	90.5
279.579	90.5
279.81	84.5
280.042	87.5
280.273	102.5
280.505	94.5
280.736	72.5
280.968	91.5
281.199	85.5
281.431	84.5
281.662	95.5
281.894	81.5
282.125	99.5
282.356	126.5
282.588	150.5
282.819	121.5
283.051	80.5
283.282	107.5
283.513	92.5
283.745	85.5
283.976	91.5
284.207	95.5
284.439	82.5
284.67	93.5
284.901	90.5
285.132	91.5
285.364	101.5
285.595	86.5
285.826	88.5
286.057	84.5
286.288	95.5
286.52	90.5
286.751	84.5
286.982	89.5
287.213	77.5
287.444	103.5
287.675	95.5
287.906	84.5
288.138	90.5
288.369	80.5
288.6	95.5
288.831	86.5
289.062	89.5
289.293	91.5
289.524	93.5
289.755	84.5
289.986	94.5
290.217	86.5
290.448	84.5
290.679	82.5
290.91	79.5
291.141	99.5
291.371	86.5
291.602	84.5
291.833	97.5
292.064	98.5
292.295	96.5
292.526	80.5
292.757	91.5
292.987	90.5
293.218	88.5
293.449	93.5
293.68	86.5
293.91	89.5
294.141	99.5
294.372	83.5
294.603	96.5
294.833	86.5
295.064	95.5
295.295	108.5
295.525	92.5
295.756	91.5
295.987	114.5
296.217	134.5
296.448	104.5
296.679	91.5
296.909	77.5
297.14	80.5
297.37	89.5
297.601	92.5
297.831	98.5
298.062	92.5
298.292	98.5
298.523	106.5
298.753	98.5
298.984	83.5
299.214	96.5
299.445	108.5
299.675	98.5
299.905	103.5
300.136	90.5
300.366	91.5
300.597	102.5
300.827	88.5
301.057	85.5
301.288	98.5
301.518	102.5
301.748	90.5
301.979	104.5
302.209	84.5
302.439	92.5
302.669	87.5
302.9	95.5
303.13	102.5
303.36	89.5
303.59	93.5
303.82	104.5
304.051	100.5
304.281	93.5
304.511	93.5
304.741	87.5
304.971	84.5
305.201	89.5
305.431	85.5
305.661	92.5
305.891	98.5
306.121	99.5
306.352	93.5
306.582	110.5
306.812	80.5
307.042	85.5
307.272	97.5
307.502	111.5
307.731	104.5
307.961	97.5
308.191	97.5
308.421	99.5
308.651	100.5
308.881	73.5
309.111	85.5
309.341	93.5
309.571	103.5
309.8	88.5
310.03	101.5
310.26	113.5
310.49	98.5
310.72	98.5
310.949	110.5
311.179	103.5
311.409	88.5
311.639	101.5
311.868	91.5
312.098	89.5
312.328	95.5
312.557	105.5
312.787	98.5
313.017	105.5
313.246	107.5
313.476	94.5
313.706	98.5
313.935	98.5
314.165	118.5
314.394	116.5
314.624	98.5
314.853	100.5
315.083	104.5
315.312	87.5
315.542	90.5
315.771	84.5
316.001	92.5
316.23	86.5
316.46	116.5
316.689	94.5
316.919	97.5
317.148	73.5
317.377	103.5
317.607	97.5
317.836	88.5
318.065	91.5
318.295	96.5
318.524	107.5
318.753	99.5
318.983	93.5
319.212	103.5
319.441	98.5
319.67	91.5
319.9	100.5
320.129	80.5
320.358	82.5
320.587	110.5
320.816	97.5
321.046	113.5
321.275	110.5
321.504	91.5
321.733	90.5
321.962	97.5
322.191	90.5
322.42	79.5
322.649	114.5
322.878	117.5
323.108	108.5
323.337	130.5
323.566	149.5
323.795	140.5
324.024	207.5
324.253	406.5
324.482	803.5
324.71	1635.5
324.939	2126.5
325.168	780.5
325.397	215.5
325.626	152.5
325.855	132.5
326.084	132.5
326.313	129.5
326.542	159.5
326.77	217.5
326.999	459.5
327.228	921.5
327.457	1662.5
327.686	1306.5
327.914	363.5
328.143	192.5
328.372	144.5
328.6	121.5
328.829	109.5
329.058	126.5
329.287	107.5
329.515	98.5
329.744	107.5
329.972	109.5
330.201	98.5
330.43	106.5
330.658	118.5
330.887	131.5
331.115	123.5
331.344	93.5
331.572	95.5
331.801	87.5
332.03	111.5
332.258	106.5
332.486	91.5
332.715	103.5
332.943	98.5
333.172	94.5
333.4	102.5
333.629	117.5
333.857	103.5
334.085	99.5
334.314	97.5
334.542	112.5
334.771	99.5
334.999	102.5
335.227	95.5
335.455	99.5
335.684	97.5
335.912	96.5
336.14	100.5
336.369	93.5
336.597	97.5
336.825	101.5
337.053	99.5
337.281	75.5
337.51	89.5
337.738	98.5
337.966	92.5
338.194	89.5
338.422	98.5
338.65	102.5
338.878	99.5
339.106	99.5
339.334	97.5
339.562	97.5
339.79	76.5
340.018	86.5
340.246	87.5
340.474	91.5
340.702	95.5
340.93	102.5
341.158	102.5
341.386	97.5
341.614	98.5
341.842	103.5
342.07	95.5
342.298	100.5
342.526	103.5
342.754	88.5
342.981	89.5
343.209	98.5
343.437	97.5
343.665	92.5
343.893	121.5
344.12	106.5
344.348	87.5
344.576	96.5
344.804	91.5
345.031	103.5
345.259	100.5
345.487	87.5
345.714	114.5
345.942	109.5
346.17	87.5
346.397	99.5
346.625	96.5
346.853	86.5
347.08	82.5
347.308	88.5
347.535	92.5
347.763	105.5
347.99	103.5
348.218	101.5
348.445	100.5
348.673	98.5
348.9	98.5
349.128	102.5
349.355	99.5
349.583	91.5
349.81	109.5
350.037	85.5
350.265	96.5
350.492	92.5
350.72	116.5
350.947	101.5
351.174	100.5
351.402	117.5
351.629	99.5
351.856	114.5
352.083	107.5
352.311	113.5
352.538	95.5
352.765	106.5
352.992	111.5
353.22	102.5
353.447	99.5
353.674	96.5
353.901	101.5
354.128	90.5
354.355	103.5
354.583	98.5
354.81	98.5
355.037	104.5
355.264	102.5
355.491	87.5
355.718	97.5
355.945	96.5
356.172	92.5
356.399	108.5
356.626	79.5
356.853	96.5
357.08	91.5
357.307	92.5
357.534	105.5
357.761	93.5
357.988	95.5
358.215	102.5
358.441	94.5
358.668	92.5
358.895	81.5
359.122	87.5
359.349	92.5
359.576	73.5
359.802	97.5
360.029	112.5
360.256	112.5
360.483	96.5
360.709	98.5
360.936	112.5
361.163	97.5
361.39	96.5
361.616	102.5
361.843	85.5
362.07	94.5
362.296	92.5
362.523	88.5
362.749	96.5
362.976	95.5
363.203	101.5
363.429	77.5
363.656	87.5
363.882	99.5
364.109	89.5
364.335	95.5
364.562	94.5
364.788	98.5
365.015	100.5
365.241	107.5
365.468	112.5
365.694	113.5
365.92	96.5
366.147	88.5
366.373	89.5
366.599	91.5
366.826	89.5
367.052	90.5
367.278	96.5
367.505	96.5
367.731	90.5
367.957	97.5
368.184	102.5
368.41	95.5
368.636	111.5
368.862	120.5
369.089	109.5
369.315	85.5
369.541	93.5
369.767	86.5
369.993	90.5
370.219	89.5
370.445	85.5
370.672	82.5
370.898	94.5
371.124	80.5
371.35	87.5
371.576	99.5
371.802	76.5
372.028	99.5
372.254	83.5
372.48	91.5
372.706	84.5
372.932	91.5
373.158	80.5
373.384	91.5
373.61	90.5
373.835	95.5
374.061	91.5
374.287	96.5
374.513	92.5
374.739	90.5
374.965	91.5
375.191	81.5
375.416	101.5
375.642	97.5
375.868	100.5
376.094	79.5
376.319	97.5
376.545	86.5
376.771	95.5
376.997	96.5
377.222	96.5
377.448	102.5
377.674	96.5
377.899	96.5
378.125	80.5
378.35	115.5
378.576	98.5
378.802	86.5
379.027	100.5
379.253	93.5
379.478	94.5
379.704	100.5
379.929	95.5
380.155	73.5
380.38	90.5
380.606	89.5
380.831	97.5
381.057	103.5
381.282	90.5
381.507	87.5
381.733	94.5
381.958	95.5
382.184	107.5
382.409	96.5
382.634	103.5
382.86	118.5
383.085	103.5
383.31	95.5
383.535	104.5
383.761	118.5
383.986	87.5
384.211	100.5
384.436	104.5
384.662	104.5
384.887	100.5
385.112	109.5
385.337	98.5
385.562	95.5
385.787	103.5
386.013	119.5
386.238	99.5
386.463	111.5
386.688	114.5
386.913	101.5
387.138	123.5
387.363	98.5
387.588	100.5
387.813	97.5
388.038	121.5
388.263	102.5
388.488	130.5
388.713	92.5
388.938	122.5
389.163	100.5
389.387	88.5
389.612	96.5
389.837	82.5
390.062	92.5
390.287	96.5
390.512	84.5
390.736	99.5
390.961	95.5
391.186	85.5
391.411	103.5
391.636	101.5
391.86	90.5
392.085	92.5
392.31	80.5
392.534	85.5
392.759	87.5
392.984	83.5
393.208	105.5
393.433	96.5
393.658	94.5
393.882	86.5
394.107	71.5
394.331	96.5
394.556	102.5
394.78	90.5
395.005	91.5
395.229	87.5
395.454	82.5
395.678	94.5
395.903	76.5
396.127	92.5
396.352	93.5
396.576	98.5
396.801	91.5
397.025	94.5
397.249	89.5
397.474	90.5
397.698	97.5
397.922	91.5
398.147	99.5
398.371	95.5
398.595	87.5
398.82	90.5
399.044	91.5
399.268	87.5
399.492	75.5
399.717	84.5
399.941	80.5
400.165	88.5
400.389	100.5
400.613	90.5
400.837	82.5
401.062	84.5
401.286	94.5
401.51	75.5
401.734	102.5
401.958	100.5
402.182	122.5
402.406	156.5
402.63	112.5
402.854	80.5
403.078	100.5
403.302	83.5
403.526	77.5
403.75	94.5
403.974	87.5
404.198	85.5
404.422	91.5
404.645	95.5
404.869	89.5
405.093	91.5
405.317	103.5
405.541	98.5
405.765	97.5
405.988	107.5
406.212	155.5
406.436	223.5
406.66	143.5
406.883	109.5
407.107	107.5
407.331	100.5
407.555	106.5
407.778	94.5
408.002	91.5
408.226	108.5
408.449	86.5
408.673	102.5
408.896	100.5
409.12	90.5
409.344	88.5
409.567	97.5
409.791	97.5
410.014	96.5
410.238	83.5
410.461	89.5
410.685	101.5
410.908	114.5
411.132	109.5
411.355	106.5
411.578	100.5
411.802	103.5
412.025	97.5
412.249	78.5
412.472	107.5
412.695	100.5
412.919	111.5
413.142	88.5
413.365	92.5
413.589	90.5
413.812	91.5
414.035	94.5
414.258	103.5
414.482	96.5
414.705	81.5
414.928	104.5
415.151	96.5
415.374	88.5
415.597	90.5
415.821	105.5
416.044	91.5
416.267	95.5
416.49	112.5
416.713	89.5
416.936	87.5
417.159	87.5
417.382	85.5
417.605	81.5
417.828	99.5
418.051	106.5
418.274	105.5
418.497	92.5
418.72	92.5
418.943	89.5
419.166	85.5
419.389	100.5
419.611	98.5
419.834	103.5
420.057	91.5
420.28	92.5
420.503	92.5
420.726	92.5
420.948	91.5
421.171	104.5
421.394	104.5
421.617	97.5
421.839	92.5
422.062	86.5
422.285	92.5
422.507	116.5
422.73	87.5
422.953	82.5
423.175	89.5
423.398	96.5
423.621	89.5
423.843	86.5
424.066	93.5
424.288	104.5
424.511	86.5
424.733	112.5
424.956	115.5
425.178	93.5
425.401	98.5
425.623	98.5
425.846	103.5
426.068	91.5
426.291	90.5
426.513	102.5
426.735	94.5
426.958	114.5
427.18	99.5
427.402	117.5
427.625	172.5
427.847	137.5
428.069	108.5
428.292	98.5
428.514	79.5
428.736	81.5
428.958	96.5
429.181	78.5
429.403	94.5
429.625	80.5
429.847	83.5
430.069	98.5
430.292	92.5
430.514	98.5
430.736	101.5
430.958	91.5
431.18	96.5
431.402	92.5
431.624	99.5
431.846	108.5
432.068	80.5
432.29	81.5
432.512	91.5
432.734	92.5
432.956	101.5
433.178	92.5
433.4	108.5
433.622	100.5
433.844	84.5
434.066	92.5
434.287	90.5
434.509	91.5
434.731	101.5
434.953	97.5
435.175	90.5
435.397	98.5
435.618	90.5
435.84	112.5
436.062	106.5
436.284	113.5
436.505	100.5
436.727	100.5
436.949	101.5
437.17	99.5
437.392	90.5
437.614	83.5
437.835	102.5
438.057	129.5
438.278	111.5
438.5	105.5
438.721	104.5
438.943	114.5
439.165	96.5
439.386	92.5
439.608	93.5
439.829	92.5
440.05	119.5
440.272	116.5
440.493	89.5
440.715	102.5
440.936	85.5
441.158	92.5
441.379	81.5
441.6	89.5
441.822	90.5
442.043	87.5
442.264	95.5
442.486	115.5
442.707	89.5
442.928	100.5
443.149	117.5
443.371	128.5
443.592	95.5
443.813	106.5
444.034	100.5
444.255	93.5
444.476	99.5
444.698	91.5
444.919	107.5
445.14	134.5
445.361	123.5
445.582	128.5
445.803	119.5
446.024	126.5
446.245	127.5
446.466	112.5
446.687	97.5
446.908	94.5
447.129	82.5
447.35	80.5
447.571	109.5
447.792	83.5
448.013	102.5
448.234	115.5
448.455	91.5
448.675	101.5
448.896	111.5
449.117	104.5
449.338	107.5
449.559	118.5
449.779	123.5
450	91.5
450.221	84.5
450.442	97.5
450.662	82.5
450.883	95.5
451.104	111.5
451.324	98.5
451.545	92.5
451.766	85.5
451.986	89.5
452.207	90.5
452.428	100.5
452.648	96.5
452.869	99.5
453.089	105.5
453.31	113.5
453.53	94.5
453.751	105.5
453.971	95.5
454.192	119.5
454.412	108.5
454.633	101.5
454.853	86.5
455.073	84.5
455.294	92.5
455.514	104.5
455.734	93.5
455.955	78.5
456.175	88.5
456.395	101.5
456.616	91.5
456.836	101.5
457.056	80.5
457.276	75.5
457.497	80.5
457.717	96.5
457.937	80.5
458.157	100.5
458.377	95.5
458.598	107.5
458.818	132.5
459.038	148.5
459.258	106.5
459.478	106.5
459.698	90.5
459.918	109.5
460.138	99.5
460.358	103.5
460.578	83.5
460.798	86.5
461.018	72.5
461.238	73.5
461.458	98.5
461.678	86.5
461.898	96.5
462.118	90.5
462.338	88.5
462.558	93.5
462.777	85.5
462.997	80.5
463.217	81.5
463.437	91.5
463.657	87.5
463.876	83.5
464.096	89.5
464.316	98.5
464.536	97.5
464.755	89.5
464.975	102.5
465.195	163.5
465.414	162.5
465.634	107.5
465.854	100.5
466.073	106.5
466.293	96.5
466.512	91.5
466.732	87.5
466.951	79.5
467.171	87.5
467.391	101.5
467.61	113.5
467.829	90.5
468.049	98.5
468.268	96.5
468.488	99.5
468.707	79.5
468.927	78.5
469.146	91.5
469.365	85.5
469.585	95.5
469.804	93.5
470.023	105.5
470.243	103.5
470.462	120.5
470.681	91.5
470.901	71.5
471.12	95.5
471.339	83.5
471.558	68.5
471.777	97.5
471.997	100.5
472.216	87.5
472.435	98.5
472.654	81.5
472.873	92.5
473.092	79.5
473.311	83.5
473.53	76.5
473.749	96.5
473.968	86.5
474.187	110.5
474.406	103.5
474.625	109.5
474.844	95.5
475.063	91.5
475.282	91.5
475.501	84.5
475.72	93.5
475.939	78.5
476.158	90.5
476.377	89.5
476.596	88.5
476.814	107.5
477.033	85.5
477.252	96.5
477.471	99.5
477.69	78.5
477.908	85.5
478.127	72.5
478.346	82.5
478.564	90.5
478.783	103.5
479.002	101.5
479.22	99.5
479.439	102.5
479.658	107.5
479.876	98.5
480.095	91.5
480.313	97.5
480.532	92.5
480.751	90.5
480.969	95.5
481.188	134.5
481.406	110.5
481.624	90.5
481.843	90.5
482.061	83.5
482.28	91.5
482.498	91.5
482.717	87.5
482.935	92.5
483.153	90.5
483.372	92.5
483.59	89.5
483.808	95.5
484.027	97.5
484.245	91.5
484.463	94.5
484.681	110.5
484.9	95.5
485.118	102.5
485.336	92.5
485.554	94.5
485.772	113.5
485.99	105.5
486.209	97.5
486.427	103.5
486.645	101.5
486.863	107.5
487.081	96.5
487.299	103.5
487.517	103.5
487.735	105.5
487.953	98.5
488.171	97.5
488.389	93.5
488.607	92.5
488.825	86.5
489.043	94.5
489.261	91.5
489.479	91.5
489.696	92.5
489.914	89.5
490.132	96.5
490.35	93.5
490.568	88.5
490.786	85.5
491.003	93.5
491.221	84.5
491.439	86.5
491.657	97.5
491.874	89.5
492.092	92.5
492.31	101.5
492.527	90.5
492.745	81.5
492.963	98.5
493.18	89.5
493.398	94.5
493.615	107.5
493.833	88.5
494.05	100.5
494.268	113.5
494.485	108.5
494.703	90.5
494.92	88.5
495.138	96.5
495.355	80.5
495.573	93.5
495.79	96.5
496.008	99.5
496.225	90.5
496.442	93.5
496.66	92.5
496.877	94.5
497.094	82.5
497.312	86.5
497.529	89.5
497.746	80.5
497.963	81.5
498.181	93.5
498.398	91.5
498.615	96.5
498.832	103.5
499.049	96.5
499.267	110.5
499.484	97.5
499.701	107.5
499.918	100.5
500.135	88.5
500.352	94.5
500.569	84.5
500.786	71.5
501.003	90.5
501.22	91.5
501.437	97.5
501.654	107.5
501.871	112.5
502.088	97.5
502.305	95.5
502.522	83.5
502.739	100.5
502.956	99.5
503.172	94.5
503.389	105.5
503.606	102.5
503.823	109.5
504.04	102.5
504.256	110.5
504.473	90.5
504.69	93.5
504.907	96.5
505.123	88.5
505.34	84.5
505.557	92.5
505.773	88.5
505.99	102.5
506.207	80.5
506.423	81.5
506.64	86.5
506.856	89.5
507.073	106.5
507.289	96.5
507.506	97.5
507.722	119.5
507.939	111.5
508.155	97.5
508.372	96.5
508.588	111.5
508.805	98.5
509.021	110.5
509.238	113.5
509.454	94.5
509.67	108.5
509.887	116.5
510.103	130.5
510.319	226.5
510.536	814.5
510.752	2487.5
510.968	666.5
511.184	156.5
511.401	112.5
511.617	87.5
511.833	80.5
512.049	97.5
512.265	88.5
512.481	89.5
512.698	84.5
512.914	86.5
513.13	110.5
513.346	100.5
513.562	98.5
513.778	77.5
513.994	96.5
514.21	112.5
514.426	126.5
514.642	123.5
514.858	132.5
515.074	177.5
515.29	474.5
515.506	1482.5
515.721	553.5
515.937	159.5
516.153	116.5
516.369	105.5
516.585	96.5
516.801	85.5
517.016	105.5
517.232	110.5
517.448	116.5
517.664	99.5
517.879	79.5
518.095	102.5
518.311	86.5
518.527	87.5
518.742	91.5
518.958	95.5
519.173	90.5
519.389	89.5
519.605	92.5
519.82	92.5
520.036	107.5
520.251	141.5
520.467	108.5
520.682	114.5
520.898	102.5
521.113	122.5
521.329	133.5
521.544	203.5
521.76	591.5
521.975	2454.5
522.19	1451.5
522.406	326.5
522.621	137.5
522.836	112.5
523.052	94.5
523.267	86.5
523.482	91.5
523.698	100.5
523.913	122.5
524.128	104.5
524.343	90.5
524.559	87.5
524.774	98.5
524.989	95.5
525.204	98.5
525.419	97.5
525.634	109.5
525.849	93.5
526.064	92.5
526.28	95.5
526.495	108.5
526.71	101.5
526.925	98.5
527.14	82.5
527.355	90.5
527.57	90.5
527.785	104.5
527.999	98.5
528.214	105.5
528.429	99.5
528.644	95.5
528.859	102.5
529.074	91.5
529.289	120.5
529.503	175.5
529.718	91.5
529.933	102.5
530.148	90.5
530.363	96.5
530.577	85.5
530.792	101.5
531.007	108.5
531.221	97.5
531.436	112.5
531.651	85.5
531.865	97.5
532.08	96.5
532.295	97.5
532.509	77.5
532.724	92.5
532.938	96.5
533.153	104.5
533.367	105.5
533.582	105.5
533.796	96.5
534.011	99.5
534.225	103.5
