Data from Uncirc_2004_H10_HRD10591_00004.txt Node
Date: Wed Jan 03 10:32:13 EST 2024
User: Yrep
Spectrometer: HR+D1059
Trigger mode: 1
Integration Time (sec): 1.000000E-1
Scans to average: 1
Electric dark correction enabled: true
Nonlinearity correction enabled: false
Boxcar width: 0
XAxis mode: Wavelengths
Number of Pixels in Spectrum: 2048
>>>>>Begin Spectral Data<<<<<
223.165	-9.12
223.4	-9.12
223.635	-9.12
223.869	-19.12
224.104	-6.12
224.338	-15.12
224.573	-13.12
224.808	-28.12
225.042	-1.12
225.277	-5.12
225.511	-9.12
225.746	13.88
225.98	19.88
226.215	13.88
226.449	-12.12
226.683	17.88
226.918	21.88
227.152	30.88
227.387	22.88
227.621	28.88
227.856	48.88
228.09	54.88
228.324	47.88
228.559	51.88
228.793	61.88
229.027	65.88
229.262	66.88
229.496	80.88
229.73	70.88
229.964	61.88
230.199	74.88
230.433	63.88
230.667	77.88
230.901	81.88
231.136	78.88
231.37	82.88
231.604	89.88
231.838	60.88
232.072	77.88
232.306	83.88
232.541	78.88
232.775	68.88
233.009	78.88
233.243	90.88
233.477	75.88
233.711	80.88
233.945	80.88
234.179	65.88
234.413	67.88
234.647	78.88
234.881	70.88
235.115	77.88
235.349	57.88
235.583	66.88
235.817	73.88
236.051	68.88
236.285	79.88
236.519	71.88
236.753	80.88
236.987	71.88
237.221	75.88
237.455	73.88
237.689	81.88
237.922	77.88
238.156	77.88
238.39	70.88
238.624	64.88
238.858	72.88
239.091	85.88
239.325	72.88
239.559	91.88
239.793	84.88
240.027	68.88
240.26	76.88
240.494	65.88
240.728	67.88
240.961	74.88
241.195	74.88
241.429	61.88
241.662	70.88
241.896	62.88
242.13	66.88
242.363	73.88
242.597	60.88
242.83	58.88
243.064	58.88
243.298	78.88
243.531	66.88
243.765	70.88
243.998	89.88
244.232	77.88
244.465	77.88
244.699	84.88
244.932	65.88
245.166	74.88
245.399	62.88
245.633	66.88
245.866	68.88
246.099	80.88
246.333	61.88
246.566	63.88
246.8	64.88
247.033	84.88
247.266	79.88
247.5	80.88
247.733	77.88
247.966	84.88
248.2	77.88
248.433	75.88
248.666	88.88
248.899	91.88
249.133	76.88
249.366	89.88
249.599	93.88
249.832	70.88
250.066	71.88
250.299	71.88
250.532	74.88
250.765	76.88
250.998	71.88
251.231	75.88
251.465	67.88
251.698	79.88
251.931	77.88
252.164	80.88
252.397	80.88
252.63	65.88
252.863	67.88
253.096	78.88
253.329	74.88
253.562	77.88
253.795	85.88
254.028	76.88
254.261	73.88
254.494	89.88
254.727	86.88
254.96	84.88
255.193	78.88
255.426	75.88
255.659	78.88
255.892	78.88
256.124	71.88
256.357	70.88
256.59	71.88
256.823	77.88
257.056	79.88
257.289	67.88
257.521	84.88
257.754	71.88
257.987	93.88
258.22	64.88
258.452	66.88
258.685	81.88
258.918	79.88
259.151	85.88
259.383	93.88
259.616	74.88
259.849	70.88
260.081	68.88
260.314	77.88
260.547	82.88
260.779	76.88
261.012	87.88
261.244	87.88
261.477	81.88
261.71	84.88
261.942	101.88
262.175	97.88
262.407	80.88
262.64	69.88
262.872	72.88
263.105	75.88
263.337	77.88
263.57	83.88
263.802	87.88
264.035	82.88
264.267	86.88
264.499	96.88
264.732	61.88
264.964	58.88
265.197	71.88
265.429	80.88
265.661	71.88
265.894	77.88
266.126	87.88
266.358	63.88
266.591	82.88
266.823	73.88
267.055	70.88
267.287	73.88
267.52	77.88
267.752	90.88
267.984	85.88
268.216	81.88
268.448	74.88
268.681	92.88
268.913	81.88
269.145	70.88
269.377	80.88
269.609	84.88
269.841	78.88
270.073	81.88
270.306	85.88
270.538	68.88
270.77	94.88
271.002	73.88
271.234	75.88
271.466	81.88
271.698	76.88
271.93	79.88
272.162	79.88
272.394	94.88
272.626	83.88
272.858	85.88
273.09	70.88
273.322	77.88
273.553	72.88
273.785	81.88
274.017	97.88
274.249	74.88
274.481	75.88
274.713	83.88
274.945	96.88
275.176	87.88
275.408	78.88
275.64	82.88
275.872	77.88
276.104	89.88
276.335	93.88
276.567	107.88
276.799	86.88
277.031	88.88
277.262	85.88
277.494	92.88
277.726	96.88
277.957	77.88
278.189	89.88
278.421	90.88
278.652	90.88
278.884	78.88
279.115	77.88
279.347	89.88
279.579	79.88
279.81	84.88
280.042	65.88
280.273	92.88
280.505	97.88
280.736	93.88
280.968	84.88
281.199	77.88
281.431	83.88
281.662	76.88
281.894	79.88
282.125	91.88
282.356	111.88
282.588	114.88
282.819	109.88
283.051	86.88
283.282	81.88
283.513	86.88
283.745	86.88
283.976	102.88
284.207	86.88
284.439	93.88
284.67	76.88
284.901	82.88
285.132	95.88
285.364	91.88
285.595	91.88
285.826	81.88
286.057	81.88
286.288	62.88
286.52	77.88
286.751	86.88
286.982	77.88
287.213	82.88
287.444	91.88
287.675	79.88
287.906	94.88
288.138	76.88
288.369	91.88
288.6	85.88
288.831	91.88
289.062	75.88
289.293	96.88
289.524	93.88
289.755	80.88
289.986	86.88
290.217	86.88
290.448	79.88
290.679	77.88
290.91	82.88
291.141	91.88
291.371	78.88
291.602	73.88
291.833	73.88
292.064	88.88
292.295	94.88
292.526	83.88
292.757	85.88
292.987	91.88
293.218	85.88
293.449	91.88
293.68	91.88
293.91	84.88
294.141	90.88
294.372	88.88
294.603	83.88
294.833	88.88
295.064	79.88
295.295	79.88
295.525	74.88
295.756	89.88
295.987	90.88
296.217	121.88
296.448	116.88
296.679	95.88
296.909	85.88
297.14	86.88
297.37	70.88
297.601	69.88
297.831	76.88
298.062	97.88
298.292	93.88
298.523	100.88
298.753	89.88
298.984	81.88
299.214	89.88
299.445	86.88
299.675	81.88
299.905	84.88
300.136	82.88
300.366	81.88
300.597	74.88
300.827	92.88
301.057	92.88
301.288	77.88
301.518	94.88
301.748	89.88
301.979	82.88
302.209	89.88
302.439	94.88
302.669	95.88
302.9	99.88
303.13	94.88
303.36	94.88
303.59	97.88
303.82	110.88
304.051	92.88
304.281	85.88
304.511	87.88
304.741	99.88
304.971	85.88
305.201	87.88
305.431	82.88
305.661	80.88
305.891	81.88
306.121	84.88
306.352	79.88
306.582	72.88
306.812	85.88
307.042	87.88
307.272	92.88
307.502	97.88
307.731	95.88
307.961	95.88
308.191	93.88
308.421	102.88
308.651	86.88
308.881	84.88
309.111	90.88
309.341	86.88
309.571	79.88
309.8	93.88
310.03	82.88
310.26	86.88
310.49	98.88
310.72	90.88
310.949	97.88
311.179	92.88
311.409	105.88
311.639	83.88
311.868	102.88
312.098	81.88
312.328	96.88
312.557	83.88
312.787	103.88
313.017	98.88
313.246	67.88
313.476	80.88
313.706	89.88
313.935	92.88
314.165	97.88
314.394	82.88
314.624	81.88
314.853	85.88
315.083	87.88
315.312	83.88
315.542	92.88
315.771	93.88
316.001	86.88
316.23	88.88
316.46	78.88
316.689	82.88
316.919	76.88
317.148	91.88
317.377	84.88
317.607	100.88
317.836	78.88
318.065	76.88
318.295	95.88
318.524	94.88
318.753	82.88
318.983	91.88
319.212	94.88
319.441	98.88
319.67	91.88
319.9	92.88
320.129	85.88
320.358	85.88
320.587	94.88
320.816	84.88
321.046	106.88
321.275	92.88
321.504	96.88
321.733	95.88
321.962	87.88
322.191	106.88
322.42	95.88
322.649	98.88
322.878	108.88
323.108	107.88
323.337	102.88
323.566	116.88
323.795	137.88
324.024	177.88
324.253	349.88
324.482	730.88
324.71	1453.88
324.939	1806.88
325.168	652.88
325.397	221.88
325.626	135.88
325.855	110.88
326.084	112.88
326.313	114.88
326.542	125.88
326.77	210.88
326.999	392.88
327.228	839.88
327.457	1473.88
327.686	1150.88
327.914	307.88
328.143	169.88
328.372	126.88
328.6	108.88
328.829	106.88
329.058	111.88
329.287	122.88
329.515	111.88
329.744	102.88
329.972	101.88
330.201	99.88
330.43	111.88
330.658	110.88
330.887	115.88
331.115	100.88
331.344	76.88
331.572	91.88
331.801	96.88
332.03	102.88
332.258	90.88
332.486	78.88
332.715	76.88
332.943	76.88
333.172	83.88
333.4	90.88
333.629	93.88
333.857	102.88
334.085	101.88
334.314	102.88
334.542	105.88
334.771	98.88
334.999	96.88
335.227	91.88
335.455	82.88
335.684	96.88
335.912	101.88
336.14	88.88
336.369	101.88
336.597	82.88
336.825	81.88
337.053	102.88
337.281	92.88
337.51	101.88
337.738	92.88
337.966	81.88
338.194	93.88
338.422	112.88
338.65	82.88
338.878	94.88
339.106	90.88
339.334	100.88
339.562	85.88
339.79	87.88
340.018	72.88
340.246	93.88
340.474	82.88
340.702	103.88
340.93	82.88
341.158	85.88
341.386	87.88
341.614	84.88
341.842	93.88
342.07	81.88
342.298	78.88
342.526	92.88
342.754	82.88
342.981	84.88
343.209	78.88
343.437	96.88
343.665	96.88
343.893	97.88
344.12	84.88
344.348	84.88
344.576	80.88
344.804	92.88
345.031	91.88
345.259	96.88
345.487	79.88
345.714	96.88
345.942	85.88
346.17	94.88
346.397	95.88
346.625	81.88
346.853	92.88
347.08	80.88
347.308	91.88
347.535	85.88
347.763	85.88
347.99	82.88
348.218	91.88
348.445	107.88
348.673	95.88
348.9	90.88
349.128	89.88
349.355	89.88
349.583	82.88
349.81	83.88
350.037	89.88
350.265	93.88
350.492	93.88
350.72	79.88
350.947	86.88
351.174	108.88
351.402	96.88
351.629	91.88
351.856	107.88
352.083	93.88
352.311	93.88
352.538	95.88
352.765	100.88
352.992	107.88
353.22	96.88
353.447	112.88
353.674	90.88
353.901	98.88
354.128	100.88
354.355	87.88
354.583	105.88
354.81	92.88
355.037	95.88
355.264	110.88
355.491	86.88
355.718	93.88
355.945	97.88
356.172	102.88
356.399	95.88
356.626	94.88
356.853	99.88
357.08	93.88
357.307	100.88
357.534	90.88
357.761	85.88
357.988	94.88
358.215	91.88
358.441	101.88
358.668	95.88
358.895	105.88
359.122	102.88
359.349	93.88
359.576	96.88
359.802	86.88
360.029	104.88
360.256	97.88
360.483	89.88
360.709	73.88
360.936	81.88
361.163	101.88
361.39	94.88
361.616	91.88
361.843	82.88
362.07	90.88
362.296	87.88
362.523	93.88
362.749	91.88
362.976	91.88
363.203	87.88
363.429	90.88
363.656	93.88
363.882	94.88
364.109	91.88
364.335	79.88
364.562	79.88
364.788	92.88
365.015	97.88
365.241	94.88
365.468	98.88
365.694	105.88
365.92	93.88
366.147	92.88
366.373	76.88
366.599	73.88
366.826	87.88
367.052	94.88
367.278	73.88
367.505	86.88
367.731	95.88
367.957	92.88
368.184	88.88
368.41	107.88
368.636	100.88
368.862	105.88
369.089	121.88
369.315	90.88
369.541	71.88
369.767	84.88
369.993	92.88
370.219	81.88
370.445	84.88
370.672	79.88
370.898	81.88
371.124	89.88
371.35	100.88
371.576	85.88
371.802	93.88
372.028	90.88
372.254	85.88
372.48	96.88
372.706	87.88
372.932	93.88
373.158	89.88
373.384	80.88
373.61	99.88
373.835	90.88
374.061	83.88
374.287	82.88
374.513	90.88
374.739	90.88
374.965	102.88
375.191	79.88
375.416	85.88
375.642	92.88
375.868	82.88
376.094	83.88
376.319	88.88
376.545	90.88
376.771	100.88
376.997	87.88
377.222	92.88
377.448	83.88
377.674	95.88
377.899	89.88
378.125	90.88
378.35	94.88
378.576	91.88
378.802	86.88
379.027	98.88
379.253	105.88
379.478	91.88
379.704	87.88
379.929	89.88
380.155	109.88
380.38	110.88
380.606	91.88
380.831	98.88
381.057	112.88
381.282	106.88
381.507	106.88
381.733	111.88
381.958	108.88
382.184	110.88
382.409	98.88
382.634	108.88
382.86	89.88
383.085	110.88
383.31	95.88
383.535	121.88
383.761	103.88
383.986	91.88
384.211	106.88
384.436	113.88
384.662	97.88
384.887	115.88
385.112	119.88
385.337	131.88
385.562	117.88
385.787	123.88
386.013	123.88
386.238	131.88
386.463	124.88
386.688	134.88
386.913	124.88
387.138	130.88
387.363	118.88
387.588	112.88
387.813	107.88
388.038	113.88
388.263	143.88
388.488	123.88
388.713	96.88
388.938	93.88
389.163	91.88
389.387	91.88
389.612	85.88
389.837	88.88
390.062	80.88
390.287	94.88
390.512	94.88
390.736	82.88
390.961	82.88
391.186	92.88
391.411	80.88
391.636	87.88
391.86	84.88
392.085	87.88
392.31	85.88
392.534	91.88
392.759	92.88
392.984	85.88
393.208	81.88
393.433	102.88
393.658	94.88
393.882	84.88
394.107	78.88
394.331	73.88
394.556	93.88
394.78	77.88
395.005	95.88
395.229	87.88
395.454	80.88
395.678	82.88
395.903	92.88
396.127	77.88
396.352	77.88
396.576	92.88
396.801	98.88
397.025	78.88
397.249	90.88
397.474	86.88
397.698	87.88
397.922	80.88
398.147	81.88
398.371	84.88
398.595	77.88
398.82	75.88
399.044	79.88
399.268	91.88
399.492	80.88
399.717	83.88
399.941	78.88
400.165	91.88
400.389	76.88
400.613	93.88
400.837	101.88
401.062	75.88
401.286	94.88
401.51	85.88
401.734	93.88
401.958	101.88
402.182	117.88
402.406	143.88
402.63	117.88
402.854	86.88
403.078	101.88
403.302	72.88
403.526	98.88
403.75	73.88
403.974	71.88
404.198	102.88
404.422	89.88
404.645	87.88
404.869	85.88
405.093	91.88
405.317	87.88
405.541	98.88
405.765	93.88
405.988	99.88
406.212	140.88
406.436	181.88
406.66	107.88
406.883	93.88
407.107	97.88
407.331	77.88
407.555	95.88
407.778	103.88
408.002	87.88
408.226	86.88
408.449	91.88
408.673	90.88
408.896	80.88
409.12	73.88
409.344	95.88
409.567	65.88
409.791	83.88
410.014	103.88
410.238	84.88
410.461	85.88
410.685	95.88
410.908	95.88
411.132	103.88
411.355	94.88
411.578	68.88
411.802	79.88
412.025	89.88
412.249	84.88
412.472	83.88
412.695	92.88
412.919	75.88
413.142	83.88
413.365	84.88
413.589	98.88
413.812	92.88
414.035	81.88
414.258	84.88
414.482	94.88
414.705	75.88
414.928	73.88
415.151	92.88
415.374	90.88
415.597	104.88
415.821	94.88
416.044	78.88
416.267	101.88
416.49	95.88
416.713	80.88
416.936	84.88
417.159	87.88
417.382	70.88
417.605	85.88
417.828	92.88
418.051	90.88
418.274	97.88
418.497	89.88
418.72	82.88
418.943	80.88
419.166	80.88
419.389	75.88
419.611	78.88
419.834	63.88
420.057	89.88
420.28	92.88
420.503	82.88
420.726	92.88
420.948	80.88
421.171	83.88
421.394	76.88
421.617	84.88
421.839	81.88
422.062	95.88
422.285	96.88
422.507	97.88
422.73	97.88
422.953	84.88
423.175	82.88
423.398	84.88
423.621	83.88
423.843	74.88
424.066	76.88
424.288	90.88
424.511	83.88
424.733	79.88
424.956	92.88
425.178	102.88
425.401	88.88
425.623	87.88
425.846	86.88
426.068	91.88
426.291	82.88
426.513	80.88
426.735	81.88
426.958	95.88
427.18	97.88
427.402	114.88
427.625	147.88
427.847	121.88
428.069	97.88
428.292	82.88
428.514	90.88
428.736	76.88
428.958	96.88
429.181	99.88
429.403	83.88
429.625	88.88
429.847	83.88
430.069	86.88
430.292	85.88
430.514	74.88
430.736	81.88
430.958	86.88
431.18	74.88
431.402	85.88
431.624	80.88
431.846	81.88
432.068	86.88
432.29	80.88
432.512	73.88
432.734	81.88
432.956	87.88
433.178	75.88
433.4	86.88
433.622	84.88
433.844	89.88
434.066	85.88
434.287	99.88
434.509	87.88
434.731	90.88
434.953	86.88
435.175	94.88
435.397	84.88
435.618	96.88
435.84	99.88
436.062	114.88
436.284	103.88
436.505	95.88
436.727	97.88
436.949	98.88
437.17	94.88
437.392	80.88
437.614	90.88
437.835	101.88
438.057	104.88
438.278	100.88
438.5	80.88
438.721	107.88
438.943	121.88
439.165	90.88
439.386	97.88
439.608	91.88
439.829	84.88
440.05	111.88
440.272	129.88
440.493	91.88
440.715	85.88
440.936	78.88
441.158	77.88
441.379	89.88
441.6	85.88
441.822	108.88
442.043	101.88
442.264	118.88
442.486	94.88
442.707	98.88
442.928	90.88
443.149	106.88
443.371	113.88
443.592	90.88
443.813	109.88
444.034	86.88
444.255	84.88
444.476	88.88
444.698	89.88
444.919	77.88
445.14	121.88
445.361	112.88
445.582	104.88
445.803	116.88
446.024	103.88
446.245	116.88
446.466	97.88
446.687	81.88
446.908	79.88
447.129	79.88
447.35	88.88
447.571	95.88
447.792	86.88
448.013	87.88
448.234	86.88
448.455	90.88
448.675	100.88
448.896	111.88
449.117	105.88
449.338	87.88
449.559	109.88
449.779	112.88
450	87.88
450.221	89.88
450.442	71.88
450.662	83.88
450.883	86.88
451.104	94.88
451.324	84.88
451.545	78.88
451.766	89.88
451.986	73.88
452.207	89.88
452.428	74.88
452.648	87.88
452.869	112.88
453.089	100.88
453.31	100.88
453.53	77.88
453.751	70.88
453.971	86.88
454.192	89.88
454.412	92.88
454.633	90.88
454.853	71.88
455.073	71.88
455.294	82.88
455.514	92.88
455.734	77.88
455.955	77.88
456.175	79.88
456.395	83.88
456.616	92.88
456.836	74.88
457.056	67.88
457.276	90.88
457.497	80.88
457.717	86.88
457.937	84.88
458.157	90.88
458.377	89.88
458.598	93.88
458.818	124.88
459.038	137.88
459.258	99.88
459.478	98.88
459.698	85.88
459.918	83.88
460.138	91.88
460.358	87.88
460.578	77.88
460.798	89.88
461.018	84.88
461.238	87.88
461.458	80.88
461.678	79.88
461.898	85.88
462.118	85.88
462.338	89.88
462.558	80.88
462.777	67.88
462.997	71.88
463.217	75.88
463.437	79.88
463.657	81.88
463.876	99.88
464.096	90.88
464.316	96.88
464.536	77.88
464.755	75.88
464.975	95.88
465.195	129.88
465.414	131.88
465.634	85.88
465.854	91.88
466.073	86.88
466.293	83.88
466.512	86.88
466.732	86.88
466.951	75.88
467.171	91.88
467.391	94.88
467.61	93.88
467.829	98.88
468.049	93.88
468.268	88.88
468.488	78.88
468.707	79.88
468.927	81.88
469.146	90.88
469.365	99.88
469.585	84.88
469.804	102.88
470.023	85.88
470.243	94.88
470.462	90.88
470.681	105.88
470.901	95.88
471.12	77.88
471.339	92.88
471.558	80.88
471.777	98.88
471.997	95.88
472.216	82.88
472.435	95.88
472.654	85.88
472.873	79.88
473.092	79.88
473.311	75.88
473.53	84.88
473.749	77.88
473.968	87.88
474.187	95.88
474.406	88.88
474.625	95.88
474.844	79.88
475.063	67.88
475.282	88.88
475.501	83.88
475.72	85.88
475.939	81.88
476.158	78.88
476.377	75.88
476.596	76.88
476.814	80.88
477.033	79.88
477.252	83.88
477.471	97.88
477.69	85.88
477.908	80.88
478.127	91.88
478.346	93.88
478.564	80.88
478.783	93.88
479.002	87.88
479.22	75.88
479.439	92.88
479.658	90.88
479.876	89.88
480.095	98.88
480.313	81.88
480.532	97.88
480.751	86.88
480.969	91.88
481.188	114.88
481.406	97.88
481.624	98.88
481.843	92.88
482.061	79.88
482.28	81.88
482.498	90.88
482.717	86.88
482.935	86.88
483.153	82.88
483.372	85.88
483.59	91.88
483.808	83.88
484.027	92.88
484.245	95.88
484.463	67.88
484.681	88.88
484.9	89.88
485.118	85.88
485.336	91.88
485.554	82.88
485.772	102.88
485.99	88.88
486.209	91.88
486.427	102.88
486.645	108.88
486.863	93.88
487.081	85.88
487.299	86.88
487.517	89.88
487.735	95.88
487.953	82.88
488.171	86.88
488.389	78.88
488.607	86.88
488.825	90.88
489.043	88.88
489.261	98.88
489.479	95.88
489.696	83.88
489.914	74.88
490.132	89.88
490.35	77.88
490.568	70.88
490.786	87.88
491.003	93.88
491.221	77.88
491.439	98.88
491.657	97.88
491.874	83.88
492.092	78.88
492.31	88.88
492.527	80.88
492.745	87.88
492.963	91.88
493.18	94.88
493.398	94.88
493.615	87.88
493.833	89.88
494.05	93.88
494.268	84.88
494.485	81.88
494.703	101.88
494.92	90.88
495.138	91.88
495.355	87.88
495.573	83.88
495.79	87.88
496.008	80.88
496.225	86.88
496.442	85.88
496.66	82.88
496.877	81.88
497.094	98.88
497.312	89.88
497.529	81.88
497.746	83.88
497.963	93.88
498.181	97.88
498.398	89.88
498.615	99.88
498.832	88.88
499.049	76.88
499.267	77.88
499.484	80.88
499.701	98.88
499.918	103.88
500.135	93.88
500.352	106.88
500.569	100.88
500.786	90.88
501.003	84.88
501.22	94.88
501.437	81.88
501.654	97.88
501.871	98.88
502.088	83.88
502.305	79.88
502.522	74.88
502.739	87.88
502.956	97.88
503.172	75.88
503.389	94.88
503.606	93.88
503.823	92.88
504.04	83.88
504.256	79.88
504.473	83.88
504.69	96.88
504.907	81.88
505.123	84.88
505.34	97.88
505.557	90.88
505.773	91.88
505.99	98.88
506.207	84.88
506.423	76.88
506.64	91.88
506.856	86.88
507.073	84.88
507.289	96.88
507.506	106.88
507.722	101.88
507.939	86.88
508.155	93.88
508.372	84.88
508.588	91.88
508.805	100.88
509.021	87.88
509.238	92.88
509.454	108.88
509.67	89.88
509.887	97.88
510.103	116.88
510.319	180.88
510.536	658.88
510.752	1948.88
510.968	539.88
511.184	125.88
511.401	114.88
511.617	93.88
511.833	86.88
512.049	91.88
512.265	79.88
512.481	99.88
512.698	77.88
512.914	88.88
513.13	102.88
513.346	80.88
513.562	95.88
513.778	105.88
513.994	91.88
514.21	93.88
514.426	109.88
514.642	112.88
514.858	111.88
515.074	139.88
515.29	388.88
515.506	1169.88
515.721	452.88
515.937	149.88
516.153	101.88
516.369	86.88
516.585	92.88
516.801	94.88
517.016	83.88
517.232	95.88
