Data from Uncirc_2004_H10_HRD10591_00041.txt Node
Date: Wed Jan 03 10:32:21 EST 2024
User: Yrep
Spectrometer: HR+D1059
Trigger mode: 1
Integration Time (sec): 1.000000E-1
Scans to average: 1
Electric dark correction enabled: true
Nonlinearity correction enabled: false
Boxcar width: 0
XAxis mode: Wavelengths
Number of Pixels in Spectrum: 2048
>>>>>Begin Spectral Data<<<<<
223.165	-21.38
223.4	-21.38
223.635	-21.38
223.869	-18.38
224.104	-24.38
224.338	-2.38
224.573	-12.38
224.808	-6.38
225.042	-10.38
225.277	-13.38
225.511	-13.38
225.746	15.62
225.98	11.62
226.215	11.62
226.449	20.62
226.683	21.62
226.918	19.62
227.152	21.62
227.387	49.62
227.621	31.62
227.856	23.62
228.09	48.62
228.324	50.62
228.559	67.62
228.793	61.62
229.027	51.62
229.262	67.62
229.496	70.62
229.73	70.62
229.964	70.62
230.199	76.62
230.433	69.62
230.667	71.62
230.901	80.62
231.136	62.62
231.37	66.62
231.604	81.62
231.838	80.62
232.072	73.62
232.306	77.62
232.541	69.62
232.775	73.62
233.009	76.62
233.243	81.62
233.477	69.62
233.711	74.62
233.945	65.62
234.179	69.62
234.413	80.62
234.647	66.62
234.881	69.62
235.115	78.62
235.349	83.62
235.583	88.62
235.817	74.62
236.051	74.62
236.285	72.62
236.519	93.62
236.753	66.62
236.987	67.62
237.221	85.62
237.455	82.62
237.689	68.62
237.922	91.62
238.156	67.62
238.39	63.62
238.624	65.62
238.858	77.62
239.091	64.62
239.325	57.62
239.559	80.62
239.793	80.62
240.027	83.62
240.26	72.62
240.494	85.62
240.728	68.62
240.961	67.62
241.195	63.62
241.429	81.62
241.662	80.62
241.896	85.62
242.13	62.62
242.363	67.62
242.597	78.62
242.83	80.62
243.064	74.62
243.298	75.62
243.531	63.62
243.765	84.62
243.998	65.62
244.232	67.62
244.465	81.62
244.699	86.62
244.932	76.62
245.166	67.62
245.399	74.62
245.633	71.62
245.866	71.62
246.099	76.62
246.333	74.62
246.566	79.62
246.8	65.62
247.033	75.62
247.266	61.62
247.5	71.62
247.733	64.62
247.966	84.62
248.2	81.62
248.433	68.62
248.666	77.62
248.899	84.62
249.133	73.62
249.366	75.62
249.599	94.62
249.832	85.62
250.066	84.62
250.299	79.62
250.532	85.62
250.765	82.62
250.998	78.62
251.231	73.62
251.465	76.62
251.698	78.62
251.931	76.62
252.164	64.62
252.397	75.62
252.63	75.62
252.863	96.62
253.096	79.62
253.329	92.62
253.562	84.62
253.795	94.62
254.028	72.62
254.261	76.62
254.494	79.62
254.727	86.62
254.96	76.62
255.193	86.62
255.426	76.62
255.659	76.62
255.892	70.62
256.124	75.62
256.357	72.62
256.59	72.62
256.823	81.62
257.056	86.62
257.289	78.62
257.521	74.62
257.754	83.62
257.987	84.62
258.22	87.62
258.452	83.62
258.685	79.62
258.918	90.62
259.151	55.62
259.383	75.62
259.616	77.62
259.849	82.62
260.081	80.62
260.314	67.62
260.547	77.62
260.779	80.62
261.012	77.62
261.244	94.62
261.477	77.62
261.71	80.62
261.942	99.62
262.175	108.62
262.407	87.62
262.64	74.62
262.872	88.62
263.105	78.62
263.337	76.62
263.57	106.62
263.802	80.62
264.035	88.62
264.267	85.62
264.499	73.62
264.732	76.62
264.964	83.62
265.197	95.62
265.429	67.62
265.661	90.62
265.894	75.62
266.126	83.62
266.358	94.62
266.591	79.62
266.823	78.62
267.055	70.62
267.287	86.62
267.52	106.62
267.752	76.62
267.984	91.62
268.216	80.62
268.448	79.62
268.681	100.62
268.913	79.62
269.145	83.62
269.377	76.62
269.609	72.62
269.841	75.62
270.073	91.62
270.306	83.62
270.538	81.62
270.77	78.62
271.002	79.62
271.234	73.62
271.466	85.62
271.698	89.62
271.93	78.62
272.162	75.62
272.394	81.62
272.626	82.62
272.858	88.62
273.09	82.62
273.322	76.62
273.553	90.62
273.785	76.62
274.017	76.62
274.249	82.62
274.481	74.62
274.713	80.62
274.945	85.62
275.176	83.62
275.408	82.62
275.64	74.62
275.872	95.62
276.104	93.62
276.335	82.62
276.567	103.62
276.799	99.62
277.031	95.62
277.262	81.62
277.494	83.62
277.726	77.62
277.957	72.62
278.189	90.62
278.421	79.62
278.652	77.62
278.884	89.62
279.115	81.62
279.347	82.62
279.579	82.62
279.81	78.62
280.042	91.62
280.273	97.62
280.505	84.62
280.736	75.62
280.968	79.62
281.199	71.62
281.431	71.62
281.662	75.62
281.894	87.62
282.125	101.62
282.356	108.62
282.588	128.62
282.819	97.62
283.051	93.62
283.282	76.62
283.513	88.62
283.745	79.62
283.976	82.62
284.207	84.62
284.439	97.62
284.67	84.62
284.901	80.62
285.132	82.62
285.364	93.62
285.595	82.62
285.826	92.62
286.057	73.62
286.288	91.62
286.52	61.62
286.751	82.62
286.982	77.62
287.213	90.62
287.444	93.62
287.675	87.62
287.906	85.62
288.138	87.62
288.369	81.62
288.6	65.62
288.831	81.62
289.062	94.62
289.293	74.62
289.524	70.62
289.755	81.62
289.986	82.62
290.217	81.62
290.448	82.62
290.679	72.62
290.91	86.62
291.141	82.62
291.371	80.62
291.602	84.62
291.833	84.62
292.064	85.62
292.295	85.62
292.526	84.62
292.757	84.62
292.987	85.62
293.218	83.62
293.449	80.62
293.68	81.62
293.91	86.62
294.141	78.62
294.372	75.62
294.603	62.62
294.833	85.62
295.064	86.62
295.295	84.62
295.525	88.62
295.756	86.62
295.987	118.62
296.217	130.62
296.448	108.62
296.679	85.62
296.909	93.62
297.14	83.62
297.37	83.62
297.601	85.62
297.831	80.62
298.062	82.62
298.292	95.62
298.523	83.62
298.753	78.62
298.984	97.62
299.214	86.62
299.445	97.62
299.675	77.62
299.905	82.62
300.136	82.62
300.366	91.62
300.597	87.62
300.827	101.62
301.057	91.62
301.288	87.62
301.518	92.62
301.748	79.62
301.979	95.62
302.209	76.62
302.439	87.62
302.669	102.62
302.9	97.62
303.13	81.62
303.36	95.62
303.59	94.62
303.82	99.62
304.051	79.62
304.281	81.62
304.511	89.62
304.741	100.62
304.971	91.62
305.201	82.62
305.431	82.62
305.661	75.62
305.891	94.62
306.121	96.62
306.352	99.62
306.582	92.62
306.812	115.62
307.042	70.62
307.272	69.62
307.502	100.62
307.731	85.62
307.961	72.62
308.191	86.62
308.421	91.62
308.651	91.62
308.881	80.62
309.111	99.62
309.341	99.62
309.571	83.62
309.8	95.62
310.03	102.62
310.26	89.62
310.49	85.62
310.72	87.62
310.949	108.62
311.179	69.62
311.409	90.62
311.639	103.62
311.868	102.62
312.098	95.62
312.328	80.62
312.557	91.62
312.787	96.62
313.017	86.62
313.246	85.62
313.476	85.62
313.706	92.62
313.935	87.62
314.165	98.62
314.394	91.62
314.624	94.62
314.853	98.62
315.083	93.62
315.312	88.62
315.542	83.62
315.771	92.62
316.001	82.62
316.23	102.62
316.46	86.62
316.689	81.62
316.919	85.62
317.148	101.62
317.377	109.62
317.607	91.62
317.836	90.62
318.065	79.62
318.295	80.62
318.524	69.62
318.753	88.62
318.983	94.62
319.212	100.62
319.441	97.62
319.67	115.62
319.9	85.62
320.129	93.62
320.358	91.62
320.587	84.62
320.816	104.62
321.046	102.62
321.275	96.62
321.504	86.62
321.733	84.62
321.962	109.62
322.191	110.62
322.42	92.62
322.649	109.62
322.878	112.62
323.108	116.62
323.337	113.62
323.566	121.62
323.795	141.62
324.024	178.62
324.253	372.62
324.482	801.62
324.71	1634.62
324.939	2127.62
325.168	785.62
325.397	238.62
325.626	150.62
325.855	132.62
326.084	137.62
326.313	128.62
326.542	140.62
326.77	225.62
326.999	449.62
327.228	913.62
327.457	1652.62
327.686	1312.62
327.914	341.62
328.143	185.62
328.372	131.62
328.6	126.62
328.829	102.62
329.058	108.62
329.287	126.62
329.515	96.62
329.744	97.62
329.972	101.62
330.201	100.62
330.43	87.62
330.658	119.62
330.887	131.62
331.115	109.62
331.344	99.62
331.572	91.62
331.801	100.62
332.03	89.62
332.258	104.62
332.486	86.62
332.715	86.62
332.943	105.62
333.172	96.62
333.4	91.62
333.629	99.62
333.857	101.62
334.085	105.62
334.314	99.62
334.542	99.62
334.771	106.62
334.999	103.62
335.227	92.62
335.455	93.62
335.684	100.62
335.912	86.62
336.14	84.62
336.369	108.62
336.597	90.62
336.825	94.62
337.053	99.62
337.281	93.62
337.51	83.62
337.738	85.62
337.966	86.62
338.194	89.62
338.422	91.62
338.65	77.62
338.878	91.62
339.106	89.62
339.334	90.62
339.562	85.62
339.79	77.62
340.018	88.62
340.246	93.62
340.474	88.62
340.702	90.62
340.93	92.62
341.158	71.62
341.386	84.62
341.614	89.62
341.842	92.62
342.07	93.62
342.298	68.62
342.526	83.62
342.754	82.62
342.981	74.62
343.209	88.62
343.437	100.62
343.665	92.62
343.893	93.62
344.12	98.62
344.348	94.62
344.576	91.62
344.804	102.62
345.031	97.62
345.259	87.62
345.487	90.62
345.714	87.62
345.942	95.62
346.17	86.62
346.397	94.62
346.625	84.62
346.853	84.62
347.08	76.62
347.308	92.62
347.535	94.62
347.763	86.62
347.99	107.62
348.218	95.62
348.445	91.62
348.673	92.62
348.9	100.62
349.128	91.62
349.355	83.62
349.583	96.62
349.81	97.62
350.037	79.62
350.265	89.62
350.492	99.62
350.72	91.62
350.947	114.62
351.174	118.62
351.402	104.62
351.629	88.62
351.856	97.62
352.083	97.62
352.311	110.62
352.538	107.62
352.765	110.62
352.992	97.62
353.22	109.62
353.447	107.62
353.674	114.62
353.901	87.62
354.128	93.62
354.355	93.62
354.583	96.62
354.81	94.62
355.037	88.62
355.264	110.62
355.491	97.62
355.718	89.62
355.945	100.62
356.172	100.62
356.399	104.62
356.626	89.62
356.853	91.62
357.08	89.62
357.307	76.62
357.534	80.62
357.761	89.62
357.988	84.62
358.215	106.62
358.441	84.62
358.668	91.62
358.895	96.62
359.122	84.62
359.349	96.62
359.576	101.62
359.802	108.62
360.029	98.62
360.256	109.62
360.483	90.62
360.709	78.62
360.936	89.62
361.163	73.62
361.39	89.62
361.616	88.62
361.843	85.62
362.07	83.62
362.296	102.62
362.523	83.62
362.749	86.62
362.976	86.62
363.203	81.62
363.429	86.62
363.656	95.62
363.882	93.62
364.109	94.62
364.335	89.62
364.562	84.62
364.788	86.62
365.015	86.62
365.241	89.62
365.468	98.62
365.694	105.62
365.92	80.62
366.147	100.62
366.373	92.62
366.599	92.62
366.826	82.62
367.052	80.62
367.278	83.62
367.505	93.62
367.731	94.62
367.957	75.62
368.184	95.62
368.41	109.62
368.636	116.62
368.862	100.62
369.089	89.62
369.315	93.62
369.541	80.62
369.767	92.62
369.993	93.62
370.219	88.62
370.445	72.62
370.672	75.62
370.898	80.62
371.124	85.62
371.35	94.62
371.576	73.62
371.802	92.62
372.028	69.62
372.254	87.62
372.48	91.62
372.706	87.62
372.932	99.62
373.158	97.62
373.384	91.62
373.61	106.62
373.835	94.62
374.061	83.62
374.287	84.62
374.513	92.62
374.739	81.62
374.965	77.62
375.191	85.62
375.416	69.62
375.642	94.62
375.868	93.62
376.094	84.62
376.319	76.62
376.545	83.62
376.771	80.62
376.997	93.62
377.222	89.62
377.448	89.62
377.674	90.62
377.899	92.62
378.125	98.62
378.35	82.62
378.576	86.62
378.802	83.62
379.027	92.62
379.253	92.62
379.478	93.62
379.704	75.62
379.929	74.62
380.155	90.62
380.38	79.62
380.606	100.62
380.831	93.62
381.057	77.62
381.282	91.62
381.507	91.62
381.733	97.62
381.958	91.62
382.184	84.62
382.409	104.62
382.634	98.62
382.86	88.62
383.085	88.62
383.31	91.62
383.535	107.62
383.761	99.62
383.986	103.62
384.211	85.62
384.436	106.62
384.662	94.62
384.887	111.62
385.112	101.62
385.337	100.62
385.562	102.62
385.787	95.62
386.013	102.62
386.238	119.62
386.463	96.62
386.688	96.62
386.913	92.62
387.138	93.62
387.363	103.62
387.588	107.62
387.813	106.62
388.038	99.62
388.263	104.62
388.488	107.62
388.713	93.62
388.938	106.62
389.163	89.62
389.387	95.62
389.612	87.62
389.837	95.62
390.062	88.62
390.287	83.62
390.512	102.62
390.736	84.62
390.961	94.62
391.186	93.62
391.411	91.62
391.636	104.62
391.86	93.62
392.085	96.62
392.31	78.62
392.534	91.62
392.759	83.62
392.984	84.62
393.208	94.62
393.433	90.62
393.658	83.62
393.882	92.62
394.107	74.62
394.331	68.62
394.556	92.62
394.78	92.62
395.005	112.62
395.229	77.62
395.454	71.62
395.678	98.62
395.903	77.62
396.127	78.62
396.352	99.62
396.576	66.62
396.801	93.62
397.025	79.62
397.249	78.62
397.474	80.62
397.698	89.62
397.922	105.62
398.147	71.62
398.371	76.62
398.595	81.62
398.82	78.62
399.044	95.62
399.268	82.62
399.492	68.62
399.717	68.62
399.941	83.62
400.165	85.62
400.389	91.62
400.613	92.62
400.837	99.62
401.062	86.62
401.286	85.62
401.51	78.62
401.734	82.62
401.958	90.62
402.182	109.62
402.406	151.62
402.63	109.62
402.854	71.62
403.078	75.62
403.302	93.62
403.526	81.62
403.75	74.62
403.974	84.62
404.198	69.62
404.422	93.62
404.645	82.62
404.869	91.62
405.093	88.62
405.317	80.62
405.541	105.62
405.765	80.62
405.988	106.62
406.212	161.62
406.436	219.62
406.66	117.62
406.883	87.62
407.107	82.62
407.331	98.62
407.555	93.62
407.778	82.62
408.002	84.62
408.226	103.62
408.449	78.62
408.673	87.62
408.896	99.62
409.12	94.62
409.344	83.62
409.567	93.62
409.791	87.62
410.014	80.62
410.238	100.62
410.461	95.62
410.685	94.62
410.908	97.62
411.132	96.62
411.355	107.62
411.578	102.62
411.802	85.62
412.025	102.62
412.249	86.62
412.472	84.62
412.695	94.62
412.919	86.62
413.142	71.62
413.365	79.62
413.589	76.62
413.812	73.62
414.035	86.62
414.258	93.62
414.482	91.62
414.705	77.62
414.928	79.62
415.151	84.62
415.374	81.62
415.597	83.62
415.821	85.62
416.044	87.62
416.267	72.62
416.49	80.62
416.713	78.62
416.936	84.62
417.159	103.62
417.382	82.62
417.605	78.62
417.828	84.62
418.051	96.62
418.274	94.62
418.497	104.62
418.72	80.62
418.943	64.62
419.166	87.62
419.389	97.62
419.611	75.62
419.834	83.62
420.057	84.62
420.28	71.62
420.503	73.62
420.726	87.62
420.948	86.62
421.171	79.62
421.394	74.62
421.617	82.62
421.839	85.62
422.062	94.62
422.285	79.62
422.507	92.62
422.73	73.62
422.953	77.62
423.175	87.62
423.398	70.62
423.621	89.62
423.843	86.62
424.066	91.62
424.288	94.62
424.511	90.62
424.733	106.62
424.956	95.62
425.178	101.62
425.401	92.62
425.623	81.62
425.846	98.62
426.068	88.62
426.291	87.62
426.513	75.62
426.735	93.62
426.958	65.62
427.18	90.62
427.402	132.62
427.625	145.62
427.847	110.62
428.069	108.62
428.292	88.62
428.514	102.62
428.736	86.62
428.958	80.62
429.181	99.62
429.403	83.62
429.625	79.62
429.847	66.62
430.069	71.62
430.292	86.62
430.514	80.62
430.736	87.62
430.958	88.62
431.18	75.62
431.402	80.62
431.624	90.62
431.846	84.62
432.068	93.62
432.29	89.62
432.512	90.62
432.734	89.62
432.956	76.62
433.178	81.62
433.4	88.62
433.622	83.62
433.844	89.62
434.066	86.62
434.287	91.62
434.509	92.62
434.731	102.62
434.953	84.62
435.175	84.62
435.397	95.62
435.618	96.62
435.84	93.62
436.062	122.62
436.284	112.62
436.505	105.62
436.727	94.62
436.949	83.62
437.17	87.62
437.392	90.62
437.614	95.62
437.835	103.62
438.057	104.62
438.278	91.62
438.5	88.62
438.721	101.62
438.943	90.62
439.165	76.62
439.386	88.62
439.608	86.62
439.829	93.62
440.05	107.62
440.272	114.62
440.493	101.62
440.715	81.62
440.936	83.62
441.158	76.62
441.379	71.62
441.6	87.62
441.822	96.62
442.043	75.62
442.264	98.62
442.486	98.62
442.707	81.62
442.928	98.62
443.149	114.62
443.371	110.62
443.592	100.62
443.813	106.62
444.034	112.62
444.255	78.62
444.476	82.62
444.698	79.62
444.919	84.62
445.14	122.62
445.361	135.62
445.582	128.62
445.803	117.62
446.024	112.62
446.245	121.62
446.466	95.62
446.687	84.62
446.908	96.62
447.129	86.62
447.35	69.62
447.571	84.62
447.792	85.62
448.013	102.62
448.234	93.62
448.455	102.62
448.675	115.62
448.896	107.62
449.117	79.62
449.338	94.62
449.559	121.62
449.779	116.62
450	92.62
450.221	84.62
450.442	71.62
450.662	86.62
450.883	107.62
451.104	105.62
451.324	90.62
451.545	92.62
451.766	85.62
451.986	82.62
452.207	100.62
452.428	97.62
452.648	95.62
452.869	112.62
453.089	121.62
453.31	96.62
453.53	98.62
453.751	73.62
453.971	90.62
454.192	91.62
454.412	74.62
454.633	96.62
454.853	80.62
455.073	93.62
455.294	76.62
455.514	90.62
455.734	93.62
455.955	78.62
456.175	79.62
456.395	77.62
456.616	87.62
456.836	86.62
457.056	86.62
457.276	78.62
457.497	90.62
457.717	79.62
457.937	76.62
458.157	77.62
458.377	96.62
458.598	93.62
458.818	134.62
459.038	143.62
459.258	101.62
459.478	72.62
459.698	83.62
459.918	84.62
460.138	81.62
460.358	93.62
460.578	75.62
460.798	92.62
461.018	97.62
461.238	91.62
461.458	96.62
461.678	75.62
461.898	97.62
462.118	96.62
462.338	71.62
462.558	93.62
462.777	80.62
462.997	84.62
463.217	80.62
463.437	88.62
463.657	78.62
463.876	77.62
464.096	82.62
464.316	82.62
464.536	84.62
464.755	92.62
464.975	102.62
465.195	146.62
465.414	136.62
465.634	86.62
465.854	81.62
466.073	79.62
466.293	71.62
466.512	73.62
466.732	85.62
466.951	75.62
467.171	91.62
467.391	97.62
467.61	97.62
467.829	87.62
468.049	86.62
468.268	96.62
468.488	79.62
468.707	93.62
468.927	87.62
469.146	79.62
469.365	81.62
469.585	82.62
469.804	91.62
470.023	94.62
470.243	86.62
470.462	89.62
470.681	89.62
470.901	92.62
471.12	79.62
471.339	79.62
471.558	86.62
471.777	81.62
471.997	90.62
472.216	106.62
472.435	99.62
472.654	81.62
472.873	72.62
473.092	85.62
473.311	86.62
473.53	88.62
473.749	83.62
473.968	88.62
474.187	90.62
474.406	95.62
474.625	77.62
474.844	79.62
475.063	70.62
475.282	82.62
475.501	97.62
475.72	86.62
475.939	87.62
476.158	87.62
476.377	98.62
476.596	86.62
476.814	87.62
477.033	90.62
477.252	82.62
477.471	95.62
477.69	85.62
477.908	89.62
478.127	73.62
478.346	91.62
478.564	84.62
478.783	101.62
479.002	80.62
479.22	86.62
479.439	104.62
479.658	109.62
479.876	99.62
480.095	93.62
480.313	91.62
480.532	84.62
480.751	91.62
480.969	98.62
481.188	123.62
481.406	111.62
481.624	93.62
481.843	80.62
482.061	90.62
482.28	63.62
482.498	90.62
482.717	79.62
482.935	91.62
483.153	95.62
483.372	85.62
483.59	77.62
483.808	89.62
484.027	94.62
484.245	87.62
484.463	78.62
484.681	108.62
484.9	88.62
485.118	99.62
485.336	93.62
485.554	105.62
485.772	91.62
485.99	101.62
486.209	106.62
486.427	103.62
486.645	98.62
486.863	96.62
487.081	103.62
487.299	100.62
487.517	94.62
487.735	87.62
487.953	90.62
488.171	83.62
488.389	94.62
488.607	89.62
488.825	79.62
489.043	88.62
489.261	93.62
489.479	79.62
489.696	94.62
489.914	84.62
490.132	82.62
490.35	78.62
490.568	88.62
490.786	87.62
491.003	77.62
491.221	76.62
491.439	90.62
491.657	90.62
491.874	82.62
492.092	93.62
492.31	74.62
492.527	95.62
492.745	98.62
492.963	74.62
493.18	86.62
493.398	84.62
493.615	84.62
493.833	98.62
494.05	82.62
494.268	83.62
494.485	98.62
494.703	89.62
494.92	76.62
495.138	83.62
495.355	97.62
495.573	86.62
495.79	84.62
496.008	92.62
496.225	80.62
496.442	99.62
496.66	90.62
496.877	82.62
497.094	99.62
497.312	84.62
497.529	88.62
497.746	90.62
497.963	89.62
498.181	87.62
498.398	105.62
498.615	98.62
498.832	104.62
499.049	86.62
499.267	101.62
499.484	85.62
499.701	93.62
499.918	91.62
500.135	91.62
500.352	104.62
500.569	88.62
500.786	81.62
501.003	101.62
501.22	87.62
501.437	94.62
501.654	95.62
501.871	111.62
502.088	96.62
502.305	89.62
502.522	90.62
502.739	77.62
502.956	100.62
503.172	93.62
503.389	94.62
503.606	100.62
503.823	102.62
504.04	77.62
504.256	88.62
504.473	83.62
504.69	79.62
504.907	85.62
505.123	82.62
505.34	101.62
505.557	81.62
505.773	94.62
505.99	80.62
506.207	72.62
506.423	100.62
506.64	104.62
506.856	98.62
507.073	96.62
507.289	94.62
507.506	94.62
507.722	103.62
507.939	115.62
508.155	91.62
508.372	92.62
508.588	96.62
508.805	99.62
509.021	100.62
509.238	108.62
509.454	96.62
509.67	104.62
509.887	111.62
510.103	121.62
510.319	202.62
510.536	773.62
510.752	2347.62
510.968	638.62
511.184	170.62
511.401	97.62
511.617	101.62
511.833	81.62
512.049	89.62
512.265	86.62
512.481	81.62
512.698	89.62
512.914	94.62
513.13	95.62
513.346	98.62
513.562	87.62
513.778	91.62
513.994	110.62
514.21	97.62
514.426	105.62
514.642	121.62
514.858	131.62
515.074	149.62
515.29	414.62
515.506	1363.62
515.721	519.62
515.937	163.62
516.153	114.62
516.369	98.62
516.585	100.62
516.801	83.62
