Data from Uncirc_2004_H10_HRD10591_00062.txt Node
Date: Wed Jan 03 10:32:25 EST 2024
User: Yrep
Spectrometer: HR+D1059
Trigger mode: 1
Integration Time (sec): 1.000000E-1
Scans to average: 1
Electric dark correction enabled: true
Nonlinearity correction enabled: false
Boxcar width: 0
XAxis mode: Wavelengths
Number of Pixels in Spectrum: 2048
>>>>>Begin Spectral Data<<<<<
223.165	-21.31
223.4	-21.31
223.635	-21.31
223.869	-33.31
224.104	-18.31
224.338	-10.31
224.573	-10.31
224.808	-19.31
225.042	-4.31
225.277	-4.31
225.511	7.69
225.746	16.69
225.98	-3.31
226.215	10.69
226.449	21.69
226.683	29.69
226.918	16.69
227.152	21.69
227.387	46.69
227.621	31.69
227.856	40.69
228.09	47.69
228.324	42.69
228.559	61.69
228.793	49.69
229.027	71.69
229.262	57.69
229.496	79.69
229.73	70.69
229.964	95.69
230.199	88.69
230.433	81.69
230.667	81.69
230.901	81.69
231.136	80.69
231.37	87.69
231.604	71.69
231.838	93.69
232.072	65.69
232.306	88.69
232.541	89.69
232.775	77.69
233.009	78.69
233.243	92.69
233.477	67.69
233.711	82.69
233.945	78.69
234.179	86.69
234.413	82.69
234.647	86.69
234.881	79.69
235.115	89.69
235.349	73.69
235.583	88.69
235.817	75.69
236.051	87.69
236.285	81.69
236.519	82.69
236.753	88.69
236.987	74.69
237.221	72.69
237.455	80.69
237.689	80.69
237.922	89.69
238.156	78.69
238.39	68.69
238.624	85.69
238.858	85.69
239.091	79.69
239.325	83.69
239.559	89.69
239.793	91.69
240.027	100.69
240.26	90.69
240.494	82.69
240.728	81.69
240.961	67.69
241.195	83.69
241.429	69.69
241.662	75.69
241.896	84.69
242.13	77.69
242.363	72.69
242.597	67.69
242.83	60.69
243.064	77.69
243.298	88.69
243.531	91.69
243.765	97.69
243.998	75.69
244.232	83.69
244.465	90.69
244.699	73.69
244.932	90.69
245.166	79.69
245.399	77.69
245.633	81.69
245.866	87.69
246.099	86.69
246.333	85.69
246.566	79.69
246.8	84.69
247.033	74.69
247.266	82.69
247.5	81.69
247.733	67.69
247.966	80.69
248.2	87.69
248.433	68.69
248.666	85.69
248.899	95.69
249.133	78.69
249.366	79.69
249.599	93.69
249.832	92.69
250.066	85.69
250.299	93.69
250.532	85.69
250.765	83.69
250.998	89.69
251.231	73.69
251.465	84.69
251.698	77.69
251.931	66.69
252.164	78.69
252.397	76.69
252.63	65.69
252.863	79.69
253.096	97.69
253.329	75.69
253.562	84.69
253.795	88.69
254.028	82.69
254.261	90.69
254.494	85.69
254.727	89.69
254.96	91.69
255.193	74.69
255.426	77.69
255.659	78.69
255.892	88.69
256.124	76.69
256.357	78.69
256.59	86.69
256.823	66.69
257.056	89.69
257.289	84.69
257.521	79.69
257.754	77.69
257.987	86.69
258.22	80.69
258.452	92.69
258.685	76.69
258.918	92.69
259.151	82.69
259.383	80.69
259.616	84.69
259.849	82.69
260.081	92.69
260.314	71.69
260.547	85.69
260.779	87.69
261.012	88.69
261.244	82.69
261.477	98.69
261.71	98.69
261.942	93.69
262.175	115.69
262.407	105.69
262.64	79.69
262.872	84.69
263.105	89.69
263.337	89.69
263.57	94.69
263.802	84.69
264.035	88.69
264.267	70.69
264.499	84.69
264.732	90.69
264.964	96.69
265.197	89.69
265.429	85.69
265.661	70.69
265.894	88.69
266.126	88.69
266.358	87.69
266.591	101.69
266.823	79.69
267.055	83.69
267.287	93.69
267.52	95.69
267.752	89.69
267.984	89.69
268.216	95.69
268.448	88.69
268.681	97.69
268.913	100.69
269.145	88.69
269.377	89.69
269.609	78.69
269.841	83.69
270.073	89.69
270.306	83.69
270.538	79.69
270.77	91.69
271.002	91.69
271.234	82.69
271.466	85.69
271.698	83.69
271.93	83.69
272.162	89.69
272.394	84.69
272.626	79.69
272.858	86.69
273.09	85.69
273.322	103.69
273.553	98.69
273.785	86.69
274.017	92.69
274.249	89.69
274.481	74.69
274.713	89.69
274.945	92.69
275.176	91.69
275.408	100.69
275.64	91.69
275.872	89.69
276.104	88.69
276.335	111.69
276.567	93.69
276.799	105.69
277.031	100.69
277.262	98.69
277.494	99.69
277.726	102.69
277.957	100.69
278.189	83.69
278.421	98.69
278.652	85.69
278.884	82.69
279.115	78.69
279.347	82.69
279.579	77.69
279.81	107.69
280.042	89.69
280.273	100.69
280.505	99.69
280.736	82.69
280.968	89.69
281.199	81.69
281.431	80.69
281.662	104.69
281.894	98.69
282.125	107.69
282.356	116.69
282.588	124.69
282.819	119.69
283.051	87.69
283.282	87.69
283.513	93.69
283.745	93.69
283.976	87.69
284.207	77.69
284.439	98.69
284.67	77.69
284.901	98.69
285.132	97.69
285.364	89.69
285.595	90.69
285.826	93.69
286.057	99.69
286.288	84.69
286.52	98.69
286.751	100.69
286.982	99.69
287.213	98.69
287.444	92.69
287.675	84.69
287.906	83.69
288.138	88.69
288.369	92.69
288.6	104.69
288.831	108.69
289.062	91.69
289.293	97.69
289.524	80.69
289.755	110.69
289.986	82.69
290.217	96.69
290.448	80.69
290.679	96.69
290.91	89.69
291.141	92.69
291.371	103.69
291.602	91.69
291.833	84.69
292.064	94.69
292.295	77.69
292.526	100.69
292.757	87.69
292.987	107.69
293.218	101.69
293.449	106.69
293.68	83.69
293.91	81.69
294.141	100.69
294.372	96.69
294.603	89.69
294.833	99.69
295.064	104.69
295.295	82.69
295.525	92.69
295.756	101.69
295.987	100.69
296.217	127.69
296.448	118.69
296.679	97.69
296.909	106.69
297.14	87.69
297.37	90.69
297.601	95.69
297.831	93.69
298.062	79.69
298.292	101.69
298.523	93.69
298.753	85.69
298.984	97.69
299.214	89.69
299.445	89.69
299.675	111.69
299.905	106.69
300.136	103.69
300.366	89.69
300.597	91.69
300.827	92.69
301.057	108.69
301.288	96.69
301.518	92.69
301.748	89.69
301.979	107.69
302.209	82.69
302.439	97.69
302.669	93.69
302.9	100.69
303.13	93.69
303.36	98.69
303.59	96.69
303.82	105.69
304.051	94.69
304.281	95.69
304.511	91.69
304.741	102.69
304.971	98.69
305.201	110.69
305.431	100.69
305.661	85.69
305.891	87.69
306.121	95.69
306.352	98.69
306.582	96.69
306.812	109.69
307.042	105.69
307.272	107.69
307.502	94.69
307.731	90.69
307.961	79.69
308.191	93.69
308.421	103.69
308.651	97.69
308.881	90.69
309.111	96.69
309.341	102.69
309.571	99.69
309.8	94.69
310.03	105.69
310.26	110.69
310.49	85.69
310.72	97.69
310.949	108.69
311.179	97.69
311.409	91.69
311.639	98.69
311.868	87.69
312.098	91.69
312.328	89.69
312.557	88.69
312.787	117.69
313.017	98.69
313.246	102.69
313.476	89.69
313.706	95.69
313.935	96.69
314.165	102.69
314.394	97.69
314.624	91.69
314.853	107.69
315.083	102.69
315.312	97.69
315.542	95.69
315.771	101.69
316.001	113.69
316.23	92.69
316.46	100.69
316.689	94.69
316.919	96.69
317.148	93.69
317.377	104.69
317.607	103.69
317.836	93.69
318.065	89.69
318.295	92.69
318.524	76.69
318.753	90.69
318.983	81.69
319.212	112.69
319.441	121.69
319.67	96.69
319.9	96.69
320.129	90.69
320.358	96.69
320.587	102.69
320.816	89.69
321.046	106.69
321.275	100.69
321.504	104.69
321.733	98.69
321.962	99.69
322.191	100.69
322.42	103.69
322.649	129.69
322.878	108.69
323.108	116.69
323.337	123.69
323.566	128.69
323.795	151.69
324.024	205.69
324.253	381.69
324.482	816.69
324.71	1612.69
324.939	2151.69
325.168	803.69
325.397	216.69
325.626	147.69
325.855	138.69
326.084	111.69
326.313	127.69
326.542	158.69
326.77	236.69
326.999	476.69
327.228	927.69
327.457	1701.69
327.686	1317.69
327.914	358.69
328.143	169.69
328.372	149.69
328.6	127.69
328.829	124.69
329.058	121.69
329.287	124.69
329.515	118.69
329.744	110.69
329.972	109.69
330.201	106.69
330.43	108.69
330.658	110.69
330.887	139.69
331.115	114.69
331.344	110.69
331.572	114.69
331.801	114.69
332.03	115.69
332.258	96.69
332.486	98.69
332.715	97.69
332.943	107.69
333.172	97.69
333.4	99.69
333.629	119.69
333.857	110.69
334.085	115.69
334.314	110.69
334.542	103.69
334.771	91.69
334.999	101.69
335.227	95.69
335.455	96.69
335.684	83.69
335.912	101.69
336.14	101.69
336.369	104.69
336.597	108.69
336.825	101.69
337.053	85.69
337.281	81.69
337.51	98.69
337.738	101.69
337.966	74.69
338.194	109.69
338.422	84.69
338.65	89.69
338.878	102.69
339.106	104.69
339.334	106.69
339.562	91.69
339.79	89.69
340.018	93.69
340.246	100.69
340.474	95.69
340.702	94.69
340.93	92.69
341.158	105.69
341.386	93.69
341.614	95.69
341.842	107.69
342.07	82.69
342.298	91.69
342.526	96.69
342.754	92.69
342.981	92.69
343.209	84.69
343.437	96.69
343.665	97.69
343.893	89.69
344.12	99.69
344.348	80.69
344.576	97.69
344.804	97.69
345.031	103.69
345.259	98.69
345.487	96.69
345.714	95.69
345.942	100.69
346.17	83.69
346.397	101.69
346.625	107.69
346.853	97.69
347.08	88.69
347.308	106.69
347.535	97.69
347.763	110.69
347.99	106.69
348.218	94.69
348.445	112.69
348.673	105.69
348.9	109.69
349.128	106.69
349.355	98.69
349.583	85.69
349.81	87.69
350.037	91.69
350.265	93.69
350.492	92.69
350.72	96.69
350.947	105.69
351.174	106.69
351.402	102.69
351.629	105.69
351.856	94.69
352.083	90.69
352.311	115.69
352.538	111.69
352.765	104.69
352.992	115.69
353.22	114.69
353.447	102.69
353.674	99.69
353.901	105.69
354.128	93.69
354.355	100.69
354.583	105.69
354.81	99.69
355.037	93.69
355.264	99.69
355.491	86.69
355.718	93.69
355.945	104.69
356.172	91.69
356.399	94.69
356.626	82.69
356.853	84.69
357.08	94.69
357.307	88.69
357.534	98.69
357.761	83.69
357.988	99.69
358.215	101.69
358.441	105.69
358.668	87.69
358.895	93.69
359.122	110.69
359.349	97.69
359.576	101.69
359.802	83.69
360.029	101.69
360.256	104.69
360.483	107.69
360.709	91.69
360.936	103.69
361.163	108.69
361.39	104.69
361.616	99.69
361.843	100.69
362.07	97.69
362.296	98.69
362.523	85.69
362.749	101.69
362.976	94.69
363.203	83.69
363.429	83.69
363.656	101.69
363.882	86.69
364.109	93.69
364.335	101.69
364.562	108.69
364.788	84.69
365.015	83.69
365.241	112.69
365.468	113.69
365.694	92.69
365.92	89.69
366.147	84.69
366.373	92.69
366.599	75.69
366.826	107.69
367.052	99.69
367.278	93.69
367.505	101.69
367.731	93.69
367.957	99.69
368.184	85.69
368.41	99.69
368.636	118.69
368.862	113.69
369.089	117.69
369.315	101.69
369.541	94.69
369.767	87.69
369.993	85.69
370.219	82.69
370.445	88.69
370.672	81.69
370.898	76.69
371.124	96.69
371.35	81.69
371.576	99.69
371.802	81.69
372.028	79.69
372.254	84.69
372.48	87.69
372.706	99.69
372.932	101.69
373.158	90.69
373.384	101.69
373.61	97.69
373.835	93.69
374.061	81.69
374.287	87.69
374.513	103.69
374.739	96.69
374.965	94.69
375.191	108.69
375.416	85.69
375.642	87.69
375.868	99.69
376.094	108.69
376.319	87.69
376.545	89.69
376.771	104.69
376.997	88.69
377.222	86.69
377.448	101.69
377.674	94.69
377.899	94.69
378.125	90.69
378.35	92.69
378.576	105.69
378.802	91.69
379.027	85.69
379.253	97.69
379.478	94.69
379.704	82.69
379.929	108.69
380.155	97.69
380.38	98.69
380.606	86.69
380.831	106.69
381.057	105.69
381.282	91.69
381.507	77.69
381.733	96.69
381.958	106.69
382.184	101.69
382.409	117.69
382.634	97.69
382.86	85.69
383.085	88.69
383.31	113.69
383.535	111.69
383.761	105.69
383.986	97.69
384.211	114.69
384.436	107.69
384.662	88.69
384.887	99.69
385.112	108.69
385.337	106.69
385.562	105.69
385.787	112.69
386.013	113.69
386.238	125.69
386.463	91.69
386.688	111.69
386.913	103.69
387.138	109.69
387.363	99.69
387.588	91.69
387.813	105.69
388.038	107.69
388.263	106.69
388.488	104.69
388.713	105.69
388.938	108.69
389.163	79.69
389.387	95.69
389.612	106.69
389.837	104.69
390.062	106.69
390.287	97.69
390.512	97.69
390.736	96.69
390.961	97.69
391.186	85.69
391.411	103.69
391.636	91.69
391.86	95.69
392.085	97.69
392.31	104.69
392.534	96.69
392.759	85.69
392.984	84.69
393.208	91.69
393.433	98.69
393.658	93.69
393.882	90.69
394.107	105.69
394.331	89.69
394.556	82.69
394.78	101.69
395.005	98.69
395.229	88.69
395.454	81.69
395.678	79.69
395.903	91.69
396.127	100.69
396.352	94.69
396.576	98.69
396.801	77.69
397.025	82.69
397.249	86.69
397.474	102.69
397.698	85.69
397.922	95.69
398.147	86.69
398.371	104.69
398.595	80.69
398.82	90.69
399.044	89.69
399.268	93.69
399.492	83.69
399.717	92.69
399.941	97.69
400.165	110.69
400.389	97.69
400.613	91.69
400.837	81.69
401.062	80.69
401.286	77.69
401.51	95.69
401.734	99.69
401.958	97.69
402.182	139.69
402.406	154.69
402.63	115.69
402.854	83.69
403.078	96.69
403.302	99.69
403.526	88.69
403.75	83.69
403.974	87.69
404.198	93.69
404.422	87.69
404.645	89.69
404.869	97.69
405.093	96.69
405.317	102.69
405.541	99.69
405.765	105.69
405.988	111.69
406.212	179.69
406.436	213.69
406.66	143.69
406.883	98.69
407.107	96.69
407.331	90.69
407.555	98.69
407.778	88.69
408.002	96.69
408.226	92.69
408.449	99.69
408.673	82.69
408.896	99.69
409.12	103.69
409.344	88.69
409.567	78.69
409.791	103.69
410.014	88.69
410.238	93.69
410.461	89.69
410.685	101.69
410.908	98.69
411.132	90.69
411.355	96.69
411.578	94.69
411.802	79.69
412.025	83.69
412.249	102.69
412.472	83.69
412.695	93.69
412.919	87.69
413.142	86.69
413.365	96.69
413.589	97.69
413.812	89.69
414.035	99.69
414.258	116.69
414.482	92.69
414.705	84.69
414.928	92.69
415.151	101.69
415.374	104.69
415.597	96.69
415.821	94.69
416.044	88.69
416.267	97.69
416.49	97.69
416.713	90.69
416.936	92.69
417.159	96.69
417.382	93.69
417.605	101.69
417.828	93.69
418.051	93.69
418.274	93.69
418.497	74.69
418.72	81.69
418.943	88.69
419.166	95.69
419.389	90.69
419.611	105.69
419.834	87.69
420.057	87.69
420.28	87.69
420.503	99.69
420.726	86.69
420.948	82.69
421.171	87.69
421.394	103.69
421.617	87.69
421.839	91.69
422.062	109.69
422.285	86.69
422.507	104.69
422.73	96.69
422.953	82.69
423.175	86.69
423.398	84.69
423.621	88.69
423.843	98.69
424.066	93.69
424.288	93.69
424.511	97.69
424.733	108.69
424.956	88.69
425.178	99.69
425.401	110.69
425.623	95.69
425.846	83.69
426.068	87.69
426.291	104.69
426.513	93.69
426.735	97.69
426.958	83.69
427.18	99.69
427.402	129.69
427.625	163.69
427.847	125.69
428.069	101.69
428.292	90.69
428.514	80.69
428.736	78.69
428.958	82.69
429.181	90.69
429.403	92.69
429.625	83.69
429.847	92.69
430.069	99.69
430.292	93.69
430.514	86.69
430.736	88.69
430.958	89.69
431.18	84.69
431.402	80.69
431.624	83.69
431.846	97.69
432.068	93.69
432.29	104.69
432.512	82.69
432.734	73.69
432.956	87.69
433.178	115.69
433.4	100.69
433.622	89.69
433.844	96.69
434.066	106.69
434.287	87.69
434.509	107.69
434.731	104.69
434.953	94.69
435.175	113.69
435.397	89.69
435.618	94.69
435.84	96.69
436.062	114.69
436.284	109.69
436.505	111.69
436.727	98.69
436.949	90.69
437.17	87.69
437.392	76.69
437.614	111.69
437.835	111.69
438.057	114.69
438.278	108.69
438.5	119.69
438.721	127.69
438.943	113.69
439.165	97.69
439.386	88.69
439.608	85.69
439.829	97.69
440.05	113.69
440.272	121.69
440.493	87.69
440.715	99.69
440.936	112.69
441.158	94.69
441.379	91.69
441.6	86.69
441.822	91.69
442.043	88.69
442.264	106.69
442.486	104.69
442.707	98.69
442.928	90.69
443.149	133.69
443.371	110.69
443.592	100.69
443.813	122.69
444.034	113.69
444.255	96.69
444.476	97.69
444.698	88.69
444.919	104.69
445.14	125.69
445.361	117.69
445.582	111.69
445.803	128.69
446.024	131.69
446.245	132.69
446.466	112.69
446.687	93.69
446.908	82.69
447.129	95.69
447.35	92.69
447.571	88.69
447.792	90.69
448.013	104.69
448.234	113.69
448.455	105.69
448.675	110.69
448.896	123.69
449.117	99.69
449.338	106.69
449.559	124.69
449.779	115.69
450	100.69
450.221	97.69
450.442	91.69
450.662	92.69
450.883	112.69
451.104	110.69
451.324	92.69
451.545	96.69
451.766	93.69
451.986	80.69
452.207	98.69
452.428	96.69
452.648	108.69
452.869	119.69
453.089	107.69
453.31	110.69
453.53	101.69
453.751	103.69
453.971	106.69
454.192	119.69
454.412	99.69
454.633	99.69
454.853	84.69
455.073	87.69
455.294	84.69
455.514	108.69
455.734	82.69
455.955	96.69
456.175	95.69
456.395	97.69
456.616	92.69
456.836	87.69
457.056	101.69
457.276	92.69
457.497	100.69
457.717	86.69
457.937	80.69
458.157	86.69
458.377	100.69
458.598	90.69
458.818	135.69
459.038	157.69
459.258	118.69
459.478	92.69
459.698	99.69
459.918	84.69
460.138	84.69
460.358	95.69
460.578	95.69
460.798	100.69
461.018	90.69
461.238	97.69
461.458	101.69
461.678	96.69
461.898	87.69
462.118	88.69
462.338	95.69
462.558	95.69
462.777	93.69
462.997	83.69
463.217	96.69
463.437	95.69
463.657	94.69
463.876	85.69
464.096	88.69
464.316	88.69
464.536	94.69
464.755	101.69
464.975	94.69
465.195	166.69
465.414	155.69
465.634	90.69
465.854	92.69
466.073	86.69
466.293	87.69
466.512	82.69
466.732	76.69
466.951	96.69
467.171	100.69
467.391	96.69
467.61	90.69
467.829	82.69
468.049	92.69
468.268	92.69
468.488	87.69
468.707	75.69
468.927	86.69
469.146	81.69
469.365	88.69
469.585	92.69
469.804	105.69
470.023	98.69
470.243	87.69
470.462	99.69
470.681	107.69
470.901	107.69
471.12	89.69
471.339	84.69
471.558	93.69
471.777	90.69
471.997	85.69
472.216	113.69
472.435	107.69
472.654	96.69
472.873	88.69
473.092	89.69
473.311	89.69
473.53	86.69
473.749	82.69
473.968	97.69
474.187	106.69
474.406	82.69
474.625	86.69
474.844	99.69
475.063	90.69
475.282	80.69
475.501	88.69
475.72	109.69
475.939	85.69
476.158	85.69
476.377	85.69
476.596	79.69
476.814	93.69
477.033	88.69
477.252	100.69
477.471	94.69
477.69	81.69
477.908	95.69
478.127	85.69
478.346	86.69
478.564	91.69
478.783	96.69
479.002	94.69
479.22	87.69
479.439	93.69
479.658	93.69
479.876	98.69
480.095	86.69
480.313	104.69
480.532	109.69
480.751	95.69
480.969	103.69
481.188	111.69
481.406	103.69
481.624	82.69
481.843	82.69
482.061	95.69
482.28	91.69
482.498	86.69
482.717	98.69
482.935	85.69
483.153	94.69
483.372	97.69
483.59	86.69
483.808	88.69
484.027	83.69
484.245	104.69
484.463	99.69
484.681	92.69
484.9	86.69
485.118	105.69
485.336	105.69
485.554	93.69
485.772	103.69
485.99	110.69
486.209	108.69
486.427	98.69
486.645	108.69
486.863	119.69
487.081	111.69
487.299	88.69
487.517	104.69
487.735	102.69
487.953	86.69
488.171	98.69
488.389	95.69
488.607	97.69
488.825	85.69
489.043	85.69
489.261	92.69
489.479	93.69
489.696	85.69
489.914	101.69
490.132	104.69
490.35	98.69
490.568	107.69
490.786	90.69
491.003	92.69
491.221	96.69
491.439	89.69
491.657	95.69
491.874	100.69
492.092	84.69
492.31	85.69
492.527	95.69
492.745	91.69
492.963	88.69
493.18	93.69
493.398	91.69
493.615	100.69
493.833	103.69
494.05	102.69
494.268	88.69
494.485	90.69
494.703	100.69
494.92	93.69
495.138	100.69
495.355	85.69
495.573	92.69
495.79	89.69
496.008	90.69
496.225	83.69
496.442	100.69
496.66	93.69
496.877	104.69
497.094	104.69
497.312	93.69
497.529	73.69
497.746	102.69
497.963	86.69
498.181	85.69
498.398	97.69
498.615	107.69
498.832	106.69
499.049	103.69
499.267	97.69
499.484	98.69
499.701	99.69
499.918	95.69
500.135	72.69
500.352	92.69
500.569	114.69
500.786	96.69
501.003	96.69
501.22	88.69
501.437	96.69
501.654	96.69
501.871	97.69
502.088	102.69
502.305	84.69
502.522	89.69
502.739	87.69
502.956	78.69
503.172	103.69
503.389	84.69
503.606	97.69
503.823	99.69
504.04	98.69
504.256	85.69
504.473	104.69
504.69	83.69
504.907	92.69
505.123	98.69
505.34	99.69
505.557	92.69
505.773	88.69
505.99	88.69
506.207	80.69
506.423	86.69
506.64	103.69
506.856	86.69
507.073	96.69
507.289	101.69
507.506	93.69
507.722	116.69
507.939	111.69
508.155	106.69
508.372	95.69
508.588	93.69
508.805	100.69
509.021	99.69
509.238	112.69
509.454	106.69
509.67	101.69
509.887	115.69
510.103	136.69
510.319	229.69
510.536	823.69
510.752	2550.69
510.968	695.69
511.184	165.69
511.401	119.69
511.617	99.69
511.833	98.69
512.049	86.69
512.265	105.69
512.481	99.69
512.698	102.69
512.914	100.69
513.13	102.69
513.346	93.69
513.562	102.69
513.778	90.69
513.994	106.69
514.21	98.69
514.426	111.69
