Data from Uncirc_2004_H10_HRD10591_00045.txt Node
Date: Wed Jan 03 10:32:21 EST 2024
User: Yrep
Spectrometer: HR+D1059
Trigger mode: 1
Integration Time (sec): 1.000000E-1
Scans to average: 1
Electric dark correction enabled: true
Nonlinearity correction enabled: false
Boxcar width: 0
XAxis mode: Wavelengths
Number of Pixels in Spectrum: 2048
>>>>>Begin Spectral Data<<<<<
223.165	-15.56
223.4	-15.56
223.635	-15.56
223.869	-8.56
224.104	-14.56
224.338	-25.56
224.573	-23.56
224.808	-13.56
225.042	-9.56
225.277	-8.56
225.511	0.44
225.746	7.44
225.98	3.44
226.215	17.44
226.449	17.44
226.683	23.44
226.918	17.44
227.152	32.44
227.387	39.44
227.621	28.44
227.856	58.44
228.09	51.44
228.324	45.44
228.559	54.44
228.793	51.44
229.027	64.44
229.262	61.44
229.496	73.44
229.73	68.44
229.964	81.44
230.199	74.44
230.433	68.44
230.667	91.44
230.901	79.44
231.136	74.44
231.37	73.44
231.604	85.44
231.838	79.44
232.072	75.44
232.306	77.44
232.541	78.44
232.775	95.44
233.009	74.44
233.243	74.44
233.477	83.44
233.711	85.44
233.945	89.44
234.179	87.44
234.413	80.44
234.647	77.44
234.881	72.44
235.115	83.44
235.349	90.44
235.583	92.44
235.817	71.44
236.051	83.44
236.285	83.44
236.519	93.44
236.753	81.44
236.987	89.44
237.221	86.44
237.455	87.44
237.689	81.44
237.922	75.44
238.156	81.44
238.39	77.44
238.624	72.44
238.858	77.44
239.091	74.44
239.325	86.44
239.559	72.44
239.793	69.44
240.027	72.44
240.26	76.44
240.494	85.44
240.728	74.44
240.961	77.44
241.195	86.44
241.429	69.44
241.662	67.44
241.896	61.44
242.13	86.44
242.363	90.44
242.597	69.44
242.83	82.44
243.064	89.44
243.298	92.44
243.531	90.44
243.765	93.44
243.998	77.44
244.232	81.44
244.465	102.44
244.699	83.44
244.932	87.44
245.166	79.44
245.399	56.44
245.633	77.44
245.866	65.44
246.099	74.44
246.333	81.44
246.566	74.44
246.8	73.44
247.033	82.44
247.266	77.44
247.5	77.44
247.733	72.44
247.966	72.44
248.2	67.44
248.433	85.44
248.666	91.44
248.899	80.44
249.133	90.44
249.366	98.44
249.599	104.44
249.832	78.44
250.066	73.44
250.299	68.44
250.532	85.44
250.765	86.44
250.998	83.44
251.231	72.44
251.465	83.44
251.698	82.44
251.931	73.44
252.164	88.44
252.397	76.44
252.63	80.44
252.863	88.44
253.096	74.44
253.329	89.44
253.562	79.44
253.795	82.44
254.028	90.44
254.261	82.44
254.494	88.44
254.727	79.44
254.96	86.44
255.193	85.44
255.426	65.44
255.659	84.44
255.892	82.44
256.124	86.44
256.357	72.44
256.59	95.44
256.823	89.44
257.056	90.44
257.289	84.44
257.521	85.44
257.754	80.44
257.987	77.44
258.22	78.44
258.452	85.44
258.685	83.44
258.918	87.44
259.151	86.44
259.383	85.44
259.616	75.44
259.849	93.44
260.081	84.44
260.314	71.44
260.547	88.44
260.779	79.44
261.012	78.44
261.244	72.44
261.477	78.44
261.71	82.44
261.942	111.44
262.175	116.44
262.407	88.44
262.64	81.44
262.872	91.44
263.105	83.44
263.337	68.44
263.57	77.44
263.802	80.44
264.035	82.44
264.267	84.44
264.499	77.44
264.732	86.44
264.964	88.44
265.197	79.44
265.429	88.44
265.661	75.44
265.894	83.44
266.126	94.44
266.358	86.44
266.591	83.44
266.823	89.44
267.055	85.44
267.287	91.44
267.52	93.44
267.752	86.44
267.984	86.44
268.216	90.44
268.448	88.44
268.681	74.44
268.913	75.44
269.145	75.44
269.377	76.44
269.609	71.44
269.841	88.44
270.073	88.44
270.306	84.44
270.538	74.44
270.77	86.44
271.002	75.44
271.234	86.44
271.466	97.44
271.698	77.44
271.93	82.44
272.162	79.44
272.394	85.44
272.626	85.44
272.858	86.44
273.09	81.44
273.322	85.44
273.553	95.44
273.785	90.44
274.017	80.44
274.249	89.44
274.481	87.44
274.713	81.44
274.945	75.44
275.176	81.44
275.408	93.44
275.64	83.44
275.872	85.44
276.104	81.44
276.335	91.44
276.567	99.44
276.799	95.44
277.031	119.44
277.262	96.44
277.494	97.44
277.726	87.44
277.957	102.44
278.189	84.44
278.421	91.44
278.652	87.44
278.884	95.44
279.115	94.44
279.347	89.44
279.579	91.44
279.81	80.44
280.042	80.44
280.273	80.44
280.505	98.44
280.736	73.44
280.968	93.44
281.199	87.44
281.431	95.44
281.662	93.44
281.894	90.44
282.125	104.44
282.356	98.44
282.588	134.44
282.819	119.44
283.051	90.44
283.282	95.44
283.513	93.44
283.745	87.44
283.976	89.44
284.207	90.44
284.439	83.44
284.67	94.44
284.901	100.44
285.132	91.44
285.364	91.44
285.595	87.44
285.826	89.44
286.057	74.44
286.288	89.44
286.52	80.44
286.751	87.44
286.982	86.44
287.213	74.44
287.444	100.44
287.675	87.44
287.906	87.44
288.138	101.44
288.369	87.44
288.6	87.44
288.831	89.44
289.062	89.44
289.293	83.44
289.524	84.44
289.755	88.44
289.986	86.44
290.217	81.44
290.448	85.44
290.679	80.44
290.91	85.44
291.141	88.44
291.371	83.44
291.602	83.44
291.833	92.44
292.064	75.44
292.295	91.44
292.526	87.44
292.757	85.44
292.987	98.44
293.218	76.44
293.449	84.44
293.68	76.44
293.91	96.44
294.141	85.44
294.372	90.44
294.603	98.44
294.833	82.44
295.064	84.44
295.295	95.44
295.525	88.44
295.756	105.44
295.987	114.44
296.217	137.44
296.448	134.44
296.679	87.44
296.909	84.44
297.14	90.44
297.37	85.44
297.601	83.44
297.831	93.44
298.062	88.44
298.292	79.44
298.523	94.44
298.753	106.44
298.984	88.44
299.214	91.44
299.445	99.44
299.675	80.44
299.905	98.44
300.136	93.44
300.366	102.44
300.597	95.44
300.827	93.44
301.057	114.44
301.288	101.44
301.518	90.44
301.748	96.44
301.979	101.44
302.209	95.44
302.439	95.44
302.669	94.44
302.9	75.44
303.13	98.44
303.36	89.44
303.59	105.44
303.82	106.44
304.051	103.44
304.281	87.44
304.511	91.44
304.741	103.44
304.971	72.44
305.201	106.44
305.431	105.44
305.661	99.44
305.891	81.44
306.121	96.44
306.352	85.44
306.582	108.44
306.812	91.44
307.042	103.44
307.272	74.44
307.502	85.44
307.731	91.44
307.961	93.44
308.191	98.44
308.421	89.44
308.651	102.44
308.881	98.44
309.111	103.44
309.341	107.44
309.571	101.44
309.8	97.44
310.03	106.44
310.26	86.44
310.49	98.44
310.72	85.44
310.949	90.44
311.179	99.44
311.409	92.44
311.639	95.44
311.868	93.44
312.098	98.44
312.328	97.44
312.557	99.44
312.787	117.44
313.017	105.44
313.246	97.44
313.476	92.44
313.706	90.44
313.935	107.44
314.165	101.44
314.394	93.44
314.624	102.44
314.853	94.44
315.083	89.44
315.312	90.44
315.542	94.44
315.771	90.44
316.001	97.44
316.23	84.44
316.46	90.44
316.689	105.44
316.919	86.44
317.148	92.44
317.377	88.44
317.607	89.44
317.836	86.44
318.065	94.44
318.295	87.44
318.524	87.44
318.753	106.44
318.983	97.44
319.212	101.44
319.441	105.44
319.67	99.44
319.9	89.44
320.129	96.44
320.358	91.44
320.587	111.44
320.816	92.44
321.046	105.44
321.275	94.44
321.504	90.44
321.733	98.44
321.962	90.44
322.191	111.44
322.42	99.44
322.649	105.44
322.878	109.44
323.108	115.44
323.337	113.44
323.566	132.44
323.795	158.44
324.024	227.44
324.253	448.44
324.482	936.44
324.71	1915.44
324.939	2485.44
325.168	899.44
325.397	259.44
325.626	146.44
325.855	129.44
326.084	136.44
326.313	132.44
326.542	152.44
326.77	262.44
326.999	509.44
327.228	1047.44
327.457	1894.44
327.686	1502.44
327.914	394.44
328.143	202.44
328.372	169.44
328.6	141.44
328.829	119.44
329.058	128.44
329.287	119.44
329.515	120.44
329.744	105.44
329.972	102.44
330.201	120.44
330.43	119.44
330.658	135.44
330.887	139.44
331.115	106.44
331.344	101.44
331.572	89.44
331.801	106.44
332.03	106.44
332.258	107.44
332.486	97.44
332.715	83.44
332.943	103.44
333.172	85.44
333.4	102.44
333.629	96.44
333.857	114.44
334.085	105.44
334.314	96.44
334.542	105.44
334.771	101.44
334.999	89.44
335.227	101.44
335.455	94.44
335.684	101.44
335.912	102.44
336.14	86.44
336.369	102.44
336.597	119.44
336.825	90.44
337.053	82.44
337.281	96.44
337.51	101.44
337.738	88.44
337.966	97.44
338.194	92.44
338.422	99.44
338.65	86.44
338.878	95.44
339.106	99.44
339.334	90.44
339.562	90.44
339.79	88.44
340.018	79.44
340.246	95.44
340.474	95.44
340.702	88.44
340.93	101.44
341.158	113.44
341.386	88.44
341.614	97.44
341.842	88.44
342.07	99.44
342.298	86.44
342.526	81.44
342.754	84.44
342.981	96.44
343.209	78.44
343.437	104.44
343.665	75.44
343.893	85.44
344.12	98.44
344.348	83.44
344.576	87.44
344.804	84.44
345.031	96.44
345.259	105.44
345.487	91.44
345.714	91.44
345.942	98.44
346.17	97.44
346.397	92.44
346.625	91.44
346.853	101.44
347.08	89.44
347.308	89.44
347.535	87.44
347.763	98.44
347.99	91.44
348.218	99.44
348.445	87.44
348.673	97.44
348.9	104.44
349.128	103.44
349.355	92.44
349.583	86.44
349.81	93.44
350.037	93.44
350.265	113.44
350.492	91.44
350.72	118.44
350.947	96.44
351.174	110.44
351.402	101.44
351.629	94.44
351.856	102.44
352.083	104.44
352.311	107.44
352.538	110.44
352.765	128.44
352.992	109.44
353.22	104.44
353.447	94.44
353.674	103.44
353.901	94.44
354.128	99.44
354.355	114.44
354.583	89.44
354.81	105.44
355.037	97.44
355.264	94.44
355.491	91.44
355.718	98.44
355.945	85.44
356.172	91.44
356.399	100.44
356.626	101.44
356.853	105.44
357.08	87.44
357.307	101.44
357.534	95.44
357.761	88.44
357.988	94.44
358.215	99.44
358.441	90.44
358.668	101.44
358.895	99.44
359.122	72.44
359.349	91.44
359.576	107.44
359.802	104.44
360.029	121.44
360.256	107.44
360.483	101.44
360.709	79.44
360.936	90.44
361.163	98.44
361.39	83.44
361.616	96.44
361.843	102.44
362.07	90.44
362.296	87.44
362.523	101.44
362.749	86.44
362.976	105.44
363.203	86.44
363.429	86.44
363.656	97.44
363.882	83.44
364.109	88.44
364.335	94.44
364.562	101.44
364.788	78.44
365.015	89.44
365.241	107.44
365.468	107.44
365.694	98.44
365.92	108.44
366.147	96.44
366.373	85.44
366.599	77.44
366.826	85.44
367.052	80.44
367.278	91.44
367.505	99.44
367.731	101.44
367.957	93.44
368.184	80.44
368.41	109.44
368.636	99.44
368.862	122.44
369.089	111.44
369.315	102.44
369.541	102.44
369.767	98.44
369.993	98.44
370.219	96.44
370.445	94.44
370.672	83.44
370.898	92.44
371.124	92.44
371.35	96.44
371.576	96.44
371.802	93.44
372.028	96.44
372.254	95.44
372.48	93.44
372.706	82.44
372.932	95.44
373.158	100.44
373.384	109.44
373.61	96.44
373.835	101.44
374.061	95.44
374.287	79.44
374.513	88.44
374.739	92.44
374.965	85.44
375.191	108.44
375.416	97.44
375.642	77.44
375.868	89.44
376.094	84.44
376.319	112.44
376.545	81.44
376.771	79.44
376.997	103.44
377.222	100.44
377.448	99.44
377.674	88.44
377.899	95.44
378.125	89.44
378.35	93.44
378.576	103.44
378.802	102.44
379.027	90.44
379.253	94.44
379.478	94.44
379.704	99.44
379.929	103.44
380.155	91.44
380.38	102.44
380.606	85.44
380.831	87.44
381.057	95.44
381.282	90.44
381.507	84.44
381.733	87.44
381.958	104.44
382.184	96.44
382.409	83.44
382.634	103.44
382.86	82.44
383.085	97.44
383.31	104.44
383.535	102.44
383.761	99.44
383.986	109.44
384.211	97.44
384.436	95.44
384.662	108.44
384.887	96.44
385.112	90.44
385.337	101.44
385.562	97.44
385.787	91.44
386.013	120.44
386.238	109.44
386.463	107.44
386.688	109.44
386.913	103.44
387.138	115.44
387.363	98.44
387.588	112.44
387.813	112.44
388.038	105.44
388.263	98.44
388.488	83.44
388.713	90.44
388.938	98.44
389.163	109.44
389.387	88.44
389.612	90.44
389.837	82.44
390.062	95.44
390.287	88.44
390.512	98.44
390.736	90.44
390.961	93.44
391.186	100.44
391.411	114.44
391.636	91.44
391.86	97.44
392.085	83.44
392.31	86.44
392.534	100.44
392.759	87.44
392.984	98.44
393.208	94.44
393.433	93.44
393.658	97.44
393.882	83.44
394.107	79.44
394.331	84.44
394.556	82.44
394.78	74.44
395.005	107.44
395.229	93.44
395.454	103.44
395.678	90.44
395.903	89.44
396.127	85.44
396.352	84.44
396.576	84.44
396.801	99.44
397.025	91.44
397.249	74.44
397.474	90.44
397.698	95.44
397.922	93.44
398.147	67.44
398.371	92.44
398.595	81.44
398.82	81.44
399.044	89.44
399.268	81.44
399.492	69.44
399.717	74.44
399.941	82.44
400.165	100.44
400.389	85.44
400.613	97.44
400.837	82.44
401.062	87.44
401.286	92.44
401.51	92.44
401.734	94.44
401.958	111.44
402.182	120.44
402.406	150.44
402.63	120.44
402.854	90.44
403.078	101.44
403.302	82.44
403.526	95.44
403.75	86.44
403.974	89.44
404.198	98.44
404.422	81.44
404.645	88.44
404.869	89.44
405.093	86.44
405.317	105.44
405.541	95.44
405.765	101.44
405.988	133.44
406.212	168.44
406.436	235.44
406.66	159.44
406.883	108.44
407.107	84.44
407.331	88.44
407.555	110.44
407.778	102.44
408.002	88.44
408.226	93.44
408.449	84.44
408.673	94.44
408.896	77.44
409.12	106.44
409.344	97.44
409.567	99.44
409.791	96.44
410.014	93.44
410.238	76.44
410.461	83.44
410.685	96.44
410.908	96.44
411.132	97.44
411.355	100.44
411.578	80.44
411.802	95.44
412.025	97.44
412.249	75.44
412.472	87.44
412.695	82.44
412.919	91.44
413.142	89.44
413.365	68.44
413.589	100.44
413.812	96.44
414.035	101.44
414.258	82.44
414.482	99.44
414.705	91.44
414.928	97.44
415.151	92.44
415.374	102.44
415.597	79.44
415.821	84.44
416.044	94.44
416.267	89.44
416.49	81.44
416.713	75.44
416.936	89.44
417.159	88.44
417.382	78.44
417.605	88.44
417.828	89.44
418.051	88.44
418.274	90.44
418.497	95.44
418.72	90.44
418.943	76.44
419.166	79.44
419.389	81.44
419.611	86.44
419.834	78.44
420.057	101.44
420.28	91.44
420.503	91.44
420.726	100.44
420.948	97.44
421.171	105.44
421.394	92.44
421.617	94.44
421.839	83.44
422.062	98.44
422.285	89.44
422.507	89.44
422.73	107.44
422.953	100.44
423.175	94.44
423.398	89.44
423.621	92.44
423.843	79.44
424.066	96.44
424.288	86.44
424.511	92.44
424.733	99.44
424.956	102.44
425.178	104.44
425.401	100.44
425.623	93.44
425.846	94.44
426.068	92.44
426.291	92.44
426.513	96.44
426.735	96.44
426.958	94.44
427.18	97.44
427.402	139.44
427.625	166.44
427.847	120.44
428.069	110.44
428.292	92.44
428.514	90.44
428.736	91.44
428.958	96.44
429.181	92.44
429.403	84.44
429.625	88.44
429.847	95.44
430.069	98.44
430.292	85.44
430.514	99.44
430.736	81.44
430.958	97.44
431.18	87.44
431.402	95.44
431.624	85.44
431.846	95.44
432.068	90.44
432.29	87.44
432.512	103.44
432.734	91.44
432.956	101.44
433.178	95.44
433.4	104.44
433.622	80.44
433.844	90.44
434.066	84.44
434.287	84.44
434.509	82.44
434.731	99.44
434.953	96.44
435.175	92.44
435.397	86.44
435.618	94.44
435.84	112.44
436.062	112.44
436.284	116.44
436.505	115.44
436.727	96.44
436.949	84.44
437.17	82.44
437.392	103.44
437.614	86.44
437.835	89.44
438.057	125.44
438.278	115.44
438.5	104.44
438.721	119.44
438.943	108.44
439.165	71.44
439.386	100.44
439.608	82.44
439.829	95.44
440.05	137.44
440.272	140.44
440.493	110.44
440.715	90.44
440.936	89.44
441.158	91.44
441.379	100.44
441.6	105.44
441.822	97.44
442.043	112.44
442.264	88.44
442.486	91.44
442.707	96.44
442.928	109.44
443.149	114.44
443.371	114.44
443.592	101.44
443.813	104.44
444.034	91.44
444.255	98.44
444.476	72.44
444.698	81.44
444.919	87.44
445.14	128.44
445.361	118.44
445.582	112.44
445.803	131.44
446.024	137.44
446.245	142.44
446.466	115.44
446.687	114.44
446.908	83.44
447.129	71.44
447.35	87.44
447.571	91.44
447.792	87.44
448.013	99.44
448.234	89.44
448.455	108.44
448.675	115.44
448.896	120.44
449.117	100.44
449.338	108.44
449.559	116.44
449.779	131.44
450	97.44
450.221	103.44
450.442	95.44
450.662	99.44
450.883	106.44
451.104	121.44
451.324	92.44
451.545	93.44
451.766	86.44
451.986	91.44
452.207	89.44
452.428	83.44
452.648	93.44
452.869	98.44
453.089	113.44
453.31	115.44
453.53	107.44
453.751	98.44
453.971	88.44
454.192	109.44
454.412	88.44
454.633	106.44
454.853	106.44
455.073	98.44
455.294	85.44
455.514	100.44
455.734	87.44
455.955	93.44
456.175	84.44
456.395	89.44
456.616	79.44
456.836	98.44
457.056	99.44
457.276	70.44
457.497	80.44
457.717	86.44
457.937	75.44
458.157	90.44
458.377	93.44
458.598	106.44
458.818	155.44
459.038	155.44
459.258	108.44
459.478	91.44
459.698	84.44
459.918	80.44
460.138	81.44
460.358	88.44
460.578	82.44
460.798	97.44
461.018	77.44
461.238	89.44
461.458	81.44
461.678	73.44
461.898	85.44
462.118	94.44
462.338	104.44
462.558	84.44
462.777	84.44
462.997	96.44
463.217	90.44
463.437	72.44
463.657	78.44
463.876	101.44
464.096	93.44
464.316	98.44
464.536	108.44
464.755	95.44
464.975	110.44
465.195	163.44
465.414	149.44
465.634	94.44
465.854	98.44
466.073	95.44
466.293	76.44
466.512	89.44
466.732	80.44
466.951	87.44
467.171	92.44
467.391	98.44
467.61	116.44
467.829	96.44
468.049	98.44
468.268	110.44
468.488	82.44
468.707	84.44
468.927	88.44
469.146	100.44
469.365	94.44
469.585	84.44
469.804	100.44
470.023	85.44
470.243	87.44
470.462	113.44
470.681	90.44
470.901	83.44
471.12	91.44
471.339	91.44
471.558	84.44
471.777	88.44
471.997	85.44
472.216	88.44
472.435	101.44
472.654	96.44
472.873	97.44
473.092	90.44
473.311	83.44
473.53	88.44
473.749	90.44
473.968	90.44
474.187	112.44
474.406	101.44
474.625	87.44
474.844	89.44
475.063	74.44
475.282	92.44
475.501	100.44
475.72	84.44
475.939	100.44
476.158	90.44
476.377	90.44
476.596	95.44
476.814	86.44
477.033	95.44
477.252	97.44
477.471	97.44
477.69	87.44
477.908	92.44
478.127	87.44
478.346	76.44
478.564	102.44
478.783	99.44
479.002	90.44
479.22	100.44
479.439	96.44
479.658	88.44
479.876	86.44
480.095	99.44
480.313	97.44
480.532	96.44
480.751	81.44
480.969	98.44
481.188	118.44
481.406	112.44
481.624	87.44
481.843	96.44
482.061	86.44
482.28	101.44
482.498	94.44
482.717	88.44
482.935	86.44
483.153	88.44
483.372	83.44
483.59	81.44
483.808	91.44
484.027	89.44
484.245	98.44
484.463	81.44
484.681	85.44
484.9	98.44
485.118	91.44
485.336	107.44
485.554	96.44
485.772	103.44
485.99	110.44
486.209	109.44
486.427	94.44
486.645	108.44
486.863	118.44
487.081	109.44
487.299	111.44
487.517	97.44
487.735	97.44
487.953	106.44
488.171	81.44
488.389	96.44
488.607	102.44
488.825	85.44
489.043	90.44
489.261	75.44
489.479	80.44
489.696	97.44
489.914	69.44
490.132	89.44
490.35	89.44
490.568	77.44
490.786	85.44
491.003	93.44
491.221	97.44
491.439	96.44
491.657	103.44
491.874	82.44
492.092	99.44
492.31	73.44
492.527	89.44
492.745	101.44
492.963	100.44
493.18	90.44
493.398	98.44
493.615	113.44
493.833	95.44
494.05	104.44
494.268	84.44
494.485	95.44
494.703	87.44
494.92	92.44
495.138	102.44
495.355	99.44
495.573	103.44
495.79	87.44
496.008	94.44
496.225	96.44
496.442	80.44
496.66	87.44
496.877	85.44
497.094	96.44
497.312	90.44
497.529	87.44
497.746	78.44
497.963	81.44
498.181	93.44
498.398	85.44
498.615	95.44
498.832	100.44
499.049	89.44
499.267	95.44
499.484	76.44
499.701	97.44
499.918	91.44
500.135	87.44
500.352	97.44
500.569	100.44
500.786	83.44
501.003	91.44
501.22	86.44
501.437	75.44
501.654	100.44
501.871	99.44
502.088	100.44
502.305	80.44
502.522	104.44
502.739	82.44
502.956	96.44
503.172	89.44
503.389	95.44
503.606	100.44
503.823	106.44
504.04	95.44
504.256	89.44
504.473	98.44
504.69	89.44
504.907	94.44
505.123	98.44
505.34	86.44
505.557	99.44
505.773	89.44
505.99	96.44
506.207	87.44
506.423	100.44
506.64	79.44
506.856	93.44
507.073	100.44
507.289	105.44
507.506	83.44
507.722	123.44
507.939	112.44
508.155	103.44
508.372	90.44
508.588	90.44
508.805	98.44
509.021	93.44
509.238	106.44
509.454	113.44
509.67	96.44
509.887	101.44
510.103	135.44
510.319	214.44
510.536	853.44
510.752	2671.44
510.968	705.44
511.184	172.44
511.401	105.44
511.617	102.44
511.833	106.44
512.049	102.44
512.265	88.44
512.481	85.44
512.698	94.44
512.914	109.44
513.13	89.44
513.346	90.44
513.562	96.44
513.778	97.44
513.994	88.44
514.21	78.44
514.426	106.44
514.642	132.44
514.858	135.44
515.074	183.44
515.29	504.44
