Data from Uncirc_2004_H10_HRD10591_00068.txt Node
Date: Wed Jan 03 10:32:26 EST 2024
User: Yrep
Spectrometer: HR+D1059
Trigger mode: 1
Integration Time (sec): 1.000000E-1
Scans to average: 1
Electric dark correction enabled: true
Nonlinearity correction enabled: false
Boxcar width: 0
XAxis mode: Wavelengths
Number of Pixels in Spectrum: 2048
>>>>>Begin Spectral Data<<<<<
223.165	-31.31
223.4	-31.31
223.635	-31.31
223.869	-13.31
224.104	-28.31
224.338	-9.31
224.573	-21.31
224.808	-18.31
225.042	-6.31
225.277	-7.31
225.511	-0.31
225.746	2.69
225.98	16.69
226.215	11.69
226.449	17.69
226.683	25.69
226.918	29.69
227.152	31.69
227.387	25.69
227.621	36.69
227.856	37.69
228.09	45.69
228.324	44.69
228.559	66.69
228.793	63.69
229.027	69.69
229.262	55.69
229.496	70.69
229.73	76.69
229.964	77.69
230.199	77.69
230.433	66.69
230.667	72.69
230.901	76.69
231.136	95.69
231.37	79.69
231.604	69.69
231.838	88.69
232.072	82.69
232.306	89.69
232.541	89.69
232.775	73.69
233.009	91.69
233.243	76.69
233.477	84.69
233.711	98.69
233.945	82.69
234.179	76.69
234.413	77.69
234.647	86.69
234.881	83.69
235.115	79.69
235.349	69.69
235.583	82.69
235.817	82.69
236.051	77.69
236.285	76.69
236.519	85.69
236.753	88.69
236.987	83.69
237.221	77.69
237.455	80.69
237.689	74.69
237.922	90.69
238.156	83.69
238.39	89.69
238.624	83.69
238.858	72.69
239.091	84.69
239.325	83.69
239.559	78.69
239.793	81.69
240.027	77.69
240.26	89.69
240.494	70.69
240.728	64.69
240.961	76.69
241.195	77.69
241.429	79.69
241.662	68.69
241.896	77.69
242.13	65.69
242.363	85.69
242.597	73.69
242.83	77.69
243.064	70.69
243.298	70.69
243.531	64.69
243.765	73.69
243.998	66.69
244.232	71.69
244.465	77.69
244.699	85.69
244.932	73.69
245.166	72.69
245.399	81.69
245.633	76.69
245.866	76.69
246.099	63.69
246.333	73.69
246.566	72.69
246.8	78.69
247.033	80.69
247.266	80.69
247.5	70.69
247.733	80.69
247.966	69.69
248.2	83.69
248.433	69.69
248.666	94.69
248.899	89.69
249.133	70.69
249.366	82.69
249.599	92.69
249.832	69.69
250.066	77.69
250.299	83.69
250.532	69.69
250.765	77.69
250.998	88.69
251.231	86.69
251.465	75.69
251.698	86.69
251.931	87.69
252.164	68.69
252.397	69.69
252.63	87.69
252.863	76.69
253.096	83.69
253.329	81.69
253.562	79.69
253.795	80.69
254.028	85.69
254.261	73.69
254.494	91.69
254.727	72.69
254.96	71.69
255.193	90.69
255.426	66.69
255.659	87.69
255.892	89.69
256.124	92.69
256.357	86.69
256.59	72.69
256.823	71.69
257.056	86.69
257.289	87.69
257.521	86.69
257.754	87.69
257.987	81.69
258.22	89.69
258.452	70.69
258.685	93.69
258.918	83.69
259.151	87.69
259.383	78.69
259.616	77.69
259.849	75.69
260.081	97.69
260.314	87.69
260.547	90.69
260.779	79.69
261.012	80.69
261.244	82.69
261.477	81.69
261.71	93.69
261.942	111.69
262.175	118.69
262.407	104.69
262.64	90.69
262.872	80.69
263.105	85.69
263.337	76.69
263.57	86.69
263.802	94.69
264.035	90.69
264.267	71.69
264.499	74.69
264.732	81.69
264.964	81.69
265.197	80.69
265.429	80.69
265.661	74.69
265.894	88.69
266.126	86.69
266.358	91.69
266.591	92.69
266.823	83.69
267.055	82.69
267.287	89.69
267.52	87.69
267.752	71.69
267.984	87.69
268.216	84.69
268.448	82.69
268.681	82.69
268.913	75.69
269.145	95.69
269.377	86.69
269.609	82.69
269.841	57.69
270.073	82.69
270.306	105.69
270.538	94.69
270.77	77.69
271.002	71.69
271.234	91.69
271.466	106.69
271.698	91.69
271.93	89.69
272.162	88.69
272.394	78.69
272.626	80.69
272.858	80.69
273.09	85.69
273.322	94.69
273.553	90.69
273.785	82.69
274.017	92.69
274.249	74.69
274.481	81.69
274.713	77.69
274.945	82.69
275.176	88.69
275.408	93.69
275.64	92.69
275.872	89.69
276.104	84.69
276.335	89.69
276.567	93.69
276.799	98.69
277.031	104.69
277.262	86.69
277.494	92.69
277.726	91.69
277.957	82.69
278.189	81.69
278.421	80.69
278.652	66.69
278.884	88.69
279.115	93.69
279.347	100.69
279.579	80.69
279.81	95.69
280.042	82.69
280.273	101.69
280.505	87.69
280.736	82.69
280.968	79.69
281.199	88.69
281.431	78.69
281.662	86.69
281.894	77.69
282.125	105.69
282.356	121.69
282.588	124.69
282.819	109.69
283.051	81.69
283.282	86.69
283.513	83.69
283.745	80.69
283.976	99.69
284.207	83.69
284.439	88.69
284.67	88.69
284.901	87.69
285.132	83.69
285.364	81.69
285.595	88.69
285.826	87.69
286.057	86.69
286.288	97.69
286.52	77.69
286.751	97.69
286.982	93.69
287.213	92.69
287.444	98.69
287.675	109.69
287.906	87.69
288.138	84.69
288.369	93.69
288.6	92.69
288.831	88.69
289.062	95.69
289.293	87.69
289.524	99.69
289.755	90.69
289.986	104.69
290.217	88.69
290.448	84.69
290.679	94.69
290.91	101.69
291.141	79.69
291.371	94.69
291.602	84.69
291.833	85.69
292.064	89.69
292.295	96.69
292.526	87.69
292.757	98.69
292.987	83.69
293.218	97.69
293.449	88.69
293.68	97.69
293.91	82.69
294.141	98.69
294.372	105.69
294.603	93.69
294.833	86.69
295.064	83.69
295.295	100.69
295.525	80.69
295.756	109.69
295.987	97.69
296.217	139.69
296.448	115.69
296.679	91.69
296.909	78.69
297.14	70.69
297.37	84.69
297.601	92.69
297.831	76.69
298.062	79.69
298.292	94.69
298.523	94.69
298.753	87.69
298.984	83.69
299.214	97.69
299.445	83.69
299.675	87.69
299.905	104.69
300.136	97.69
300.366	88.69
300.597	87.69
300.827	96.69
301.057	98.69
301.288	102.69
301.518	95.69
301.748	82.69
301.979	89.69
302.209	98.69
302.439	91.69
302.669	92.69
302.9	85.69
303.13	92.69
303.36	104.69
303.59	104.69
303.82	97.69
304.051	85.69
304.281	100.69
304.511	96.69
304.741	104.69
304.971	96.69
305.201	94.69
305.431	84.69
305.661	85.69
305.891	99.69
306.121	91.69
306.352	93.69
306.582	80.69
306.812	97.69
307.042	81.69
307.272	92.69
307.502	100.69
307.731	94.69
307.961	90.69
308.191	105.69
308.421	86.69
308.651	95.69
308.881	78.69
309.111	88.69
309.341	106.69
309.571	94.69
309.8	86.69
310.03	87.69
310.26	86.69
310.49	93.69
310.72	96.69
310.949	86.69
311.179	83.69
311.409	95.69
311.639	101.69
311.868	98.69
312.098	103.69
312.328	94.69
312.557	109.69
312.787	95.69
313.017	99.69
313.246	93.69
313.476	93.69
313.706	84.69
313.935	93.69
314.165	109.69
314.394	89.69
314.624	89.69
314.853	88.69
315.083	96.69
315.312	103.69
315.542	100.69
315.771	93.69
316.001	107.69
316.23	89.69
316.46	65.69
316.689	84.69
316.919	93.69
317.148	92.69
317.377	77.69
317.607	108.69
317.836	72.69
318.065	89.69
318.295	104.69
318.524	83.69
318.753	98.69
318.983	91.69
319.212	95.69
319.441	119.69
319.67	112.69
319.9	88.69
320.129	76.69
320.358	91.69
320.587	88.69
320.816	102.69
321.046	101.69
321.275	89.69
321.504	101.69
321.733	107.69
321.962	103.69
322.191	105.69
322.42	109.69
322.649	102.69
322.878	107.69
323.108	109.69
323.337	120.69
323.566	136.69
323.795	173.69
324.024	198.69
324.253	419.69
324.482	869.69
324.71	1773.69
324.939	2307.69
325.168	836.69
325.397	247.69
325.626	151.69
325.855	134.69
326.084	114.69
326.313	114.69
326.542	153.69
326.77	226.69
326.999	494.69
327.228	1008.69
327.457	1798.69
327.686	1398.69
327.914	364.69
328.143	187.69
328.372	154.69
328.6	133.69
328.829	112.69
329.058	117.69
329.287	135.69
329.515	109.69
329.744	104.69
329.972	98.69
330.201	107.69
330.43	108.69
330.658	119.69
330.887	138.69
331.115	122.69
331.344	104.69
331.572	109.69
331.801	100.69
332.03	100.69
332.258	89.69
332.486	99.69
332.715	92.69
332.943	96.69
333.172	93.69
333.4	105.69
333.629	95.69
333.857	109.69
334.085	107.69
334.314	103.69
334.542	104.69
334.771	100.69
334.999	93.69
335.227	101.69
335.455	94.69
335.684	95.69
335.912	98.69
336.14	100.69
336.369	86.69
336.597	106.69
336.825	94.69
337.053	98.69
337.281	93.69
337.51	83.69
337.738	100.69
337.966	80.69
338.194	91.69
338.422	87.69
338.65	93.69
338.878	103.69
339.106	99.69
339.334	87.69
339.562	91.69
339.79	83.69
340.018	86.69
340.246	82.69
340.474	88.69
340.702	80.69
340.93	100.69
341.158	86.69
341.386	83.69
341.614	97.69
341.842	99.69
342.07	76.69
342.298	75.69
342.526	95.69
342.754	93.69
342.981	82.69
343.209	87.69
343.437	91.69
343.665	79.69
343.893	96.69
344.12	95.69
344.348	86.69
344.576	93.69
344.804	100.69
345.031	98.69
345.259	96.69
345.487	101.69
345.714	83.69
345.942	86.69
346.17	101.69
346.397	95.69
346.625	94.69
346.853	87.69
347.08	92.69
347.308	101.69
347.535	99.69
347.763	103.69
347.99	120.69
348.218	104.69
348.445	101.69
348.673	94.69
348.9	97.69
349.128	99.69
349.355	83.69
349.583	99.69
349.81	96.69
350.037	101.69
350.265	103.69
350.492	85.69
350.72	83.69
350.947	93.69
351.174	113.69
351.402	111.69
351.629	109.69
351.856	108.69
352.083	103.69
352.311	111.69
352.538	95.69
352.765	112.69
352.992	103.69
353.22	115.69
353.447	104.69
353.674	95.69
353.901	83.69
354.128	85.69
354.355	91.69
354.583	95.69
354.81	100.69
355.037	94.69
355.264	100.69
355.491	107.69
355.718	82.69
355.945	96.69
356.172	104.69
356.399	108.69
356.626	107.69
356.853	100.69
357.08	95.69
357.307	97.69
357.534	97.69
357.761	98.69
357.988	92.69
358.215	78.69
358.441	97.69
358.668	89.69
358.895	93.69
359.122	77.69
359.349	92.69
359.576	93.69
359.802	97.69
360.029	118.69
360.256	92.69
360.483	95.69
360.709	99.69
360.936	88.69
361.163	86.69
361.39	96.69
361.616	90.69
361.843	93.69
362.07	96.69
362.296	85.69
362.523	94.69
362.749	93.69
362.976	92.69
363.203	103.69
363.429	92.69
363.656	87.69
363.882	91.69
364.109	89.69
364.335	99.69
364.562	75.69
364.788	88.69
365.015	104.69
365.241	99.69
365.468	93.69
365.694	110.69
365.92	90.69
366.147	90.69
366.373	89.69
366.599	85.69
366.826	86.69
367.052	92.69
367.278	95.69
367.505	99.69
367.731	87.69
367.957	80.69
368.184	93.69
368.41	86.69
368.636	98.69
368.862	112.69
369.089	124.69
369.315	96.69
369.541	89.69
369.767	94.69
369.993	90.69
370.219	84.69
370.445	100.69
370.672	95.69
370.898	92.69
371.124	86.69
371.35	85.69
371.576	88.69
371.802	86.69
372.028	91.69
372.254	85.69
372.48	92.69
372.706	85.69
372.932	101.69
373.158	92.69
373.384	100.69
373.61	84.69
373.835	95.69
374.061	86.69
374.287	100.69
374.513	87.69
374.739	95.69
374.965	91.69
375.191	93.69
375.416	88.69
375.642	81.69
375.868	84.69
376.094	84.69
376.319	92.69
376.545	85.69
376.771	99.69
376.997	90.69
377.222	86.69
377.448	81.69
377.674	91.69
377.899	88.69
378.125	86.69
378.35	80.69
378.576	92.69
378.802	96.69
379.027	88.69
379.253	88.69
379.478	92.69
379.704	87.69
379.929	81.69
380.155	97.69
380.38	105.69
380.606	89.69
380.831	105.69
381.057	88.69
381.282	92.69
381.507	99.69
381.733	92.69
381.958	95.69
382.184	100.69
382.409	87.69
382.634	107.69
382.86	107.69
383.085	99.69
383.31	101.69
383.535	103.69
383.761	88.69
383.986	97.69
384.211	97.69
384.436	105.69
384.662	100.69
384.887	96.69
385.112	93.69
385.337	102.69
385.562	108.69
385.787	104.69
386.013	94.69
386.238	93.69
386.463	101.69
386.688	113.69
386.913	117.69
387.138	117.69
387.363	92.69
387.588	100.69
387.813	98.69
388.038	103.69
388.263	98.69
388.488	103.69
388.713	85.69
388.938	99.69
389.163	104.69
389.387	92.69
389.612	93.69
389.837	102.69
390.062	86.69
390.287	89.69
390.512	89.69
390.736	89.69
390.961	106.69
391.186	95.69
391.411	107.69
391.636	81.69
391.86	73.69
392.085	82.69
392.31	83.69
392.534	83.69
392.759	84.69
392.984	90.69
393.208	95.69
393.433	81.69
393.658	81.69
393.882	78.69
394.107	89.69
394.331	79.69
394.556	77.69
394.78	83.69
395.005	79.69
395.229	79.69
395.454	84.69
395.678	92.69
395.903	85.69
396.127	98.69
396.352	83.69
396.576	83.69
396.801	93.69
397.025	86.69
397.249	95.69
397.474	80.69
397.698	91.69
397.922	97.69
398.147	82.69
398.371	77.69
398.595	78.69
398.82	94.69
399.044	89.69
399.268	89.69
399.492	92.69
399.717	85.69
399.941	94.69
400.165	77.69
400.389	92.69
400.613	70.69
400.837	97.69
401.062	97.69
401.286	102.69
401.51	108.69
401.734	102.69
401.958	103.69
402.182	118.69
402.406	150.69
402.63	113.69
402.854	96.69
403.078	83.69
403.302	103.69
403.526	95.69
403.75	88.69
403.974	94.69
404.198	95.69
404.422	97.69
404.645	95.69
404.869	86.69
405.093	91.69
405.317	92.69
405.541	103.69
405.765	89.69
405.988	119.69
406.212	181.69
406.436	197.69
406.66	135.69
406.883	99.69
407.107	104.69
407.331	88.69
407.555	106.69
407.778	103.69
408.002	103.69
408.226	91.69
408.449	84.69
408.673	96.69
408.896	98.69
409.12	101.69
409.344	92.69
409.567	83.69
409.791	95.69
410.014	89.69
410.238	106.69
410.461	95.69
410.685	92.69
410.908	88.69
411.132	91.69
411.355	92.69
411.578	99.69
411.802	89.69
412.025	86.69
412.249	88.69
412.472	88.69
412.695	87.69
412.919	96.69
413.142	79.69
413.365	79.69
413.589	78.69
413.812	90.69
414.035	99.69
414.258	95.69
414.482	87.69
414.705	86.69
414.928	81.69
415.151	94.69
415.374	88.69
415.597	89.69
415.821	93.69
416.044	105.69
416.267	98.69
416.49	101.69
416.713	91.69
416.936	97.69
417.159	81.69
417.382	92.69
417.605	90.69
417.828	81.69
418.051	84.69
418.274	87.69
418.497	78.69
418.72	95.69
418.943	95.69
419.166	84.69
419.389	83.69
419.611	86.69
419.834	85.69
420.057	84.69
420.28	69.69
420.503	85.69
420.726	107.69
420.948	93.69
421.171	97.69
421.394	89.69
421.617	86.69
421.839	85.69
422.062	85.69
422.285	92.69
422.507	100.69
422.73	92.69
422.953	93.69
423.175	94.69
423.398	87.69
423.621	90.69
423.843	91.69
424.066	92.69
424.288	87.69
424.511	97.69
424.733	94.69
424.956	104.69
425.178	87.69
425.401	105.69
425.623	104.69
425.846	79.69
426.068	100.69
426.291	93.69
426.513	107.69
426.735	113.69
426.958	91.69
427.18	96.69
427.402	134.69
427.625	145.69
427.847	123.69
428.069	105.69
428.292	102.69
428.514	77.69
428.736	87.69
428.958	79.69
429.181	90.69
429.403	95.69
429.625	89.69
429.847	89.69
430.069	89.69
430.292	82.69
430.514	87.69
430.736	81.69
430.958	81.69
431.18	95.69
431.402	77.69
431.624	77.69
431.846	68.69
432.068	84.69
432.29	95.69
432.512	96.69
432.734	71.69
432.956	87.69
433.178	91.69
433.4	99.69
433.622	93.69
433.844	85.69
434.066	85.69
434.287	89.69
434.509	82.69
434.731	103.69
434.953	86.69
435.175	72.69
435.397	83.69
435.618	91.69
435.84	95.69
436.062	112.69
436.284	97.69
436.505	107.69
436.727	92.69
436.949	97.69
437.17	93.69
437.392	99.69
437.614	99.69
437.835	106.69
438.057	125.69
438.278	112.69
438.5	96.69
438.721	122.69
438.943	98.69
439.165	85.69
439.386	85.69
439.608	95.69
439.829	90.69
440.05	108.69
440.272	143.69
440.493	97.69
440.715	86.69
440.936	90.69
441.158	79.69
441.379	76.69
441.6	109.69
441.822	95.69
442.043	84.69
442.264	96.69
442.486	84.69
442.707	79.69
442.928	113.69
443.149	117.69
443.371	103.69
443.592	105.69
443.813	110.69
444.034	128.69
444.255	94.69
444.476	85.69
444.698	91.69
444.919	83.69
445.14	123.69
445.361	125.69
445.582	110.69
445.803	129.69
446.024	121.69
446.245	123.69
446.466	101.69
446.687	79.69
446.908	81.69
447.129	85.69
447.35	86.69
447.571	88.69
447.792	83.69
448.013	93.69
448.234	99.69
448.455	89.69
448.675	95.69
448.896	94.69
449.117	96.69
449.338	89.69
449.559	128.69
449.779	111.69
450	96.69
450.221	84.69
450.442	86.69
450.662	87.69
450.883	93.69
451.104	99.69
451.324	95.69
451.545	94.69
451.766	96.69
451.986	86.69
452.207	93.69
452.428	90.69
452.648	102.69
452.869	97.69
453.089	110.69
453.31	105.69
453.53	81.69
453.751	95.69
453.971	106.69
454.192	116.69
454.412	89.69
454.633	79.69
454.853	86.69
455.073	94.69
455.294	101.69
455.514	99.69
455.734	89.69
455.955	84.69
456.175	86.69
456.395	83.69
456.616	92.69
456.836	75.69
457.056	86.69
457.276	88.69
457.497	77.69
457.717	79.69
457.937	86.69
458.157	77.69
458.377	89.69
458.598	125.69
458.818	148.69
459.038	165.69
459.258	126.69
459.478	93.69
459.698	86.69
459.918	94.69
460.138	95.69
460.358	92.69
460.578	97.69
460.798	79.69
461.018	95.69
461.238	101.69
461.458	76.69
461.678	84.69
461.898	81.69
462.118	84.69
462.338	74.69
462.558	85.69
462.777	88.69
462.997	86.69
463.217	94.69
463.437	87.69
463.657	95.69
463.876	81.69
464.096	80.69
464.316	92.69
464.536	101.69
464.755	100.69
464.975	116.69
465.195	165.69
465.414	153.69
465.634	101.69
465.854	88.69
466.073	81.69
466.293	80.69
466.512	74.69
466.732	83.69
466.951	74.69
467.171	89.69
467.391	87.69
467.61	95.69
467.829	88.69
468.049	88.69
468.268	92.69
468.488	86.69
468.707	85.69
468.927	80.69
469.146	80.69
469.365	108.69
469.585	108.69
469.804	96.69
470.023	81.69
470.243	92.69
470.462	100.69
470.681	107.69
470.901	81.69
471.12	80.69
471.339	81.69
471.558	99.69
471.777	78.69
471.997	96.69
472.216	88.69
472.435	105.69
472.654	93.69
472.873	81.69
473.092	79.69
473.311	93.69
473.53	97.69
473.749	80.69
473.968	85.69
474.187	107.69
474.406	95.69
474.625	97.69
474.844	79.69
475.063	85.69
475.282	90.69
475.501	95.69
475.72	82.69
475.939	91.69
476.158	99.69
476.377	93.69
476.596	96.69
476.814	93.69
477.033	83.69
477.252	93.69
477.471	85.69
477.69	83.69
477.908	94.69
478.127	76.69
478.346	100.69
478.564	91.69
478.783	105.69
479.002	93.69
479.22	93.69
479.439	96.69
479.658	101.69
479.876	93.69
480.095	81.69
480.313	99.69
480.532	81.69
480.751	84.69
480.969	83.69
481.188	108.69
481.406	96.69
481.624	76.69
481.843	82.69
482.061	76.69
482.28	79.69
482.498	94.69
482.717	93.69
482.935	85.69
483.153	85.69
483.372	92.69
483.59	95.69
483.808	86.69
484.027	85.69
484.245	88.69
484.463	86.69
484.681	94.69
484.9	97.69
485.118	89.69
485.336	100.69
485.554	86.69
485.772	96.69
485.99	119.69
486.209	91.69
486.427	103.69
486.645	95.69
486.863	103.69
487.081	115.69
487.299	105.69
487.517	103.69
487.735	99.69
487.953	87.69
488.171	92.69
488.389	101.69
488.607	96.69
488.825	96.69
489.043	80.69
489.261	95.69
489.479	86.69
489.696	89.69
489.914	85.69
490.132	101.69
490.35	93.69
490.568	93.69
490.786	87.69
491.003	86.69
491.221	77.69
491.439	99.69
491.657	90.69
491.874	81.69
492.092	92.69
492.31	95.69
492.527	93.69
492.745	92.69
492.963	106.69
493.18	83.69
493.398	83.69
493.615	100.69
493.833	85.69
494.05	87.69
494.268	99.69
494.485	77.69
494.703	83.69
494.92	81.69
495.138	83.69
495.355	96.69
495.573	93.69
495.79	92.69
496.008	88.69
496.225	85.69
496.442	92.69
496.66	88.69
496.877	89.69
497.094	89.69
497.312	84.69
497.529	90.69
497.746	95.69
497.963	90.69
498.181	87.69
498.398	85.69
498.615	109.69
498.832	92.69
499.049	88.69
499.267	97.69
499.484	88.69
499.701	91.69
499.918	100.69
500.135	89.69
500.352	106.69
500.569	96.69
500.786	92.69
501.003	97.69
501.22	98.69
501.437	93.69
501.654	101.69
501.871	112.69
502.088	100.69
502.305	99.69
502.522	85.69
502.739	87.69
502.956	99.69
503.172	90.69
503.389	78.69
503.606	120.69
503.823	102.69
504.04	83.69
504.256	103.69
504.473	94.69
504.69	88.69
504.907	99.69
505.123	87.69
505.34	93.69
505.557	85.69
505.773	84.69
505.99	89.69
506.207	86.69
506.423	85.69
506.64	91.69
506.856	90.69
507.073	93.69
507.289	94.69
507.506	100.69
507.722	108.69
507.939	115.69
508.155	99.69
508.372	95.69
508.588	93.69
508.805	86.69
509.021	88.69
509.238	93.69
509.454	89.69
509.67	92.69
509.887	124.69
510.103	133.69
510.319	227.69
510.536	820.69
510.752	2559.69
510.968	708.69
511.184	167.69
511.401	97.69
511.617	79.69
511.833	99.69
512.049	88.69
512.265	98.69
512.481	101.69
512.698	98.69
512.914	94.69
513.13	79.69
513.346	84.69
513.562	88.69
513.778	84.69
513.994	107.69
514.21	101.69
514.426	126.69
514.642	137.69
514.858	132.69
515.074	178.69
515.29	486.69
515.506	1514.69
515.721	521.69
515.937	167.69
