Data from Uncirc_2004_H10_HRD10591_00084.txt Node
Date: Wed Jan 03 10:32:29 EST 2024
User: Yrep
Spectrometer: HR+D1059
Trigger mode: 1
Integration Time (sec): 1.000000E-1
Scans to average: 1
Electric dark correction enabled: true
Nonlinearity correction enabled: false
Boxcar width: 0
XAxis mode: Wavelengths
Number of Pixels in Spectrum: 2048
>>>>>Begin Spectral Data<<<<<
223.165	-4.31
223.4	-4.31
223.635	-4.31
223.869	-28.31
224.104	-22.31
224.338	-18.31
224.573	-13.31
224.808	-16.31
225.042	-2.31
225.277	5.69
225.511	-1.31
225.746	17.69
225.98	0.69
226.215	7.69
226.449	22.69
226.683	17.69
226.918	10.69
227.152	23.69
227.387	30.69
227.621	42.69
227.856	46.69
228.09	40.69
228.324	40.69
228.559	51.69
228.793	65.69
229.027	71.69
229.262	73.69
229.496	80.69
229.73	76.69
229.964	63.69
230.199	65.69
230.433	80.69
230.667	82.69
230.901	85.69
231.136	91.69
231.37	69.69
231.604	85.69
231.838	86.69
232.072	90.69
232.306	80.69
232.541	85.69
232.775	74.69
233.009	81.69
233.243	95.69
233.477	81.69
233.711	79.69
233.945	84.69
234.179	84.69
234.413	87.69
234.647	86.69
234.881	71.69
235.115	88.69
235.349	72.69
235.583	81.69
235.817	76.69
236.051	66.69
236.285	80.69
236.519	83.69
236.753	77.69
236.987	67.69
237.221	84.69
237.455	88.69
237.689	76.69
237.922	90.69
238.156	70.69
238.39	73.69
238.624	83.69
238.858	71.69
239.091	71.69
239.325	80.69
239.559	70.69
239.793	95.69
240.027	85.69
240.26	82.69
240.494	76.69
240.728	74.69
240.961	81.69
241.195	76.69
241.429	80.69
241.662	66.69
241.896	60.69
242.13	70.69
242.363	73.69
242.597	49.69
242.83	63.69
243.064	77.69
243.298	62.69
243.531	74.69
243.765	78.69
243.998	84.69
244.232	74.69
244.465	77.69
244.699	81.69
244.932	72.69
245.166	79.69
245.399	70.69
245.633	58.69
245.866	79.69
246.099	81.69
246.333	72.69
246.566	79.69
246.8	70.69
247.033	85.69
247.266	89.69
247.5	66.69
247.733	71.69
247.966	82.69
248.2	83.69
248.433	74.69
248.666	71.69
248.899	76.69
249.133	80.69
249.366	107.69
249.599	90.69
249.832	84.69
250.066	83.69
250.299	61.69
250.532	81.69
250.765	70.69
250.998	81.69
251.231	92.69
251.465	84.69
251.698	78.69
251.931	80.69
252.164	80.69
252.397	77.69
252.63	75.69
252.863	75.69
253.096	79.69
253.329	77.69
253.562	70.69
253.795	83.69
254.028	84.69
254.261	83.69
254.494	80.69
254.727	79.69
254.96	75.69
255.193	81.69
255.426	71.69
255.659	86.69
255.892	79.69
256.124	75.69
256.357	85.69
256.59	78.69
256.823	83.69
257.056	86.69
257.289	80.69
257.521	75.69
257.754	76.69
257.987	90.69
258.22	75.69
258.452	87.69
258.685	74.69
258.918	79.69
259.151	81.69
259.383	86.69
259.616	71.69
259.849	84.69
260.081	84.69
260.314	82.69
260.547	71.69
260.779	80.69
261.012	80.69
261.244	71.69
261.477	78.69
261.71	87.69
261.942	109.69
262.175	110.69
262.407	89.69
262.64	91.69
262.872	76.69
263.105	98.69
263.337	89.69
263.57	69.69
263.802	86.69
264.035	98.69
264.267	83.69
264.499	78.69
264.732	83.69
264.964	81.69
265.197	80.69
265.429	85.69
265.661	90.69
265.894	78.69
266.126	78.69
266.358	86.69
266.591	87.69
266.823	99.69
267.055	78.69
267.287	76.69
267.52	77.69
267.752	82.69
267.984	89.69
268.216	82.69
268.448	74.69
268.681	91.69
268.913	74.69
269.145	83.69
269.377	87.69
269.609	74.69
269.841	70.69
270.073	83.69
270.306	83.69
270.538	88.69
270.77	90.69
271.002	72.69
271.234	70.69
271.466	76.69
271.698	74.69
271.93	67.69
272.162	81.69
272.394	89.69
272.626	85.69
272.858	77.69
273.09	78.69
273.322	75.69
273.553	94.69
273.785	78.69
274.017	82.69
274.249	93.69
274.481	99.69
274.713	98.69
274.945	78.69
275.176	93.69
275.408	84.69
275.64	88.69
275.872	82.69
276.104	76.69
276.335	96.69
276.567	89.69
276.799	90.69
277.031	105.69
277.262	86.69
277.494	81.69
277.726	81.69
277.957	73.69
278.189	81.69
278.421	78.69
278.652	94.69
278.884	94.69
279.115	87.69
279.347	85.69
279.579	101.69
279.81	75.69
280.042	84.69
280.273	75.69
280.505	88.69
280.736	81.69
280.968	88.69
281.199	75.69
281.431	86.69
281.662	86.69
281.894	69.69
282.125	104.69
282.356	114.69
282.588	144.69
282.819	99.69
283.051	88.69
283.282	88.69
283.513	89.69
283.745	74.69
283.976	86.69
284.207	94.69
284.439	71.69
284.67	84.69
284.901	91.69
285.132	85.69
285.364	86.69
285.595	83.69
285.826	85.69
286.057	93.69
286.288	82.69
286.52	84.69
286.751	73.69
286.982	83.69
287.213	71.69
287.444	94.69
287.675	81.69
287.906	76.69
288.138	70.69
288.369	94.69
288.6	99.69
288.831	99.69
289.062	99.69
289.293	86.69
289.524	81.69
289.755	83.69
289.986	86.69
290.217	91.69
290.448	85.69
290.679	88.69
290.91	75.69
291.141	72.69
291.371	86.69
291.602	91.69
291.833	83.69
292.064	87.69
292.295	76.69
292.526	79.69
292.757	102.69
292.987	82.69
293.218	91.69
293.449	89.69
293.68	98.69
293.91	102.69
294.141	86.69
294.372	83.69
294.603	88.69
294.833	84.69
295.064	88.69
295.295	85.69
295.525	73.69
295.756	100.69
295.987	122.69
296.217	141.69
296.448	122.69
296.679	99.69
296.909	95.69
297.14	86.69
297.37	85.69
297.601	90.69
297.831	82.69
298.062	84.69
298.292	91.69
298.523	91.69
298.753	82.69
298.984	94.69
299.214	92.69
299.445	84.69
299.675	96.69
299.905	81.69
300.136	82.69
300.366	87.69
300.597	97.69
300.827	78.69
301.057	94.69
301.288	106.69
301.518	97.69
301.748	84.69
301.979	104.69
302.209	85.69
302.439	93.69
302.669	94.69
302.9	81.69
303.13	97.69
303.36	104.69
303.59	111.69
303.82	98.69
304.051	90.69
304.281	90.69
304.511	80.69
304.741	92.69
304.971	92.69
305.201	64.69
305.431	81.69
305.661	88.69
305.891	78.69
306.121	86.69
306.352	92.69
306.582	98.69
306.812	99.69
307.042	85.69
307.272	85.69
307.502	92.69
307.731	94.69
307.961	86.69
308.191	93.69
308.421	79.69
308.651	82.69
308.881	89.69
309.111	97.69
309.341	82.69
309.571	90.69
309.8	79.69
310.03	94.69
310.26	93.69
310.49	92.69
310.72	93.69
310.949	94.69
311.179	92.69
311.409	102.69
311.639	103.69
311.868	88.69
312.098	87.69
312.328	91.69
312.557	99.69
312.787	113.69
313.017	86.69
313.246	93.69
313.476	88.69
313.706	91.69
313.935	97.69
314.165	95.69
314.394	117.69
314.624	95.69
314.853	86.69
315.083	87.69
315.312	89.69
315.542	87.69
315.771	83.69
316.001	81.69
316.23	77.69
316.46	86.69
316.689	90.69
316.919	78.69
317.148	95.69
317.377	87.69
317.607	88.69
317.836	101.69
318.065	91.69
318.295	82.69
318.524	101.69
318.753	82.69
318.983	93.69
319.212	94.69
319.441	99.69
319.67	99.69
319.9	91.69
320.129	92.69
320.358	92.69
320.587	101.69
320.816	86.69
321.046	98.69
321.275	102.69
321.504	106.69
321.733	103.69
321.962	91.69
322.191	103.69
322.42	126.69
322.649	112.69
322.878	119.69
323.108	111.69
323.337	126.69
323.566	125.69
323.795	149.69
324.024	215.69
324.253	450.69
324.482	940.69
324.71	1927.69
324.939	2506.69
325.168	894.69
325.397	258.69
325.626	158.69
325.855	132.69
326.084	116.69
326.313	131.69
326.542	168.69
326.77	239.69
326.999	520.69
327.228	1048.69
327.457	1923.69
327.686	1493.69
327.914	407.69
328.143	218.69
328.372	140.69
328.6	118.69
328.829	130.69
329.058	118.69
329.287	126.69
329.515	99.69
329.744	96.69
329.972	106.69
330.201	85.69
330.43	109.69
330.658	128.69
330.887	151.69
331.115	126.69
331.344	102.69
331.572	101.69
331.801	97.69
332.03	88.69
332.258	99.69
332.486	99.69
332.715	96.69
332.943	74.69
333.172	72.69
333.4	88.69
333.629	92.69
333.857	117.69
334.085	95.69
334.314	98.69
334.542	82.69
334.771	100.69
334.999	92.69
335.227	95.69
335.455	98.69
335.684	84.69
335.912	89.69
336.14	101.69
336.369	102.69
336.597	92.69
336.825	91.69
337.053	107.69
337.281	100.69
337.51	80.69
337.738	82.69
337.966	91.69
338.194	79.69
338.422	91.69
338.65	82.69
338.878	88.69
339.106	88.69
339.334	83.69
339.562	81.69
339.79	94.69
340.018	82.69
340.246	77.69
340.474	88.69
340.702	86.69
340.93	93.69
341.158	102.69
341.386	102.69
341.614	86.69
341.842	96.69
342.07	97.69
342.298	87.69
342.526	74.69
342.754	81.69
342.981	68.69
343.209	81.69
343.437	99.69
343.665	81.69
343.893	88.69
344.12	96.69
344.348	95.69
344.576	91.69
344.804	89.69
345.031	98.69
345.259	110.69
345.487	94.69
345.714	88.69
345.942	87.69
346.17	92.69
346.397	86.69
346.625	87.69
346.853	85.69
347.08	83.69
347.308	102.69
347.535	94.69
347.763	100.69
347.99	99.69
348.218	93.69
348.445	96.69
348.673	104.69
348.9	78.69
349.128	95.69
349.355	97.69
349.583	105.69
349.81	98.69
350.037	93.69
350.265	95.69
350.492	102.69
350.72	95.69
350.947	97.69
351.174	108.69
351.402	112.69
351.629	100.69
351.856	79.69
352.083	93.69
352.311	99.69
352.538	102.69
352.765	97.69
352.992	107.69
353.22	98.69
353.447	101.69
353.674	97.69
353.901	90.69
354.128	96.69
354.355	97.69
354.583	100.69
354.81	104.69
355.037	89.69
355.264	96.69
355.491	91.69
355.718	83.69
355.945	98.69
356.172	92.69
356.399	86.69
356.626	90.69
356.853	92.69
357.08	85.69
357.307	93.69
357.534	75.69
357.761	102.69
357.988	95.69
358.215	95.69
358.441	106.69
358.668	99.69
358.895	83.69
359.122	84.69
359.349	104.69
359.576	97.69
359.802	95.69
360.029	122.69
360.256	115.69
360.483	107.69
360.709	95.69
360.936	79.69
361.163	83.69
361.39	100.69
361.616	87.69
361.843	95.69
362.07	102.69
362.296	88.69
362.523	86.69
362.749	91.69
362.976	88.69
363.203	103.69
363.429	88.69
363.656	87.69
363.882	73.69
364.109	93.69
364.335	85.69
364.562	86.69
364.788	87.69
365.015	97.69
365.241	93.69
365.468	101.69
365.694	118.69
365.92	94.69
366.147	94.69
366.373	90.69
366.599	73.69
366.826	92.69
367.052	88.69
367.278	80.69
367.505	91.69
367.731	88.69
367.957	88.69
368.184	98.69
368.41	110.69
368.636	103.69
368.862	107.69
369.089	108.69
369.315	103.69
369.541	84.69
369.767	89.69
369.993	80.69
370.219	92.69
370.445	79.69
370.672	88.69
370.898	91.69
371.124	90.69
371.35	80.69
371.576	98.69
371.802	90.69
372.028	79.69
372.254	92.69
372.48	71.69
372.706	73.69
372.932	90.69
373.158	91.69
373.384	109.69
373.61	88.69
373.835	98.69
374.061	95.69
374.287	86.69
374.513	90.69
374.739	67.69
374.965	94.69
375.191	99.69
375.416	94.69
375.642	80.69
375.868	83.69
376.094	83.69
376.319	65.69
376.545	82.69
376.771	79.69
376.997	93.69
377.222	87.69
377.448	93.69
377.674	87.69
377.899	93.69
378.125	83.69
378.35	81.69
378.576	99.69
378.802	98.69
379.027	99.69
379.253	96.69
379.478	84.69
379.704	86.69
379.929	77.69
380.155	94.69
380.38	88.69
380.606	95.69
380.831	96.69
381.057	94.69
381.282	91.69
381.507	104.69
381.733	96.69
381.958	83.69
382.184	98.69
382.409	98.69
382.634	96.69
382.86	92.69
383.085	99.69
383.31	87.69
383.535	82.69
383.761	92.69
383.986	91.69
384.211	95.69
384.436	88.69
384.662	88.69
384.887	108.69
385.112	97.69
385.337	94.69
385.562	109.69
385.787	93.69
386.013	99.69
386.238	114.69
386.463	111.69
386.688	108.69
386.913	78.69
387.138	93.69
387.363	101.69
387.588	90.69
387.813	98.69
388.038	88.69
388.263	127.69
388.488	112.69
388.713	105.69
388.938	118.69
389.163	94.69
389.387	96.69
389.612	85.69
389.837	115.69
390.062	90.69
390.287	86.69
390.512	84.69
390.736	92.69
390.961	80.69
391.186	87.69
391.411	90.69
391.636	84.69
391.86	101.69
392.085	86.69
392.31	83.69
392.534	80.69
392.759	91.69
392.984	78.69
393.208	82.69
393.433	83.69
393.658	90.69
393.882	86.69
394.107	80.69
394.331	75.69
394.556	86.69
394.78	95.69
395.005	89.69
395.229	84.69
395.454	82.69
395.678	90.69
395.903	80.69
396.127	71.69
396.352	88.69
396.576	91.69
396.801	87.69
397.025	86.69
397.249	92.69
397.474	91.69
397.698	79.69
397.922	81.69
398.147	85.69
398.371	92.69
398.595	76.69
398.82	87.69
399.044	79.69
399.268	96.69
399.492	91.69
399.717	88.69
399.941	86.69
400.165	103.69
400.389	95.69
400.613	81.69
400.837	92.69
401.062	83.69
401.286	86.69
401.51	89.69
401.734	87.69
401.958	115.69
402.182	127.69
402.406	170.69
402.63	122.69
402.854	97.69
403.078	83.69
403.302	78.69
403.526	95.69
403.75	77.69
403.974	83.69
404.198	93.69
404.422	81.69
404.645	88.69
404.869	90.69
405.093	85.69
405.317	83.69
405.541	108.69
405.765	96.69
405.988	118.69
406.212	176.69
406.436	235.69
406.66	155.69
406.883	96.69
407.107	98.69
407.331	118.69
407.555	99.69
407.778	113.69
408.002	89.69
408.226	100.69
408.449	77.69
408.673	86.69
408.896	84.69
409.12	101.69
409.344	85.69
409.567	85.69
409.791	102.69
410.014	103.69
410.238	84.69
410.461	91.69
410.685	95.69
410.908	88.69
411.132	96.69
411.355	94.69
411.578	83.69
411.802	88.69
412.025	86.69
412.249	80.69
412.472	83.69
412.695	87.69
412.919	77.69
413.142	86.69
413.365	85.69
413.589	87.69
413.812	84.69
414.035	96.69
414.258	106.69
414.482	83.69
414.705	77.69
414.928	91.69
415.151	95.69
415.374	94.69
415.597	86.69
415.821	94.69
416.044	77.69
416.267	81.69
416.49	78.69
416.713	95.69
416.936	83.69
417.159	79.69
417.382	74.69
417.605	80.69
417.828	93.69
418.051	91.69
418.274	80.69
418.497	93.69
418.72	70.69
418.943	91.69
419.166	80.69
419.389	98.69
419.611	100.69
419.834	86.69
420.057	91.69
420.28	92.69
420.503	94.69
420.726	85.69
420.948	81.69
421.171	73.69
421.394	96.69
421.617	86.69
421.839	88.69
422.062	89.69
422.285	90.69
422.507	98.69
422.73	102.69
422.953	72.69
423.175	87.69
423.398	80.69
423.621	104.69
423.843	89.69
424.066	83.69
424.288	86.69
424.511	84.69
424.733	94.69
424.956	98.69
425.178	106.69
425.401	110.69
425.623	90.69
425.846	80.69
426.068	91.69
426.291	93.69
426.513	74.69
426.735	103.69
426.958	76.69
427.18	105.69
427.402	140.69
427.625	157.69
427.847	116.69
428.069	109.69
428.292	84.69
428.514	83.69
428.736	84.69
428.958	76.69
429.181	88.69
429.403	73.69
429.625	74.69
429.847	96.69
430.069	94.69
430.292	90.69
430.514	93.69
430.736	90.69
430.958	88.69
431.18	79.69
431.402	101.69
431.624	99.69
431.846	99.69
432.068	90.69
432.29	86.69
432.512	77.69
432.734	81.69
432.956	79.69
433.178	103.69
433.4	99.69
433.622	83.69
433.844	101.69
434.066	92.69
434.287	100.69
434.509	99.69
434.731	105.69
434.953	90.69
435.175	85.69
435.397	88.69
435.618	95.69
435.84	96.69
436.062	123.69
436.284	120.69
436.505	101.69
436.727	107.69
436.949	72.69
437.17	79.69
437.392	88.69
437.614	92.69
437.835	99.69
438.057	118.69
438.278	109.69
438.5	110.69
438.721	109.69
438.943	115.69
439.165	84.69
439.386	98.69
439.608	89.69
439.829	91.69
440.05	106.69
440.272	125.69
440.493	91.69
440.715	95.69
440.936	95.69
441.158	81.69
441.379	92.69
441.6	104.69
441.822	105.69
442.043	97.69
442.264	88.69
442.486	111.69
442.707	98.69
442.928	101.69
443.149	117.69
443.371	130.69
443.592	111.69
443.813	108.69
444.034	98.69
444.255	91.69
444.476	82.69
444.698	93.69
444.919	96.69
445.14	137.69
445.361	106.69
445.582	114.69
445.803	127.69
446.024	127.69
446.245	108.69
446.466	111.69
446.687	89.69
446.908	89.69
447.129	93.69
447.35	103.69
447.571	81.69
447.792	83.69
448.013	100.69
448.234	115.69
448.455	101.69
448.675	100.69
448.896	114.69
449.117	90.69
449.338	103.69
449.559	130.69
449.779	122.69
450	90.69
450.221	92.69
450.442	77.69
450.662	82.69
450.883	119.69
451.104	107.69
451.324	86.69
451.545	97.69
451.766	79.69
451.986	92.69
452.207	80.69
452.428	95.69
452.648	107.69
452.869	107.69
453.089	104.69
453.31	136.69
453.53	102.69
453.751	86.69
453.971	98.69
454.192	103.69
454.412	93.69
454.633	87.69
454.853	80.69
455.073	88.69
455.294	88.69
455.514	90.69
455.734	87.69
455.955	88.69
456.175	74.69
456.395	77.69
456.616	83.69
456.836	84.69
457.056	87.69
457.276	79.69
457.497	93.69
457.717	93.69
457.937	80.69
458.157	88.69
458.377	82.69
458.598	104.69
458.818	171.69
459.038	162.69
459.258	116.69
459.478	84.69
459.698	92.69
459.918	79.69
460.138	73.69
460.358	85.69
460.578	79.69
460.798	94.69
461.018	92.69
461.238	85.69
461.458	79.69
461.678	82.69
461.898	73.69
462.118	86.69
462.338	83.69
462.558	69.69
462.777	79.69
462.997	98.69
463.217	79.69
463.437	91.69
463.657	87.69
463.876	79.69
464.096	94.69
464.316	93.69
464.536	88.69
464.755	95.69
464.975	111.69
465.195	193.69
465.414	164.69
465.634	101.69
465.854	93.69
466.073	99.69
466.293	97.69
466.512	93.69
466.732	91.69
466.951	85.69
467.171	69.69
467.391	92.69
467.61	113.69
467.829	101.69
468.049	86.69
468.268	75.69
468.488	85.69
468.707	92.69
468.927	83.69
469.146	84.69
469.365	96.69
469.585	84.69
469.804	98.69
470.023	98.69
470.243	87.69
470.462	95.69
470.681	120.69
470.901	75.69
471.12	78.69
471.339	95.69
471.558	97.69
471.777	79.69
471.997	88.69
472.216	102.69
472.435	105.69
472.654	78.69
472.873	86.69
473.092	87.69
473.311	83.69
473.53	79.69
473.749	90.69
473.968	90.69
474.187	101.69
474.406	90.69
474.625	84.69
474.844	76.69
475.063	76.69
475.282	100.69
475.501	75.69
475.72	100.69
475.939	88.69
476.158	88.69
476.377	84.69
476.596	98.69
476.814	101.69
477.033	85.69
477.252	95.69
477.471	87.69
477.69	83.69
477.908	92.69
478.127	83.69
478.346	74.69
478.564	83.69
478.783	94.69
479.002	92.69
479.22	101.69
479.439	99.69
479.658	108.69
479.876	99.69
480.095	91.69
480.313	92.69
480.532	83.69
480.751	100.69
480.969	93.69
481.188	134.69
481.406	95.69
481.624	84.69
481.843	90.69
482.061	83.69
482.28	82.69
482.498	94.69
482.717	76.69
482.935	86.69
483.153	98.69
483.372	103.69
483.59	95.69
483.808	97.69
484.027	98.69
484.245	92.69
484.463	97.69
484.681	103.69
484.9	94.69
485.118	96.69
485.336	100.69
485.554	87.69
485.772	107.69
485.99	99.69
486.209	112.69
486.427	96.69
486.645	117.69
486.863	111.69
487.081	104.69
487.299	110.69
487.517	85.69
487.735	87.69
487.953	88.69
488.171	91.69
488.389	103.69
488.607	105.69
488.825	100.69
489.043	94.69
489.261	94.69
489.479	94.69
489.696	90.69
489.914	88.69
490.132	90.69
490.35	76.69
490.568	103.69
490.786	94.69
491.003	102.69
491.221	79.69
491.439	86.69
491.657	88.69
491.874	82.69
492.092	88.69
492.31	95.69
492.527	91.69
492.745	83.69
492.963	94.69
493.18	92.69
493.398	104.69
493.615	105.69
493.833	96.69
494.05	99.69
494.268	103.69
494.485	99.69
494.703	100.69
494.92	94.69
495.138	102.69
495.355	93.69
495.573	98.69
495.79	77.69
496.008	88.69
496.225	102.69
496.442	100.69
496.66	90.69
496.877	92.69
497.094	86.69
497.312	100.69
497.529	103.69
497.746	94.69
497.963	110.69
498.181	102.69
498.398	92.69
498.615	96.69
498.832	110.69
499.049	87.69
499.267	107.69
499.484	96.69
499.701	100.69
499.918	83.69
500.135	99.69
500.352	98.69
500.569	83.69
500.786	84.69
501.003	81.69
501.22	102.69
501.437	89.69
501.654	100.69
501.871	127.69
502.088	95.69
502.305	103.69
502.522	97.69
502.739	94.69
502.956	88.69
503.172	91.69
503.389	83.69
503.606	110.69
503.823	95.69
504.04	92.69
504.256	82.69
504.473	82.69
504.69	74.69
504.907	92.69
505.123	87.69
505.34	88.69
505.557	84.69
505.773	81.69
505.99	94.69
506.207	80.69
506.423	85.69
506.64	97.69
506.856	89.69
507.073	82.69
507.289	102.69
507.506	105.69
507.722	120.69
507.939	101.69
508.155	107.69
508.372	107.69
508.588	101.69
508.805	96.69
509.021	85.69
509.238	109.69
509.454	91.69
509.67	119.69
509.887	110.69
510.103	128.69
510.319	247.69
510.536	867.69
510.752	2803.69
510.968	777.69
511.184	166.69
511.401	99.69
511.617	88.69
511.833	97.69
512.049	95.69
512.265	87.69
512.481	84.69
512.698	96.69
512.914	93.69
513.13	88.69
513.346	94.69
513.562	98.69
513.778	88.69
513.994	98.69
514.21	94.69
514.426	134.69
514.642	128.69
514.858	133.69
515.074	184.69
515.29	521.69
515.506	1742.69
515.721	614.69
515.937	177.69
516.153	103.69
