Data from Uncirc_2004_H10_HRD10591_00001.txt Node
Date: Wed Jan 03 10:32:13 EST 2024
User: Yrep
Spectrometer: HR+D1059
Trigger mode: 1
Integration Time (sec): 1.000000E-1
Scans to average: 1
Electric dark correction enabled: true
Nonlinearity correction enabled: false
Boxcar width: 0
XAxis mode: Wavelengths
Number of Pixels in Spectrum: 2048
>>>>>Begin Spectral Data<<<<<
223.165	-20
223.4	-20
223.635	-20
223.869	-22
224.104	-2
224.338	-10
224.573	-15
224.808	-15
225.042	-21
225.277	-12
225.511	-13
225.746	5
225.98	15
226.215	18
226.449	10
226.683	21
226.918	22
227.152	39
227.387	34
227.621	45
227.856	46
228.09	41
228.324	45
228.559	67
228.793	60
229.027	66
229.262	70
229.496	73
229.73	73
229.964	79
230.199	78
230.433	72
230.667	70
230.901	76
231.136	72
231.37	71
231.604	69
231.838	77
232.072	85
232.306	76
232.541	80
232.775	90
233.009	91
233.243	72
233.477	71
233.711	86
233.945	87
234.179	78
234.413	78
234.647	91
234.881	75
235.115	72
235.349	72
235.583	73
235.817	97
236.051	70
236.285	78
236.519	87
236.753	82
236.987	81
237.221	81
237.455	77
237.689	74
237.922	78
238.156	67
238.39	70
238.624	80
238.858	84
239.091	69
239.325	72
239.559	72
239.793	73
240.027	85
240.26	62
240.494	72
240.728	77
240.961	68
241.195	72
241.429	82
241.662	79
241.896	67
242.13	61
242.363	71
242.597	83
242.83	93
243.064	73
243.298	66
243.531	80
243.765	70
243.998	70
244.232	74
244.465	70
244.699	87
244.932	74
245.166	66
245.399	70
245.633	73
245.866	70
246.099	86
246.333	74
246.566	70
246.8	81
247.033	85
247.266	77
247.5	71
247.733	83
247.966	75
248.2	78
248.433	85
248.666	85
248.899	85
249.133	85
249.366	88
249.599	91
249.832	84
250.066	72
250.299	80
250.532	85
250.765	84
250.998	81
251.231	75
251.465	78
251.698	77
251.931	83
252.164	70
252.397	75
252.63	78
252.863	79
253.096	73
253.329	76
253.562	79
253.795	85
254.028	87
254.261	83
254.494	67
254.727	81
254.96	78
255.193	76
255.426	81
255.659	73
255.892	77
256.124	81
256.357	67
256.59	67
256.823	89
257.056	74
257.289	79
257.521	76
257.754	77
257.987	81
258.22	71
258.452	96
258.685	93
258.918	85
259.151	79
259.383	65
259.616	84
259.849	72
260.081	76
260.314	80
260.547	73
260.779	73
261.012	96
261.244	81
261.477	86
261.71	89
261.942	100
262.175	90
262.407	78
262.64	86
262.872	79
263.105	84
263.337	76
263.57	72
263.802	73
264.035	93
264.267	79
264.499	84
264.732	84
264.964	76
265.197	70
265.429	82
265.661	75
265.894	84
266.126	84
266.358	89
266.591	81
266.823	71
267.055	81
267.287	87
267.52	79
267.752	85
267.984	82
268.216	81
268.448	90
268.681	87
268.913	79
269.145	83
269.377	85
269.609	76
269.841	73
270.073	85
270.306	90
270.538	90
270.77	83
271.002	78
271.234	83
271.466	86
271.698	82
271.93	74
272.162	85
272.394	85
272.626	78
272.858	83
273.09	80
273.322	99
273.553	77
273.785	72
274.017	76
274.249	76
274.481	95
274.713	80
274.945	94
275.176	76
275.408	88
275.64	80
275.872	76
276.104	82
276.335	98
276.567	84
276.799	92
277.031	101
277.262	100
277.494	97
277.726	95
277.957	85
278.189	89
278.421	94
278.652	92
278.884	86
279.115	89
279.347	96
279.579	87
279.81	76
280.042	71
280.273	87
280.505	95
280.736	81
280.968	95
281.199	86
281.431	101
281.662	83
281.894	88
282.125	82
282.356	105
282.588	120
282.819	91
283.051	101
283.282	86
283.513	75
283.745	76
283.976	85
284.207	75
284.439	92
284.67	95
284.901	73
285.132	88
285.364	94
285.595	85
285.826	82
286.057	80
286.288	85
286.52	84
286.751	86
286.982	92
287.213	71
287.444	67
287.675	88
287.906	93
288.138	87
288.369	88
288.6	90
288.831	84
289.062	87
289.293	79
289.524	76
289.755	73
289.986	83
290.217	87
290.448	95
290.679	92
290.91	82
291.141	71
291.371	87
291.602	78
291.833	86
292.064	94
292.295	92
292.526	84
292.757	77
292.987	88
293.218	85
293.449	89
293.68	88
293.91	90
294.141	87
294.372	78
294.603	87
294.833	83
295.064	90
295.295	85
295.525	103
295.756	96
295.987	91
296.217	127
296.448	112
296.679	99
296.909	92
297.14	103
297.37	98
297.601	78
297.831	92
298.062	101
298.292	87
298.523	97
298.753	86
298.984	96
299.214	85
299.445	100
299.675	97
299.905	95
300.136	97
300.366	93
300.597	86
300.827	105
301.057	85
301.288	89
301.518	77
301.748	70
301.979	96
302.209	96
302.439	90
302.669	98
302.9	82
303.13	76
303.36	94
303.59	94
303.82	97
304.051	104
304.281	92
304.511	95
304.741	95
304.971	90
305.201	76
305.431	79
305.661	90
305.891	94
306.121	97
306.352	90
306.582	108
306.812	94
307.042	101
307.272	89
307.502	85
307.731	85
307.961	93
308.191	79
308.421	78
308.651	89
308.881	84
309.111	86
309.341	94
309.571	88
309.8	92
310.03	93
310.26	93
310.49	89
310.72	90
310.949	116
311.179	91
311.409	85
311.639	90
311.868	88
312.098	90
312.328	90
312.557	88
312.787	102
313.017	90
313.246	92
313.476	98
313.706	84
313.935	95
314.165	96
314.394	93
314.624	97
314.853	85
315.083	94
315.312	91
315.542	93
315.771	89
316.001	96
316.23	89
316.46	88
316.689	89
316.919	85
317.148	104
317.377	89
317.607	90
317.836	81
318.065	98
318.295	80
318.524	81
318.753	77
318.983	100
319.212	100
319.441	107
319.67	103
319.9	104
320.129	91
320.358	90
320.587	92
320.816	95
321.046	101
321.275	92
321.504	97
321.733	90
321.962	104
322.191	81
322.42	85
322.649	99
322.878	109
323.108	120
323.337	129
323.566	116
323.795	130
324.024	182
324.253	344
324.482	676
324.71	1368
324.939	1798
325.168	692
325.397	206
325.626	138
325.855	119
326.084	120
326.313	131
326.542	146
326.77	204
326.999	402
327.228	805
327.457	1438
327.686	1133
327.914	303
328.143	157
328.372	140
328.6	108
328.829	115
329.058	111
329.287	97
329.515	93
329.744	104
329.972	90
330.201	106
330.43	112
330.658	120
330.887	107
331.115	110
331.344	103
331.572	96
331.801	95
332.03	82
332.258	97
332.486	82
332.715	84
332.943	76
333.172	87
333.4	96
333.629	92
333.857	95
334.085	102
334.314	98
334.542	101
334.771	95
334.999	96
335.227	113
335.455	94
335.684	94
335.912	82
336.14	104
336.369	87
336.597	90
336.825	90
337.053	82
337.281	96
337.51	89
337.738	95
337.966	95
338.194	94
338.422	82
338.65	96
338.878	92
339.106	100
339.334	85
339.562	88
339.79	91
340.018	92
340.246	87
340.474	97
340.702	90
340.93	92
341.158	78
341.386	80
341.614	95
341.842	94
342.07	97
342.298	101
342.526	88
342.754	90
342.981	89
343.209	88
343.437	93
343.665	90
343.893	89
344.12	89
344.348	96
344.576	98
344.804	95
345.031	91
345.259	81
345.487	101
345.714	89
345.942	95
346.17	95
346.397	90
346.625	92
346.853	83
347.08	93
347.308	88
347.535	103
347.763	93
347.99	100
348.218	99
348.445	115
348.673	105
348.9	90
349.128	88
349.355	93
349.583	96
349.81	98
350.037	93
350.265	84
350.492	93
350.72	105
350.947	111
351.174	95
351.402	96
351.629	97
351.856	113
352.083	97
352.311	108
352.538	101
352.765	103
352.992	100
353.22	95
353.447	107
353.674	95
353.901	97
354.128	111
354.355	108
354.583	108
354.81	108
355.037	94
355.264	97
355.491	102
355.718	91
355.945	90
356.172	104
356.399	100
356.626	95
356.853	90
357.08	89
357.307	91
357.534	84
357.761	109
357.988	88
358.215	97
358.441	108
358.668	98
358.895	89
359.122	100
359.349	89
359.576	96
359.802	89
360.029	99
360.256	96
360.483	102
360.709	95
360.936	105
361.163	96
361.39	93
361.616	77
361.843	100
362.07	95
362.296	103
362.523	96
362.749	88
362.976	87
363.203	79
363.429	90
363.656	80
363.882	97
364.109	97
364.335	102
364.562	91
364.788	84
365.015	101
365.241	96
365.468	106
365.694	98
365.92	97
366.147	89
366.373	100
366.599	96
366.826	91
367.052	95
367.278	80
367.505	81
367.731	90
367.957	85
368.184	94
368.41	101
368.636	109
368.862	106
369.089	97
369.315	102
369.541	91
369.767	85
369.993	96
370.219	84
370.445	96
370.672	94
370.898	90
371.124	85
371.35	81
371.576	92
371.802	82
372.028	77
372.254	90
372.48	90
372.706	89
372.932	85
373.158	96
373.384	97
373.61	108
373.835	97
374.061	95
374.287	101
374.513	86
374.739	89
374.965	76
375.191	92
375.416	88
375.642	101
375.868	84
376.094	89
376.319	108
376.545	87
376.771	92
376.997	96
377.222	92
377.448	95
377.674	84
377.899	94
378.125	102
378.35	81
378.576	96
378.802	88
379.027	95
379.253	97
379.478	89
379.704	109
379.929	105
380.155	96
380.38	96
380.606	100
380.831	102
381.057	106
381.282	85
381.507	98
381.733	102
381.958	108
382.184	101
382.409	115
382.634	112
382.86	131
383.085	124
383.31	121
383.535	117
383.761	113
383.986	113
384.211	111
384.436	120
384.662	122
384.887	128
385.112	124
385.337	130
385.562	124
385.787	131
386.013	126
386.238	131
386.463	129
386.688	135
386.913	130
387.138	151
387.363	124
387.588	117
387.813	110
388.038	121
388.263	140
388.488	126
388.713	91
388.938	100
389.163	104
389.387	97
389.612	89
389.837	92
390.062	90
390.287	86
390.512	96
390.736	94
390.961	97
391.186	93
391.411	90
391.636	90
391.86	85
392.085	80
392.31	68
392.534	84
392.759	95
392.984	85
393.208	105
393.433	107
393.658	111
393.882	87
394.107	86
394.331	81
394.556	92
394.78	76
395.005	75
395.229	95
395.454	92
395.678	92
395.903	87
396.127	106
396.352	87
396.576	87
396.801	88
397.025	100
397.249	95
397.474	109
397.698	84
397.922	82
398.147	91
398.371	90
398.595	83
398.82	94
399.044	88
399.268	84
399.492	92
399.717	94
399.941	97
400.165	105
400.389	92
400.613	79
400.837	80
401.062	88
401.286	86
401.51	85
401.734	98
401.958	101
402.182	113
402.406	137
402.63	112
402.854	91
403.078	93
403.302	81
403.526	94
403.75	92
403.974	73
404.198	90
404.422	91
404.645	84
404.869	85
405.093	95
405.317	100
405.541	102
405.765	93
405.988	109
406.212	141
406.436	184
406.66	127
406.883	91
407.107	94
407.331	88
407.555	96
407.778	88
408.002	95
408.226	92
408.449	104
408.673	89
408.896	84
409.12	90
409.344	81
409.567	91
409.791	89
410.014	86
410.238	105
410.461	107
410.685	98
410.908	104
411.132	107
411.355	89
411.578	101
411.802	96
412.025	101
412.249	85
412.472	101
412.695	89
412.919	85
413.142	105
413.365	90
413.589	87
413.812	93
414.035	89
414.258	106
414.482	107
414.705	97
414.928	81
415.151	105
415.374	106
415.597	89
415.821	102
416.044	91
416.267	93
416.49	90
416.713	99
416.936	84
417.159	90
417.382	100
417.605	76
417.828	101
418.051	103
418.274	93
418.497	90
418.72	94
418.943	92
419.166	102
419.389	92
419.611	93
419.834	103
420.057	90
420.28	93
420.503	99
420.726	78
420.948	85
421.171	86
421.394	82
421.617	101
421.839	94
422.062	90
422.285	91
422.507	93
422.73	110
422.953	80
423.175	85
423.398	88
423.621	87
423.843	86
424.066	87
424.288	95
424.511	98
424.733	102
424.956	109
425.178	95
425.401	93
425.623	97
425.846	83
426.068	97
426.291	84
426.513	92
426.735	88
426.958	81
427.18	95
427.402	130
427.625	136
427.847	115
428.069	112
428.292	95
428.514	84
428.736	84
428.958	82
429.181	71
429.403	86
429.625	84
429.847	96
430.069	97
430.292	97
430.514	87
430.736	90
430.958	102
431.18	87
431.402	84
431.624	74
431.846	77
432.068	74
432.29	82
432.512	87
432.734	74
432.956	94
433.178	99
433.4	97
433.622	77
433.844	101
434.066	86
434.287	85
434.509	100
434.731	92
434.953	80
435.175	86
435.397	100
435.618	100
435.84	103
436.062	92
436.284	113
436.505	82
436.727	95
436.949	94
437.17	92
437.392	80
437.614	94
437.835	116
438.057	91
438.278	103
438.5	100
438.721	93
438.943	88
439.165	82
439.386	90
439.608	73
439.829	89
440.05	109
440.272	120
440.493	91
440.715	83
440.936	95
441.158	94
441.379	97
441.6	82
441.822	76
442.043	97
442.264	104
442.486	78
442.707	77
442.928	93
443.149	95
443.371	107
443.592	105
443.813	105
444.034	102
444.255	97
444.476	97
444.698	88
444.919	82
445.14	128
445.361	118
445.582	113
445.803	125
446.024	114
446.245	119
446.466	102
446.687	95
446.908	86
447.129	88
447.35	81
447.571	98
447.792	103
448.013	107
448.234	82
448.455	96
448.675	102
448.896	107
449.117	94
449.338	93
449.559	104
449.779	129
450	97
450.221	89
450.442	91
450.662	89
450.883	106
451.104	97
451.324	96
451.545	97
451.766	93
451.986	98
452.207	91
452.428	95
452.648	107
452.869	86
453.089	116
453.31	112
453.53	93
453.751	75
453.971	107
454.192	94
454.412	84
454.633	80
454.853	83
455.073	83
455.294	83
455.514	72
455.734	93
455.955	82
456.175	84
456.395	74
456.616	89
456.836	81
457.056	89
457.276	86
457.497	75
457.717	94
457.937	103
458.157	87
458.377	91
458.598	96
458.818	123
459.038	136
459.258	99
459.478	100
459.698	84
459.918	93
460.138	85
460.358	82
460.578	85
460.798	93
461.018	88
461.238	73
461.458	75
461.678	88
461.898	95
462.118	86
462.338	87
462.558	85
462.777	88
462.997	92
463.217	83
463.437	91
463.657	88
463.876	78
464.096	87
464.316	91
464.536	95
464.755	94
464.975	103
465.195	142
465.414	133
465.634	103
465.854	83
466.073	89
466.293	96
466.512	83
466.732	87
466.951	75
467.171	86
467.391	98
467.61	82
467.829	87
468.049	85
468.268	96
468.488	94
468.707	101
468.927	97
469.146	91
469.365	99
469.585	77
469.804	78
470.023	94
470.243	93
470.462	85
470.681	98
470.901	83
471.12	93
471.339	97
471.558	77
471.777	80
471.997	90
472.216	99
472.435	94
472.654	91
472.873	102
473.092	82
473.311	88
473.53	76
473.749	79
473.968	96
474.187	82
474.406	96
474.625	85
474.844	96
475.063	88
475.282	94
475.501	87
475.72	77
475.939	74
476.158	101
476.377	78
476.596	86
476.814	94
477.033	85
477.252	89
477.471	97
477.69	80
477.908	81
478.127	89
478.346	89
478.564	87
478.783	94
479.002	89
479.22	90
479.439	96
479.658	88
479.876	82
480.095	95
480.313	79
480.532	76
480.751	77
480.969	87
481.188	112
481.406	121
481.624	89
481.843	88
482.061	84
482.28	88
482.498	96
482.717	80
482.935	80
483.153	73
483.372	78
483.59	99
483.808	98
484.027	106
484.245	102
484.463	86
484.681	87
484.9	89
485.118	98
485.336	86
485.554	96
485.772	93
485.99	103
486.209	107
486.427	85
486.645	103
486.863	101
487.081	109
487.299	101
487.517	102
487.735	84
487.953	87
488.171	109
488.389	93
488.607	88
488.825	109
489.043	85
489.261	94
489.479	85
489.696	88
489.914	89
490.132	93
490.35	77
490.568	94
490.786	82
491.003	100
491.221	81
491.439	94
491.657	95
491.874	97
492.092	90
492.31	94
492.527	94
492.745	91
492.963	84
493.18	81
493.398	89
493.615	99
493.833	94
494.05	82
494.268	78
494.485	85
494.703	79
494.92	88
495.138	94
495.355	98
495.573	80
495.79	85
496.008	80
496.225	75
496.442	91
496.66	88
496.877	95
497.094	82
497.312	80
497.529	88
497.746	88
497.963	90
498.181	70
498.398	86
498.615	106
498.832	104
499.049	92
499.267	82
499.484	84
499.701	82
499.918	86
500.135	97
500.352	88
500.569	97
500.786	89
501.003	104
501.22	76
501.437	96
501.654	91
501.871	105
502.088	91
502.305	105
502.522	95
502.739	70
502.956	95
503.172	69
503.389	105
503.606	94
503.823	95
504.04	103
504.256	95
504.473	84
504.69	83
504.907	100
505.123	88
505.34	82
505.557	91
505.773	76
505.99	86
506.207	89
506.423	82
506.64	85
506.856	89
507.073	77
507.289	88
507.506	80
507.722	88
507.939	117
508.155	113
508.372	96
508.588	78
508.805	98
509.021	89
509.238	99
509.454	105
509.67	101
509.887	110
510.103	118
510.319	198
510.536	614
510.752	1764
510.968	524
511.184	150
511.401	96
511.617	118
511.833	83
512.049	95
512.265	91
512.481	86
512.698	83
512.914	87
513.13	94
513.346	89
513.562	85
513.778	100
513.994	93
514.21	101
514.426	99
514.642	117
514.858	120
515.074	145
515.29	357
515.506	1059
515.721	406
515.937	127
516.153	104
516.369	92
516.585	86
516.801	96
517.016	92
517.232	93
517.448	91
517.664	97
517.879	97
518.095	90
518.311	89
518.527	100
518.742	84
518.958	92
519.173	89
519.389	94
519.605	94
519.82	99
520.036	114
520.251	96
520.467	103
520.682	100
520.898	108
521.113	105
521.329	125
521.544	184
521.76	437
521.975	1743
522.19	1042
522.406	249
522.621	128
522.836	94
523.052	80
523.267	79
523.482	90
523.698	91
523.913	111
524.128	98
524.343	93
524.559	91
524.774	98
524.989	92
525.204	105
525.419	101
525.634	98
525.849	86
526.064	74
526.28	87
526.495	88
526.71	93
526.925	80
527.14	83
527.355	96
527.57	94
527.785	86
527.999	99
528.214	89
528.429	96
528.644	79
528.859	92
529.074	89
529.289	113
529.503	141
529.718	99
529.933	83
530.148	82
530.363	89
530.577	81
530.792	72
531.007	91
531.221	88
531.436	81
531.651	100
531.865	88
532.08	85
532.295	89
532.509	97
532.724	101
532.938	86
533.153	94
533.367	84
533.582	94
533.796	80
534.011	76
534.225	90
534.44	96
534.654	88
534.868	85
535.083	80
535.297	85
535.511	109
535.726	113
535.94	91
536.154	85
536.369	92
536.583	90
536.797	88
537.011	93
537.225	84
537.44	76
537.654	79
537.868	84
538.082	87
538.296	88
538.51	90
538.724	88
538.938	100
539.153	95
539.367	104
539.581	90
539.795	92
540.009	92
540.222	89
540.436	108
540.65	104
540.864	86
541.078	95
541.292	90
541.506	89
541.72	85
541.934	97
542.147	95
542.361	90
542.575	78
542.789	96
543.002	82
543.216	83
543.43	104
543.644	91
543.857	98
544.071	106
544.285	86
544.498	88
544.712	90
544.925	88
545.139	85
545.352	84
545.566	86
545.779	89
545.993	75
546.206	97
546.42	95
546.633	95
546.847	96
547.06	83
547.274	85
547.487	93
547.7	87
547.914	62
548.127	68
548.34	74
548.554	81
548.767	85
548.98	81
549.193	89
549.407	93
549.62	88
549.833	95
550.046	83
550.259	87
550.473	95
550.686	88
550.899	97
551.112	101
551.325	86
551.538	67
551.751	85
551.964	90
552.177	85
552.39	74
552.603	89
552.816	92
553.029	91
553.242	82
553.455	104
553.667	93
553.88	101
554.093	92
554.306	81
554.519	88
554.732	94
554.944	95
555.157	103
555.37	100
555.583	97
555.795	96
556.008	96
556.221	96
556.433	96
556.646	96
556.859	93
557.071	93
557.284	97
557.496	92
557.709	89
557.921	96
558.134	93
558.346	86
558.559	86
558.771	85
558.984	79
559.196	80
559.409	95
559.621	88
559.833	87
560.046	90
560.258	87
560.47	87
560.683	109
560.895	86
561.107	89
561.32	86
561.532	91
561.744	77
561.956	94
562.168	88
562.381	73
562.593	93
562.805	87
563.017	88
563.229	68
563.441	78
563.653	98
563.865	90
564.077	89
564.289	93
564.501	100
564.713	98
564.925	87
565.137	104
565.349	93
565.561	79
565.773	93
565.985	86
566.197	78
566.408	90
566.62	96
566.832	82
567.044	76
567.255	84
567.467	89
567.679	97
567.891	97
568.102	81
568.314	86
568.526	76
568.737	84
568.949	84
569.161	92
569.372	85
569.584	84
569.795	93
570.007	103
570.218	220
570.43	121
570.641	86
570.853	91
571.064	82
571.276	77
571.487	76
571.698	97
571.91	95
572.121	89
572.333	90
572.544	84
572.755	86
572.966	83
573.178	101
573.389	95
573.6	98
573.811	98
574.023	78
574.234	86
574.445	105
574.656	89
574.867	96
575.078	92
575.289	80
575.501	93
575.712	93
575.923	97
576.134	85
576.345	96
576.556	91
576.767	88
576.978	90
577.188	89
577.399	85
577.61	86
577.821	89
578.032	111
578.243	237
578.454	597
578.665	185
578.875	97
579.086	94
579.297	81
579.508	91
579.718	91
579.929	84
580.14	90
580.35	87
580.561	99
580.772	87
580.982	101
581.193	99
581.403	80
581.614	86
581.825	72
582.035	97
582.246	80
582.456	87
582.667	90
582.877	107
583.087	92
583.298	97
583.508	100
583.719	98
583.929	88
584.139	85
584.35	79
584.56	97
584.77	83
584.981	89
