Data from Uncirc_2004_H10_HRD10591_00009.txt Node
Date: Wed Jan 03 10:32:14 EST 2024
User: Yrep
Spectrometer: HR+D1059
Trigger mode: 1
Integration Time (sec): 1.000000E-1
Scans to average: 1
Electric dark correction enabled: true
Nonlinearity correction enabled: false
Boxcar width: 0
XAxis mode: Wavelengths
Number of Pixels in Spectrum: 2048
>>>>>Begin Spectral Data<<<<<
223.165	-34.38
223.4	-34.38
223.635	-34.38
223.869	-11.38
224.104	-25.38
224.338	-4.38
224.573	-17.38
224.808	-7.38
225.042	-4.38
225.277	8.62
225.511	-9.38
225.746	-5.38
225.98	13.62
226.215	9.62
226.449	11.62
226.683	18.62
226.918	24.62
227.152	32.62
227.387	48.62
227.621	46.62
227.856	46.62
228.09	62.62
228.324	55.62
228.559	63.62
228.793	42.62
229.027	58.62
229.262	55.62
229.496	66.62
229.73	82.62
229.964	77.62
230.199	85.62
230.433	67.62
230.667	77.62
230.901	89.62
231.136	78.62
231.37	78.62
231.604	76.62
231.838	65.62
232.072	83.62
232.306	82.62
232.541	94.62
232.775	89.62
233.009	73.62
233.243	68.62
233.477	93.62
233.711	78.62
233.945	69.62
234.179	87.62
234.413	87.62
234.647	81.62
234.881	82.62
235.115	83.62
235.349	86.62
235.583	77.62
235.817	88.62
236.051	84.62
236.285	86.62
236.519	81.62
236.753	76.62
236.987	78.62
237.221	95.62
237.455	80.62
237.689	84.62
237.922	77.62
238.156	83.62
238.39	74.62
238.624	84.62
238.858	70.62
239.091	81.62
239.325	83.62
239.559	84.62
239.793	68.62
240.027	63.62
240.26	65.62
240.494	83.62
240.728	76.62
240.961	75.62
241.195	60.62
241.429	80.62
241.662	74.62
241.896	84.62
242.13	71.62
242.363	72.62
242.597	83.62
242.83	64.62
243.064	76.62
243.298	73.62
243.531	77.62
243.765	67.62
243.998	72.62
244.232	81.62
244.465	85.62
244.699	71.62
244.932	82.62
245.166	78.62
245.399	83.62
245.633	88.62
245.866	62.62
246.099	66.62
246.333	80.62
246.566	88.62
246.8	70.62
247.033	82.62
247.266	82.62
247.5	66.62
247.733	78.62
247.966	90.62
248.2	87.62
248.433	82.62
248.666	89.62
248.899	65.62
249.133	85.62
249.366	97.62
249.599	83.62
249.832	94.62
250.066	88.62
250.299	72.62
250.532	98.62
250.765	94.62
250.998	73.62
251.231	73.62
251.465	77.62
251.698	88.62
251.931	83.62
252.164	78.62
252.397	79.62
252.63	72.62
252.863	72.62
253.096	88.62
253.329	74.62
253.562	86.62
253.795	86.62
254.028	89.62
254.261	93.62
254.494	87.62
254.727	72.62
254.96	86.62
255.193	81.62
255.426	75.62
255.659	77.62
255.892	82.62
256.124	76.62
256.357	74.62
256.59	87.62
256.823	74.62
257.056	81.62
257.289	88.62
257.521	67.62
257.754	78.62
257.987	82.62
258.22	75.62
258.452	66.62
258.685	90.62
258.918	88.62
259.151	84.62
259.383	72.62
259.616	93.62
259.849	83.62
260.081	88.62
260.314	89.62
260.547	84.62
260.779	79.62
261.012	81.62
261.244	88.62
261.477	90.62
261.71	84.62
261.942	102.62
262.175	120.62
262.407	97.62
262.64	80.62
262.872	90.62
263.105	59.62
263.337	83.62
263.57	79.62
263.802	84.62
264.035	96.62
264.267	85.62
264.499	78.62
264.732	76.62
264.964	87.62
265.197	91.62
265.429	88.62
265.661	90.62
265.894	75.62
266.126	81.62
266.358	90.62
266.591	80.62
266.823	97.62
267.055	87.62
267.287	82.62
267.52	81.62
267.752	78.62
267.984	93.62
268.216	74.62
268.448	87.62
268.681	82.62
268.913	77.62
269.145	82.62
269.377	86.62
269.609	87.62
269.841	98.62
270.073	92.62
270.306	72.62
270.538	80.62
270.77	79.62
271.002	77.62
271.234	84.62
271.466	86.62
271.698	78.62
271.93	80.62
272.162	80.62
272.394	70.62
272.626	78.62
272.858	84.62
273.09	94.62
273.322	86.62
273.553	85.62
273.785	76.62
274.017	72.62
274.249	79.62
274.481	77.62
274.713	95.62
274.945	97.62
275.176	79.62
275.408	89.62
275.64	87.62
275.872	66.62
276.104	75.62
276.335	80.62
276.567	97.62
276.799	92.62
277.031	99.62
277.262	79.62
277.494	83.62
277.726	92.62
277.957	102.62
278.189	92.62
278.421	82.62
278.652	82.62
278.884	81.62
279.115	92.62
279.347	95.62
279.579	87.62
279.81	81.62
280.042	84.62
280.273	89.62
280.505	80.62
280.736	76.62
280.968	95.62
281.199	87.62
281.431	84.62
281.662	93.62
281.894	91.62
282.125	93.62
282.356	114.62
282.588	126.62
282.819	112.62
283.051	95.62
283.282	90.62
283.513	75.62
283.745	70.62
283.976	86.62
284.207	83.62
284.439	99.62
284.67	107.62
284.901	92.62
285.132	92.62
285.364	86.62
285.595	87.62
285.826	82.62
286.057	84.62
286.288	79.62
286.52	82.62
286.751	88.62
286.982	81.62
287.213	72.62
287.444	88.62
287.675	82.62
287.906	84.62
288.138	84.62
288.369	81.62
288.6	93.62
288.831	83.62
289.062	91.62
289.293	77.62
289.524	82.62
289.755	82.62
289.986	90.62
290.217	86.62
290.448	79.62
290.679	79.62
290.91	94.62
291.141	107.62
291.371	88.62
291.602	88.62
291.833	78.62
292.064	90.62
292.295	96.62
292.526	92.62
292.757	85.62
292.987	91.62
293.218	90.62
293.449	85.62
293.68	98.62
293.91	89.62
294.141	91.62
294.372	84.62
294.603	89.62
294.833	91.62
295.064	101.62
295.295	85.62
295.525	89.62
295.756	99.62
295.987	108.62
296.217	128.62
296.448	118.62
296.679	118.62
296.909	83.62
297.14	97.62
297.37	95.62
297.601	91.62
297.831	93.62
298.062	92.62
298.292	91.62
298.523	97.62
298.753	85.62
298.984	88.62
299.214	99.62
299.445	92.62
299.675	93.62
299.905	98.62
300.136	88.62
300.366	97.62
300.597	98.62
300.827	95.62
301.057	92.62
301.288	110.62
301.518	103.62
301.748	92.62
301.979	120.62
302.209	108.62
302.439	94.62
302.669	82.62
302.9	90.62
303.13	89.62
303.36	109.62
303.59	90.62
303.82	99.62
304.051	86.62
304.281	92.62
304.511	90.62
304.741	100.62
304.971	96.62
305.201	95.62
305.431	95.62
305.661	90.62
305.891	86.62
306.121	97.62
306.352	101.62
306.582	98.62
306.812	86.62
307.042	85.62
307.272	88.62
307.502	107.62
307.731	99.62
307.961	94.62
308.191	90.62
308.421	81.62
308.651	93.62
308.881	93.62
309.111	89.62
309.341	86.62
309.571	102.62
309.8	100.62
310.03	110.62
310.26	97.62
310.49	83.62
310.72	94.62
310.949	92.62
311.179	84.62
311.409	96.62
311.639	90.62
311.868	85.62
312.098	93.62
312.328	86.62
312.557	96.62
312.787	99.62
313.017	95.62
313.246	98.62
313.476	84.62
313.706	112.62
313.935	89.62
314.165	97.62
314.394	99.62
314.624	97.62
314.853	87.62
315.083	101.62
315.312	98.62
315.542	98.62
315.771	98.62
316.001	81.62
316.23	86.62
316.46	93.62
316.689	87.62
316.919	88.62
317.148	103.62
317.377	94.62
317.607	98.62
317.836	91.62
318.065	87.62
318.295	90.62
318.524	100.62
318.753	94.62
318.983	91.62
319.212	91.62
319.441	91.62
319.67	103.62
319.9	103.62
320.129	84.62
320.358	86.62
320.587	97.62
320.816	99.62
321.046	101.62
321.275	98.62
321.504	102.62
321.733	89.62
321.962	95.62
322.191	94.62
322.42	107.62
322.649	106.62
322.878	125.62
323.108	120.62
323.337	122.62
323.566	121.62
323.795	160.62
324.024	203.62
324.253	401.62
324.482	799.62
324.71	1631.62
324.939	2076.62
325.168	778.62
325.397	235.62
325.626	144.62
325.855	115.62
326.084	111.62
326.313	138.62
326.542	127.62
326.77	213.62
326.999	469.62
327.228	915.62
327.457	1634.62
327.686	1265.62
327.914	354.62
328.143	186.62
328.372	143.62
328.6	114.62
328.829	104.62
329.058	122.62
329.287	109.62
329.515	105.62
329.744	102.62
329.972	90.62
330.201	98.62
330.43	111.62
330.658	109.62
330.887	139.62
331.115	110.62
331.344	97.62
331.572	104.62
331.801	99.62
332.03	105.62
332.258	95.62
332.486	98.62
332.715	83.62
332.943	82.62
333.172	101.62
333.4	97.62
333.629	102.62
333.857	111.62
334.085	105.62
334.314	109.62
334.542	104.62
334.771	105.62
334.999	102.62
335.227	88.62
335.455	92.62
335.684	95.62
335.912	94.62
336.14	98.62
336.369	96.62
336.597	92.62
336.825	106.62
337.053	105.62
337.281	89.62
337.51	93.62
337.738	90.62
337.966	89.62
338.194	99.62
338.422	89.62
338.65	90.62
338.878	89.62
339.106	95.62
339.334	79.62
339.562	77.62
339.79	83.62
340.018	88.62
340.246	96.62
340.474	102.62
340.702	95.62
340.93	87.62
341.158	105.62
341.386	94.62
341.614	85.62
341.842	98.62
342.07	98.62
342.298	108.62
342.526	78.62
342.754	94.62
342.981	94.62
343.209	98.62
343.437	97.62
343.665	90.62
343.893	96.62
344.12	102.62
344.348	89.62
344.576	89.62
344.804	98.62
345.031	99.62
345.259	97.62
345.487	91.62
345.714	95.62
345.942	85.62
346.17	82.62
346.397	97.62
346.625	90.62
346.853	97.62
347.08	92.62
347.308	99.62
347.535	93.62
347.763	92.62
347.99	98.62
348.218	103.62
348.445	113.62
348.673	93.62
348.9	97.62
349.128	96.62
349.355	107.62
349.583	99.62
349.81	90.62
350.037	97.62
350.265	98.62
350.492	87.62
350.72	85.62
350.947	103.62
351.174	109.62
351.402	116.62
351.629	98.62
351.856	91.62
352.083	97.62
352.311	106.62
352.538	105.62
352.765	103.62
352.992	111.62
353.22	96.62
353.447	110.62
353.674	104.62
353.901	83.62
354.128	109.62
354.355	112.62
354.583	101.62
354.81	96.62
355.037	111.62
355.264	106.62
355.491	95.62
355.718	99.62
355.945	96.62
356.172	97.62
356.399	112.62
356.626	106.62
356.853	85.62
357.08	79.62
357.307	85.62
357.534	97.62
357.761	106.62
357.988	84.62
358.215	94.62
358.441	106.62
358.668	77.62
358.895	89.62
359.122	100.62
359.349	95.62
359.576	103.62
359.802	100.62
360.029	87.62
360.256	91.62
360.483	110.62
360.709	90.62
360.936	103.62
361.163	100.62
361.39	92.62
361.616	97.62
361.843	88.62
362.07	101.62
362.296	99.62
362.523	102.62
362.749	101.62
362.976	86.62
363.203	94.62
363.429	98.62
363.656	98.62
363.882	94.62
364.109	82.62
364.335	90.62
364.562	95.62
364.788	79.62
365.015	93.62
365.241	100.62
365.468	106.62
365.694	113.62
365.92	107.62
366.147	96.62
366.373	100.62
366.599	83.62
366.826	96.62
367.052	85.62
367.278	77.62
367.505	77.62
367.731	83.62
367.957	99.62
368.184	102.62
368.41	108.62
368.636	101.62
368.862	130.62
369.089	114.62
369.315	85.62
369.541	90.62
369.767	86.62
369.993	79.62
370.219	98.62
370.445	86.62
370.672	106.62
370.898	86.62
371.124	80.62
371.35	86.62
371.576	82.62
371.802	93.62
372.028	83.62
372.254	110.62
372.48	81.62
372.706	91.62
372.932	96.62
373.158	87.62
373.384	95.62
373.61	93.62
373.835	96.62
374.061	83.62
374.287	101.62
374.513	94.62
374.739	95.62
374.965	90.62
375.191	110.62
375.416	89.62
375.642	96.62
375.868	91.62
376.094	85.62
376.319	83.62
376.545	98.62
376.771	86.62
376.997	81.62
377.222	87.62
377.448	93.62
377.674	110.62
377.899	92.62
378.125	91.62
378.35	90.62
378.576	99.62
378.802	91.62
379.027	122.62
379.253	105.62
379.478	97.62
379.704	97.62
379.929	113.62
380.155	98.62
380.38	96.62
380.606	107.62
380.831	99.62
381.057	107.62
381.282	103.62
381.507	90.62
381.733	90.62
381.958	91.62
382.184	94.62
382.409	106.62
382.634	101.62
382.86	101.62
383.085	105.62
383.31	103.62
383.535	106.62
383.761	116.62
383.986	109.62
384.211	102.62
384.436	117.62
384.662	121.62
384.887	124.62
385.112	109.62
385.337	115.62
385.562	115.62
385.787	118.62
386.013	128.62
386.238	131.62
386.463	123.62
386.688	131.62
386.913	122.62
387.138	125.62
387.363	122.62
387.588	124.62
387.813	118.62
388.038	113.62
388.263	122.62
388.488	130.62
388.713	108.62
388.938	99.62
389.163	96.62
389.387	97.62
389.612	103.62
389.837	92.62
390.062	102.62
390.287	91.62
390.512	96.62
390.736	83.62
390.961	99.62
391.186	105.62
391.411	94.62
391.636	113.62
391.86	89.62
392.085	84.62
392.31	83.62
392.534	83.62
392.759	90.62
392.984	85.62
393.208	107.62
393.433	102.62
393.658	115.62
393.882	77.62
394.107	91.62
394.331	86.62
394.556	80.62
394.78	91.62
395.005	96.62
395.229	104.62
395.454	91.62
395.678	97.62
395.903	102.62
396.127	91.62
396.352	84.62
396.576	78.62
396.801	87.62
397.025	108.62
397.249	98.62
397.474	93.62
397.698	75.62
397.922	83.62
398.147	84.62
398.371	83.62
398.595	78.62
398.82	94.62
399.044	99.62
399.268	90.62
399.492	102.62
399.717	99.62
399.941	83.62
400.165	85.62
400.389	85.62
400.613	97.62
400.837	88.62
401.062	87.62
401.286	98.62
401.51	85.62
401.734	78.62
401.958	99.62
402.182	120.62
402.406	137.62
402.63	118.62
402.854	111.62
403.078	87.62
403.302	99.62
403.526	76.62
403.75	87.62
403.974	94.62
404.198	86.62
404.422	102.62
404.645	87.62
404.869	91.62
405.093	91.62
405.317	106.62
405.541	91.62
405.765	90.62
405.988	123.62
406.212	162.62
406.436	198.62
406.66	132.62
406.883	95.62
407.107	93.62
407.331	110.62
407.555	101.62
407.778	90.62
408.002	96.62
408.226	85.62
408.449	83.62
408.673	110.62
408.896	98.62
409.12	101.62
409.344	93.62
409.567	81.62
409.791	102.62
410.014	97.62
410.238	92.62
410.461	94.62
410.685	102.62
410.908	100.62
411.132	107.62
411.355	97.62
411.578	85.62
411.802	92.62
412.025	88.62
412.249	83.62
412.472	94.62
412.695	91.62
412.919	72.62
413.142	95.62
413.365	98.62
413.589	95.62
413.812	91.62
414.035	97.62
414.258	94.62
414.482	96.62
414.705	83.62
414.928	85.62
415.151	86.62
415.374	87.62
415.597	88.62
415.821	97.62
416.044	87.62
416.267	81.62
416.49	93.62
416.713	97.62
416.936	97.62
417.159	88.62
417.382	85.62
417.605	91.62
417.828	91.62
418.051	80.62
418.274	90.62
418.497	77.62
418.72	89.62
418.943	107.62
419.166	94.62
419.389	92.62
419.611	97.62
419.834	77.62
420.057	83.62
420.28	100.62
420.503	73.62
420.726	88.62
420.948	76.62
421.171	96.62
421.394	103.62
421.617	97.62
421.839	83.62
422.062	78.62
422.285	86.62
422.507	97.62
422.73	103.62
422.953	91.62
423.175	103.62
423.398	71.62
423.621	83.62
423.843	96.62
424.066	82.62
424.288	94.62
424.511	90.62
424.733	99.62
424.956	94.62
425.178	98.62
425.401	96.62
425.623	90.62
425.846	105.62
426.068	92.62
426.291	91.62
426.513	82.62
426.735	94.62
426.958	96.62
427.18	95.62
427.402	125.62
427.625	133.62
427.847	112.62
428.069	104.62
428.292	83.62
428.514	89.62
428.736	86.62
428.958	79.62
429.181	83.62
429.403	80.62
429.625	94.62
429.847	91.62
430.069	97.62
430.292	96.62
430.514	85.62
430.736	98.62
430.958	88.62
431.18	89.62
431.402	91.62
431.624	94.62
431.846	99.62
432.068	83.62
432.29	94.62
432.512	80.62
432.734	91.62
432.956	78.62
433.178	107.62
433.4	95.62
433.622	73.62
433.844	94.62
434.066	98.62
434.287	95.62
434.509	97.62
434.731	91.62
434.953	87.62
435.175	109.62
435.397	85.62
435.618	89.62
435.84	99.62
436.062	127.62
436.284	122.62
436.505	101.62
436.727	112.62
436.949	110.62
437.17	99.62
437.392	94.62
437.614	85.62
437.835	100.62
438.057	117.62
438.278	111.62
438.5	99.62
438.721	106.62
438.943	111.62
439.165	88.62
439.386	80.62
439.608	95.62
439.829	92.62
440.05	101.62
440.272	130.62
440.493	89.62
440.715	77.62
440.936	81.62
441.158	82.62
441.379	99.62
441.6	89.62
441.822	92.62
442.043	102.62
442.264	102.62
442.486	90.62
442.707	88.62
442.928	97.62
443.149	122.62
443.371	103.62
443.592	97.62
443.813	110.62
444.034	99.62
444.255	97.62
444.476	92.62
444.698	86.62
444.919	87.62
445.14	130.62
445.361	111.62
445.582	116.62
445.803	128.62
446.024	151.62
446.245	110.62
446.466	92.62
446.687	89.62
446.908	90.62
447.129	96.62
447.35	72.62
447.571	100.62
447.792	78.62
448.013	101.62
448.234	112.62
448.455	109.62
448.675	102.62
448.896	101.62
449.117	111.62
449.338	112.62
449.559	118.62
449.779	129.62
450	104.62
450.221	85.62
450.442	83.62
450.662	101.62
450.883	101.62
451.104	109.62
451.324	102.62
451.545	93.62
451.766	81.62
451.986	70.62
452.207	97.62
452.428	83.62
452.648	105.62
452.869	103.62
453.089	109.62
453.31	111.62
453.53	97.62
453.751	85.62
453.971	96.62
454.192	102.62
454.412	86.62
454.633	74.62
454.853	90.62
455.073	90.62
455.294	88.62
455.514	91.62
455.734	110.62
455.955	81.62
456.175	82.62
456.395	93.62
456.616	87.62
456.836	83.62
457.056	81.62
457.276	77.62
457.497	86.62
457.717	87.62
457.937	74.62
458.157	83.62
458.377	95.62
458.598	116.62
458.818	139.62
459.038	152.62
459.258	118.62
459.478	84.62
459.698	85.62
459.918	87.62
460.138	72.62
460.358	77.62
460.578	79.62
460.798	101.62
461.018	90.62
461.238	80.62
461.458	79.62
461.678	87.62
461.898	85.62
462.118	101.62
462.338	86.62
462.558	96.62
462.777	92.62
462.997	89.62
463.217	93.62
463.437	80.62
463.657	77.62
463.876	81.62
464.096	98.62
464.316	102.62
464.536	98.62
464.755	92.62
464.975	102.62
465.195	148.62
465.414	120.62
465.634	111.62
465.854	104.62
466.073	95.62
466.293	94.62
466.512	89.62
466.732	85.62
466.951	79.62
467.171	102.62
467.391	97.62
467.61	91.62
467.829	108.62
468.049	109.62
468.268	88.62
468.488	99.62
468.707	93.62
468.927	106.62
469.146	94.62
469.365	75.62
469.585	79.62
469.804	93.62
470.023	103.62
470.243	90.62
470.462	89.62
470.681	97.62
470.901	85.62
471.12	87.62
471.339	80.62
471.558	83.62
471.777	72.62
471.997	88.62
472.216	98.62
472.435	111.62
472.654	90.62
472.873	89.62
473.092	93.62
473.311	73.62
473.53	73.62
473.749	83.62
473.968	95.62
474.187	97.62
474.406	99.62
474.625	85.62
474.844	89.62
475.063	92.62
475.282	74.62
475.501	77.62
475.72	97.62
475.939	75.62
476.158	86.62
476.377	84.62
476.596	82.62
476.814	80.62
477.033	75.62
477.252	83.62
477.471	93.62
477.69	92.62
477.908	96.62
478.127	87.62
478.346	82.62
478.564	81.62
478.783	76.62
479.002	93.62
479.22	98.62
479.439	103.62
479.658	117.62
479.876	105.62
480.095	82.62
480.313	98.62
480.532	87.62
480.751	99.62
480.969	97.62
481.188	108.62
481.406	112.62
481.624	86.62
481.843	99.62
482.061	88.62
482.28	93.62
482.498	91.62
482.717	101.62
482.935	78.62
483.153	84.62
483.372	87.62
483.59	86.62
483.808	88.62
484.027	91.62
484.245	87.62
484.463	87.62
484.681	91.62
484.9	85.62
485.118	99.62
485.336	82.62
485.554	102.62
485.772	117.62
485.99	107.62
486.209	96.62
486.427	109.62
486.645	117.62
486.863	109.62
487.081	106.62
487.299	88.62
487.517	91.62
487.735	89.62
487.953	102.62
488.171	92.62
488.389	88.62
488.607	97.62
488.825	82.62
489.043	81.62
489.261	96.62
489.479	80.62
489.696	88.62
489.914	99.62
490.132	100.62
490.35	81.62
490.568	90.62
490.786	90.62
491.003	78.62
491.221	88.62
491.439	104.62
491.657	99.62
491.874	93.62
492.092	96.62
492.31	82.62
492.527	85.62
492.745	93.62
492.963	93.62
493.18	94.62
493.398	94.62
493.615	93.62
493.833	82.62
494.05	80.62
494.268	97.62
494.485	90.62
494.703	85.62
494.92	82.62
495.138	94.62
495.355	100.62
495.573	83.62
495.79	95.62
496.008	91.62
496.225	88.62
496.442	84.62
496.66	96.62
496.877	100.62
497.094	95.62
497.312	96.62
497.529	82.62
497.746	102.62
497.963	93.62
498.181	81.62
498.398	89.62
498.615	101.62
498.832	97.62
499.049	88.62
499.267	105.62
499.484	95.62
499.701	83.62
499.918	102.62
500.135	84.62
500.352	91.62
500.569	96.62
500.786	91.62
501.003	90.62
501.22	106.62
501.437	89.62
501.654	80.62
501.871	104.62
502.088	83.62
502.305	79.62
502.522	106.62
502.739	87.62
502.956	90.62
503.172	95.62
503.389	91.62
503.606	107.62
503.823	90.62
504.04	90.62
504.256	95.62
504.473	98.62
504.69	102.62
504.907	100.62
505.123	96.62
505.34	88.62
505.557	75.62
505.773	88.62
505.99	94.62
506.207	91.62
506.423	96.62
506.64	81.62
506.856	91.62
507.073	92.62
507.289	87.62
507.506	91.62
507.722	115.62
507.939	105.62
508.155	91.62
508.372	97.62
508.588	93.62
508.805	114.62
509.021	102.62
509.238	102.62
509.454	89.62
509.67	110.62
509.887	115.62
510.103	141.62
510.319	194.62
510.536	719.62
510.752	2088.62
510.968	581.62
511.184	141.62
511.401	100.62
511.617	106.62
511.833	104.62
512.049	89.62
512.265	95.62
512.481	88.62
512.698	91.62
512.914	86.62
513.13	99.62
513.346	91.62
513.562	89.62
513.778	102.62
513.994	87.62
514.21	96.62
514.426	108.62
514.642	125.62
514.858	139.62
515.074	158.62
515.29	424.62
515.506	1293.62
