Data from Uncirc_2004_H10_HRD10591_00020.txt Node
Date: Wed Jan 03 10:32:16 EST 2024
User: Yrep
Spectrometer: HR+D1059
Trigger mode: 1
Integration Time (sec): 1.000000E-1
Scans to average: 1
Electric dark correction enabled: true
Nonlinearity correction enabled: false
Boxcar width: 0
XAxis mode: Wavelengths
Number of Pixels in Spectrum: 2048
>>>>>Begin Spectral Data<<<<<
223.165	-11.31
223.4	-11.31
223.635	-11.31
223.869	-16.31
224.104	-12.31
224.338	-12.31
224.573	-7.31
224.808	-15.31
225.042	2.69
225.277	-8.31
225.511	-2.31
225.746	-2.31
225.98	11.69
226.215	25.69
226.449	14.69
226.683	15.69
226.918	13.69
227.152	3.69
227.387	37.69
227.621	36.69
227.856	45.69
228.09	65.69
228.324	56.69
228.559	40.69
228.793	41.69
229.027	62.69
229.262	74.69
229.496	67.69
229.73	69.69
229.964	84.69
230.199	69.69
230.433	77.69
230.667	85.69
230.901	77.69
231.136	85.69
231.37	73.69
231.604	84.69
231.838	61.69
232.072	65.69
232.306	77.69
232.541	73.69
232.775	77.69
233.009	77.69
233.243	81.69
233.477	81.69
233.711	93.69
233.945	79.69
234.179	83.69
234.413	87.69
234.647	79.69
234.881	84.69
235.115	66.69
235.349	76.69
235.583	66.69
235.817	68.69
236.051	80.69
236.285	80.69
236.519	76.69
236.753	81.69
236.987	88.69
237.221	75.69
237.455	83.69
237.689	73.69
237.922	68.69
238.156	74.69
238.39	81.69
238.624	77.69
238.858	89.69
239.091	96.69
239.325	69.69
239.559	89.69
239.793	62.69
240.027	77.69
240.26	82.69
240.494	90.69
240.728	71.69
240.961	69.69
241.195	69.69
241.429	78.69
241.662	63.69
241.896	74.69
242.13	73.69
242.363	83.69
242.597	90.69
242.83	75.69
243.064	78.69
243.298	79.69
243.531	78.69
243.765	86.69
243.998	77.69
244.232	83.69
244.465	89.69
244.699	85.69
244.932	79.69
245.166	76.69
245.399	71.69
245.633	79.69
245.866	87.69
246.099	77.69
246.333	81.69
246.566	69.69
246.8	90.69
247.033	89.69
247.266	70.69
247.5	81.69
247.733	79.69
247.966	85.69
248.2	78.69
248.433	67.69
248.666	68.69
248.899	88.69
249.133	89.69
249.366	90.69
249.599	100.69
249.832	81.69
250.066	72.69
250.299	66.69
250.532	85.69
250.765	66.69
250.998	71.69
251.231	89.69
251.465	81.69
251.698	96.69
251.931	72.69
252.164	85.69
252.397	89.69
252.63	86.69
252.863	77.69
253.096	90.69
253.329	82.69
253.562	80.69
253.795	80.69
254.028	80.69
254.261	78.69
254.494	75.69
254.727	79.69
254.96	73.69
255.193	84.69
255.426	69.69
255.659	74.69
255.892	90.69
256.124	92.69
256.357	89.69
256.59	87.69
256.823	66.69
257.056	76.69
257.289	76.69
257.521	81.69
257.754	85.69
257.987	85.69
258.22	100.69
258.452	70.69
258.685	77.69
258.918	86.69
259.151	86.69
259.383	79.69
259.616	69.69
259.849	89.69
260.081	85.69
260.314	98.69
260.547	82.69
260.779	88.69
261.012	81.69
261.244	70.69
261.477	73.69
261.71	97.69
261.942	89.69
262.175	97.69
262.407	96.69
262.64	89.69
262.872	95.69
263.105	82.69
263.337	80.69
263.57	80.69
263.802	78.69
264.035	73.69
264.267	95.69
264.499	88.69
264.732	85.69
264.964	87.69
265.197	78.69
265.429	70.69
265.661	92.69
265.894	82.69
266.126	82.69
266.358	90.69
266.591	73.69
266.823	79.69
267.055	80.69
267.287	89.69
267.52	71.69
267.752	84.69
267.984	88.69
268.216	87.69
268.448	80.69
268.681	89.69
268.913	95.69
269.145	93.69
269.377	96.69
269.609	93.69
269.841	87.69
270.073	83.69
270.306	89.69
270.538	69.69
270.77	72.69
271.002	96.69
271.234	79.69
271.466	99.69
271.698	84.69
271.93	86.69
272.162	81.69
272.394	91.69
272.626	80.69
272.858	81.69
273.09	82.69
273.322	100.69
273.553	85.69
273.785	86.69
274.017	80.69
274.249	85.69
274.481	90.69
274.713	81.69
274.945	77.69
275.176	81.69
275.408	94.69
275.64	87.69
275.872	78.69
276.104	78.69
276.335	88.69
276.567	101.69
276.799	110.69
277.031	105.69
277.262	90.69
277.494	104.69
277.726	76.69
277.957	80.69
278.189	77.69
278.421	85.69
278.652	79.69
278.884	89.69
279.115	80.69
279.347	90.69
279.579	89.69
279.81	89.69
280.042	82.69
280.273	87.69
280.505	90.69
280.736	84.69
280.968	93.69
281.199	94.69
281.431	77.69
281.662	94.69
281.894	96.69
282.125	101.69
282.356	117.69
282.588	128.69
282.819	98.69
283.051	97.69
283.282	84.69
283.513	99.69
283.745	87.69
283.976	68.69
284.207	85.69
284.439	82.69
284.67	88.69
284.901	82.69
285.132	80.69
285.364	90.69
285.595	84.69
285.826	82.69
286.057	86.69
286.288	89.69
286.52	94.69
286.751	100.69
286.982	96.69
287.213	85.69
287.444	100.69
287.675	88.69
287.906	85.69
288.138	97.69
288.369	90.69
288.6	99.69
288.831	84.69
289.062	93.69
289.293	88.69
289.524	82.69
289.755	88.69
289.986	82.69
290.217	93.69
290.448	74.69
290.679	97.69
290.91	76.69
291.141	85.69
291.371	72.69
291.602	79.69
291.833	82.69
292.064	94.69
292.295	85.69
292.526	100.69
292.757	88.69
292.987	100.69
293.218	82.69
293.449	88.69
293.68	69.69
293.91	85.69
294.141	96.69
294.372	81.69
294.603	93.69
294.833	83.69
295.064	93.69
295.295	89.69
295.525	70.69
295.756	99.69
295.987	92.69
296.217	109.69
296.448	119.69
296.679	103.69
296.909	90.69
297.14	93.69
297.37	85.69
297.601	80.69
297.831	81.69
298.062	97.69
298.292	87.69
298.523	72.69
298.753	78.69
298.984	103.69
299.214	79.69
299.445	84.69
299.675	90.69
299.905	98.69
300.136	101.69
300.366	81.69
300.597	104.69
300.827	99.69
301.057	84.69
301.288	105.69
301.518	87.69
301.748	87.69
301.979	112.69
302.209	85.69
302.439	101.69
302.669	102.69
302.9	88.69
303.13	87.69
303.36	99.69
303.59	104.69
303.82	111.69
304.051	103.69
304.281	105.69
304.511	73.69
304.741	89.69
304.971	83.69
305.201	88.69
305.431	83.69
305.661	102.69
305.891	88.69
306.121	88.69
306.352	104.69
306.582	100.69
306.812	85.69
307.042	101.69
307.272	93.69
307.502	86.69
307.731	99.69
307.961	94.69
308.191	74.69
308.421	84.69
308.651	85.69
308.881	94.69
309.111	77.69
309.341	96.69
309.571	79.69
309.8	90.69
310.03	107.69
310.26	105.69
310.49	90.69
310.72	95.69
310.949	89.69
311.179	103.69
311.409	92.69
311.639	92.69
311.868	102.69
312.098	94.69
312.328	108.69
312.557	106.69
312.787	114.69
313.017	97.69
313.246	85.69
313.476	90.69
313.706	95.69
313.935	89.69
314.165	84.69
314.394	89.69
314.624	91.69
314.853	103.69
315.083	82.69
315.312	96.69
315.542	82.69
315.771	99.69
316.001	74.69
316.23	85.69
316.46	94.69
316.689	93.69
316.919	97.69
317.148	88.69
317.377	98.69
317.607	94.69
317.836	91.69
318.065	87.69
318.295	113.69
318.524	98.69
318.753	88.69
318.983	97.69
319.212	110.69
319.441	88.69
319.67	105.69
319.9	95.69
320.129	89.69
320.358	89.69
320.587	95.69
320.816	88.69
321.046	101.69
321.275	104.69
321.504	88.69
321.733	92.69
321.962	96.69
322.191	95.69
322.42	94.69
322.649	120.69
322.878	99.69
323.108	117.69
323.337	108.69
323.566	125.69
323.795	142.69
324.024	184.69
324.253	359.69
324.482	770.69
324.71	1552.69
324.939	2009.69
325.168	734.69
325.397	252.69
325.626	151.69
325.855	121.69
326.084	124.69
326.313	132.69
326.542	159.69
326.77	229.69
326.999	433.69
327.228	879.69
327.457	1566.69
327.686	1236.69
327.914	334.69
328.143	180.69
328.372	142.69
328.6	109.69
328.829	118.69
329.058	120.69
329.287	128.69
329.515	97.69
329.744	111.69
329.972	105.69
330.201	101.69
330.43	120.69
330.658	113.69
330.887	134.69
331.115	109.69
331.344	94.69
331.572	104.69
331.801	103.69
332.03	107.69
332.258	84.69
332.486	85.69
332.715	89.69
332.943	90.69
333.172	87.69
333.4	85.69
333.629	92.69
333.857	113.69
334.085	96.69
334.314	109.69
334.542	108.69
334.771	112.69
334.999	85.69
335.227	90.69
335.455	100.69
335.684	111.69
335.912	94.69
336.14	82.69
336.369	88.69
336.597	99.69
336.825	93.69
337.053	92.69
337.281	101.69
337.51	98.69
337.738	85.69
337.966	97.69
338.194	89.69
338.422	87.69
338.65	107.69
338.878	97.69
339.106	81.69
339.334	84.69
339.562	82.69
339.79	79.69
340.018	87.69
340.246	83.69
340.474	92.69
340.702	101.69
340.93	97.69
341.158	88.69
341.386	97.69
341.614	104.69
341.842	90.69
342.07	92.69
342.298	91.69
342.526	96.69
342.754	81.69
342.981	94.69
343.209	92.69
343.437	106.69
343.665	78.69
343.893	85.69
344.12	94.69
344.348	97.69
344.576	74.69
344.804	89.69
345.031	102.69
345.259	92.69
345.487	102.69
345.714	97.69
345.942	89.69
346.17	90.69
346.397	69.69
346.625	79.69
346.853	98.69
347.08	87.69
347.308	103.69
347.535	88.69
347.763	99.69
347.99	84.69
348.218	107.69
348.445	105.69
348.673	88.69
348.9	89.69
349.128	101.69
349.355	94.69
349.583	89.69
349.81	90.69
350.037	88.69
350.265	97.69
350.492	100.69
350.72	108.69
350.947	104.69
351.174	102.69
351.402	114.69
351.629	103.69
351.856	92.69
352.083	99.69
352.311	119.69
352.538	113.69
352.765	111.69
352.992	102.69
353.22	112.69
353.447	109.69
353.674	102.69
353.901	110.69
354.128	113.69
354.355	105.69
354.583	92.69
354.81	105.69
355.037	113.69
355.264	90.69
355.491	101.69
355.718	90.69
355.945	90.69
356.172	90.69
356.399	96.69
356.626	94.69
356.853	87.69
357.08	100.69
357.307	100.69
357.534	88.69
357.761	80.69
357.988	95.69
358.215	88.69
358.441	98.69
358.668	100.69
358.895	107.69
359.122	94.69
359.349	86.69
359.576	88.69
359.802	88.69
360.029	108.69
360.256	106.69
360.483	103.69
360.709	94.69
360.936	108.69
361.163	95.69
361.39	89.69
361.616	95.69
361.843	75.69
362.07	86.69
362.296	90.69
362.523	98.69
362.749	94.69
362.976	79.69
363.203	90.69
363.429	100.69
363.656	90.69
363.882	87.69
364.109	94.69
364.335	88.69
364.562	101.69
364.788	100.69
365.015	79.69
365.241	107.69
365.468	112.69
365.694	95.69
365.92	77.69
366.147	84.69
366.373	104.69
366.599	89.69
366.826	80.69
367.052	97.69
367.278	88.69
367.505	96.69
367.731	89.69
367.957	100.69
368.184	99.69
368.41	100.69
368.636	97.69
368.862	124.69
369.089	108.69
369.315	85.69
369.541	90.69
369.767	84.69
369.993	88.69
370.219	107.69
370.445	96.69
370.672	89.69
370.898	81.69
371.124	84.69
371.35	108.69
371.576	97.69
371.802	100.69
372.028	86.69
372.254	95.69
372.48	85.69
372.706	101.69
372.932	88.69
373.158	88.69
373.384	87.69
373.61	82.69
373.835	83.69
374.061	85.69
374.287	77.69
374.513	86.69
374.739	82.69
374.965	88.69
375.191	93.69
375.416	97.69
375.642	87.69
375.868	90.69
376.094	93.69
376.319	82.69
376.545	80.69
376.771	77.69
376.997	89.69
377.222	90.69
377.448	90.69
377.674	95.69
377.899	76.69
378.125	78.69
378.35	88.69
378.576	89.69
378.802	90.69
379.027	81.69
379.253	90.69
379.478	102.69
379.704	96.69
379.929	89.69
380.155	87.69
380.38	89.69
380.606	104.69
380.831	82.69
381.057	118.69
381.282	87.69
381.507	96.69
381.733	106.69
381.958	95.69
382.184	94.69
382.409	107.69
382.634	110.69
382.86	112.69
383.085	105.69
383.31	92.69
383.535	101.69
383.761	111.69
383.986	98.69
384.211	116.69
384.436	96.69
384.662	103.69
384.887	118.69
385.112	118.69
385.337	110.69
385.562	114.69
385.787	112.69
386.013	109.69
386.238	93.69
386.463	101.69
386.688	113.69
386.913	112.69
387.138	119.69
387.363	113.69
387.588	97.69
387.813	102.69
388.038	109.69
388.263	106.69
388.488	106.69
388.713	99.69
388.938	89.69
389.163	90.69
389.387	97.69
389.612	76.69
389.837	88.69
390.062	103.69
390.287	107.69
390.512	89.69
390.736	98.69
390.961	103.69
391.186	103.69
391.411	99.69
391.636	101.69
391.86	87.69
392.085	85.69
392.31	93.69
392.534	79.69
392.759	87.69
392.984	92.69
393.208	104.69
393.433	100.69
393.658	89.69
393.882	94.69
394.107	99.69
394.331	87.69
394.556	96.69
394.78	98.69
395.005	86.69
395.229	89.69
395.454	103.69
395.678	105.69
395.903	81.69
396.127	82.69
396.352	96.69
396.576	90.69
396.801	91.69
397.025	94.69
397.249	90.69
397.474	81.69
397.698	87.69
397.922	80.69
398.147	96.69
398.371	77.69
398.595	84.69
398.82	80.69
399.044	87.69
399.268	74.69
399.492	96.69
399.717	105.69
399.941	84.69
400.165	104.69
400.389	103.69
400.613	104.69
400.837	85.69
401.062	97.69
401.286	89.69
401.51	83.69
401.734	92.69
401.958	104.69
402.182	117.69
402.406	142.69
402.63	124.69
402.854	109.69
403.078	87.69
403.302	97.69
403.526	80.69
403.75	83.69
403.974	80.69
404.198	93.69
404.422	84.69
404.645	86.69
404.869	95.69
405.093	103.69
405.317	97.69
405.541	90.69
405.765	88.69
405.988	111.69
406.212	155.69
406.436	200.69
406.66	138.69
406.883	113.69
407.107	93.69
407.331	94.69
407.555	100.69
407.778	95.69
408.002	103.69
408.226	86.69
408.449	84.69
408.673	90.69
408.896	83.69
409.12	101.69
409.344	100.69
409.567	83.69
409.791	103.69
410.014	105.69
410.238	93.69
410.461	87.69
410.685	117.69
410.908	108.69
411.132	106.69
411.355	97.69
411.578	102.69
411.802	84.69
412.025	84.69
412.249	84.69
412.472	93.69
412.695	104.69
412.919	80.69
413.142	81.69
413.365	84.69
413.589	79.69
413.812	87.69
414.035	101.69
414.258	86.69
414.482	103.69
414.705	101.69
414.928	81.69
415.151	103.69
415.374	100.69
415.597	84.69
415.821	95.69
416.044	92.69
416.267	108.69
416.49	89.69
416.713	93.69
416.936	68.69
417.159	84.69
417.382	87.69
417.605	92.69
417.828	88.69
418.051	95.69
418.274	79.69
418.497	93.69
418.72	83.69
418.943	87.69
419.166	73.69
419.389	86.69
419.611	82.69
419.834	102.69
420.057	107.69
420.28	91.69
420.503	80.69
420.726	97.69
420.948	99.69
421.171	107.69
421.394	95.69
421.617	82.69
421.839	88.69
422.062	80.69
422.285	89.69
422.507	95.69
422.73	101.69
422.953	91.69
423.175	89.69
423.398	96.69
423.621	99.69
423.843	92.69
424.066	100.69
424.288	88.69
424.511	91.69
424.733	96.69
424.956	103.69
425.178	103.69
425.401	104.69
425.623	90.69
425.846	89.69
426.068	98.69
426.291	86.69
426.513	100.69
426.735	104.69
426.958	95.69
427.18	105.69
427.402	118.69
427.625	154.69
427.847	127.69
428.069	98.69
428.292	87.69
428.514	91.69
428.736	86.69
428.958	76.69
429.181	95.69
429.403	82.69
429.625	89.69
429.847	96.69
430.069	76.69
430.292	90.69
430.514	80.69
430.736	88.69
430.958	81.69
431.18	77.69
431.402	85.69
431.624	79.69
431.846	94.69
432.068	77.69
432.29	78.69
432.512	92.69
432.734	93.69
432.956	101.69
433.178	108.69
433.4	102.69
433.622	89.69
433.844	87.69
434.066	87.69
434.287	97.69
434.509	82.69
434.731	93.69
434.953	78.69
435.175	81.69
435.397	84.69
435.618	100.69
435.84	101.69
436.062	117.69
436.284	107.69
436.505	96.69
436.727	92.69
436.949	97.69
437.17	93.69
437.392	90.69
437.614	92.69
437.835	87.69
438.057	113.69
438.278	115.69
438.5	106.69
438.721	105.69
438.943	93.69
439.165	79.69
439.386	98.69
439.608	106.69
439.829	115.69
440.05	124.69
440.272	122.69
440.493	99.69
440.715	103.69
440.936	87.69
441.158	98.69
441.379	75.69
441.6	99.69
441.822	77.69
442.043	94.69
442.264	99.69
442.486	100.69
442.707	93.69
442.928	103.69
443.149	120.69
443.371	118.69
443.592	109.69
443.813	101.69
444.034	104.69
444.255	91.69
444.476	86.69
444.698	89.69
444.919	89.69
445.14	125.69
445.361	97.69
445.582	102.69
445.803	119.69
446.024	132.69
446.245	109.69
446.466	116.69
446.687	95.69
446.908	93.69
447.129	101.69
447.35	80.69
447.571	100.69
447.792	91.69
448.013	100.69
448.234	102.69
448.455	83.69
448.675	113.69
448.896	113.69
449.117	79.69
449.338	112.69
449.559	118.69
449.779	128.69
450	100.69
450.221	78.69
450.442	89.69
450.662	97.69
450.883	94.69
451.104	108.69
451.324	88.69
451.545	78.69
451.766	74.69
451.986	90.69
452.207	81.69
452.428	89.69
452.648	108.69
452.869	102.69
453.089	114.69
453.31	117.69
453.53	90.69
453.751	83.69
453.971	91.69
454.192	98.69
454.412	92.69
454.633	86.69
454.853	77.69
455.073	89.69
455.294	94.69
455.514	97.69
455.734	96.69
455.955	85.69
456.175	90.69
456.395	80.69
456.616	90.69
456.836	94.69
457.056	93.69
457.276	76.69
457.497	84.69
457.717	89.69
457.937	77.69
458.157	84.69
458.377	76.69
458.598	97.69
458.818	129.69
459.038	130.69
459.258	109.69
459.478	91.69
459.698	77.69
459.918	93.69
460.138	82.69
460.358	80.69
460.578	72.69
460.798	98.69
461.018	93.69
461.238	87.69
461.458	89.69
461.678	80.69
461.898	86.69
462.118	105.69
462.338	73.69
462.558	81.69
462.777	81.69
462.997	92.69
463.217	88.69
463.437	81.69
463.657	94.69
463.876	91.69
464.096	100.69
464.316	82.69
464.536	93.69
464.755	89.69
464.975	115.69
465.195	138.69
465.414	130.69
465.634	101.69
465.854	104.69
466.073	92.69
466.293	79.69
466.512	79.69
466.732	80.69
466.951	83.69
467.171	97.69
467.391	82.69
467.61	96.69
467.829	95.69
468.049	83.69
468.268	94.69
468.488	76.69
468.707	85.69
468.927	82.69
469.146	81.69
469.365	90.69
469.585	76.69
469.804	84.69
470.023	92.69
470.243	77.69
470.462	82.69
470.681	114.69
470.901	95.69
471.12	83.69
471.339	86.69
471.558	98.69
471.777	75.69
471.997	86.69
472.216	94.69
472.435	88.69
472.654	82.69
472.873	93.69
473.092	82.69
473.311	87.69
473.53	80.69
473.749	88.69
473.968	88.69
474.187	98.69
474.406	101.69
474.625	86.69
474.844	95.69
475.063	88.69
475.282	92.69
475.501	87.69
475.72	92.69
475.939	101.69
476.158	97.69
476.377	89.69
476.596	87.69
476.814	80.69
477.033	100.69
477.252	80.69
477.471	82.69
477.69	85.69
477.908	87.69
478.127	89.69
478.346	79.69
478.564	85.69
478.783	83.69
479.002	77.69
479.22	81.69
479.439	77.69
479.658	106.69
479.876	91.69
480.095	99.69
480.313	94.69
480.532	84.69
480.751	88.69
480.969	98.69
481.188	132.69
481.406	104.69
481.624	83.69
481.843	93.69
482.061	86.69
482.28	94.69
482.498	93.69
482.717	79.69
482.935	67.69
483.153	89.69
483.372	89.69
483.59	95.69
483.808	87.69
484.027	85.69
484.245	88.69
484.463	80.69
484.681	99.69
484.9	96.69
485.118	101.69
485.336	94.69
485.554	95.69
485.772	91.69
485.99	116.69
486.209	88.69
486.427	93.69
486.645	111.69
486.863	114.69
487.081	101.69
487.299	101.69
487.517	110.69
487.735	80.69
487.953	77.69
488.171	86.69
488.389	108.69
488.607	101.69
488.825	82.69
489.043	85.69
489.261	86.69
489.479	84.69
489.696	104.69
489.914	87.69
490.132	87.69
490.35	95.69
490.568	89.69
490.786	95.69
491.003	94.69
491.221	106.69
491.439	90.69
491.657	95.69
491.874	97.69
492.092	84.69
492.31	88.69
492.527	89.69
492.745	92.69
492.963	106.69
493.18	77.69
493.398	94.69
493.615	90.69
493.833	85.69
494.05	82.69
494.268	105.69
494.485	94.69
494.703	87.69
494.92	91.69
495.138	86.69
495.355	85.69
495.573	87.69
495.79	87.69
496.008	89.69
496.225	96.69
496.442	90.69
496.66	97.69
496.877	108.69
497.094	105.69
497.312	89.69
497.529	72.69
497.746	90.69
497.963	90.69
498.181	98.69
498.398	74.69
498.615	106.69
498.832	106.69
499.049	101.69
499.267	76.69
499.484	88.69
499.701	83.69
499.918	94.69
500.135	83.69
500.352	101.69
500.569	86.69
500.786	86.69
501.003	94.69
501.22	89.69
501.437	86.69
501.654	86.69
501.871	90.69
502.088	89.69
502.305	89.69
502.522	88.69
502.739	94.69
502.956	99.69
503.172	85.69
503.389	95.69
503.606	102.69
503.823	97.69
504.04	89.69
504.256	83.69
504.473	89.69
504.69	78.69
504.907	82.69
505.123	87.69
505.34	80.69
505.557	99.69
505.773	81.69
505.99	93.69
506.207	84.69
506.423	94.69
506.64	92.69
506.856	86.69
507.073	90.69
507.289	89.69
507.506	90.69
507.722	102.69
507.939	103.69
508.155	97.69
508.372	100.69
508.588	97.69
508.805	86.69
509.021	98.69
509.238	96.69
509.454	103.69
509.67	93.69
509.887	106.69
510.103	125.69
510.319	199.69
510.536	683.69
510.752	2132.69
510.968	579.69
511.184	161.69
511.401	100.69
511.617	98.69
511.833	82.69
512.049	80.69
512.265	88.69
512.481	101.69
512.698	94.69
512.914	87.69
513.13	102.69
513.346	76.69
513.562	87.69
513.778	100.69
513.994	104.69
514.21	88.69
514.426	114.69
514.642	134.69
514.858	108.69
515.074	146.69
515.29	395.69
515.506	1268.69
