Data from Uncirc_2004_H10_HRD10591_00081.txt Node
Date: Wed Jan 03 10:32:28 EST 2024
User: Yrep
Spectrometer: HR+D1059
Trigger mode: 1
Integration Time (sec): 1.000000E-1
Scans to average: 1
Electric dark correction enabled: true
Nonlinearity correction enabled: false
Boxcar width: 0
XAxis mode: Wavelengths
Number of Pixels in Spectrum: 2048
>>>>>Begin Spectral Data<<<<<
223.165	-16.88
223.4	-16.88
223.635	-16.88
223.869	-16.88
224.104	-30.88
224.338	-39.88
224.573	-5.88
224.808	-10.88
225.042	-14.88
225.277	3.12
225.511	4.12
225.746	0.12
225.98	23.12
226.215	15.12
226.449	15.12
226.683	46.12
226.918	13.12
227.152	16.12
227.387	53.12
227.621	39.12
227.856	63.12
228.09	57.12
228.324	50.12
228.559	59.12
228.793	151.12
229.027	440.12
229.262	528.12
229.496	606.12
229.73	809.12
229.964	809.12
230.199	544.12
230.433	478.12
230.667	457.12
230.901	451.12
231.136	455.12
231.37	451.12
231.604	446.12
231.838	440.12
232.072	464.12
232.306	495.12
232.541	472.12
232.775	475.12
233.009	464.12
233.243	486.12
233.477	479.12
233.711	512.12
233.945	509.12
234.179	523.12
234.413	505.12
234.647	507.12
234.881	537.12
235.115	517.12
235.349	538.12
235.583	579.12
235.817	597.12
236.051	625.12
236.285	610.12
236.519	631.12
236.753	691.12
236.987	899.12
237.221	1425.12
237.455	1558.12
237.689	925.12
237.922	738.12
238.156	714.12
238.39	661.12
238.624	653.12
238.858	645.12
239.091	626.12
239.325	691.12
239.559	677.12
239.793	687.12
240.027	765.12
240.26	922.12
240.494	967.12
240.728	960.12
240.961	914.12
241.195	838.12
241.429	783.12
241.662	791.12
241.896	746.12
242.13	771.12
242.363	769.12
242.597	777.12
242.83	818.12
243.064	850.12
243.298	838.12
243.531	790.12
243.765	833.12
243.998	830.12
244.232	842.12
244.465	897.12
244.699	901.12
244.932	900.12
245.166	915.12
245.399	902.12
245.633	885.12
245.866	911.12
246.099	932.12
246.333	925.12
246.566	934.12
246.8	979.12
247.033	965.12
247.266	1019.12
247.5	1068.12
247.733	1143.12
247.966	1138.12
248.2	1141.12
248.433	1176.12
248.666	1159.12
248.899	1349.12
249.133	1433.12
249.366	1407.12
249.599	1307.12
249.832	1190.12
250.066	1217.12
250.299	1245.12
250.532	1337.12
250.765	1539.12
250.998	1721.12
251.231	1637.12
251.465	1524.12
251.698	1461.12
251.931	1387.12
252.164	1379.12
252.397	1450.12
252.63	1477.12
252.863	1551.12
253.096	1669.12
253.329	1768.12
253.562	1635.12
253.795	1551.12
254.028	1581.12
254.261	1624.12
254.494	1815.12
254.727	2151.12
254.96	2213.12
255.193	1937.12
255.426	1741.12
255.659	1587.12
255.892	1621.12
256.124	1575.12
256.357	1556.12
256.59	1538.12
256.823	1490.12
257.056	1518.12
257.289	1522.12
257.521	1552.12
257.754	1545.12
257.987	1509.12
258.22	1522.12
258.452	1517.12
258.685	1518.12
258.918	1563.12
259.151	1613.12
259.383	1678.12
259.616	1711.12
259.849	1759.12
260.081	1938.12
260.314	2139.12
260.547	2018.12
260.779	1866.12
261.012	1789.12
261.244	1729.12
261.477	1703.12
261.71	1702.12
261.942	1730.12
262.175	1762.12
262.407	1701.12
262.64	1675.12
262.872	1650.12
263.105	1631.12
263.337	1661.12
263.57	1646.12
263.802	1642.12
264.035	1647.12
264.267	1672.12
264.499	1673.12
264.732	1665.12
264.964	1674.12
265.197	1702.12
265.429	1677.12
265.661	1694.12
265.894	1730.12
266.126	1732.12
266.358	1734.12
266.591	1800.12
266.823	1855.12
267.055	1868.12
267.287	1905.12
267.52	1824.12
267.752	1842.12
267.984	1875.12
268.216	1907.12
268.448	1978.12
268.681	2018.12
268.913	2127.12
269.145	2313.12
269.377	2379.12
269.609	2285.12
269.841	2266.12
270.073	2405.12
270.306	2721.12
270.538	2799.12
270.77	2708.12
271.002	2535.12
271.234	2489.12
271.466	2669.12
271.698	2755.12
271.93	2744.12
272.162	2767.12
272.394	2685.12
272.626	2503.12
272.858	2423.12
273.09	2345.12
273.322	2273.12
273.553	2261.12
273.785	2214.12
274.017	2290.12
274.249	2275.12
274.481	2287.12
274.713	2312.12
274.945	2289.12
275.176	2306.12
275.408	2275.12
275.64	2252.12
275.872	2274.12
276.104	2321.12
276.335	2328.12
276.567	2445.12
276.799	2578.12
277.031	2775.12
277.262	2880.12
277.494	2795.12
277.726	2558.12
277.957	2507.12
278.189	2463.12
278.421	2364.12
278.652	2380.12
278.884	2401.12
279.115	2349.12
279.347	2385.12
279.579	2408.12
279.81	2377.12
280.042	2393.12
280.273	2355.12
280.505	2433.12
280.736	2415.12
280.968	2397.12
281.199	2401.12
281.431	2453.12
281.662	2467.12
281.894	2492.12
282.125	2543.12
282.356	2660.12
282.588	2811.12
282.819	2713.12
283.051	2528.12
283.282	2585.12
283.513	2600.12
283.745	2665.12
283.976	2638.12
284.207	2652.12
284.439	2627.12
284.67	2636.12
284.901	2643.12
285.132	2687.12
285.364	2602.12
285.595	2670.12
285.826	2608.12
286.057	2688.12
286.288	2689.12
286.52	2722.12
286.751	2697.12
286.982	2697.12
287.213	2744.12
287.444	2760.12
287.675	2813.12
287.906	2949.12
288.138	2949.12
288.369	2943.12
288.6	2971.12
288.831	2859.12
289.062	2839.12
289.293	2867.12
289.524	2814.12
289.755	2790.12
289.986	2827.12
290.217	2827.12
290.448	2825.12
290.679	2892.12
290.91	2805.12
291.141	2779.12
291.371	2833.12
291.602	2881.12
291.833	2820.12
292.064	2841.12
292.295	2850.12
292.526	2867.12
292.757	2895.12
292.987	2835.12
293.218	2802.12
293.449	2884.12
293.68	2864.12
293.91	2838.12
294.141	2851.12
294.372	2846.12
294.603	2927.12
294.833	2974.12
295.064	2889.12
295.295	2912.12
295.525	2921.12
295.756	3036.12
295.987	3028.12
296.217	3160.12
296.448	3193.12
296.679	3021.12
296.909	2993.12
297.14	2925.12
297.37	3032.12
297.601	3061.12
297.831	3058.12
298.062	3066.12
298.292	3114.12
298.523	3154.12
298.753	3175.12
298.984	3136.12
299.214	3131.12
299.445	3115.12
299.675	3124.12
299.905	3191.12
300.136	3171.12
300.366	3152.12
300.597	3230.12
300.827	3337.12
301.057	3389.12
301.288	3444.12
301.518	3338.12
301.748	3369.12
301.979	3427.12
302.209	3434.12
302.439	3457.12
302.669	3395.12
302.9	3328.12
303.13	3278.12
303.36	3392.12
303.59	3379.12
303.82	3396.12
304.051	3357.12
304.281	3330.12
304.511	3305.12
304.741	3339.12
304.971	3331.12
305.201	3306.12
305.431	3327.12
305.661	3371.12
305.891	3294.12
306.121	3294.12
306.352	3368.12
306.582	3351.12
306.812	3226.12
307.042	3300.12
307.272	3323.12
307.502	3310.12
307.731	3337.12
307.961	3294.12
308.191	3336.12
308.421	3335.12
308.651	3384.12
308.881	3339.12
309.111	3362.12
309.341	3433.12
309.571	3488.12
309.8	3526.12
310.03	3643.12
310.26	3630.12
310.49	3661.12
310.72	3699.12
310.949	3821.12
311.179	3845.12
311.409	3653.12
311.639	3674.12
311.868	3724.12
312.098	3727.12
312.328	3783.12
312.557	3924.12
312.787	4021.12
313.017	3956.12
313.246	3879.12
313.476	3789.12
313.706	3848.12
313.935	3954.12
314.165	3950.12
314.394	4013.12
314.624	3976.12
314.853	3904.12
315.083	3826.12
315.312	3769.12
315.542	3785.12
315.771	3721.12
316.001	3696.12
316.23	3710.12
316.46	3780.12
316.689	3785.12
316.919	3854.12
317.148	3866.12
317.377	3831.12
317.607	3826.12
317.836	3793.12
318.065	3768.12
318.295	3763.12
318.524	3728.12
318.753	3684.12
318.983	3719.12
319.212	3752.12
319.441	3787.12
319.67	3829.12
319.9	3767.12
320.129	3749.12
320.358	3784.12
320.587	3809.12
320.816	3852.12
321.046	3861.12
321.275	3872.12
321.504	3857.12
321.733	3892.12
321.962	3947.12
322.191	4024.12
322.42	4177.12
322.649	4227.12
322.878	4314.12
323.108	4379.12
323.337	4601.12
323.566	4685.12
323.795	5022.12
324.024	5609.12
324.253	7370.12
324.482	10977.12
324.71	15210.12
324.939	15611.12
325.168	13069.12
325.397	6608.12
325.626	5249.12
325.855	4847.12
326.084	4770.12
326.313	4824.12
326.542	4946.12
326.77	5580.12
326.999	7033.12
327.228	10327.12
327.457	14333.12
327.686	13690.12
327.914	7326.12
328.143	5931.12
328.372	5415.12
328.6	5321.12
328.829	5214.12
329.058	5338.12
329.287	5408.12
329.515	5088.12
329.744	4825.12
329.972	4894.12
330.201	4999.12
330.43	5278.12
330.658	5504.12
330.887	5798.12
331.115	5447.12
331.344	5029.12
331.572	4895.12
331.801	5082.12
332.03	5076.12
332.258	4975.12
332.486	5064.12
332.715	5109.12
332.943	5239.12
333.172	5430.12
333.4	5553.12
333.629	5680.12
333.857	5785.12
334.085	5670.12
334.314	5591.12
334.542	5541.12
334.771	5524.12
334.999	5403.12
335.227	5328.12
335.455	5169.12
335.684	5178.12
335.912	5118.12
336.14	5102.12
336.369	5032.12
336.597	5079.12
336.825	5056.12
337.053	4957.12
337.281	4828.12
337.51	4805.12
337.738	4823.12
337.966	4776.12
338.194	4781.12
338.422	4696.12
338.65	4535.12
338.878	4640.12
339.106	4534.12
339.334	4557.12
339.562	4579.12
339.79	4472.12
340.018	4519.12
340.246	4505.12
340.474	4517.12
340.702	4502.12
340.93	4448.12
341.158	4528.12
341.386	4482.12
341.614	4436.12
341.842	4466.12
342.07	4442.12
342.298	4421.12
342.526	4375.12
342.754	4347.12
342.981	4332.12
343.209	4594.12
343.437	4730.12
343.665	5045.12
343.893	5259.12
344.12	5258.12
344.348	5101.12
344.576	4875.12
344.804	4767.12
345.031	4741.12
345.259	4692.12
345.487	4581.12
345.714	4416.12
345.942	4371.12
346.17	4275.12
346.397	4329.12
346.625	4281.12
346.853	4263.12
347.08	4268.12
347.308	4344.12
347.535	4348.12
347.763	4468.12
347.99	4398.12
348.218	4389.12
348.445	4417.12
348.673	4266.12
348.9	4225.12
349.128	4206.12
349.355	4117.12
349.583	4131.12
349.81	4173.12
350.037	4119.12
350.265	4101.12
350.492	4117.12
350.72	4093.12
350.947	4190.12
351.174	4254.12
351.402	4293.12
351.629	4283.12
351.856	4264.12
352.083	4327.12
352.311	4363.12
352.538	4332.12
352.765	4293.12
352.992	4259.12
353.22	4203.12
353.447	4117.12
353.674	4102.12
353.901	4035.12
354.128	4001.12
354.355	4039.12
354.583	4029.12
354.81	4037.12
355.037	4048.12
355.264	4025.12
355.491	4001.12
355.718	4011.12
355.945	4024.12
356.172	4078.12
356.399	4066.12
356.626	4054.12
356.853	3978.12
357.08	4030.12
357.307	4062.12
357.534	4002.12
357.761	4009.12
357.988	4030.12
358.215	4118.12
358.441	4078.12
358.668	4044.12
358.895	4122.12
359.122	4137.12
359.349	4180.12
359.576	4348.12
359.802	4509.12
360.029	4740.12
360.256	4718.12
360.483	4531.12
360.709	4335.12
360.936	4225.12
361.163	4259.12
361.39	4377.12
361.616	4351.12
361.843	4297.12
362.07	4287.12
362.296	4288.12
362.523	4262.12
362.749	4287.12
362.976	4265.12
363.203	4165.12
363.429	4127.12
363.656	4165.12
363.882	4125.12
364.109	4082.12
364.335	4125.12
364.562	4066.12
364.788	4133.12
365.015	4233.12
365.241	4114.12
365.468	4157.12
365.694	4211.12
365.92	4158.12
366.147	4099.12
366.373	4165.12
366.599	4141.12
366.826	4059.12
367.052	4094.12
367.278	4151.12
367.505	4118.12
367.731	4146.12
367.957	4107.12
368.184	4171.12
368.41	4231.12
368.636	4326.12
368.862	4369.12
369.089	4250.12
369.315	4268.12
369.541	4222.12
369.767	4269.12
369.993	4271.12
370.219	4248.12
370.445	4242.12
370.672	4323.12
370.898	4268.12
371.124	4319.12
371.35	4487.12
371.576	4312.12
371.802	4366.12
372.028	4329.12
372.254	4393.12
372.48	4478.12
372.706	4484.12
372.932	4537.12
373.158	4467.12
373.384	4447.12
373.61	4447.12
373.835	4492.12
374.061	4477.12
374.287	4543.12
374.513	4627.12
374.739	4712.12
374.965	4844.12
375.191	4904.12
375.416	4788.12
375.642	4628.12
375.868	4585.12
376.094	4503.12
376.319	4477.12
376.545	4449.12
376.771	4442.12
376.997	4439.12
377.222	4453.12
377.448	4467.12
377.674	4445.12
377.899	4341.12
378.125	4335.12
378.35	4397.12
378.576	4336.12
378.802	4350.12
379.027	4341.12
379.253	4399.12
379.478	4367.12
379.704	4385.12
379.929	4431.12
380.155	4453.12
380.38	4378.12
380.606	4425.12
380.831	4412.12
381.057	4531.12
381.282	4442.12
381.507	4452.12
381.733	4489.12
381.958	4474.12
382.184	4566.12
382.409	4599.12
382.634	4624.12
382.86	4681.12
383.085	4698.12
383.31	4789.12
383.535	4882.12
383.761	4902.12
383.986	5015.12
384.211	5106.12
384.436	5155.12
384.662	5126.12
384.887	5274.12
385.112	5267.12
385.337	5363.12
385.562	5356.12
385.787	5354.12
386.013	5416.12
386.238	5403.12
386.463	5418.12
386.688	5402.12
386.913	5248.12
387.138	5301.12
387.363	5248.12
387.588	5268.12
387.813	5272.12
388.038	5289.12
388.263	5329.12
388.488	5292.12
388.713	5334.12
388.938	5219.12
389.163	5315.12
389.387	5305.12
389.612	5167.12
389.837	5227.12
390.062	5125.12
390.287	5209.12
390.512	5270.12
390.736	5279.12
390.961	5479.12
391.186	5449.12
391.411	5567.12
391.636	5771.12
391.86	5918.12
392.085	5919.12
392.31	5803.12
392.534	5657.12
392.759	5651.12
392.984	5503.12
393.208	5524.12
393.433	5519.12
393.658	5502.12
393.882	5486.12
394.107	5561.12
394.331	5604.12
394.556	5543.12
394.78	5637.12
395.005	5632.12
395.229	5744.12
395.454	5897.12
395.678	5957.12
395.903	6011.12
396.127	6023.12
396.352	5796.12
396.576	5585.12
396.801	5616.12
397.025	5700.12
397.249	5864.12
397.474	5968.12
397.698	5998.12
397.922	6113.12
398.147	6226.12
398.371	6326.12
398.595	6446.12
398.82	6686.12
399.044	7368.12
399.268	8146.12
399.492	9281.12
399.717	9965.12
399.941	9597.12
400.165	9041.12
400.389	8283.12
400.613	7399.12
400.837	6993.12
401.062	6845.12
401.286	6809.12
401.51	6788.12
401.734	6620.12
401.958	6805.12
402.182	6910.12
402.406	7037.12
402.63	7072.12
402.854	7246.12
403.078	7239.12
403.302	7351.12
403.526	7637.12
403.75	7593.12
403.974	7703.12
404.198	7651.12
404.422	7728.12
404.645	7651.12
404.869	7564.12
405.093	7839.12
405.317	7863.12
405.541	7864.12
405.765	7490.12
405.988	7350.12
406.212	7609.12
406.436	7810.12
406.66	7967.12
406.883	7964.12
407.107	8527.12
407.331	9146.12
407.555	9619.12
407.778	9235.12
408.002	8493.12
408.226	8138.12
408.449	7945.12
408.673	7873.12
408.896	8065.12
409.12	8193.12
409.344	7689.12
409.567	7367.12
409.791	7382.12
410.014	7220.12
410.238	7182.12
410.461	7251.12
410.685	7118.12
410.908	7328.12
411.132	7479.12
411.355	7555.12
411.578	7181.12
411.802	6933.12
412.025	6898.12
412.249	7040.12
412.472	7037.12
412.695	7028.12
412.919	6756.12
413.142	6658.12
413.365	6588.12
413.589	6627.12
413.812	6484.12
414.035	6507.12
414.258	6511.12
414.482	6571.12
414.705	6580.12
414.928	6578.12
415.151	6612.12
415.374	6528.12
415.597	6529.12
415.821	6410.12
416.044	6417.12
416.267	6465.12
416.49	6412.12
416.713	6360.12
416.936	6461.12
417.159	6429.12
417.382	6575.12
417.605	6538.12
417.828	6706.12
418.051	6838.12
418.274	6721.12
418.497	6599.12
418.72	6715.12
418.943	6707.12
419.166	7103.12
419.389	7491.12
419.611	7312.12
419.834	7135.12
420.057	6931.12
420.28	6817.12
420.503	6564.12
420.726	6567.12
420.948	6873.12
421.171	7221.12
421.394	7227.12
421.617	6715.12
421.839	6709.12
422.062	6821.12
422.285	6947.12
422.507	7642.12
422.73	8217.12
422.953	7562.12
423.175	7273.12
423.398	7179.12
423.621	7339.12
423.843	7542.12
424.066	7466.12
424.288	7343.12
424.511	7547.12
424.733	8054.12
424.956	8510.12
425.178	7969.12
425.401	8217.12
425.623	7955.12
425.846	7025.12
426.068	6796.12
426.291	6774.12
426.513	6788.12
426.735	6877.12
426.958	7369.12
427.18	8131.12
427.402	9234.12
427.625	9345.12
427.847	7773.12
428.069	6974.12
428.292	6657.12
428.514	6276.12
428.736	6151.12
428.958	6187.12
429.181	5950.12
429.403	5960.12
429.625	6094.12
429.847	6490.12
430.069	7043.12
430.292	6641.12
430.514	6016.12
430.736	5974.12
430.958	5912.12
431.18	5787.12
431.402	5797.12
431.624	5753.12
431.846	5895.12
432.068	5929.12
432.29	6041.12
432.512	5825.12
432.734	5982.12
432.956	5862.12
433.178	6024.12
433.4	5992.12
433.622	5945.12
433.844	5973.12
434.066	5899.12
434.287	6042.12
434.509	6328.12
434.731	6464.12
434.953	6696.12
435.175	6792.12
435.397	6882.12
435.618	6825.12
435.84	7119.12
436.062	8007.12
436.284	8006.12
436.505	6806.12
436.727	6433.12
436.949	6135.12
437.17	6047.12
437.392	5978.12
437.614	6132.12
437.835	6526.12
438.057	7626.12
438.278	8271.12
438.5	8170.12
438.721	8947.12
438.943	7962.12
439.165	6637.12
439.386	6408.12
439.608	6471.12
439.829	6622.12
440.05	6867.12
440.272	7194.12
440.493	6644.12
440.715	6350.12
440.936	6280.12
441.158	6343.12
441.379	6513.12
441.6	6850.12
441.822	7017.12
442.043	7504.12
442.264	8391.12
442.486	8039.12
442.707	7143.12
442.928	6871.12
443.149	7086.12
443.371	7427.12
443.592	7960.12
443.813	8999.12
444.034	8950.12
444.255	7785.12
444.476	7648.12
444.698	7824.12
444.919	7930.12
445.14	7670.12
445.361	7475.12
445.582	7617.12
445.803	8298.12
446.024	8864.12
446.245	8581.12
446.466	7657.12
446.687	6598.12
446.908	6313.12
447.129	5993.12
447.35	5814.12
447.571	5855.12
447.792	5697.12
448.013	5870.12
448.234	6130.12
448.455	6785.12
448.675	7933.12
448.896	8376.12
449.117	6962.12
449.338	7176.12
449.559	8410.12
449.779	8721.12
450	6727.12
450.221	6074.12
450.442	5665.12
450.662	5578.12
450.883	5660.12
451.104	5834.12
451.324	5709.12
451.545	5506.12
451.766	5355.12
451.986	5160.12
452.207	5249.12
452.428	5255.12
452.648	5223.12
452.869	5242.12
453.089	5276.12
453.31	5429.12
453.53	5225.12
453.751	5203.12
453.971	5237.12
454.192	5315.12
454.412	5106.12
454.633	5063.12
454.853	5000.12
455.073	5089.12
455.294	5500.12
455.514	6093.12
455.734	5585.12
455.955	4961.12
456.175	4818.12
456.395	4837.12
456.616	4711.12
456.836	4873.12
457.056	4778.12
457.276	4717.12
457.497	4801.12
457.717	4798.12
457.937	4917.12
458.157	4887.12
458.377	5104.12
458.598	5421.12
458.818	6160.12
459.038	6951.12
459.258	6902.12
459.478	6063.12
459.698	5909.12
459.918	5973.12
460.138	6286.12
460.358	6493.12
460.578	6453.12
460.798	6561.12
461.018	6614.12
461.238	6465.12
461.458	6399.12
461.678	6420.12
461.898	6623.12
462.118	6599.12
462.338	6825.12
462.558	7165.12
462.777	7439.12
462.997	7999.12
463.217	8441.12
463.437	8169.12
463.657	7571.12
463.876	7301.12
464.096	7434.12
464.316	7437.12
464.536	7514.12
464.755	7202.12
464.975	7152.12
465.195	7240.12
465.414	7234.12
465.634	6429.12
465.854	6047.12
466.073	5801.12
466.293	5632.12
466.512	5408.12
466.732	5347.12
466.951	5384.12
467.171	5375.12
467.391	5422.12
467.61	5585.12
467.829	5397.12
468.049	5360.12
468.268	5177.12
468.488	5138.12
468.707	5074.12
468.927	5073.12
469.146	5086.12
469.365	5150.12
469.585	5200.12
469.804	5377.12
470.023	5550.12
470.243	5551.12
470.462	5686.12
470.681	5815.12
470.901	5634.12
471.12	5482.12
471.339	5499.12
471.558	5399.12
471.777	5335.12
471.997	5317.12
472.216	5207.12
472.435	5198.12
472.654	5186.12
472.873	5085.12
473.092	5055.12
473.311	5038.12
473.53	5096.12
473.749	5241.12
473.968	5854.12
474.187	6896.12
474.406	6351.12
474.625	5471.12
474.844	5181.12
475.063	5130.12
475.282	5187.12
475.501	5210.12
475.72	5332.12
475.939	5271.12
476.158	5313.12
476.377	5344.12
476.596	5351.12
476.814	5498.12
477.033	5483.12
477.252	5608.12
477.471	5646.12
477.69	5836.12
477.908	5895.12
478.127	6157.12
478.346	6158.12
478.564	6316.12
478.783	6339.12
479.002	6496.12
479.22	6462.12
479.439	6541.12
479.658	6601.12
479.876	6802.12
480.095	6953.12
480.313	7449.12
480.532	7267.12
480.751	7134.12
480.969	6961.12
481.188	6915.12
481.406	6681.12
481.624	6435.12
481.843	6244.12
482.061	6252.12
482.28	6172.12
482.498	5971.12
482.717	6004.12
482.935	6049.12
483.153	6021.12
483.372	5955.12
483.59	6006.12
483.808	5966.12
484.027	6032.12
484.245	6072.12
484.463	6114.12
484.681	6197.12
484.9	6271.12
485.118	6306.12
485.336	6319.12
485.554	6408.12
485.772	6358.12
485.99	6427.12
486.209	6458.12
486.427	6483.12
486.645	6400.12
486.863	6640.12
487.081	6545.12
487.299	6523.12
487.517	6549.12
487.735	6546.12
487.953	6480.12
