Data from Uncirc_2004_H10_HRD10591_00097.txt Node
Date: Wed Jan 03 10:32:32 EST 2024
User: Yrep
Spectrometer: HR+D1059
Trigger mode: 1
Integration Time (sec): 1.000000E-1
Scans to average: 1
Electric dark correction enabled: true
Nonlinearity correction enabled: false
Boxcar width: 0
XAxis mode: Wavelengths
Number of Pixels in Spectrum: 2048
>>>>>Begin Spectral Data<<<<<
223.165	-19.75
223.4	-19.75
223.635	-19.75
223.869	-11.75
224.104	-32.75
224.338	-18.75
224.573	-16.75
224.808	-8.75
225.042	-20.75
225.277	-1.75
225.511	-9.75
225.746	4.25
225.98	18.25
226.215	12.25
226.449	24.25
226.683	27.25
226.918	24.25
227.152	30.25
227.387	36.25
227.621	39.25
227.856	43.25
228.09	48.25
228.324	60.25
228.559	62.25
228.793	70.25
229.027	48.25
229.262	71.25
229.496	74.25
229.73	102.25
229.964	78.25
230.199	79.25
230.433	89.25
230.667	72.25
230.901	80.25
231.136	65.25
231.37	89.25
231.604	84.25
231.838	98.25
232.072	77.25
232.306	73.25
232.541	57.25
232.775	81.25
233.009	69.25
233.243	90.25
233.477	76.25
233.711	71.25
233.945	81.25
234.179	85.25
234.413	87.25
234.647	70.25
234.881	84.25
235.115	94.25
235.349	65.25
235.583	68.25
235.817	75.25
236.051	88.25
236.285	82.25
236.519	70.25
236.753	96.25
236.987	82.25
237.221	80.25
237.455	76.25
237.689	77.25
237.922	71.25
238.156	75.25
238.39	85.25
238.624	78.25
238.858	77.25
239.091	77.25
239.325	81.25
239.559	80.25
239.793	84.25
240.027	81.25
240.26	72.25
240.494	82.25
240.728	64.25
240.961	84.25
241.195	73.25
241.429	77.25
241.662	73.25
241.896	74.25
242.13	86.25
242.363	73.25
242.597	81.25
242.83	85.25
243.064	86.25
243.298	78.25
243.531	80.25
243.765	84.25
243.998	90.25
244.232	68.25
244.465	87.25
244.699	94.25
244.932	72.25
245.166	84.25
245.399	86.25
245.633	81.25
245.866	85.25
246.099	92.25
246.333	76.25
246.566	82.25
246.8	79.25
247.033	79.25
247.266	83.25
247.5	78.25
247.733	74.25
247.966	81.25
248.2	88.25
248.433	83.25
248.666	88.25
248.899	76.25
249.133	90.25
249.366	119.25
249.599	88.25
249.832	75.25
250.066	92.25
250.299	82.25
250.532	73.25
250.765	84.25
250.998	78.25
251.231	72.25
251.465	85.25
251.698	71.25
251.931	90.25
252.164	84.25
252.397	78.25
252.63	76.25
252.863	84.25
253.096	81.25
253.329	80.25
253.562	84.25
253.795	92.25
254.028	90.25
254.261	78.25
254.494	75.25
254.727	84.25
254.96	85.25
255.193	91.25
255.426	81.25
255.659	82.25
255.892	82.25
256.124	84.25
256.357	80.25
256.59	71.25
256.823	79.25
257.056	86.25
257.289	91.25
257.521	71.25
257.754	86.25
257.987	85.25
258.22	85.25
258.452	77.25
258.685	97.25
258.918	84.25
259.151	68.25
259.383	81.25
259.616	77.25
259.849	73.25
260.081	76.25
260.314	86.25
260.547	86.25
260.779	82.25
261.012	76.25
261.244	85.25
261.477	96.25
261.71	97.25
261.942	115.25
262.175	116.25
262.407	78.25
262.64	86.25
262.872	93.25
263.105	80.25
263.337	73.25
263.57	88.25
263.802	77.25
264.035	78.25
264.267	79.25
264.499	80.25
264.732	76.25
264.964	74.25
265.197	87.25
265.429	86.25
265.661	79.25
265.894	84.25
266.126	81.25
266.358	97.25
266.591	86.25
266.823	79.25
267.055	100.25
267.287	74.25
267.52	71.25
267.752	74.25
267.984	72.25
268.216	82.25
268.448	90.25
268.681	73.25
268.913	82.25
269.145	77.25
269.377	80.25
269.609	93.25
269.841	87.25
270.073	79.25
270.306	94.25
270.538	92.25
270.77	89.25
271.002	90.25
271.234	83.25
271.466	87.25
271.698	93.25
271.93	82.25
272.162	90.25
272.394	83.25
272.626	78.25
272.858	78.25
273.09	77.25
273.322	87.25
273.553	76.25
273.785	80.25
274.017	85.25
274.249	89.25
274.481	89.25
274.713	86.25
274.945	95.25
275.176	103.25
275.408	76.25
275.64	89.25
275.872	82.25
276.104	80.25
276.335	99.25
276.567	107.25
276.799	112.25
277.031	101.25
277.262	95.25
277.494	79.25
277.726	89.25
277.957	93.25
278.189	102.25
278.421	80.25
278.652	95.25
278.884	78.25
279.115	85.25
279.347	91.25
279.579	84.25
279.81	77.25
280.042	80.25
280.273	87.25
280.505	76.25
280.736	86.25
280.968	86.25
281.199	93.25
281.431	76.25
281.662	85.25
281.894	101.25
282.125	110.25
282.356	111.25
282.588	152.25
282.819	118.25
283.051	78.25
283.282	86.25
283.513	93.25
283.745	96.25
283.976	81.25
284.207	108.25
284.439	90.25
284.67	88.25
284.901	95.25
285.132	103.25
285.364	86.25
285.595	81.25
285.826	83.25
286.057	81.25
286.288	84.25
286.52	84.25
286.751	75.25
286.982	87.25
287.213	94.25
287.444	73.25
287.675	82.25
287.906	93.25
288.138	82.25
288.369	99.25
288.6	97.25
288.831	88.25
289.062	90.25
289.293	90.25
289.524	80.25
289.755	86.25
289.986	72.25
290.217	81.25
290.448	77.25
290.679	90.25
290.91	87.25
291.141	80.25
291.371	94.25
291.602	78.25
291.833	84.25
292.064	96.25
292.295	92.25
292.526	79.25
292.757	88.25
292.987	93.25
293.218	96.25
293.449	90.25
293.68	90.25
293.91	72.25
294.141	93.25
294.372	90.25
294.603	100.25
294.833	99.25
295.064	98.25
295.295	89.25
295.525	104.25
295.756	85.25
295.987	125.25
296.217	148.25
296.448	120.25
296.679	98.25
296.909	99.25
297.14	98.25
297.37	88.25
297.601	86.25
297.831	98.25
298.062	99.25
298.292	94.25
298.523	100.25
298.753	96.25
298.984	73.25
299.214	84.25
299.445	85.25
299.675	89.25
299.905	90.25
300.136	89.25
300.366	84.25
300.597	75.25
300.827	72.25
301.057	96.25
301.288	104.25
301.518	103.25
301.748	87.25
301.979	98.25
302.209	97.25
302.439	87.25
302.669	83.25
302.9	96.25
303.13	84.25
303.36	106.25
303.59	100.25
303.82	106.25
304.051	91.25
304.281	88.25
304.511	102.25
304.741	101.25
304.971	83.25
305.201	88.25
305.431	91.25
305.661	78.25
305.891	91.25
306.121	94.25
306.352	100.25
306.582	102.25
306.812	95.25
307.042	94.25
307.272	105.25
307.502	93.25
307.731	110.25
307.961	93.25
308.191	90.25
308.421	96.25
308.651	90.25
308.881	98.25
309.111	93.25
309.341	89.25
309.571	106.25
309.8	101.25
310.03	99.25
310.26	112.25
310.49	89.25
310.72	93.25
310.949	82.25
311.179	102.25
311.409	91.25
311.639	89.25
311.868	96.25
312.098	96.25
312.328	91.25
312.557	104.25
312.787	102.25
313.017	97.25
313.246	88.25
313.476	94.25
313.706	76.25
313.935	78.25
314.165	94.25
314.394	109.25
314.624	110.25
314.853	92.25
315.083	82.25
315.312	90.25
315.542	81.25
315.771	82.25
316.001	90.25
316.23	86.25
316.46	89.25
316.689	93.25
316.919	99.25
317.148	79.25
317.377	100.25
317.607	96.25
317.836	89.25
318.065	103.25
318.295	97.25
318.524	86.25
318.753	111.25
318.983	100.25
319.212	119.25
319.441	104.25
319.67	97.25
319.9	94.25
320.129	89.25
320.358	89.25
320.587	87.25
320.816	106.25
321.046	97.25
321.275	94.25
321.504	87.25
321.733	97.25
321.962	96.25
322.191	105.25
322.42	102.25
322.649	120.25
322.878	90.25
323.108	116.25
323.337	114.25
323.566	145.25
323.795	144.25
324.024	223.25
324.253	417.25
324.482	869.25
324.71	1736.25
324.939	2261.25
325.168	821.25
325.397	244.25
325.626	144.25
325.855	132.25
326.084	126.25
326.313	138.25
326.542	160.25
326.77	241.25
326.999	471.25
327.228	982.25
327.457	1712.25
327.686	1352.25
327.914	373.25
328.143	199.25
328.372	156.25
328.6	128.25
328.829	121.25
329.058	137.25
329.287	126.25
329.515	102.25
329.744	111.25
329.972	97.25
330.201	107.25
330.43	113.25
330.658	130.25
330.887	138.25
331.115	126.25
331.344	89.25
331.572	108.25
331.801	103.25
332.03	105.25
332.258	108.25
332.486	92.25
332.715	105.25
332.943	91.25
333.172	90.25
333.4	82.25
333.629	111.25
333.857	115.25
334.085	104.25
334.314	115.25
334.542	118.25
334.771	96.25
334.999	92.25
335.227	106.25
335.455	103.25
335.684	96.25
335.912	87.25
336.14	101.25
336.369	96.25
336.597	113.25
336.825	79.25
337.053	102.25
337.281	93.25
337.51	111.25
337.738	90.25
337.966	110.25
338.194	108.25
338.422	89.25
338.65	101.25
338.878	86.25
339.106	99.25
339.334	89.25
339.562	100.25
339.79	100.25
340.018	85.25
340.246	88.25
340.474	101.25
340.702	91.25
340.93	106.25
341.158	96.25
341.386	93.25
341.614	91.25
341.842	104.25
342.07	80.25
342.298	105.25
342.526	89.25
342.754	97.25
342.981	103.25
343.209	84.25
343.437	101.25
343.665	95.25
343.893	89.25
344.12	94.25
344.348	89.25
344.576	104.25
344.804	101.25
345.031	95.25
345.259	104.25
345.487	93.25
345.714	90.25
345.942	103.25
346.17	96.25
346.397	94.25
346.625	90.25
346.853	100.25
347.08	85.25
347.308	87.25
347.535	106.25
347.763	104.25
347.99	93.25
348.218	110.25
348.445	102.25
348.673	101.25
348.9	85.25
349.128	89.25
349.355	91.25
349.583	99.25
349.81	97.25
350.037	99.25
350.265	101.25
350.492	87.25
350.72	105.25
350.947	98.25
351.174	96.25
351.402	110.25
351.629	108.25
351.856	102.25
352.083	101.25
352.311	112.25
352.538	126.25
352.765	101.25
352.992	104.25
353.22	113.25
353.447	105.25
353.674	109.25
353.901	97.25
354.128	100.25
354.355	112.25
354.583	99.25
354.81	105.25
355.037	97.25
355.264	101.25
355.491	91.25
355.718	102.25
355.945	95.25
356.172	101.25
356.399	101.25
356.626	94.25
356.853	81.25
357.08	92.25
357.307	95.25
357.534	91.25
357.761	97.25
357.988	90.25
358.215	90.25
358.441	86.25
358.668	95.25
358.895	92.25
359.122	83.25
359.349	86.25
359.576	91.25
359.802	97.25
360.029	102.25
360.256	102.25
360.483	95.25
360.709	89.25
360.936	99.25
361.163	85.25
361.39	86.25
361.616	93.25
361.843	101.25
362.07	99.25
362.296	105.25
362.523	88.25
362.749	87.25
362.976	84.25
363.203	93.25
363.429	90.25
363.656	79.25
363.882	87.25
364.109	92.25
364.335	98.25
364.562	89.25
364.788	81.25
365.015	96.25
365.241	87.25
365.468	113.25
365.694	100.25
365.92	95.25
366.147	87.25
366.373	87.25
366.599	74.25
366.826	92.25
367.052	94.25
367.278	88.25
367.505	81.25
367.731	89.25
367.957	88.25
368.184	89.25
368.41	103.25
368.636	117.25
368.862	119.25
369.089	121.25
369.315	93.25
369.541	103.25
369.767	92.25
369.993	103.25
370.219	91.25
370.445	83.25
370.672	101.25
370.898	95.25
371.124	91.25
371.35	89.25
371.576	92.25
371.802	95.25
372.028	97.25
372.254	90.25
372.48	92.25
372.706	83.25
372.932	86.25
373.158	97.25
373.384	85.25
373.61	98.25
373.835	88.25
374.061	87.25
374.287	89.25
374.513	99.25
374.739	82.25
374.965	82.25
375.191	95.25
375.416	88.25
375.642	94.25
375.868	93.25
376.094	111.25
376.319	76.25
376.545	89.25
376.771	89.25
376.997	84.25
377.222	83.25
377.448	81.25
377.674	93.25
377.899	87.25
378.125	112.25
378.35	90.25
378.576	89.25
378.802	93.25
379.027	97.25
379.253	93.25
379.478	94.25
379.704	90.25
379.929	104.25
380.155	96.25
380.38	86.25
380.606	93.25
380.831	91.25
381.057	104.25
381.282	103.25
381.507	90.25
381.733	94.25
381.958	108.25
382.184	105.25
382.409	105.25
382.634	99.25
382.86	109.25
383.085	92.25
383.31	104.25
383.535	95.25
383.761	106.25
383.986	101.25
384.211	101.25
384.436	83.25
384.662	95.25
384.887	97.25
385.112	96.25
385.337	106.25
385.562	114.25
385.787	113.25
386.013	106.25
386.238	101.25
386.463	95.25
386.688	81.25
386.913	97.25
387.138	101.25
387.363	111.25
387.588	98.25
387.813	105.25
388.038	105.25
388.263	111.25
388.488	103.25
388.713	88.25
388.938	83.25
389.163	93.25
389.387	86.25
389.612	76.25
389.837	97.25
390.062	96.25
390.287	79.25
390.512	103.25
390.736	99.25
390.961	108.25
391.186	108.25
391.411	104.25
391.636	74.25
391.86	85.25
392.085	81.25
392.31	88.25
392.534	86.25
392.759	84.25
392.984	93.25
393.208	92.25
393.433	85.25
393.658	85.25
393.882	84.25
394.107	84.25
394.331	92.25
394.556	92.25
394.78	81.25
395.005	99.25
395.229	95.25
395.454	89.25
395.678	86.25
395.903	84.25
396.127	88.25
396.352	96.25
396.576	79.25
396.801	92.25
397.025	89.25
397.249	75.25
397.474	93.25
397.698	77.25
397.922	87.25
398.147	80.25
398.371	89.25
398.595	89.25
398.82	78.25
399.044	82.25
399.268	88.25
399.492	89.25
399.717	97.25
399.941	93.25
400.165	87.25
400.389	92.25
400.613	79.25
400.837	101.25
401.062	85.25
401.286	73.25
401.51	88.25
401.734	86.25
401.958	102.25
402.182	136.25
402.406	159.25
402.63	120.25
402.854	100.25
403.078	95.25
403.302	87.25
403.526	68.25
403.75	62.25
403.974	93.25
404.198	99.25
404.422	95.25
404.645	96.25
404.869	89.25
405.093	88.25
405.317	102.25
405.541	101.25
405.765	80.25
405.988	116.25
406.212	183.25
406.436	242.25
406.66	148.25
406.883	89.25
407.107	86.25
407.331	88.25
407.555	89.25
407.778	85.25
408.002	103.25
408.226	99.25
408.449	85.25
408.673	101.25
408.896	105.25
409.12	96.25
409.344	84.25
409.567	95.25
409.791	100.25
410.014	94.25
410.238	94.25
410.461	93.25
410.685	86.25
410.908	99.25
411.132	104.25
411.355	101.25
411.578	89.25
411.802	80.25
412.025	82.25
412.249	90.25
412.472	99.25
412.695	92.25
412.919	95.25
413.142	93.25
413.365	79.25
413.589	90.25
413.812	74.25
414.035	98.25
414.258	91.25
414.482	89.25
414.705	86.25
414.928	105.25
415.151	83.25
415.374	80.25
415.597	90.25
415.821	106.25
416.044	78.25
416.267	93.25
416.49	96.25
416.713	96.25
416.936	82.25
417.159	90.25
417.382	89.25
417.605	87.25
417.828	117.25
418.051	93.25
418.274	80.25
418.497	87.25
418.72	77.25
418.943	87.25
419.166	74.25
419.389	100.25
419.611	81.25
419.834	101.25
420.057	83.25
420.28	99.25
420.503	85.25
420.726	79.25
420.948	80.25
421.171	90.25
421.394	79.25
421.617	81.25
421.839	91.25
422.062	104.25
422.285	99.25
422.507	100.25
422.73	110.25
422.953	82.25
423.175	97.25
423.398	82.25
423.621	77.25
423.843	92.25
424.066	76.25
424.288	68.25
424.511	96.25
424.733	93.25
424.956	103.25
425.178	100.25
425.401	92.25
425.623	102.25
425.846	86.25
426.068	104.25
426.291	91.25
426.513	91.25
426.735	90.25
426.958	96.25
427.18	113.25
427.402	135.25
427.625	168.25
427.847	123.25
428.069	111.25
428.292	81.25
428.514	92.25
428.736	88.25
428.958	81.25
429.181	81.25
429.403	73.25
429.625	77.25
429.847	97.25
430.069	96.25
430.292	102.25
430.514	96.25
430.736	85.25
430.958	84.25
431.18	84.25
431.402	96.25
431.624	95.25
431.846	83.25
432.068	85.25
432.29	84.25
432.512	96.25
432.734	77.25
432.956	79.25
433.178	95.25
433.4	93.25
433.622	88.25
433.844	84.25
434.066	82.25
434.287	87.25
434.509	80.25
434.731	88.25
434.953	69.25
435.175	86.25
435.397	102.25
435.618	93.25
435.84	102.25
436.062	109.25
436.284	113.25
436.505	93.25
436.727	92.25
436.949	88.25
437.17	82.25
437.392	86.25
437.614	100.25
437.835	98.25
438.057	114.25
438.278	110.25
438.5	120.25
438.721	110.25
438.943	86.25
439.165	94.25
439.386	95.25
439.608	102.25
439.829	98.25
440.05	124.25
440.272	135.25
440.493	96.25
440.715	91.25
440.936	94.25
441.158	89.25
441.379	96.25
441.6	94.25
441.822	106.25
442.043	82.25
442.264	94.25
442.486	96.25
442.707	91.25
442.928	100.25
443.149	133.25
443.371	121.25
443.592	115.25
443.813	108.25
444.034	101.25
444.255	81.25
444.476	89.25
444.698	88.25
444.919	81.25
445.14	128.25
445.361	130.25
445.582	105.25
445.803	103.25
446.024	129.25
446.245	130.25
446.466	88.25
446.687	90.25
446.908	84.25
447.129	74.25
447.35	82.25
447.571	101.25
447.792	88.25
448.013	102.25
448.234	98.25
448.455	89.25
448.675	114.25
448.896	114.25
449.117	99.25
449.338	101.25
449.559	113.25
449.779	124.25
450	87.25
450.221	86.25
450.442	80.25
450.662	84.25
450.883	112.25
451.104	104.25
451.324	85.25
451.545	79.25
451.766	95.25
451.986	85.25
452.207	95.25
452.428	92.25
452.648	90.25
452.869	106.25
453.089	119.25
453.31	130.25
453.53	104.25
453.751	92.25
453.971	99.25
454.192	108.25
454.412	98.25
454.633	97.25
454.853	90.25
455.073	95.25
455.294	93.25
455.514	90.25
455.734	99.25
455.955	82.25
456.175	99.25
456.395	83.25
456.616	83.25
456.836	98.25
457.056	82.25
457.276	85.25
457.497	90.25
457.717	95.25
457.937	105.25
458.157	76.25
458.377	106.25
458.598	98.25
458.818	151.25
459.038	151.25
459.258	94.25
459.478	76.25
459.698	78.25
459.918	80.25
460.138	82.25
460.358	91.25
460.578	92.25
460.798	67.25
461.018	98.25
461.238	91.25
461.458	83.25
461.678	100.25
461.898	83.25
462.118	95.25
462.338	87.25
462.558	88.25
462.777	87.25
462.997	87.25
463.217	93.25
463.437	85.25
463.657	80.25
463.876	89.25
464.096	100.25
464.316	86.25
464.536	97.25
464.755	98.25
464.975	94.25
465.195	155.25
465.414	146.25
465.634	95.25
465.854	96.25
466.073	97.25
466.293	90.25
466.512	94.25
466.732	84.25
466.951	97.25
467.171	86.25
467.391	82.25
467.61	94.25
467.829	106.25
468.049	86.25
468.268	97.25
468.488	96.25
468.707	87.25
468.927	73.25
469.146	82.25
469.365	93.25
469.585	89.25
469.804	97.25
470.023	101.25
470.243	82.25
470.462	98.25
470.681	100.25
470.901	90.25
471.12	90.25
471.339	95.25
471.558	80.25
471.777	81.25
471.997	98.25
472.216	90.25
472.435	102.25
472.654	106.25
472.873	86.25
473.092	96.25
473.311	98.25
473.53	91.25
473.749	82.25
473.968	96.25
474.187	115.25
474.406	90.25
474.625	102.25
474.844	97.25
475.063	103.25
475.282	75.25
475.501	90.25
475.72	91.25
475.939	84.25
476.158	84.25
476.377	77.25
476.596	79.25
476.814	94.25
477.033	93.25
477.252	99.25
477.471	82.25
477.69	89.25
477.908	105.25
478.127	98.25
478.346	92.25
478.564	100.25
478.783	112.25
479.002	105.25
479.22	86.25
479.439	81.25
479.658	95.25
479.876	94.25
480.095	86.25
480.313	88.25
480.532	86.25
480.751	82.25
480.969	100.25
481.188	126.25
481.406	107.25
481.624	89.25
481.843	96.25
482.061	85.25
482.28	77.25
482.498	78.25
482.717	90.25
482.935	103.25
483.153	95.25
483.372	89.25
483.59	89.25
483.808	92.25
484.027	87.25
484.245	108.25
484.463	86.25
484.681	98.25
484.9	91.25
485.118	92.25
485.336	97.25
485.554	102.25
485.772	106.25
485.99	113.25
486.209	109.25
486.427	97.25
486.645	104.25
486.863	115.25
487.081	102.25
487.299	94.25
487.517	96.25
487.735	97.25
487.953	97.25
488.171	104.25
488.389	108.25
488.607	86.25
488.825	88.25
489.043	85.25
489.261	100.25
489.479	88.25
489.696	92.25
489.914	93.25
490.132	91.25
490.35	86.25
490.568	104.25
490.786	84.25
491.003	89.25
491.221	97.25
491.439	88.25
491.657	103.25
491.874	100.25
492.092	87.25
492.31	103.25
492.527	94.25
492.745	92.25
492.963	92.25
493.18	95.25
493.398	87.25
493.615	89.25
493.833	93.25
494.05	79.25
494.268	90.25
494.485	84.25
494.703	90.25
494.92	95.25
495.138	74.25
495.355	90.25
495.573	86.25
495.79	88.25
496.008	97.25
496.225	91.25
496.442	83.25
496.66	98.25
496.877	97.25
497.094	108.25
497.312	81.25
497.529	83.25
497.746	90.25
497.963	96.25
498.181	88.25
498.398	80.25
498.615	106.25
498.832	99.25
499.049	83.25
499.267	84.25
499.484	93.25
499.701	87.25
499.918	91.25
500.135	87.25
500.352	83.25
500.569	95.25
500.786	92.25
501.003	90.25
501.22	90.25
501.437	98.25
501.654	97.25
501.871	118.25
502.088	97.25
502.305	86.25
502.522	85.25
502.739	93.25
502.956	81.25
503.172	101.25
503.389	89.25
503.606	108.25
503.823	97.25
504.04	98.25
504.256	88.25
504.473	85.25
504.69	107.25
504.907	94.25
505.123	79.25
505.34	98.25
505.557	98.25
505.773	93.25
505.99	88.25
506.207	80.25
506.423	88.25
506.64	80.25
506.856	85.25
507.073	95.25
507.289	101.25
507.506	97.25
507.722	105.25
507.939	117.25
508.155	93.25
508.372	105.25
508.588	96.25
508.805	100.25
509.021	99.25
509.238	97.25
509.454	102.25
509.67	97.25
509.887	134.25
510.103	130.25
510.319	213.25
510.536	860.25
510.752	2693.25
510.968	739.25
511.184	163.25
511.401	112.25
511.617	85.25
511.833	79.25
512.049	89.25
512.265	104.25
512.481	99.25
512.698	88.25
512.914	84.25
513.13	103.25
513.346	93.25
513.562	101.25
513.778	98.25
513.994	110.25
514.21	106.25
514.426	112.25
514.642	125.25
514.858	132.25
515.074	190.25
515.29	493.25
