Data from Uncirc_2004_H10_HRD10591_00096.txt Node
Date: Wed Jan 03 10:32:32 EST 2024
User: Yrep
Spectrometer: HR+D1059
Trigger mode: 1
Integration Time (sec): 1.000000E-1
Scans to average: 1
Electric dark correction enabled: true
Nonlinearity correction enabled: false
Boxcar width: 0
XAxis mode: Wavelengths
Number of Pixels in Spectrum: 2048
>>>>>Begin Spectral Data<<<<<
223.165	-16.19
223.4	-16.19
223.635	-16.19
223.869	-23.19
224.104	-8.19
224.338	-30.19
224.573	-3.19
224.808	-9.19
225.042	-5.19
225.277	-9.19
225.511	-9.19
225.746	10.81
225.98	2.81
226.215	0.81
226.449	29.81
226.683	6.81
226.918	26.81
227.152	35.81
227.387	37.81
227.621	43.81
227.856	35.81
228.09	53.81
228.324	32.81
228.559	47.81
228.793	50.81
229.027	57.81
229.262	71.81
229.496	74.81
229.73	86.81
229.964	78.81
230.199	75.81
230.433	75.81
230.667	77.81
230.901	80.81
231.136	79.81
231.37	71.81
231.604	77.81
231.838	75.81
232.072	74.81
232.306	86.81
232.541	78.81
232.775	77.81
233.009	70.81
233.243	75.81
233.477	73.81
233.711	71.81
233.945	72.81
234.179	68.81
234.413	78.81
234.647	78.81
234.881	108.81
235.115	79.81
235.349	72.81
235.583	77.81
235.817	75.81
236.051	84.81
236.285	84.81
236.519	77.81
236.753	60.81
236.987	73.81
237.221	67.81
237.455	84.81
237.689	71.81
237.922	84.81
238.156	77.81
238.39	64.81
238.624	65.81
238.858	77.81
239.091	82.81
239.325	67.81
239.559	76.81
239.793	87.81
240.027	74.81
240.26	84.81
240.494	78.81
240.728	83.81
240.961	75.81
241.195	76.81
241.429	69.81
241.662	74.81
241.896	71.81
242.13	67.81
242.363	82.81
242.597	86.81
242.83	95.81
243.064	71.81
243.298	70.81
243.531	64.81
243.765	62.81
243.998	83.81
244.232	81.81
244.465	74.81
244.699	84.81
244.932	83.81
245.166	81.81
245.399	74.81
245.633	72.81
245.866	69.81
246.099	75.81
246.333	76.81
246.566	84.81
246.8	76.81
247.033	74.81
247.266	66.81
247.5	77.81
247.733	91.81
247.966	92.81
248.2	77.81
248.433	74.81
248.666	78.81
248.899	81.81
249.133	77.81
249.366	101.81
249.599	94.81
249.832	76.81
250.066	70.81
250.299	67.81
250.532	62.81
250.765	93.81
250.998	81.81
251.231	86.81
251.465	63.81
251.698	90.81
251.931	78.81
252.164	68.81
252.397	76.81
252.63	77.81
252.863	72.81
253.096	78.81
253.329	76.81
253.562	74.81
253.795	90.81
254.028	80.81
254.261	72.81
254.494	76.81
254.727	78.81
254.96	86.81
255.193	78.81
255.426	70.81
255.659	80.81
255.892	78.81
256.124	82.81
256.357	95.81
256.59	73.81
256.823	86.81
257.056	77.81
257.289	85.81
257.521	75.81
257.754	76.81
257.987	71.81
258.22	76.81
258.452	81.81
258.685	72.81
258.918	84.81
259.151	64.81
259.383	70.81
259.616	71.81
259.849	82.81
260.081	92.81
260.314	90.81
260.547	91.81
260.779	83.81
261.012	90.81
261.244	93.81
261.477	65.81
261.71	86.81
261.942	106.81
262.175	113.81
262.407	88.81
262.64	69.81
262.872	90.81
263.105	72.81
263.337	86.81
263.57	91.81
263.802	69.81
264.035	82.81
264.267	81.81
264.499	78.81
264.732	97.81
264.964	86.81
265.197	93.81
265.429	84.81
265.661	77.81
265.894	84.81
266.126	85.81
266.358	88.81
266.591	75.81
266.823	80.81
267.055	78.81
267.287	87.81
267.52	91.81
267.752	62.81
267.984	70.81
268.216	87.81
268.448	83.81
268.681	71.81
268.913	83.81
269.145	99.81
269.377	79.81
269.609	71.81
269.841	71.81
270.073	76.81
270.306	83.81
270.538	84.81
270.77	94.81
271.002	82.81
271.234	77.81
271.466	70.81
271.698	87.81
271.93	89.81
272.162	71.81
272.394	84.81
272.626	82.81
272.858	99.81
273.09	78.81
273.322	78.81
273.553	81.81
273.785	78.81
274.017	89.81
274.249	88.81
274.481	83.81
274.713	94.81
274.945	94.81
275.176	87.81
275.408	94.81
275.64	70.81
275.872	77.81
276.104	82.81
276.335	103.81
276.567	102.81
276.799	85.81
277.031	85.81
277.262	87.81
277.494	96.81
277.726	92.81
277.957	79.81
278.189	80.81
278.421	90.81
278.652	80.81
278.884	87.81
279.115	82.81
279.347	79.81
279.579	85.81
279.81	79.81
280.042	88.81
280.273	72.81
280.505	85.81
280.736	81.81
280.968	88.81
281.199	79.81
281.431	74.81
281.662	87.81
281.894	80.81
282.125	91.81
282.356	105.81
282.588	129.81
282.819	114.81
283.051	96.81
283.282	80.81
283.513	80.81
283.745	83.81
283.976	74.81
284.207	70.81
284.439	90.81
284.67	91.81
284.901	83.81
285.132	87.81
285.364	88.81
285.595	83.81
285.826	84.81
286.057	82.81
286.288	78.81
286.52	77.81
286.751	88.81
286.982	81.81
287.213	94.81
287.444	96.81
287.675	84.81
287.906	106.81
288.138	88.81
288.369	90.81
288.6	90.81
288.831	89.81
289.062	81.81
289.293	96.81
289.524	90.81
289.755	78.81
289.986	91.81
290.217	99.81
290.448	88.81
290.679	78.81
290.91	104.81
291.141	101.81
291.371	75.81
291.602	84.81
291.833	82.81
292.064	84.81
292.295	89.81
292.526	88.81
292.757	94.81
292.987	83.81
293.218	83.81
293.449	96.81
293.68	83.81
293.91	88.81
294.141	86.81
294.372	81.81
294.603	82.81
294.833	84.81
295.064	84.81
295.295	88.81
295.525	86.81
295.756	97.81
295.987	99.81
296.217	134.81
296.448	115.81
296.679	94.81
296.909	94.81
297.14	92.81
297.37	98.81
297.601	88.81
297.831	91.81
298.062	88.81
298.292	92.81
298.523	86.81
298.753	86.81
298.984	102.81
299.214	84.81
299.445	96.81
299.675	83.81
299.905	74.81
300.136	97.81
300.366	88.81
300.597	98.81
300.827	103.81
301.057	98.81
301.288	101.81
301.518	86.81
301.748	87.81
301.979	89.81
302.209	91.81
302.439	83.81
302.669	81.81
302.9	70.81
303.13	96.81
303.36	100.81
303.59	107.81
303.82	108.81
304.051	86.81
304.281	82.81
304.511	87.81
304.741	84.81
304.971	92.81
305.201	93.81
305.431	70.81
305.661	98.81
305.891	76.81
306.121	103.81
306.352	101.81
306.582	93.81
306.812	98.81
307.042	89.81
307.272	87.81
307.502	92.81
307.731	88.81
307.961	101.81
308.191	70.81
308.421	95.81
308.651	92.81
308.881	93.81
309.111	85.81
309.341	88.81
309.571	106.81
309.8	97.81
310.03	92.81
310.26	94.81
310.49	102.81
310.72	98.81
310.949	107.81
311.179	101.81
311.409	100.81
311.639	105.81
311.868	82.81
312.098	99.81
312.328	93.81
312.557	100.81
312.787	110.81
313.017	104.81
313.246	97.81
313.476	82.81
313.706	93.81
313.935	91.81
314.165	103.81
314.394	105.81
314.624	102.81
314.853	97.81
315.083	81.81
315.312	88.81
315.542	91.81
315.771	77.81
316.001	81.81
316.23	85.81
316.46	89.81
316.689	84.81
316.919	95.81
317.148	84.81
317.377	100.81
317.607	80.81
317.836	83.81
318.065	90.81
318.295	92.81
318.524	79.81
318.753	89.81
318.983	95.81
319.212	106.81
319.441	103.81
319.67	103.81
319.9	82.81
320.129	89.81
320.358	92.81
320.587	86.81
320.816	95.81
321.046	102.81
321.275	90.81
321.504	91.81
321.733	99.81
321.962	102.81
322.191	95.81
322.42	112.81
322.649	120.81
322.878	110.81
323.108	114.81
323.337	118.81
323.566	105.81
323.795	135.81
324.024	208.81
324.253	392.81
324.482	829.81
324.71	1701.81
324.939	2228.81
325.168	815.81
325.397	240.81
325.626	133.81
325.855	128.81
326.084	117.81
326.313	148.81
326.542	150.81
326.77	227.81
326.999	471.81
327.228	951.81
327.457	1734.81
327.686	1340.81
327.914	360.81
328.143	178.81
328.372	150.81
328.6	114.81
328.829	133.81
329.058	127.81
329.287	117.81
329.515	107.81
329.744	111.81
329.972	88.81
330.201	112.81
330.43	115.81
330.658	97.81
330.887	133.81
331.115	113.81
331.344	91.81
331.572	95.81
331.801	106.81
332.03	87.81
332.258	113.81
332.486	87.81
332.715	100.81
332.943	98.81
333.172	89.81
333.4	87.81
333.629	99.81
333.857	108.81
334.085	110.81
334.314	86.81
334.542	88.81
334.771	88.81
334.999	95.81
335.227	96.81
335.455	99.81
335.684	107.81
335.912	89.81
336.14	95.81
336.369	87.81
336.597	105.81
336.825	96.81
337.053	90.81
337.281	77.81
337.51	79.81
337.738	86.81
337.966	96.81
338.194	103.81
338.422	96.81
338.65	84.81
338.878	89.81
339.106	94.81
339.334	91.81
339.562	91.81
339.79	78.81
340.018	85.81
340.246	95.81
340.474	87.81
340.702	110.81
340.93	83.81
341.158	76.81
341.386	91.81
341.614	85.81
341.842	79.81
342.07	99.81
342.298	86.81
342.526	97.81
342.754	91.81
342.981	86.81
343.209	90.81
343.437	96.81
343.665	100.81
343.893	96.81
344.12	107.81
344.348	93.81
344.576	89.81
344.804	108.81
345.031	80.81
345.259	74.81
345.487	94.81
345.714	86.81
345.942	84.81
346.17	85.81
346.397	101.81
346.625	85.81
346.853	106.81
347.08	100.81
347.308	93.81
347.535	90.81
347.763	91.81
347.99	95.81
348.218	75.81
348.445	107.81
348.673	89.81
348.9	91.81
349.128	100.81
349.355	90.81
349.583	95.81
349.81	93.81
350.037	95.81
350.265	79.81
350.492	91.81
350.72	79.81
350.947	104.81
351.174	99.81
351.402	104.81
351.629	104.81
351.856	101.81
352.083	103.81
352.311	95.81
352.538	106.81
352.765	124.81
352.992	119.81
353.22	112.81
353.447	96.81
353.674	111.81
353.901	105.81
354.128	100.81
354.355	95.81
354.583	97.81
354.81	84.81
355.037	104.81
355.264	88.81
355.491	92.81
355.718	99.81
355.945	86.81
356.172	103.81
356.399	91.81
356.626	86.81
356.853	74.81
357.08	93.81
357.307	98.81
357.534	96.81
357.761	81.81
357.988	106.81
358.215	87.81
358.441	91.81
358.668	79.81
358.895	91.81
359.122	84.81
359.349	89.81
359.576	92.81
359.802	101.81
360.029	112.81
360.256	119.81
360.483	101.81
360.709	96.81
360.936	100.81
361.163	87.81
361.39	83.81
361.616	101.81
361.843	85.81
362.07	87.81
362.296	95.81
362.523	81.81
362.749	82.81
362.976	88.81
363.203	89.81
363.429	85.81
363.656	80.81
363.882	95.81
364.109	97.81
364.335	95.81
364.562	88.81
364.788	87.81
365.015	86.81
365.241	89.81
365.468	106.81
365.694	95.81
365.92	106.81
366.147	93.81
366.373	86.81
366.599	79.81
366.826	92.81
367.052	71.81
367.278	88.81
367.505	92.81
367.731	96.81
367.957	91.81
368.184	96.81
368.41	103.81
368.636	98.81
368.862	127.81
369.089	96.81
369.315	93.81
369.541	94.81
369.767	103.81
369.993	92.81
370.219	86.81
370.445	90.81
370.672	71.81
370.898	78.81
371.124	88.81
371.35	87.81
371.576	84.81
371.802	82.81
372.028	82.81
372.254	83.81
372.48	86.81
372.706	79.81
372.932	86.81
373.158	87.81
373.384	91.81
373.61	93.81
373.835	95.81
374.061	89.81
374.287	95.81
374.513	95.81
374.739	93.81
374.965	88.81
375.191	87.81
375.416	83.81
375.642	71.81
375.868	93.81
376.094	85.81
376.319	86.81
376.545	88.81
376.771	90.81
376.997	76.81
377.222	76.81
377.448	89.81
377.674	87.81
377.899	87.81
378.125	86.81
378.35	94.81
378.576	89.81
378.802	93.81
379.027	87.81
379.253	83.81
379.478	87.81
379.704	99.81
379.929	82.81
380.155	82.81
380.38	88.81
380.606	85.81
380.831	90.81
381.057	97.81
381.282	92.81
381.507	82.81
381.733	78.81
381.958	95.81
382.184	101.81
382.409	100.81
382.634	94.81
382.86	94.81
383.085	101.81
383.31	96.81
383.535	96.81
383.761	101.81
383.986	82.81
384.211	83.81
384.436	88.81
384.662	91.81
384.887	94.81
385.112	101.81
385.337	111.81
385.562	88.81
385.787	103.81
386.013	101.81
386.238	116.81
386.463	106.81
386.688	116.81
386.913	100.81
387.138	78.81
387.363	98.81
387.588	87.81
387.813	95.81
388.038	97.81
388.263	101.81
388.488	96.81
388.713	96.81
388.938	80.81
389.163	106.81
389.387	98.81
389.612	92.81
389.837	82.81
390.062	101.81
390.287	94.81
390.512	86.81
390.736	93.81
390.961	104.81
391.186	98.81
391.411	101.81
391.636	88.81
391.86	92.81
392.085	92.81
392.31	89.81
392.534	95.81
392.759	94.81
392.984	89.81
393.208	92.81
393.433	83.81
393.658	100.81
393.882	86.81
394.107	89.81
394.331	82.81
394.556	64.81
394.78	87.81
395.005	92.81
395.229	96.81
395.454	101.81
395.678	71.81
395.903	82.81
396.127	83.81
396.352	85.81
396.576	81.81
396.801	73.81
397.025	91.81
397.249	86.81
397.474	103.81
397.698	73.81
397.922	88.81
398.147	87.81
398.371	70.81
398.595	91.81
398.82	82.81
399.044	87.81
399.268	92.81
399.492	86.81
399.717	86.81
399.941	97.81
400.165	80.81
400.389	87.81
400.613	87.81
400.837	71.81
401.062	90.81
401.286	84.81
401.51	95.81
401.734	72.81
401.958	108.81
402.182	116.81
402.406	154.81
402.63	111.81
402.854	99.81
403.078	99.81
403.302	83.81
403.526	83.81
403.75	90.81
403.974	76.81
404.198	82.81
404.422	72.81
404.645	88.81
404.869	81.81
405.093	95.81
405.317	94.81
405.541	100.81
405.765	97.81
405.988	118.81
406.212	157.81
406.436	215.81
406.66	142.81
406.883	99.81
407.107	97.81
407.331	91.81
407.555	82.81
407.778	85.81
408.002	92.81
408.226	75.81
408.449	83.81
408.673	81.81
408.896	73.81
409.12	105.81
409.344	86.81
409.567	71.81
409.791	88.81
410.014	94.81
410.238	101.81
410.461	93.81
410.685	105.81
410.908	93.81
411.132	91.81
411.355	88.81
411.578	89.81
411.802	90.81
412.025	89.81
412.249	94.81
412.472	93.81
412.695	92.81
412.919	93.81
413.142	91.81
413.365	92.81
413.589	74.81
413.812	87.81
414.035	86.81
414.258	80.81
414.482	91.81
414.705	85.81
414.928	79.81
415.151	88.81
415.374	93.81
415.597	95.81
415.821	92.81
416.044	80.81
416.267	74.81
416.49	92.81
416.713	102.81
416.936	71.81
417.159	83.81
417.382	88.81
417.605	71.81
417.828	95.81
418.051	92.81
418.274	94.81
418.497	85.81
418.72	91.81
418.943	86.81
419.166	83.81
419.389	91.81
419.611	75.81
419.834	84.81
420.057	73.81
420.28	80.81
420.503	72.81
420.726	72.81
420.948	80.81
421.171	82.81
421.394	82.81
421.617	78.81
421.839	91.81
422.062	82.81
422.285	99.81
422.507	91.81
422.73	103.81
422.953	96.81
423.175	88.81
423.398	81.81
423.621	99.81
423.843	95.81
424.066	79.81
424.288	95.81
424.511	85.81
424.733	101.81
424.956	91.81
425.178	102.81
425.401	81.81
425.623	93.81
425.846	88.81
426.068	97.81
426.291	86.81
426.513	73.81
426.735	86.81
426.958	80.81
427.18	88.81
427.402	127.81
427.625	134.81
427.847	115.81
428.069	97.81
428.292	86.81
428.514	87.81
428.736	84.81
428.958	88.81
429.181	81.81
429.403	72.81
429.625	82.81
429.847	94.81
430.069	84.81
430.292	90.81
430.514	70.81
430.736	88.81
430.958	74.81
431.18	88.81
431.402	91.81
431.624	84.81
431.846	100.81
432.068	94.81
432.29	90.81
432.512	84.81
432.734	88.81
432.956	91.81
433.178	90.81
433.4	88.81
433.622	93.81
433.844	90.81
434.066	82.81
434.287	99.81
434.509	88.81
434.731	88.81
434.953	80.81
435.175	98.81
435.397	82.81
435.618	100.81
435.84	97.81
436.062	123.81
436.284	111.81
436.505	95.81
436.727	89.81
436.949	95.81
437.17	95.81
437.392	85.81
437.614	80.81
437.835	102.81
438.057	127.81
438.278	107.81
438.5	109.81
438.721	106.81
438.943	86.81
439.165	89.81
439.386	83.81
439.608	76.81
439.829	109.81
440.05	119.81
440.272	127.81
440.493	100.81
440.715	92.81
440.936	86.81
441.158	66.81
441.379	92.81
441.6	90.81
441.822	88.81
442.043	88.81
442.264	99.81
442.486	80.81
442.707	99.81
442.928	107.81
443.149	135.81
443.371	134.81
443.592	113.81
443.813	106.81
444.034	103.81
444.255	97.81
444.476	88.81
444.698	76.81
444.919	90.81
445.14	133.81
445.361	109.81
445.582	112.81
445.803	118.81
446.024	119.81
446.245	126.81
446.466	96.81
446.687	92.81
446.908	81.81
447.129	67.81
447.35	85.81
447.571	79.81
447.792	80.81
448.013	116.81
448.234	101.81
448.455	92.81
448.675	108.81
448.896	90.81
449.117	96.81
449.338	103.81
449.559	127.81
449.779	122.81
450	87.81
450.221	72.81
450.442	88.81
450.662	93.81
450.883	93.81
451.104	99.81
451.324	98.81
451.545	85.81
451.766	87.81
451.986	86.81
452.207	71.81
452.428	96.81
452.648	105.81
452.869	106.81
453.089	111.81
453.31	115.81
453.53	82.81
453.751	90.81
453.971	102.81
454.192	119.81
454.412	87.81
454.633	75.81
454.853	87.81
455.073	91.81
455.294	85.81
455.514	90.81
455.734	87.81
455.955	77.81
456.175	85.81
456.395	82.81
456.616	81.81
456.836	94.81
457.056	79.81
457.276	88.81
457.497	95.81
457.717	84.81
457.937	97.81
458.157	83.81
458.377	84.81
458.598	111.81
458.818	138.81
459.038	158.81
459.258	102.81
459.478	92.81
459.698	74.81
459.918	87.81
460.138	94.81
460.358	80.81
460.578	90.81
460.798	75.81
461.018	85.81
461.238	83.81
461.458	102.81
461.678	76.81
461.898	81.81
462.118	75.81
462.338	86.81
462.558	82.81
462.777	97.81
462.997	88.81
463.217	67.81
463.437	86.81
463.657	88.81
463.876	99.81
464.096	92.81
464.316	86.81
464.536	95.81
464.755	93.81
464.975	107.81
465.195	149.81
465.414	148.81
465.634	79.81
465.854	75.81
466.073	82.81
466.293	82.81
466.512	79.81
466.732	86.81
466.951	84.81
467.171	78.81
467.391	88.81
467.61	103.81
467.829	93.81
468.049	87.81
468.268	87.81
468.488	88.81
468.707	101.81
468.927	74.81
469.146	81.81
469.365	86.81
469.585	96.81
469.804	93.81
470.023	90.81
470.243	90.81
470.462	89.81
470.681	94.81
470.901	70.81
471.12	82.81
471.339	92.81
471.558	86.81
471.777	92.81
471.997	86.81
472.216	92.81
472.435	119.81
472.654	86.81
472.873	75.81
473.092	79.81
473.311	73.81
473.53	72.81
473.749	85.81
473.968	92.81
474.187	103.81
474.406	78.81
474.625	97.81
474.844	78.81
475.063	83.81
475.282	91.81
475.501	98.81
475.72	83.81
475.939	83.81
476.158	95.81
476.377	95.81
476.596	82.81
476.814	84.81
477.033	76.81
477.252	94.81
477.471	100.81
477.69	92.81
477.908	84.81
478.127	85.81
478.346	87.81
478.564	89.81
478.783	96.81
479.002	86.81
479.22	87.81
479.439	86.81
479.658	91.81
479.876	97.81
480.095	92.81
480.313	97.81
480.532	90.81
480.751	98.81
480.969	74.81
481.188	111.81
481.406	87.81
481.624	80.81
481.843	94.81
482.061	93.81
482.28	88.81
482.498	91.81
482.717	96.81
482.935	96.81
483.153	87.81
483.372	81.81
483.59	95.81
483.808	92.81
484.027	87.81
484.245	91.81
484.463	94.81
484.681	97.81
484.9	81.81
485.118	101.81
485.336	90.81
485.554	99.81
485.772	106.81
485.99	93.81
486.209	101.81
486.427	109.81
486.645	107.81
486.863	99.81
487.081	75.81
487.299	87.81
487.517	89.81
487.735	81.81
487.953	87.81
488.171	76.81
488.389	101.81
488.607	103.81
488.825	86.81
489.043	98.81
489.261	84.81
489.479	99.81
489.696	88.81
489.914	82.81
490.132	97.81
490.35	87.81
490.568	72.81
490.786	83.81
491.003	90.81
491.221	90.81
491.439	83.81
491.657	94.81
491.874	74.81
492.092	85.81
492.31	91.81
492.527	91.81
492.745	91.81
492.963	101.81
493.18	98.81
493.398	93.81
493.615	95.81
493.833	96.81
494.05	87.81
494.268	82.81
494.485	85.81
494.703	85.81
494.92	87.81
495.138	90.81
495.355	92.81
495.573	96.81
495.79	92.81
496.008	77.81
496.225	87.81
496.442	87.81
496.66	96.81
496.877	82.81
497.094	96.81
497.312	86.81
497.529	84.81
497.746	95.81
497.963	77.81
498.181	83.81
498.398	98.81
498.615	107.81
498.832	107.81
499.049	88.81
499.267	88.81
499.484	88.81
499.701	83.81
499.918	91.81
500.135	77.81
500.352	100.81
500.569	82.81
500.786	101.81
501.003	78.81
501.22	83.81
501.437	96.81
501.654	84.81
501.871	95.81
502.088	96.81
502.305	98.81
502.522	92.81
502.739	70.81
502.956	84.81
503.172	96.81
503.389	96.81
503.606	103.81
503.823	88.81
504.04	86.81
504.256	77.81
504.473	94.81
504.69	101.81
504.907	102.81
505.123	86.81
505.34	88.81
505.557	92.81
505.773	112.81
505.99	95.81
506.207	99.81
506.423	89.81
506.64	89.81
506.856	88.81
507.073	84.81
507.289	105.81
507.506	102.81
507.722	107.81
507.939	115.81
508.155	111.81
508.372	79.81
508.588	87.81
508.805	94.81
509.021	90.81
509.238	90.81
509.454	77.81
509.67	107.81
509.887	122.81
510.103	151.81
510.319	214.81
510.536	790.81
510.752	2540.81
510.968	666.81
511.184	168.81
511.401	113.81
511.617	93.81
511.833	93.81
512.049	88.81
512.265	83.81
512.481	91.81
512.698	92.81
512.914	87.81
513.13	88.81
513.346	86.81
513.562	88.81
513.778	92.81
513.994	115.81
514.21	97.81
514.426	120.81
514.642	124.81
514.858	114.81
515.074	163.81
515.29	458.81
515.506	1517.81
515.721	557.81
515.937	170.81
516.153	110.81
516.369	97.81
516.585	87.81
