Data from Uncirc_2004_H10_HRD10591_00082.txt Node
Date: Wed Jan 03 10:32:29 EST 2024
User: Yrep
Spectrometer: HR+D1059
Trigger mode: 1
Integration Time (sec): 1.000000E-1
Scans to average: 1
Electric dark correction enabled: true
Nonlinearity correction enabled: false
Boxcar width: 0
XAxis mode: Wavelengths
Number of Pixels in Spectrum: 2048
>>>>>Begin Spectral Data<<<<<
223.165	3.12
223.4	3.12
223.635	3.12
223.869	-16.88
224.104	-10.88
224.338	-24.88
224.573	-13.88
224.808	-6.88
225.042	-8.88
225.277	2.12
225.511	-8.88
225.746	-3.88
225.98	7.12
226.215	16.12
226.449	4.12
226.683	14.12
226.918	15.12
227.152	33.12
227.387	27.12
227.621	38.12
227.856	44.12
228.09	51.12
228.324	55.12
228.559	63.12
228.793	69.12
229.027	57.12
229.262	67.12
229.496	79.12
229.73	80.12
229.964	77.12
230.199	81.12
230.433	65.12
230.667	68.12
230.901	81.12
231.136	80.12
231.37	77.12
231.604	97.12
231.838	65.12
232.072	86.12
232.306	77.12
232.541	84.12
232.775	78.12
233.009	88.12
233.243	83.12
233.477	82.12
233.711	68.12
233.945	83.12
234.179	84.12
234.413	72.12
234.647	88.12
234.881	85.12
235.115	77.12
235.349	86.12
235.583	75.12
235.817	80.12
236.051	82.12
236.285	78.12
236.519	78.12
236.753	68.12
236.987	69.12
237.221	82.12
237.455	87.12
237.689	72.12
237.922	74.12
238.156	82.12
238.39	82.12
238.624	79.12
238.858	66.12
239.091	73.12
239.325	79.12
239.559	90.12
239.793	95.12
240.027	71.12
240.26	68.12
240.494	82.12
240.728	81.12
240.961	85.12
241.195	63.12
241.429	70.12
241.662	87.12
241.896	80.12
242.13	71.12
242.363	73.12
242.597	70.12
242.83	79.12
243.064	76.12
243.298	80.12
243.531	74.12
243.765	87.12
243.998	86.12
244.232	85.12
244.465	101.12
244.699	88.12
244.932	73.12
245.166	69.12
245.399	67.12
245.633	94.12
245.866	89.12
246.099	74.12
246.333	90.12
246.566	61.12
246.8	79.12
247.033	66.12
247.266	79.12
247.5	63.12
247.733	83.12
247.966	64.12
248.2	83.12
248.433	73.12
248.666	89.12
248.899	90.12
249.133	102.12
249.366	89.12
249.599	90.12
249.832	79.12
250.066	72.12
250.299	67.12
250.532	73.12
250.765	78.12
250.998	85.12
251.231	78.12
251.465	75.12
251.698	77.12
251.931	72.12
252.164	82.12
252.397	87.12
252.63	69.12
252.863	87.12
253.096	76.12
253.329	80.12
253.562	90.12
253.795	71.12
254.028	78.12
254.261	86.12
254.494	75.12
254.727	91.12
254.96	71.12
255.193	78.12
255.426	76.12
255.659	82.12
255.892	88.12
256.124	76.12
256.357	84.12
256.59	84.12
256.823	86.12
257.056	95.12
257.289	75.12
257.521	91.12
257.754	97.12
257.987	78.12
258.22	83.12
258.452	88.12
258.685	84.12
258.918	73.12
259.151	80.12
259.383	82.12
259.616	71.12
259.849	90.12
260.081	83.12
260.314	87.12
260.547	84.12
260.779	91.12
261.012	83.12
261.244	72.12
261.477	80.12
261.71	88.12
261.942	112.12
262.175	99.12
262.407	93.12
262.64	94.12
262.872	87.12
263.105	82.12
263.337	94.12
263.57	96.12
263.802	79.12
264.035	99.12
264.267	107.12
264.499	92.12
264.732	95.12
264.964	82.12
265.197	82.12
265.429	100.12
265.661	73.12
265.894	88.12
266.126	97.12
266.358	88.12
266.591	73.12
266.823	86.12
267.055	88.12
267.287	79.12
267.52	78.12
267.752	81.12
267.984	100.12
268.216	65.12
268.448	98.12
268.681	87.12
268.913	77.12
269.145	82.12
269.377	79.12
269.609	90.12
269.841	77.12
270.073	74.12
270.306	86.12
270.538	91.12
270.77	85.12
271.002	85.12
271.234	97.12
271.466	83.12
271.698	81.12
271.93	75.12
272.162	71.12
272.394	90.12
272.626	88.12
272.858	92.12
273.09	75.12
273.322	93.12
273.553	74.12
273.785	89.12
274.017	86.12
274.249	98.12
274.481	87.12
274.713	91.12
274.945	98.12
275.176	84.12
275.408	88.12
275.64	85.12
275.872	93.12
276.104	77.12
276.335	95.12
276.567	99.12
276.799	102.12
277.031	101.12
277.262	89.12
277.494	98.12
277.726	73.12
277.957	99.12
278.189	94.12
278.421	73.12
278.652	91.12
278.884	80.12
279.115	87.12
279.347	88.12
279.579	93.12
279.81	99.12
280.042	82.12
280.273	79.12
280.505	90.12
280.736	81.12
280.968	91.12
281.199	87.12
281.431	94.12
281.662	93.12
281.894	81.12
282.125	99.12
282.356	107.12
282.588	133.12
282.819	102.12
283.051	104.12
283.282	93.12
283.513	86.12
283.745	86.12
283.976	101.12
284.207	75.12
284.439	86.12
284.67	82.12
284.901	74.12
285.132	88.12
285.364	78.12
285.595	82.12
285.826	77.12
286.057	89.12
286.288	76.12
286.52	85.12
286.751	90.12
286.982	99.12
287.213	79.12
287.444	95.12
287.675	81.12
287.906	82.12
288.138	96.12
288.369	100.12
288.6	102.12
288.831	84.12
289.062	86.12
289.293	95.12
289.524	88.12
289.755	79.12
289.986	81.12
290.217	74.12
290.448	87.12
290.679	97.12
290.91	85.12
291.141	83.12
291.371	90.12
291.602	89.12
291.833	81.12
292.064	90.12
292.295	80.12
292.526	75.12
292.757	78.12
292.987	95.12
293.218	69.12
293.449	72.12
293.68	81.12
293.91	79.12
294.141	73.12
294.372	72.12
294.603	104.12
294.833	102.12
295.064	89.12
295.295	86.12
295.525	84.12
295.756	91.12
295.987	102.12
296.217	142.12
296.448	121.12
296.679	112.12
296.909	83.12
297.14	102.12
297.37	95.12
297.601	77.12
297.831	80.12
298.062	95.12
298.292	93.12
298.523	74.12
298.753	96.12
298.984	86.12
299.214	109.12
299.445	98.12
299.675	86.12
299.905	97.12
300.136	110.12
300.366	92.12
300.597	82.12
300.827	87.12
301.057	92.12
301.288	106.12
301.518	104.12
301.748	91.12
301.979	102.12
302.209	91.12
302.439	113.12
302.669	109.12
302.9	101.12
303.13	88.12
303.36	98.12
303.59	102.12
303.82	114.12
304.051	93.12
304.281	97.12
304.511	96.12
304.741	78.12
304.971	82.12
305.201	103.12
305.431	89.12
305.661	97.12
305.891	94.12
306.121	84.12
306.352	91.12
306.582	111.12
306.812	101.12
307.042	97.12
307.272	91.12
307.502	97.12
307.731	77.12
307.961	85.12
308.191	94.12
308.421	93.12
308.651	88.12
308.881	89.12
309.111	90.12
309.341	86.12
309.571	99.12
309.8	98.12
310.03	106.12
310.26	90.12
310.49	92.12
310.72	87.12
310.949	104.12
311.179	90.12
311.409	95.12
311.639	88.12
311.868	100.12
312.098	86.12
312.328	96.12
312.557	102.12
312.787	120.12
313.017	94.12
313.246	91.12
313.476	96.12
313.706	88.12
313.935	88.12
314.165	96.12
314.394	97.12
314.624	99.12
314.853	117.12
315.083	99.12
315.312	98.12
315.542	101.12
315.771	91.12
316.001	89.12
316.23	83.12
316.46	97.12
316.689	98.12
316.919	110.12
317.148	95.12
317.377	91.12
317.607	85.12
317.836	81.12
318.065	96.12
318.295	82.12
318.524	102.12
318.753	96.12
318.983	80.12
319.212	107.12
319.441	109.12
319.67	117.12
319.9	101.12
320.129	95.12
320.358	86.12
320.587	111.12
320.816	102.12
321.046	103.12
321.275	103.12
321.504	106.12
321.733	102.12
321.962	106.12
322.191	96.12
322.42	105.12
322.649	109.12
322.878	106.12
323.108	117.12
323.337	127.12
323.566	118.12
323.795	154.12
324.024	214.12
324.253	400.12
324.482	799.12
324.71	1595.12
324.939	2078.12
325.168	776.12
325.397	244.12
325.626	142.12
325.855	127.12
326.084	122.12
326.313	119.12
326.542	151.12
326.77	236.12
326.999	426.12
327.228	881.12
327.457	1626.12
327.686	1279.12
327.914	347.12
328.143	178.12
328.372	150.12
328.6	117.12
328.829	132.12
329.058	120.12
329.287	122.12
329.515	96.12
329.744	108.12
329.972	95.12
330.201	108.12
330.43	110.12
330.658	109.12
330.887	149.12
331.115	119.12
331.344	110.12
331.572	106.12
331.801	90.12
332.03	98.12
332.258	96.12
332.486	90.12
332.715	86.12
332.943	103.12
333.172	98.12
333.4	103.12
333.629	113.12
333.857	120.12
334.085	105.12
334.314	90.12
334.542	111.12
334.771	105.12
334.999	108.12
335.227	104.12
335.455	88.12
335.684	91.12
335.912	92.12
336.14	97.12
336.369	96.12
336.597	93.12
336.825	101.12
337.053	94.12
337.281	91.12
337.51	100.12
337.738	92.12
337.966	94.12
338.194	92.12
338.422	106.12
338.65	118.12
338.878	98.12
339.106	100.12
339.334	90.12
339.562	82.12
339.79	90.12
340.018	94.12
340.246	92.12
340.474	94.12
340.702	99.12
340.93	89.12
341.158	98.12
341.386	99.12
341.614	91.12
341.842	112.12
342.07	98.12
342.298	86.12
342.526	107.12
342.754	102.12
342.981	85.12
343.209	97.12
343.437	103.12
343.665	82.12
343.893	83.12
344.12	98.12
344.348	99.12
344.576	101.12
344.804	87.12
345.031	88.12
345.259	102.12
345.487	85.12
345.714	91.12
345.942	89.12
346.17	92.12
346.397	99.12
346.625	81.12
346.853	90.12
347.08	92.12
347.308	98.12
347.535	90.12
347.763	96.12
347.99	101.12
348.218	94.12
348.445	103.12
348.673	91.12
348.9	82.12
349.128	101.12
349.355	89.12
349.583	95.12
349.81	100.12
350.037	115.12
350.265	111.12
350.492	99.12
350.72	105.12
350.947	98.12
351.174	104.12
351.402	107.12
351.629	98.12
351.856	103.12
352.083	118.12
352.311	109.12
352.538	105.12
352.765	98.12
352.992	128.12
353.22	119.12
353.447	101.12
353.674	91.12
353.901	109.12
354.128	96.12
354.355	93.12
354.583	91.12
354.81	90.12
355.037	88.12
355.264	99.12
355.491	104.12
355.718	96.12
355.945	95.12
356.172	117.12
356.399	90.12
356.626	88.12
356.853	100.12
357.08	88.12
357.307	83.12
357.534	88.12
357.761	78.12
357.988	91.12
358.215	102.12
358.441	92.12
358.668	90.12
358.895	93.12
359.122	95.12
359.349	85.12
359.576	103.12
359.802	109.12
360.029	113.12
360.256	114.12
360.483	99.12
360.709	97.12
360.936	87.12
361.163	92.12
361.39	97.12
361.616	100.12
361.843	98.12
362.07	97.12
362.296	83.12
362.523	102.12
362.749	84.12
362.976	87.12
363.203	98.12
363.429	92.12
363.656	105.12
363.882	90.12
364.109	97.12
364.335	94.12
364.562	82.12
364.788	91.12
365.015	91.12
365.241	94.12
365.468	106.12
365.694	95.12
365.92	103.12
366.147	77.12
366.373	91.12
366.599	89.12
366.826	98.12
367.052	103.12
367.278	91.12
367.505	91.12
367.731	94.12
367.957	91.12
368.184	91.12
368.41	96.12
368.636	105.12
368.862	132.12
369.089	100.12
369.315	96.12
369.541	90.12
369.767	106.12
369.993	93.12
370.219	89.12
370.445	95.12
370.672	107.12
370.898	91.12
371.124	80.12
371.35	99.12
371.576	87.12
371.802	84.12
372.028	86.12
372.254	93.12
372.48	80.12
372.706	96.12
372.932	85.12
373.158	77.12
373.384	97.12
373.61	97.12
373.835	101.12
374.061	100.12
374.287	90.12
374.513	93.12
374.739	90.12
374.965	90.12
375.191	87.12
375.416	96.12
375.642	84.12
375.868	81.12
376.094	103.12
376.319	73.12
376.545	81.12
376.771	83.12
376.997	88.12
377.222	105.12
377.448	99.12
377.674	92.12
377.899	89.12
378.125	90.12
378.35	94.12
378.576	80.12
378.802	88.12
379.027	102.12
379.253	87.12
379.478	96.12
379.704	95.12
379.929	109.12
380.155	93.12
380.38	98.12
380.606	88.12
380.831	105.12
381.057	104.12
381.282	100.12
381.507	85.12
381.733	93.12
381.958	97.12
382.184	98.12
382.409	89.12
382.634	98.12
382.86	109.12
383.085	99.12
383.31	94.12
383.535	122.12
383.761	125.12
383.986	85.12
384.211	100.12
384.436	95.12
384.662	86.12
384.887	85.12
385.112	103.12
385.337	99.12
385.562	107.12
385.787	126.12
386.013	108.12
386.238	122.12
386.463	103.12
386.688	113.12
386.913	117.12
387.138	98.12
387.363	117.12
387.588	99.12
387.813	97.12
388.038	99.12
388.263	98.12
388.488	112.12
388.713	109.12
388.938	84.12
389.163	100.12
389.387	98.12
389.612	98.12
389.837	80.12
390.062	80.12
390.287	80.12
390.512	87.12
390.736	98.12
390.961	101.12
391.186	96.12
391.411	96.12
391.636	98.12
391.86	88.12
392.085	108.12
392.31	90.12
392.534	77.12
392.759	103.12
392.984	88.12
393.208	83.12
393.433	86.12
393.658	77.12
393.882	89.12
394.107	97.12
394.331	74.12
394.556	84.12
394.78	85.12
395.005	91.12
395.229	88.12
395.454	94.12
395.678	98.12
395.903	93.12
396.127	90.12
396.352	82.12
396.576	89.12
396.801	88.12
397.025	87.12
397.249	95.12
397.474	95.12
397.698	80.12
397.922	110.12
398.147	75.12
398.371	91.12
398.595	80.12
398.82	85.12
399.044	102.12
399.268	81.12
399.492	95.12
399.717	82.12
399.941	87.12
400.165	96.12
400.389	82.12
400.613	89.12
400.837	80.12
401.062	97.12
401.286	94.12
401.51	80.12
401.734	101.12
401.958	92.12
402.182	128.12
402.406	167.12
402.63	106.12
402.854	90.12
403.078	90.12
403.302	87.12
403.526	84.12
403.75	88.12
403.974	87.12
404.198	80.12
404.422	81.12
404.645	88.12
404.869	93.12
405.093	99.12
405.317	97.12
405.541	104.12
405.765	102.12
405.988	110.12
406.212	161.12
406.436	209.12
406.66	128.12
406.883	97.12
407.107	105.12
407.331	87.12
407.555	99.12
407.778	125.12
408.002	92.12
408.226	90.12
408.449	95.12
408.673	81.12
408.896	101.12
409.12	91.12
409.344	97.12
409.567	93.12
409.791	98.12
410.014	94.12
410.238	96.12
410.461	110.12
410.685	104.12
410.908	93.12
411.132	119.12
411.355	94.12
411.578	86.12
411.802	87.12
412.025	92.12
412.249	87.12
412.472	93.12
412.695	101.12
412.919	90.12
413.142	102.12
413.365	90.12
413.589	91.12
413.812	86.12
414.035	94.12
414.258	86.12
414.482	81.12
414.705	104.12
414.928	96.12
415.151	93.12
415.374	107.12
415.597	94.12
415.821	89.12
416.044	79.12
416.267	88.12
416.49	97.12
416.713	86.12
416.936	87.12
417.159	95.12
417.382	87.12
417.605	85.12
417.828	114.12
418.051	86.12
418.274	91.12
418.497	97.12
418.72	92.12
418.943	68.12
419.166	87.12
419.389	89.12
419.611	83.12
419.834	84.12
420.057	97.12
420.28	75.12
420.503	87.12
420.726	92.12
420.948	88.12
421.171	101.12
421.394	99.12
421.617	77.12
421.839	83.12
422.062	87.12
422.285	104.12
422.507	106.12
422.73	97.12
422.953	101.12
423.175	88.12
423.398	89.12
423.621	89.12
423.843	90.12
424.066	77.12
424.288	88.12
424.511	88.12
424.733	94.12
424.956	100.12
425.178	99.12
425.401	104.12
425.623	95.12
425.846	98.12
426.068	83.12
426.291	85.12
426.513	94.12
426.735	87.12
426.958	96.12
427.18	109.12
427.402	129.12
427.625	157.12
427.847	136.12
428.069	110.12
428.292	102.12
428.514	89.12
428.736	90.12
428.958	74.12
429.181	73.12
429.403	88.12
429.625	93.12
429.847	101.12
430.069	93.12
430.292	102.12
430.514	96.12
430.736	90.12
430.958	84.12
431.18	73.12
431.402	90.12
431.624	92.12
431.846	89.12
432.068	96.12
432.29	88.12
432.512	91.12
432.734	89.12
432.956	94.12
433.178	98.12
433.4	92.12
433.622	100.12
433.844	86.12
434.066	106.12
434.287	81.12
434.509	85.12
434.731	81.12
434.953	78.12
435.175	82.12
435.397	94.12
435.618	89.12
435.84	83.12
436.062	122.12
436.284	103.12
436.505	97.12
436.727	102.12
436.949	96.12
437.17	93.12
437.392	80.12
437.614	85.12
437.835	107.12
438.057	127.12
438.278	99.12
438.5	112.12
438.721	116.12
438.943	104.12
439.165	86.12
439.386	90.12
439.608	90.12
439.829	101.12
440.05	125.12
440.272	145.12
440.493	101.12
440.715	95.12
440.936	101.12
441.158	90.12
441.379	96.12
441.6	89.12
441.822	103.12
442.043	89.12
442.264	104.12
442.486	97.12
442.707	101.12
442.928	103.12
443.149	136.12
443.371	131.12
443.592	104.12
443.813	117.12
444.034	97.12
444.255	95.12
444.476	94.12
444.698	93.12
444.919	102.12
445.14	143.12
445.361	122.12
445.582	113.12
445.803	125.12
446.024	141.12
446.245	119.12
446.466	115.12
446.687	100.12
446.908	91.12
447.129	101.12
447.35	85.12
447.571	89.12
447.792	87.12
448.013	101.12
448.234	97.12
448.455	113.12
448.675	103.12
448.896	121.12
449.117	101.12
449.338	100.12
449.559	122.12
449.779	113.12
450	103.12
450.221	92.12
450.442	90.12
450.662	99.12
450.883	119.12
451.104	114.12
451.324	99.12
451.545	91.12
451.766	91.12
451.986	78.12
452.207	87.12
452.428	86.12
452.648	92.12
452.869	118.12
453.089	114.12
453.31	105.12
453.53	82.12
453.751	105.12
453.971	123.12
454.192	121.12
454.412	90.12
454.633	82.12
454.853	90.12
455.073	82.12
455.294	98.12
455.514	106.12
455.734	75.12
455.955	93.12
456.175	96.12
456.395	91.12
456.616	86.12
456.836	95.12
457.056	92.12
457.276	81.12
457.497	65.12
457.717	78.12
457.937	83.12
458.157	80.12
458.377	86.12
458.598	113.12
458.818	157.12
459.038	151.12
459.258	108.12
459.478	84.12
459.698	83.12
459.918	93.12
460.138	97.12
460.358	79.12
460.578	89.12
460.798	94.12
461.018	91.12
461.238	83.12
461.458	96.12
461.678	92.12
461.898	81.12
462.118	85.12
462.338	97.12
462.558	86.12
462.777	93.12
462.997	81.12
463.217	89.12
463.437	102.12
463.657	85.12
463.876	95.12
464.096	93.12
464.316	96.12
464.536	98.12
464.755	94.12
464.975	112.12
465.195	145.12
465.414	151.12
465.634	105.12
465.854	86.12
466.073	96.12
466.293	105.12
466.512	86.12
466.732	82.12
466.951	97.12
467.171	76.12
467.391	95.12
467.61	105.12
467.829	111.12
468.049	99.12
468.268	106.12
468.488	78.12
468.707	78.12
468.927	92.12
469.146	79.12
469.365	94.12
469.585	88.12
469.804	89.12
470.023	100.12
470.243	92.12
470.462	107.12
470.681	106.12
470.901	95.12
471.12	94.12
471.339	98.12
471.558	103.12
471.777	96.12
471.997	97.12
472.216	89.12
472.435	100.12
472.654	81.12
472.873	83.12
473.092	93.12
473.311	88.12
473.53	94.12
473.749	99.12
473.968	90.12
474.187	112.12
474.406	91.12
474.625	90.12
474.844	95.12
475.063	85.12
475.282	93.12
475.501	88.12
475.72	89.12
475.939	93.12
476.158	91.12
476.377	87.12
476.596	83.12
476.814	82.12
477.033	102.12
477.252	90.12
477.471	89.12
477.69	95.12
477.908	89.12
478.127	80.12
478.346	90.12
478.564	87.12
478.783	79.12
479.002	99.12
479.22	101.12
479.439	105.12
479.658	104.12
479.876	101.12
480.095	91.12
480.313	99.12
480.532	95.12
480.751	106.12
480.969	95.12
481.188	118.12
481.406	116.12
481.624	104.12
481.843	94.12
482.061	85.12
482.28	100.12
482.498	102.12
482.717	98.12
482.935	85.12
483.153	87.12
483.372	89.12
483.59	101.12
483.808	107.12
484.027	91.12
484.245	99.12
484.463	96.12
484.681	96.12
484.9	91.12
485.118	89.12
485.336	103.12
485.554	90.12
485.772	107.12
485.99	97.12
486.209	116.12
486.427	99.12
486.645	90.12
486.863	113.12
487.081	110.12
487.299	98.12
487.517	105.12
487.735	112.12
487.953	83.12
488.171	99.12
488.389	105.12
488.607	88.12
488.825	79.12
489.043	98.12
489.261	99.12
489.479	89.12
489.696	97.12
489.914	89.12
490.132	98.12
490.35	88.12
490.568	94.12
490.786	88.12
491.003	78.12
491.221	80.12
491.439	86.12
491.657	95.12
491.874	79.12
492.092	83.12
492.31	90.12
492.527	96.12
492.745	78.12
492.963	96.12
493.18	89.12
493.398	84.12
493.615	93.12
493.833	85.12
494.05	98.12
494.268	105.12
494.485	85.12
494.703	97.12
494.92	91.12
495.138	97.12
495.355	78.12
495.573	88.12
495.79	93.12
496.008	90.12
496.225	82.12
496.442	70.12
496.66	96.12
496.877	101.12
497.094	85.12
497.312	87.12
497.529	91.12
497.746	97.12
497.963	95.12
498.181	86.12
498.398	97.12
498.615	112.12
498.832	87.12
499.049	91.12
499.267	71.12
499.484	106.12
499.701	96.12
499.918	89.12
500.135	99.12
500.352	98.12
500.569	85.12
500.786	89.12
501.003	87.12
501.22	99.12
501.437	99.12
501.654	94.12
501.871	116.12
502.088	88.12
502.305	96.12
502.522	94.12
502.739	89.12
502.956	87.12
503.172	101.12
503.389	89.12
503.606	100.12
503.823	97.12
504.04	94.12
504.256	98.12
504.473	95.12
504.69	106.12
504.907	78.12
505.123	99.12
505.34	94.12
505.557	97.12
505.773	77.12
505.99	86.12
506.207	91.12
506.423	83.12
506.64	88.12
506.856	82.12
507.073	89.12
507.289	85.12
507.506	90.12
507.722	111.12
507.939	98.12
508.155	105.12
508.372	86.12
508.588	75.12
508.805	98.12
509.021	98.12
509.238	106.12
509.454	93.12
509.67	108.12
509.887	112.12
510.103	129.12
510.319	226.12
510.536	795.12
510.752	2492.12
510.968	687.12
511.184	169.12
511.401	113.12
511.617	99.12
511.833	99.12
512.049	104.12
512.265	91.12
512.481	81.12
512.698	92.12
512.914	96.12
513.13	100.12
513.346	91.12
513.562	110.12
513.778	89.12
513.994	98.12
514.21	116.12
514.426	111.12
514.642	130.12
514.858	116.12
515.074	170.12
515.29	467.12
