Data from Uncirc_2004_H10_HRD10591_00034.txt Node
Date: Wed Jan 03 10:32:19 EST 2024
User: Yrep
Spectrometer: HR+D1059
Trigger mode: 1
Integration Time (sec): 1.000000E-1
Scans to average: 1
Electric dark correction enabled: true
Nonlinearity correction enabled: false
Boxcar width: 0
XAxis mode: Wavelengths
Number of Pixels in Spectrum: 2048
>>>>>Begin Spectral Data<<<<<
223.165	-16.56
223.4	-16.56
223.635	-16.56
223.869	-19.56
224.104	-28.56
224.338	-15.56
224.573	-10.56
224.808	-19.56
225.042	-3.56
225.277	1.44
225.511	6.44
225.746	-2.56
225.98	0.44
226.215	8.44
226.449	9.44
226.683	27.44
226.918	40.44
227.152	22.44
227.387	25.44
227.621	41.44
227.856	36.44
228.09	48.44
228.324	58.44
228.559	48.44
228.793	67.44
229.027	70.44
229.262	73.44
229.496	72.44
229.73	78.44
229.964	81.44
230.199	68.44
230.433	58.44
230.667	86.44
230.901	61.44
231.136	74.44
231.37	85.44
231.604	80.44
231.838	81.44
232.072	90.44
232.306	93.44
232.541	73.44
232.775	82.44
233.009	76.44
233.243	79.44
233.477	90.44
233.711	70.44
233.945	74.44
234.179	83.44
234.413	88.44
234.647	73.44
234.881	83.44
235.115	72.44
235.349	87.44
235.583	79.44
235.817	93.44
236.051	82.44
236.285	86.44
236.519	79.44
236.753	80.44
236.987	96.44
237.221	84.44
237.455	84.44
237.689	75.44
237.922	74.44
238.156	82.44
238.39	93.44
238.624	73.44
238.858	81.44
239.091	79.44
239.325	78.44
239.559	64.44
239.793	89.44
240.027	73.44
240.26	73.44
240.494	86.44
240.728	74.44
240.961	83.44
241.195	74.44
241.429	75.44
241.662	65.44
241.896	67.44
242.13	74.44
242.363	86.44
242.597	91.44
242.83	92.44
243.064	78.44
243.298	81.44
243.531	91.44
243.765	84.44
243.998	79.44
244.232	82.44
244.465	78.44
244.699	85.44
244.932	67.44
245.166	77.44
245.399	84.44
245.633	90.44
245.866	78.44
246.099	71.44
246.333	73.44
246.566	78.44
246.8	86.44
247.033	99.44
247.266	78.44
247.5	75.44
247.733	83.44
247.966	73.44
248.2	87.44
248.433	88.44
248.666	82.44
248.899	80.44
249.133	94.44
249.366	101.44
249.599	92.44
249.832	83.44
250.066	90.44
250.299	85.44
250.532	75.44
250.765	80.44
250.998	83.44
251.231	79.44
251.465	83.44
251.698	87.44
251.931	84.44
252.164	99.44
252.397	76.44
252.63	81.44
252.863	72.44
253.096	73.44
253.329	86.44
253.562	93.44
253.795	74.44
254.028	83.44
254.261	83.44
254.494	76.44
254.727	81.44
254.96	70.44
255.193	75.44
255.426	66.44
255.659	82.44
255.892	75.44
256.124	81.44
256.357	77.44
256.59	93.44
256.823	73.44
257.056	79.44
257.289	90.44
257.521	93.44
257.754	70.44
257.987	79.44
258.22	87.44
258.452	86.44
258.685	73.44
258.918	78.44
259.151	89.44
259.383	82.44
259.616	102.44
259.849	89.44
260.081	85.44
260.314	77.44
260.547	93.44
260.779	67.44
261.012	88.44
261.244	81.44
261.477	101.44
261.71	73.44
261.942	120.44
262.175	111.44
262.407	90.44
262.64	80.44
262.872	92.44
263.105	83.44
263.337	81.44
263.57	74.44
263.802	67.44
264.035	89.44
264.267	84.44
264.499	77.44
264.732	86.44
264.964	81.44
265.197	91.44
265.429	91.44
265.661	83.44
265.894	85.44
266.126	78.44
266.358	76.44
266.591	74.44
266.823	91.44
267.055	74.44
267.287	76.44
267.52	85.44
267.752	95.44
267.984	81.44
268.216	90.44
268.448	80.44
268.681	92.44
268.913	88.44
269.145	101.44
269.377	75.44
269.609	91.44
269.841	75.44
270.073	85.44
270.306	82.44
270.538	98.44
270.77	96.44
271.002	85.44
271.234	76.44
271.466	79.44
271.698	66.44
271.93	82.44
272.162	79.44
272.394	91.44
272.626	81.44
272.858	85.44
273.09	76.44
273.322	78.44
273.553	86.44
273.785	81.44
274.017	75.44
274.249	74.44
274.481	79.44
274.713	87.44
274.945	101.44
275.176	84.44
275.408	93.44
275.64	83.44
275.872	92.44
276.104	82.44
276.335	95.44
276.567	97.44
276.799	111.44
277.031	89.44
277.262	79.44
277.494	96.44
277.726	91.44
277.957	73.44
278.189	69.44
278.421	80.44
278.652	75.44
278.884	68.44
279.115	82.44
279.347	77.44
279.579	93.44
279.81	102.44
280.042	100.44
280.273	83.44
280.505	79.44
280.736	76.44
280.968	86.44
281.199	82.44
281.431	97.44
281.662	96.44
281.894	91.44
282.125	91.44
282.356	127.44
282.588	129.44
282.819	114.44
283.051	81.44
283.282	97.44
283.513	102.44
283.745	81.44
283.976	88.44
284.207	84.44
284.439	85.44
284.67	89.44
284.901	74.44
285.132	90.44
285.364	89.44
285.595	83.44
285.826	70.44
286.057	89.44
286.288	90.44
286.52	90.44
286.751	78.44
286.982	95.44
287.213	99.44
287.444	97.44
287.675	88.44
287.906	83.44
288.138	91.44
288.369	97.44
288.6	98.44
288.831	78.44
289.062	91.44
289.293	89.44
289.524	91.44
289.755	79.44
289.986	78.44
290.217	88.44
290.448	94.44
290.679	81.44
290.91	94.44
291.141	79.44
291.371	71.44
291.602	78.44
291.833	81.44
292.064	97.44
292.295	99.44
292.526	97.44
292.757	88.44
292.987	79.44
293.218	93.44
293.449	84.44
293.68	99.44
293.91	89.44
294.141	99.44
294.372	82.44
294.603	89.44
294.833	105.44
295.064	80.44
295.295	94.44
295.525	87.44
295.756	84.44
295.987	105.44
296.217	142.44
296.448	110.44
296.679	93.44
296.909	91.44
297.14	96.44
297.37	91.44
297.601	94.44
297.831	92.44
298.062	101.44
298.292	91.44
298.523	93.44
298.753	81.44
298.984	91.44
299.214	81.44
299.445	94.44
299.675	97.44
299.905	107.44
300.136	91.44
300.366	90.44
300.597	85.44
300.827	88.44
301.057	104.44
301.288	91.44
301.518	93.44
301.748	94.44
301.979	89.44
302.209	92.44
302.439	90.44
302.669	86.44
302.9	85.44
303.13	98.44
303.36	92.44
303.59	104.44
303.82	98.44
304.051	86.44
304.281	104.44
304.511	92.44
304.741	91.44
304.971	89.44
305.201	81.44
305.431	86.44
305.661	86.44
305.891	86.44
306.121	91.44
306.352	110.44
306.582	90.44
306.812	92.44
307.042	81.44
307.272	89.44
307.502	96.44
307.731	102.44
307.961	85.44
308.191	101.44
308.421	91.44
308.651	92.44
308.881	92.44
309.111	97.44
309.341	86.44
309.571	79.44
309.8	82.44
310.03	84.44
310.26	104.44
310.49	89.44
310.72	96.44
310.949	101.44
311.179	95.44
311.409	100.44
311.639	101.44
311.868	98.44
312.098	84.44
312.328	96.44
312.557	109.44
312.787	105.44
313.017	107.44
313.246	88.44
313.476	93.44
313.706	104.44
313.935	84.44
314.165	109.44
314.394	110.44
314.624	101.44
314.853	92.44
315.083	82.44
315.312	89.44
315.542	88.44
315.771	88.44
316.001	94.44
316.23	96.44
316.46	78.44
316.689	93.44
316.919	86.44
317.148	104.44
317.377	85.44
317.607	94.44
317.836	85.44
318.065	77.44
318.295	94.44
318.524	95.44
318.753	96.44
318.983	93.44
319.212	97.44
319.441	111.44
319.67	101.44
319.9	90.44
320.129	84.44
320.358	82.44
320.587	107.44
320.816	111.44
321.046	80.44
321.275	91.44
321.504	96.44
321.733	91.44
321.962	99.44
322.191	106.44
322.42	101.44
322.649	106.44
322.878	107.44
323.108	107.44
323.337	130.44
323.566	126.44
323.795	154.44
324.024	212.44
324.253	390.44
324.482	798.44
324.71	1654.44
324.939	2137.44
325.168	794.44
325.397	231.44
325.626	143.44
325.855	125.44
326.084	128.44
326.313	139.44
326.542	160.44
326.77	229.44
326.999	459.44
327.228	938.44
327.457	1671.44
327.686	1313.44
327.914	365.44
328.143	182.44
328.372	150.44
328.6	122.44
328.829	123.44
329.058	122.44
329.287	119.44
329.515	101.44
329.744	102.44
329.972	96.44
330.201	110.44
330.43	117.44
330.658	115.44
330.887	141.44
331.115	131.44
331.344	101.44
331.572	82.44
331.801	99.44
332.03	105.44
332.258	106.44
332.486	83.44
332.715	102.44
332.943	103.44
333.172	87.44
333.4	98.44
333.629	106.44
333.857	118.44
334.085	104.44
334.314	102.44
334.542	91.44
334.771	110.44
334.999	95.44
335.227	103.44
335.455	96.44
335.684	101.44
335.912	96.44
336.14	95.44
336.369	101.44
336.597	85.44
336.825	91.44
337.053	104.44
337.281	100.44
337.51	94.44
337.738	101.44
337.966	91.44
338.194	102.44
338.422	89.44
338.65	94.44
338.878	98.44
339.106	86.44
339.334	87.44
339.562	93.44
339.79	95.44
340.018	96.44
340.246	95.44
340.474	74.44
340.702	92.44
340.93	97.44
341.158	98.44
341.386	98.44
341.614	86.44
341.842	97.44
342.07	93.44
342.298	103.44
342.526	99.44
342.754	88.44
342.981	94.44
343.209	90.44
343.437	104.44
343.665	70.44
343.893	74.44
344.12	98.44
344.348	88.44
344.576	102.44
344.804	104.44
345.031	96.44
345.259	92.44
345.487	100.44
345.714	101.44
345.942	85.44
346.17	97.44
346.397	91.44
346.625	92.44
346.853	97.44
347.08	83.44
347.308	89.44
347.535	93.44
347.763	99.44
347.99	103.44
348.218	108.44
348.445	103.44
348.673	97.44
348.9	100.44
349.128	101.44
349.355	86.44
349.583	87.44
349.81	94.44
350.037	98.44
350.265	105.44
350.492	91.44
350.72	104.44
350.947	89.44
351.174	112.44
351.402	127.44
351.629	83.44
351.856	100.44
352.083	110.44
352.311	112.44
352.538	110.44
352.765	100.44
352.992	113.44
353.22	106.44
353.447	101.44
353.674	99.44
353.901	86.44
354.128	93.44
354.355	73.44
354.583	101.44
354.81	89.44
355.037	91.44
355.264	100.44
355.491	105.44
355.718	81.44
355.945	99.44
356.172	117.44
356.399	115.44
356.626	99.44
356.853	90.44
357.08	89.44
357.307	95.44
357.534	88.44
357.761	97.44
357.988	104.44
358.215	96.44
358.441	102.44
358.668	100.44
358.895	79.44
359.122	83.44
359.349	102.44
359.576	100.44
359.802	92.44
360.029	111.44
360.256	107.44
360.483	91.44
360.709	99.44
360.936	90.44
361.163	103.44
361.39	97.44
361.616	97.44
361.843	91.44
362.07	94.44
362.296	97.44
362.523	104.44
362.749	87.44
362.976	110.44
363.203	105.44
363.429	91.44
363.656	95.44
363.882	88.44
364.109	83.44
364.335	91.44
364.562	89.44
364.788	83.44
365.015	90.44
365.241	101.44
365.468	110.44
365.694	90.44
365.92	112.44
366.147	107.44
366.373	90.44
366.599	92.44
366.826	88.44
367.052	88.44
367.278	86.44
367.505	87.44
367.731	80.44
367.957	88.44
368.184	108.44
368.41	110.44
368.636	110.44
368.862	127.44
369.089	102.44
369.315	100.44
369.541	94.44
369.767	95.44
369.993	98.44
370.219	107.44
370.445	78.44
370.672	91.44
370.898	88.44
371.124	91.44
371.35	84.44
371.576	70.44
371.802	86.44
372.028	94.44
372.254	90.44
372.48	93.44
372.706	99.44
372.932	88.44
373.158	103.44
373.384	87.44
373.61	102.44
373.835	86.44
374.061	94.44
374.287	90.44
374.513	81.44
374.739	83.44
374.965	80.44
375.191	84.44
375.416	87.44
375.642	96.44
375.868	82.44
376.094	88.44
376.319	90.44
376.545	77.44
376.771	82.44
376.997	86.44
377.222	87.44
377.448	86.44
377.674	91.44
377.899	76.44
378.125	94.44
378.35	96.44
378.576	91.44
378.802	90.44
379.027	92.44
379.253	93.44
379.478	96.44
379.704	93.44
379.929	92.44
380.155	100.44
380.38	95.44
380.606	88.44
380.831	89.44
381.057	103.44
381.282	100.44
381.507	88.44
381.733	111.44
381.958	106.44
382.184	95.44
382.409	103.44
382.634	97.44
382.86	108.44
383.085	94.44
383.31	109.44
383.535	102.44
383.761	100.44
383.986	108.44
384.211	104.44
384.436	95.44
384.662	104.44
384.887	97.44
385.112	103.44
385.337	126.44
385.562	107.44
385.787	111.44
386.013	99.44
386.238	110.44
386.463	91.44
386.688	109.44
386.913	112.44
387.138	127.44
387.363	99.44
387.588	103.44
387.813	96.44
388.038	87.44
388.263	120.44
388.488	105.44
388.713	100.44
388.938	104.44
389.163	96.44
389.387	93.44
389.612	97.44
389.837	94.44
390.062	99.44
390.287	102.44
390.512	86.44
390.736	105.44
390.961	103.44
391.186	99.44
391.411	99.44
391.636	79.44
391.86	89.44
392.085	93.44
392.31	95.44
392.534	93.44
392.759	86.44
392.984	89.44
393.208	98.44
393.433	98.44
393.658	89.44
393.882	87.44
394.107	87.44
394.331	90.44
394.556	86.44
394.78	104.44
395.005	89.44
395.229	84.44
395.454	88.44
395.678	104.44
395.903	81.44
396.127	89.44
396.352	97.44
396.576	79.44
396.801	90.44
397.025	95.44
397.249	74.44
397.474	90.44
397.698	87.44
397.922	100.44
398.147	90.44
398.371	88.44
398.595	82.44
398.82	96.44
399.044	95.44
399.268	89.44
399.492	97.44
399.717	92.44
399.941	85.44
400.165	93.44
400.389	89.44
400.613	102.44
400.837	91.44
401.062	80.44
401.286	93.44
401.51	89.44
401.734	90.44
401.958	103.44
402.182	134.44
402.406	147.44
402.63	119.44
402.854	94.44
403.078	88.44
403.302	83.44
403.526	84.44
403.75	95.44
403.974	89.44
404.198	86.44
404.422	83.44
404.645	94.44
404.869	88.44
405.093	98.44
405.317	78.44
405.541	88.44
405.765	94.44
405.988	111.44
406.212	176.44
406.436	227.44
406.66	141.44
406.883	101.44
407.107	86.44
407.331	98.44
407.555	105.44
407.778	88.44
408.002	91.44
408.226	87.44
408.449	88.44
408.673	95.44
408.896	99.44
409.12	100.44
409.344	100.44
409.567	90.44
409.791	85.44
410.014	84.44
410.238	99.44
410.461	96.44
410.685	99.44
410.908	112.44
411.132	108.44
411.355	99.44
411.578	88.44
411.802	93.44
412.025	89.44
412.249	86.44
412.472	105.44
412.695	98.44
412.919	102.44
413.142	104.44
413.365	89.44
413.589	95.44
413.812	97.44
414.035	88.44
414.258	90.44
414.482	100.44
414.705	88.44
414.928	82.44
415.151	99.44
415.374	98.44
415.597	99.44
415.821	84.44
416.044	82.44
416.267	98.44
416.49	91.44
416.713	96.44
416.936	95.44
417.159	79.44
417.382	98.44
417.605	105.44
417.828	92.44
418.051	96.44
418.274	102.44
418.497	89.44
418.72	83.44
418.943	97.44
419.166	98.44
419.389	89.44
419.611	80.44
419.834	90.44
420.057	97.44
420.28	105.44
420.503	74.44
420.726	72.44
420.948	93.44
421.171	91.44
421.394	81.44
421.617	104.44
421.839	85.44
422.062	90.44
422.285	99.44
422.507	98.44
422.73	93.44
422.953	90.44
423.175	78.44
423.398	74.44
423.621	80.44
423.843	93.44
424.066	91.44
424.288	103.44
424.511	93.44
424.733	104.44
424.956	95.44
425.178	104.44
425.401	101.44
425.623	99.44
425.846	96.44
426.068	89.44
426.291	89.44
426.513	89.44
426.735	97.44
426.958	95.44
427.18	112.44
427.402	125.44
427.625	161.44
427.847	113.44
428.069	98.44
428.292	98.44
428.514	87.44
428.736	85.44
428.958	74.44
429.181	97.44
429.403	79.44
429.625	97.44
429.847	78.44
430.069	96.44
430.292	108.44
430.514	96.44
430.736	84.44
430.958	95.44
431.18	95.44
431.402	87.44
431.624	69.44
431.846	86.44
432.068	90.44
432.29	101.44
432.512	81.44
432.734	97.44
432.956	99.44
433.178	98.44
433.4	102.44
433.622	80.44
433.844	97.44
434.066	95.44
434.287	87.44
434.509	90.44
434.731	96.44
434.953	98.44
435.175	90.44
435.397	97.44
435.618	91.44
435.84	89.44
436.062	110.44
436.284	105.44
436.505	103.44
436.727	96.44
436.949	90.44
437.17	97.44
437.392	83.44
437.614	92.44
437.835	102.44
438.057	106.44
438.278	100.44
438.5	102.44
438.721	120.44
438.943	93.44
439.165	95.44
439.386	93.44
439.608	97.44
439.829	109.44
440.05	109.44
440.272	136.44
440.493	97.44
440.715	84.44
440.936	82.44
441.158	92.44
441.379	104.44
441.6	95.44
441.822	101.44
442.043	97.44
442.264	90.44
442.486	96.44
442.707	98.44
442.928	112.44
443.149	115.44
443.371	111.44
443.592	94.44
443.813	101.44
444.034	102.44
444.255	103.44
444.476	87.44
444.698	84.44
444.919	81.44
445.14	132.44
445.361	121.44
445.582	109.44
445.803	130.44
446.024	120.44
446.245	133.44
446.466	105.44
446.687	80.44
446.908	74.44
447.129	102.44
447.35	93.44
447.571	91.44
447.792	86.44
448.013	101.44
448.234	107.44
448.455	95.44
448.675	120.44
448.896	117.44
449.117	96.44
449.338	98.44
449.559	127.44
449.779	128.44
450	91.44
450.221	97.44
450.442	85.44
450.662	105.44
450.883	105.44
451.104	117.44
451.324	103.44
451.545	98.44
451.766	87.44
451.986	97.44
452.207	79.44
452.428	114.44
452.648	96.44
452.869	101.44
453.089	104.44
453.31	113.44
453.53	81.44
453.751	103.44
453.971	100.44
454.192	102.44
454.412	93.44
454.633	88.44
454.853	86.44
455.073	83.44
455.294	88.44
455.514	84.44
455.734	95.44
455.955	93.44
456.175	85.44
456.395	79.44
456.616	81.44
456.836	89.44
457.056	83.44
457.276	87.44
457.497	82.44
457.717	92.44
457.937	82.44
458.157	83.44
458.377	75.44
458.598	102.44
458.818	145.44
459.038	144.44
459.258	106.44
459.478	80.44
459.698	86.44
459.918	87.44
460.138	85.44
460.358	90.44
460.578	90.44
460.798	88.44
461.018	109.44
461.238	94.44
461.458	86.44
461.678	88.44
461.898	86.44
462.118	87.44
462.338	101.44
462.558	81.44
462.777	82.44
462.997	88.44
463.217	89.44
463.437	86.44
463.657	90.44
463.876	79.44
464.096	90.44
464.316	90.44
464.536	90.44
464.755	90.44
464.975	101.44
465.195	157.44
465.414	148.44
465.634	91.44
465.854	91.44
466.073	88.44
466.293	98.44
466.512	83.44
466.732	88.44
466.951	107.44
467.171	101.44
467.391	80.44
467.61	92.44
467.829	95.44
468.049	97.44
468.268	105.44
468.488	85.44
468.707	102.44
468.927	80.44
469.146	88.44
469.365	95.44
469.585	87.44
469.804	90.44
470.023	98.44
470.243	96.44
470.462	92.44
470.681	90.44
470.901	96.44
471.12	89.44
471.339	86.44
471.558	85.44
471.777	100.44
471.997	89.44
472.216	104.44
472.435	109.44
472.654	90.44
472.873	94.44
473.092	84.44
473.311	91.44
473.53	74.44
473.749	83.44
473.968	97.44
474.187	104.44
474.406	86.44
474.625	79.44
474.844	86.44
475.063	88.44
475.282	91.44
475.501	90.44
475.72	88.44
475.939	85.44
476.158	78.44
476.377	85.44
476.596	90.44
476.814	86.44
477.033	97.44
477.252	93.44
477.471	93.44
477.69	89.44
477.908	94.44
478.127	108.44
478.346	88.44
478.564	99.44
478.783	115.44
479.002	71.44
479.22	81.44
479.439	96.44
479.658	117.44
479.876	93.44
480.095	93.44
480.313	86.44
480.532	107.44
480.751	89.44
480.969	96.44
481.188	118.44
481.406	105.44
481.624	96.44
481.843	97.44
482.061	92.44
482.28	89.44
482.498	94.44
482.717	80.44
482.935	82.44
483.153	95.44
483.372	94.44
483.59	86.44
483.808	85.44
484.027	86.44
484.245	92.44
484.463	90.44
484.681	78.44
484.9	96.44
485.118	104.44
485.336	94.44
485.554	109.44
485.772	96.44
485.99	117.44
486.209	104.44
486.427	99.44
486.645	106.44
486.863	114.44
487.081	86.44
487.299	105.44
487.517	91.44
487.735	84.44
487.953	96.44
488.171	81.44
488.389	92.44
488.607	104.44
488.825	87.44
489.043	101.44
489.261	90.44
489.479	90.44
489.696	96.44
489.914	89.44
490.132	97.44
490.35	98.44
490.568	92.44
490.786	95.44
491.003	90.44
491.221	93.44
491.439	109.44
491.657	82.44
491.874	81.44
492.092	84.44
492.31	88.44
492.527	83.44
492.745	92.44
492.963	99.44
493.18	89.44
493.398	89.44
493.615	96.44
493.833	91.44
494.05	92.44
494.268	93.44
494.485	88.44
494.703	98.44
494.92	102.44
495.138	92.44
495.355	92.44
495.573	89.44
495.79	78.44
496.008	114.44
496.225	84.44
496.442	92.44
496.66	101.44
496.877	100.44
497.094	90.44
497.312	99.44
497.529	104.44
497.746	85.44
497.963	86.44
498.181	74.44
498.398	107.44
498.615	100.44
498.832	104.44
499.049	92.44
499.267	87.44
499.484	74.44
499.701	93.44
499.918	89.44
500.135	99.44
500.352	94.44
500.569	95.44
500.786	99.44
501.003	79.44
501.22	93.44
501.437	79.44
501.654	83.44
501.871	91.44
502.088	104.44
502.305	96.44
502.522	81.44
502.739	86.44
502.956	85.44
503.172	88.44
503.389	86.44
503.606	98.44
503.823	99.44
504.04	104.44
504.256	89.44
504.473	86.44
504.69	91.44
504.907	89.44
505.123	83.44
505.34	96.44
505.557	78.44
505.773	96.44
505.99	90.44
506.207	90.44
506.423	105.44
506.64	69.44
506.856	84.44
507.073	94.44
507.289	100.44
507.506	103.44
507.722	105.44
507.939	105.44
508.155	104.44
508.372	107.44
508.588	101.44
508.805	94.44
509.021	92.44
509.238	97.44
509.454	95.44
509.67	103.44
509.887	102.44
510.103	130.44
510.319	226.44
510.536	770.44
510.752	2425.44
510.968	676.44
511.184	156.44
511.401	118.44
511.617	91.44
511.833	104.44
512.049	92.44
512.265	90.44
512.481	88.44
512.698	91.44
512.914	82.44
513.13	87.44
513.346	82.44
513.562	97.44
513.778	97.44
513.994	99.44
514.21	100.44
514.426	113.44
514.642	117.44
514.858	112.44
515.074	160.44
515.29	429.44
515.506	1434.44
