Data from Uncirc_2004_H10_HRD10591_00025.txt Node
Date: Wed Jan 03 10:32:17 EST 2024
User: Yrep
Spectrometer: HR+D1059
Trigger mode: 1
Integration Time (sec): 1.000000E-1
Scans to average: 1
Electric dark correction enabled: true
Nonlinearity correction enabled: false
Boxcar width: 0
XAxis mode: Wavelengths
Number of Pixels in Spectrum: 2048
>>>>>Begin Spectral Data<<<<<
223.165	-31.5
223.4	-31.5
223.635	-31.5
223.869	-17.5
224.104	-27.5
224.338	-7.5
224.573	-14.5
224.808	-29.5
225.042	-7.5
225.277	7.5
225.511	8.5
225.746	13.5
225.98	11.5
226.215	17.5
226.449	17.5
226.683	20.5
226.918	23.5
227.152	15.5
227.387	26.5
227.621	45.5
227.856	33.5
228.09	56.5
228.324	50.5
228.559	47.5
228.793	66.5
229.027	60.5
229.262	66.5
229.496	85.5
229.73	84.5
229.964	85.5
230.199	73.5
230.433	82.5
230.667	79.5
230.901	76.5
231.136	64.5
231.37	77.5
231.604	69.5
231.838	67.5
232.072	87.5
232.306	68.5
232.541	82.5
232.775	86.5
233.009	100.5
233.243	85.5
233.477	83.5
233.711	71.5
233.945	83.5
234.179	89.5
234.413	86.5
234.647	82.5
234.881	66.5
235.115	64.5
235.349	69.5
235.583	79.5
235.817	80.5
236.051	77.5
236.285	80.5
236.519	78.5
236.753	81.5
236.987	87.5
237.221	89.5
237.455	84.5
237.689	69.5
237.922	94.5
238.156	92.5
238.39	78.5
238.624	77.5
238.858	73.5
239.091	68.5
239.325	72.5
239.559	70.5
239.793	85.5
240.027	79.5
240.26	78.5
240.494	77.5
240.728	80.5
240.961	76.5
241.195	76.5
241.429	80.5
241.662	67.5
241.896	75.5
242.13	64.5
242.363	68.5
242.597	71.5
242.83	94.5
243.064	75.5
243.298	75.5
243.531	77.5
243.765	84.5
243.998	79.5
244.232	95.5
244.465	85.5
244.699	69.5
244.932	68.5
245.166	84.5
245.399	67.5
245.633	83.5
245.866	92.5
246.099	80.5
246.333	95.5
246.566	69.5
246.8	66.5
247.033	77.5
247.266	83.5
247.5	75.5
247.733	68.5
247.966	82.5
248.2	71.5
248.433	82.5
248.666	80.5
248.899	81.5
249.133	96.5
249.366	102.5
249.599	83.5
249.832	97.5
250.066	89.5
250.299	70.5
250.532	70.5
250.765	67.5
250.998	71.5
251.231	81.5
251.465	79.5
251.698	77.5
251.931	76.5
252.164	94.5
252.397	81.5
252.63	75.5
252.863	79.5
253.096	80.5
253.329	87.5
253.562	72.5
253.795	84.5
254.028	72.5
254.261	85.5
254.494	62.5
254.727	67.5
254.96	99.5
255.193	62.5
255.426	64.5
255.659	86.5
255.892	86.5
256.124	89.5
256.357	92.5
256.59	75.5
256.823	74.5
257.056	67.5
257.289	75.5
257.521	82.5
257.754	82.5
257.987	85.5
258.22	88.5
258.452	84.5
258.685	68.5
258.918	79.5
259.151	76.5
259.383	82.5
259.616	65.5
259.849	96.5
260.081	84.5
260.314	68.5
260.547	81.5
260.779	83.5
261.012	82.5
261.244	83.5
261.477	92.5
261.71	87.5
261.942	108.5
262.175	111.5
262.407	85.5
262.64	88.5
262.872	89.5
263.105	82.5
263.337	99.5
263.57	84.5
263.802	78.5
264.035	70.5
264.267	69.5
264.499	80.5
264.732	84.5
264.964	87.5
265.197	73.5
265.429	86.5
265.661	78.5
265.894	78.5
266.126	80.5
266.358	88.5
266.591	74.5
266.823	67.5
267.055	73.5
267.287	76.5
267.52	78.5
267.752	76.5
267.984	86.5
268.216	87.5
268.448	84.5
268.681	97.5
268.913	80.5
269.145	95.5
269.377	95.5
269.609	76.5
269.841	87.5
270.073	84.5
270.306	99.5
270.538	83.5
270.77	84.5
271.002	79.5
271.234	79.5
271.466	78.5
271.698	71.5
271.93	87.5
272.162	86.5
272.394	72.5
272.626	81.5
272.858	99.5
273.09	83.5
273.322	86.5
273.553	87.5
273.785	93.5
274.017	77.5
274.249	79.5
274.481	77.5
274.713	89.5
274.945	87.5
275.176	80.5
275.408	92.5
275.64	79.5
275.872	77.5
276.104	75.5
276.335	88.5
276.567	101.5
276.799	95.5
277.031	102.5
277.262	94.5
277.494	88.5
277.726	87.5
277.957	82.5
278.189	85.5
278.421	78.5
278.652	87.5
278.884	84.5
279.115	88.5
279.347	78.5
279.579	88.5
279.81	77.5
280.042	81.5
280.273	84.5
280.505	83.5
280.736	97.5
280.968	80.5
281.199	92.5
281.431	75.5
281.662	73.5
281.894	89.5
282.125	95.5
282.356	111.5
282.588	128.5
282.819	103.5
283.051	89.5
283.282	83.5
283.513	85.5
283.745	83.5
283.976	69.5
284.207	78.5
284.439	93.5
284.67	83.5
284.901	98.5
285.132	86.5
285.364	85.5
285.595	82.5
285.826	89.5
286.057	73.5
286.288	93.5
286.52	80.5
286.751	84.5
286.982	88.5
287.213	84.5
287.444	87.5
287.675	88.5
287.906	90.5
288.138	83.5
288.369	94.5
288.6	78.5
288.831	76.5
289.062	88.5
289.293	90.5
289.524	84.5
289.755	76.5
289.986	73.5
290.217	96.5
290.448	96.5
290.679	84.5
290.91	88.5
291.141	89.5
291.371	79.5
291.602	77.5
291.833	84.5
292.064	82.5
292.295	83.5
292.526	77.5
292.757	84.5
292.987	80.5
293.218	84.5
293.449	113.5
293.68	86.5
293.91	78.5
294.141	97.5
294.372	76.5
294.603	75.5
294.833	77.5
295.064	97.5
295.295	102.5
295.525	97.5
295.756	98.5
295.987	111.5
296.217	125.5
296.448	115.5
296.679	91.5
296.909	97.5
297.14	82.5
297.37	83.5
297.601	94.5
297.831	97.5
298.062	84.5
298.292	89.5
298.523	84.5
298.753	85.5
298.984	71.5
299.214	65.5
299.445	80.5
299.675	91.5
299.905	92.5
300.136	96.5
300.366	96.5
300.597	81.5
300.827	93.5
301.057	84.5
301.288	94.5
301.518	95.5
301.748	94.5
301.979	100.5
302.209	89.5
302.439	85.5
302.669	88.5
302.9	85.5
303.13	104.5
303.36	85.5
303.59	92.5
303.82	106.5
304.051	88.5
304.281	92.5
304.511	87.5
304.741	95.5
304.971	77.5
305.201	94.5
305.431	78.5
305.661	92.5
305.891	93.5
306.121	96.5
306.352	92.5
306.582	102.5
306.812	92.5
307.042	86.5
307.272	97.5
307.502	90.5
307.731	97.5
307.961	100.5
308.191	99.5
308.421	94.5
308.651	93.5
308.881	82.5
309.111	87.5
309.341	81.5
309.571	82.5
309.8	81.5
310.03	87.5
310.26	86.5
310.49	83.5
310.72	112.5
310.949	94.5
311.179	93.5
311.409	97.5
311.639	97.5
311.868	96.5
312.098	81.5
312.328	96.5
312.557	100.5
312.787	100.5
313.017	101.5
313.246	85.5
313.476	87.5
313.706	89.5
313.935	82.5
314.165	98.5
314.394	88.5
314.624	92.5
314.853	104.5
315.083	98.5
315.312	96.5
315.542	95.5
315.771	105.5
316.001	100.5
316.23	90.5
316.46	82.5
316.689	94.5
316.919	78.5
317.148	89.5
317.377	93.5
317.607	80.5
317.836	79.5
318.065	88.5
318.295	78.5
318.524	102.5
318.753	94.5
318.983	91.5
319.212	103.5
319.441	102.5
319.67	97.5
319.9	100.5
320.129	94.5
320.358	88.5
320.587	97.5
320.816	89.5
321.046	96.5
321.275	86.5
321.504	81.5
321.733	96.5
321.962	100.5
322.191	92.5
322.42	108.5
322.649	106.5
322.878	102.5
323.108	110.5
323.337	115.5
323.566	127.5
323.795	151.5
324.024	206.5
324.253	403.5
324.482	845.5
324.71	1719.5
324.939	2280.5
325.168	837.5
325.397	248.5
325.626	161.5
325.855	117.5
326.084	113.5
326.313	138.5
326.542	145.5
326.77	235.5
326.999	478.5
327.228	976.5
327.457	1760.5
327.686	1351.5
327.914	358.5
328.143	195.5
328.372	159.5
328.6	121.5
328.829	126.5
329.058	130.5
329.287	108.5
329.515	104.5
329.744	92.5
329.972	101.5
330.201	97.5
330.43	124.5
330.658	117.5
330.887	121.5
331.115	114.5
331.344	97.5
331.572	79.5
331.801	111.5
332.03	88.5
332.258	85.5
332.486	87.5
332.715	104.5
332.943	74.5
333.172	100.5
333.4	93.5
333.629	89.5
333.857	115.5
334.085	86.5
334.314	97.5
334.542	95.5
334.771	109.5
334.999	104.5
335.227	93.5
335.455	93.5
335.684	94.5
335.912	103.5
336.14	85.5
336.369	97.5
336.597	107.5
336.825	93.5
337.053	97.5
337.281	95.5
337.51	86.5
337.738	95.5
337.966	102.5
338.194	100.5
338.422	88.5
338.65	79.5
338.878	86.5
339.106	83.5
339.334	91.5
339.562	92.5
339.79	81.5
340.018	88.5
340.246	89.5
340.474	85.5
340.702	81.5
340.93	86.5
341.158	93.5
341.386	84.5
341.614	92.5
341.842	96.5
342.07	97.5
342.298	83.5
342.526	112.5
342.754	89.5
342.981	99.5
343.209	92.5
343.437	95.5
343.665	102.5
343.893	105.5
344.12	99.5
344.348	90.5
344.576	90.5
344.804	96.5
345.031	85.5
345.259	95.5
345.487	92.5
345.714	101.5
345.942	87.5
346.17	105.5
346.397	82.5
346.625	93.5
346.853	104.5
347.08	85.5
347.308	91.5
347.535	88.5
347.763	96.5
347.99	95.5
348.218	90.5
348.445	101.5
348.673	94.5
348.9	84.5
349.128	90.5
349.355	98.5
349.583	102.5
349.81	97.5
350.037	99.5
350.265	100.5
350.492	96.5
350.72	75.5
350.947	95.5
351.174	92.5
351.402	110.5
351.629	99.5
351.856	102.5
352.083	108.5
352.311	106.5
352.538	110.5
352.765	102.5
352.992	113.5
353.22	116.5
353.447	97.5
353.674	101.5
353.901	89.5
354.128	89.5
354.355	100.5
354.583	95.5
354.81	98.5
355.037	94.5
355.264	105.5
355.491	101.5
355.718	102.5
355.945	103.5
356.172	98.5
356.399	89.5
356.626	96.5
356.853	94.5
357.08	101.5
357.307	86.5
357.534	95.5
357.761	100.5
357.988	96.5
358.215	90.5
358.441	93.5
358.668	99.5
358.895	81.5
359.122	100.5
359.349	83.5
359.576	99.5
359.802	104.5
360.029	98.5
360.256	104.5
360.483	85.5
360.709	86.5
360.936	84.5
361.163	95.5
361.39	74.5
361.616	84.5
361.843	88.5
362.07	93.5
362.296	88.5
362.523	100.5
362.749	81.5
362.976	75.5
363.203	88.5
363.429	102.5
363.656	92.5
363.882	84.5
364.109	88.5
364.335	104.5
364.562	84.5
364.788	75.5
365.015	91.5
365.241	88.5
365.468	97.5
365.694	102.5
365.92	95.5
366.147	71.5
366.373	92.5
366.599	88.5
366.826	79.5
367.052	95.5
367.278	104.5
367.505	96.5
367.731	94.5
367.957	88.5
368.184	98.5
368.41	87.5
368.636	99.5
368.862	105.5
369.089	97.5
369.315	87.5
369.541	89.5
369.767	91.5
369.993	90.5
370.219	95.5
370.445	84.5
370.672	91.5
370.898	82.5
371.124	82.5
371.35	86.5
371.576	96.5
371.802	99.5
372.028	84.5
372.254	79.5
372.48	93.5
372.706	75.5
372.932	96.5
373.158	101.5
373.384	99.5
373.61	93.5
373.835	83.5
374.061	82.5
374.287	95.5
374.513	96.5
374.739	80.5
374.965	96.5
375.191	97.5
375.416	92.5
375.642	86.5
375.868	88.5
376.094	101.5
376.319	87.5
376.545	88.5
376.771	85.5
376.997	86.5
377.222	85.5
377.448	87.5
377.674	89.5
377.899	89.5
378.125	107.5
378.35	100.5
378.576	89.5
378.802	88.5
379.027	95.5
379.253	76.5
379.478	90.5
379.704	107.5
379.929	104.5
380.155	107.5
380.38	99.5
380.606	96.5
380.831	85.5
381.057	96.5
381.282	91.5
381.507	99.5
381.733	100.5
381.958	90.5
382.184	95.5
382.409	101.5
382.634	100.5
382.86	101.5
383.085	108.5
383.31	101.5
383.535	114.5
383.761	99.5
383.986	98.5
384.211	100.5
384.436	111.5
384.662	101.5
384.887	117.5
385.112	110.5
385.337	110.5
385.562	124.5
385.787	95.5
386.013	114.5
386.238	130.5
386.463	106.5
386.688	113.5
386.913	108.5
387.138	112.5
387.363	99.5
387.588	106.5
387.813	107.5
388.038	111.5
388.263	124.5
388.488	121.5
388.713	102.5
388.938	93.5
389.163	93.5
389.387	88.5
389.612	88.5
389.837	82.5
390.062	95.5
390.287	93.5
390.512	82.5
390.736	103.5
390.961	83.5
391.186	97.5
391.411	86.5
391.636	99.5
391.86	77.5
392.085	87.5
392.31	112.5
392.534	92.5
392.759	81.5
392.984	100.5
393.208	103.5
393.433	98.5
393.658	94.5
393.882	90.5
394.107	105.5
394.331	89.5
394.556	81.5
394.78	99.5
395.005	77.5
395.229	89.5
395.454	98.5
395.678	89.5
395.903	83.5
396.127	84.5
396.352	79.5
396.576	82.5
396.801	93.5
397.025	80.5
397.249	95.5
397.474	90.5
397.698	92.5
397.922	94.5
398.147	91.5
398.371	84.5
398.595	92.5
398.82	88.5
399.044	87.5
399.268	95.5
399.492	90.5
399.717	88.5
399.941	83.5
400.165	77.5
400.389	66.5
400.613	81.5
400.837	90.5
401.062	98.5
401.286	100.5
401.51	88.5
401.734	82.5
401.958	93.5
402.182	111.5
402.406	144.5
402.63	129.5
402.854	99.5
403.078	82.5
403.302	77.5
403.526	79.5
403.75	89.5
403.974	100.5
404.198	86.5
404.422	106.5
404.645	80.5
404.869	83.5
405.093	86.5
405.317	99.5
405.541	81.5
405.765	103.5
405.988	131.5
406.212	163.5
406.436	198.5
406.66	134.5
406.883	113.5
407.107	99.5
407.331	102.5
407.555	96.5
407.778	84.5
408.002	91.5
408.226	88.5
408.449	82.5
408.673	94.5
408.896	95.5
409.12	103.5
409.344	88.5
409.567	94.5
409.791	97.5
410.014	101.5
410.238	89.5
410.461	101.5
410.685	103.5
410.908	116.5
411.132	93.5
411.355	105.5
411.578	92.5
411.802	86.5
412.025	83.5
412.249	82.5
412.472	99.5
412.695	88.5
412.919	95.5
413.142	98.5
413.365	87.5
413.589	79.5
413.812	96.5
414.035	99.5
414.258	96.5
414.482	85.5
414.705	87.5
414.928	72.5
415.151	87.5
415.374	87.5
415.597	89.5
415.821	90.5
416.044	76.5
416.267	92.5
416.49	89.5
416.713	93.5
416.936	95.5
417.159	97.5
417.382	80.5
417.605	90.5
417.828	96.5
418.051	84.5
418.274	83.5
418.497	91.5
418.72	74.5
418.943	97.5
419.166	81.5
419.389	91.5
419.611	92.5
419.834	86.5
420.057	86.5
420.28	92.5
420.503	98.5
420.726	79.5
420.948	86.5
421.171	101.5
421.394	93.5
421.617	85.5
421.839	83.5
422.062	84.5
422.285	92.5
422.507	94.5
422.73	101.5
422.953	78.5
423.175	86.5
423.398	83.5
423.621	88.5
423.843	102.5
424.066	86.5
424.288	93.5
424.511	100.5
424.733	92.5
424.956	93.5
425.178	95.5
425.401	96.5
425.623	89.5
425.846	97.5
426.068	97.5
426.291	96.5
426.513	95.5
426.735	92.5
426.958	90.5
427.18	95.5
427.402	134.5
427.625	158.5
427.847	111.5
428.069	107.5
428.292	80.5
428.514	83.5
428.736	88.5
428.958	78.5
429.181	99.5
429.403	90.5
429.625	87.5
429.847	91.5
430.069	96.5
430.292	95.5
430.514	103.5
430.736	86.5
430.958	72.5
431.18	72.5
431.402	76.5
431.624	78.5
431.846	81.5
432.068	77.5
432.29	93.5
432.512	95.5
432.734	88.5
432.956	94.5
433.178	107.5
433.4	96.5
433.622	96.5
433.844	93.5
434.066	93.5
434.287	83.5
434.509	88.5
434.731	85.5
434.953	96.5
435.175	73.5
435.397	85.5
435.618	94.5
435.84	96.5
436.062	114.5
436.284	107.5
436.505	108.5
436.727	100.5
436.949	92.5
437.17	85.5
437.392	100.5
437.614	84.5
437.835	98.5
438.057	109.5
438.278	104.5
438.5	105.5
438.721	121.5
438.943	102.5
439.165	94.5
439.386	87.5
439.608	97.5
439.829	90.5
440.05	126.5
440.272	130.5
440.493	99.5
440.715	85.5
440.936	88.5
441.158	87.5
441.379	82.5
441.6	112.5
441.822	91.5
442.043	96.5
442.264	103.5
442.486	98.5
442.707	103.5
442.928	103.5
443.149	125.5
443.371	115.5
443.592	105.5
443.813	112.5
444.034	98.5
444.255	104.5
444.476	90.5
444.698	94.5
444.919	92.5
445.14	140.5
445.361	127.5
445.582	106.5
445.803	107.5
446.024	104.5
446.245	123.5
446.466	109.5
446.687	108.5
446.908	93.5
447.129	97.5
447.35	77.5
447.571	93.5
447.792	87.5
448.013	86.5
448.234	103.5
448.455	110.5
448.675	94.5
448.896	120.5
449.117	100.5
449.338	96.5
449.559	117.5
449.779	117.5
450	89.5
450.221	91.5
450.442	87.5
450.662	83.5
450.883	107.5
451.104	118.5
451.324	86.5
451.545	75.5
451.766	94.5
451.986	88.5
452.207	87.5
452.428	94.5
452.648	91.5
452.869	115.5
453.089	101.5
453.31	108.5
453.53	85.5
453.751	88.5
453.971	76.5
454.192	103.5
454.412	94.5
454.633	77.5
454.853	77.5
455.073	97.5
455.294	91.5
455.514	98.5
455.734	83.5
455.955	80.5
456.175	82.5
456.395	94.5
456.616	87.5
456.836	83.5
457.056	83.5
457.276	85.5
457.497	82.5
457.717	85.5
457.937	99.5
458.157	91.5
458.377	88.5
458.598	99.5
458.818	132.5
459.038	133.5
459.258	113.5
459.478	95.5
459.698	83.5
459.918	89.5
460.138	87.5
460.358	94.5
460.578	99.5
460.798	85.5
461.018	94.5
461.238	91.5
461.458	71.5
461.678	78.5
461.898	94.5
462.118	101.5
462.338	93.5
462.558	91.5
462.777	84.5
462.997	88.5
463.217	94.5
463.437	83.5
463.657	95.5
463.876	91.5
464.096	87.5
464.316	88.5
464.536	98.5
464.755	97.5
464.975	97.5
465.195	160.5
465.414	140.5
465.634	95.5
465.854	83.5
466.073	109.5
466.293	91.5
466.512	91.5
466.732	93.5
466.951	85.5
467.171	104.5
467.391	91.5
467.61	91.5
467.829	100.5
468.049	85.5
468.268	91.5
468.488	89.5
468.707	86.5
468.927	81.5
469.146	97.5
469.365	102.5
469.585	93.5
469.804	85.5
470.023	104.5
470.243	97.5
470.462	102.5
470.681	124.5
470.901	91.5
471.12	79.5
471.339	87.5
471.558	86.5
471.777	78.5
471.997	86.5
472.216	95.5
472.435	97.5
472.654	87.5
472.873	92.5
473.092	88.5
473.311	82.5
473.53	85.5
473.749	85.5
473.968	96.5
474.187	89.5
474.406	77.5
474.625	100.5
474.844	92.5
475.063	88.5
475.282	76.5
475.501	83.5
475.72	91.5
475.939	75.5
476.158	84.5
476.377	79.5
476.596	91.5
476.814	82.5
477.033	87.5
477.252	84.5
477.471	79.5
477.69	86.5
477.908	93.5
478.127	86.5
478.346	96.5
478.564	87.5
478.783	91.5
479.002	73.5
479.22	81.5
479.439	82.5
479.658	102.5
479.876	98.5
480.095	95.5
480.313	97.5
480.532	76.5
480.751	82.5
480.969	95.5
481.188	128.5
481.406	116.5
481.624	94.5
481.843	83.5
482.061	85.5
482.28	87.5
482.498	86.5
482.717	90.5
482.935	78.5
483.153	77.5
483.372	72.5
483.59	98.5
483.808	96.5
484.027	90.5
484.245	84.5
484.463	102.5
484.681	97.5
484.9	81.5
485.118	97.5
485.336	99.5
485.554	97.5
485.772	99.5
485.99	107.5
486.209	96.5
486.427	92.5
486.645	97.5
486.863	111.5
487.081	99.5
487.299	100.5
487.517	88.5
487.735	83.5
487.953	89.5
488.171	83.5
488.389	95.5
488.607	100.5
488.825	96.5
489.043	94.5
489.261	92.5
489.479	90.5
489.696	84.5
489.914	85.5
490.132	94.5
490.35	87.5
490.568	85.5
490.786	83.5
491.003	91.5
491.221	88.5
491.439	93.5
491.657	79.5
491.874	93.5
492.092	91.5
492.31	90.5
492.527	97.5
492.745	89.5
492.963	104.5
493.18	97.5
493.398	92.5
493.615	80.5
493.833	86.5
494.05	94.5
494.268	82.5
494.485	78.5
494.703	80.5
494.92	94.5
495.138	83.5
495.355	85.5
495.573	79.5
495.79	96.5
496.008	93.5
496.225	94.5
496.442	93.5
496.66	76.5
496.877	91.5
497.094	100.5
497.312	98.5
497.529	81.5
497.746	102.5
497.963	90.5
498.181	94.5
498.398	85.5
498.615	118.5
498.832	106.5
499.049	97.5
499.267	94.5
499.484	89.5
499.701	87.5
499.918	90.5
500.135	90.5
500.352	84.5
500.569	93.5
500.786	80.5
501.003	99.5
501.22	91.5
501.437	85.5
501.654	94.5
501.871	99.5
502.088	83.5
502.305	89.5
502.522	100.5
502.739	99.5
502.956	85.5
503.172	99.5
503.389	105.5
503.606	95.5
503.823	89.5
504.04	84.5
504.256	87.5
504.473	87.5
504.69	101.5
504.907	88.5
505.123	93.5
505.34	86.5
505.557	88.5
505.773	77.5
505.99	103.5
506.207	89.5
506.423	95.5
506.64	103.5
506.856	96.5
507.073	96.5
507.289	86.5
507.506	93.5
507.722	98.5
507.939	114.5
508.155	69.5
508.372	87.5
508.588	76.5
508.805	88.5
509.021	84.5
509.238	91.5
509.454	125.5
509.67	115.5
509.887	97.5
510.103	134.5
510.319	217.5
510.536	763.5
510.752	2368.5
510.968	636.5
511.184	156.5
511.401	113.5
511.617	99.5
511.833	83.5
512.049	85.5
512.265	100.5
512.481	96.5
512.698	102.5
512.914	102.5
513.13	95.5
513.346	97.5
513.562	92.5
513.778	102.5
513.994	111.5
514.21	97.5
514.426	126.5
514.642	132.5
514.858	120.5
515.074	175.5
515.29	437.5
515.506	1422.5
515.721	521.5
515.937	153.5
516.153	116.5
516.369	95.5
516.585	93.5
516.801	80.5
517.016	90.5
517.232	88.5
517.448	75.5
517.664	100.5
517.879	97.5
518.095	87.5
518.311	97.5
518.527	97.5
518.742	94.5
518.958	98.5
519.173	102.5
519.389	88.5
519.605	100.5
519.82	100.5
520.036	110.5
520.251	126.5
520.467	115.5
520.682	116.5
520.898	119.5
521.113	115.5
521.329	144.5
521.544	191.5
521.76	535.5
521.975	2304.5
522.19	1394.5
522.406	295.5
522.621	119.5
522.836	90.5
523.052	100.5
523.267	91.5
523.482	90.5
523.698	98.5
523.913	111.5
524.128	110.5
524.343	83.5
524.559	83.5
524.774	85.5
524.989	97.5
525.204	102.5
525.419	99.5
525.634	98.5
525.849	77.5
526.064	104.5
526.28	96.5
526.495	94.5
526.71	89.5
526.925	99.5
527.14	85.5
527.355	76.5
527.57	92.5
527.785	89.5
527.999	80.5
528.214	83.5
528.429	95.5
528.644	89.5
528.859	88.5
529.074	97.5
529.289	118.5
529.503	159.5
529.718	98.5
529.933	91.5
530.148	86.5
530.363	96.5
530.577	101.5
530.792	89.5
531.007	86.5
531.221	87.5
531.436	89.5
531.651	87.5
531.865	89.5
532.08	83.5
532.295	80.5
532.509	88.5
532.724	96.5
532.938	86.5
533.153	93.5
533.367	91.5
533.582	95.5
533.796	81.5
534.011	92.5
534.225	101.5
534.44	81.5
534.654	84.5
534.868	93.5
535.083	105.5
535.297	85.5
535.511	110.5
535.726	101.5
