Data from Uncirc_2004_H10_HRD10591_00049.txt Node
Date: Wed Jan 03 10:32:22 EST 2024
User: Yrep
Spectrometer: HR+D1059
Trigger mode: 1
Integration Time (sec): 1.000000E-1
Scans to average: 1
Electric dark correction enabled: true
Nonlinearity correction enabled: false
Boxcar width: 0
XAxis mode: Wavelengths
Number of Pixels in Spectrum: 2048
>>>>>Begin Spectral Data<<<<<
223.165	-20.12
223.4	-20.12
223.635	-20.12
223.869	-21.12
224.104	-17.12
224.338	-4.12
224.573	-6.12
224.808	-13.12
225.042	-19.12
225.277	-11.12
225.511	-5.12
225.746	7.88
225.98	2.88
226.215	12.88
226.449	22.88
226.683	10.88
226.918	20.88
227.152	38.88
227.387	43.88
227.621	40.88
227.856	43.88
228.09	39.88
228.324	60.88
228.559	57.88
228.793	71.88
229.027	70.88
229.262	67.88
229.496	78.88
229.73	84.88
229.964	75.88
230.199	73.88
230.433	87.88
230.667	79.88
230.901	66.88
231.136	86.88
231.37	72.88
231.604	90.88
231.838	75.88
232.072	87.88
232.306	86.88
232.541	78.88
232.775	81.88
233.009	97.88
233.243	89.88
233.477	71.88
233.711	77.88
233.945	76.88
234.179	83.88
234.413	64.88
234.647	77.88
234.881	74.88
235.115	82.88
235.349	78.88
235.583	83.88
235.817	87.88
236.051	88.88
236.285	84.88
236.519	68.88
236.753	71.88
236.987	77.88
237.221	66.88
237.455	76.88
237.689	84.88
237.922	80.88
238.156	76.88
238.39	77.88
238.624	94.88
238.858	73.88
239.091	75.88
239.325	79.88
239.559	86.88
239.793	89.88
240.027	83.88
240.26	93.88
240.494	84.88
240.728	91.88
240.961	83.88
241.195	84.88
241.429	67.88
241.662	68.88
241.896	70.88
242.13	90.88
242.363	81.88
242.597	83.88
242.83	67.88
243.064	71.88
243.298	89.88
243.531	76.88
243.765	75.88
243.998	58.88
244.232	79.88
244.465	83.88
244.699	83.88
244.932	55.88
245.166	85.88
245.399	80.88
245.633	80.88
245.866	79.88
246.099	77.88
246.333	79.88
246.566	71.88
246.8	80.88
247.033	70.88
247.266	107.88
247.5	71.88
247.733	72.88
247.966	85.88
248.2	89.88
248.433	90.88
248.666	82.88
248.899	87.88
249.133	91.88
249.366	99.88
249.599	90.88
249.832	83.88
250.066	91.88
250.299	82.88
250.532	77.88
250.765	101.88
250.998	82.88
251.231	84.88
251.465	70.88
251.698	100.88
251.931	87.88
252.164	73.88
252.397	87.88
252.63	81.88
252.863	89.88
253.096	79.88
253.329	90.88
253.562	78.88
253.795	96.88
254.028	85.88
254.261	91.88
254.494	94.88
254.727	64.88
254.96	76.88
255.193	81.88
255.426	72.88
255.659	81.88
255.892	86.88
256.124	79.88
256.357	86.88
256.59	92.88
256.823	66.88
257.056	90.88
257.289	72.88
257.521	83.88
257.754	83.88
257.987	72.88
258.22	82.88
258.452	87.88
258.685	81.88
258.918	83.88
259.151	80.88
259.383	84.88
259.616	73.88
259.849	92.88
260.081	72.88
260.314	88.88
260.547	94.88
260.779	76.88
261.012	81.88
261.244	92.88
261.477	88.88
261.71	98.88
261.942	106.88
262.175	106.88
262.407	85.88
262.64	80.88
262.872	76.88
263.105	80.88
263.337	88.88
263.57	77.88
263.802	89.88
264.035	82.88
264.267	83.88
264.499	72.88
264.732	75.88
264.964	82.88
265.197	80.88
265.429	85.88
265.661	96.88
265.894	91.88
266.126	85.88
266.358	88.88
266.591	88.88
266.823	82.88
267.055	86.88
267.287	86.88
267.52	92.88
267.752	90.88
267.984	81.88
268.216	81.88
268.448	95.88
268.681	90.88
268.913	77.88
269.145	89.88
269.377	86.88
269.609	86.88
269.841	90.88
270.073	85.88
270.306	80.88
270.538	93.88
270.77	74.88
271.002	79.88
271.234	89.88
271.466	88.88
271.698	96.88
271.93	100.88
272.162	87.88
272.394	78.88
272.626	82.88
272.858	79.88
273.09	89.88
273.322	84.88
273.553	80.88
273.785	91.88
274.017	89.88
274.249	100.88
274.481	81.88
274.713	96.88
274.945	94.88
275.176	75.88
275.408	74.88
275.64	82.88
275.872	82.88
276.104	88.88
276.335	84.88
276.567	96.88
276.799	108.88
277.031	96.88
277.262	91.88
277.494	84.88
277.726	87.88
277.957	83.88
278.189	88.88
278.421	88.88
278.652	95.88
278.884	96.88
279.115	90.88
279.347	92.88
279.579	80.88
279.81	79.88
280.042	90.88
280.273	88.88
280.505	87.88
280.736	85.88
280.968	100.88
281.199	98.88
281.431	75.88
281.662	78.88
281.894	86.88
282.125	95.88
282.356	111.88
282.588	128.88
282.819	116.88
283.051	88.88
283.282	89.88
283.513	102.88
283.745	91.88
283.976	96.88
284.207	74.88
284.439	80.88
284.67	95.88
284.901	97.88
285.132	83.88
285.364	101.88
285.595	89.88
285.826	79.88
286.057	102.88
286.288	91.88
286.52	80.88
286.751	85.88
286.982	88.88
287.213	79.88
287.444	92.88
287.675	88.88
287.906	84.88
288.138	81.88
288.369	91.88
288.6	94.88
288.831	98.88
289.062	83.88
289.293	106.88
289.524	84.88
289.755	93.88
289.986	99.88
290.217	93.88
290.448	77.88
290.679	86.88
290.91	98.88
291.141	91.88
291.371	82.88
291.602	80.88
291.833	93.88
292.064	74.88
292.295	94.88
292.526	98.88
292.757	96.88
292.987	90.88
293.218	86.88
293.449	84.88
293.68	92.88
293.91	106.88
294.141	103.88
294.372	98.88
294.603	83.88
294.833	95.88
295.064	87.88
295.295	81.88
295.525	84.88
295.756	99.88
295.987	116.88
296.217	128.88
296.448	120.88
296.679	99.88
296.909	82.88
297.14	87.88
297.37	90.88
297.601	84.88
297.831	94.88
298.062	92.88
298.292	83.88
298.523	85.88
298.753	82.88
298.984	76.88
299.214	82.88
299.445	93.88
299.675	78.88
299.905	95.88
300.136	85.88
300.366	88.88
300.597	91.88
300.827	103.88
301.057	109.88
301.288	102.88
301.518	87.88
301.748	84.88
301.979	94.88
302.209	106.88
302.439	95.88
302.669	100.88
302.9	87.88
303.13	98.88
303.36	89.88
303.59	98.88
303.82	95.88
304.051	101.88
304.281	93.88
304.511	94.88
304.741	86.88
304.971	82.88
305.201	87.88
305.431	78.88
305.661	90.88
305.891	100.88
306.121	104.88
306.352	98.88
306.582	97.88
306.812	99.88
307.042	89.88
307.272	105.88
307.502	104.88
307.731	84.88
307.961	83.88
308.191	98.88
308.421	79.88
308.651	96.88
308.881	94.88
309.111	86.88
309.341	89.88
309.571	97.88
309.8	96.88
310.03	94.88
310.26	89.88
310.49	98.88
310.72	101.88
310.949	92.88
311.179	100.88
311.409	87.88
311.639	86.88
311.868	101.88
312.098	91.88
312.328	97.88
312.557	98.88
312.787	102.88
313.017	97.88
313.246	91.88
313.476	96.88
313.706	93.88
313.935	96.88
314.165	105.88
314.394	115.88
314.624	78.88
314.853	96.88
315.083	86.88
315.312	102.88
315.542	98.88
315.771	82.88
316.001	90.88
316.23	98.88
316.46	101.88
316.689	92.88
316.919	105.88
317.148	99.88
317.377	89.88
317.607	81.88
317.836	92.88
318.065	113.88
318.295	94.88
318.524	99.88
318.753	100.88
318.983	87.88
319.212	102.88
319.441	88.88
319.67	116.88
319.9	92.88
320.129	97.88
320.358	92.88
320.587	94.88
320.816	97.88
321.046	104.88
321.275	96.88
321.504	111.88
321.733	108.88
321.962	102.88
322.191	96.88
322.42	101.88
322.649	105.88
322.878	114.88
323.108	114.88
323.337	105.88
323.566	137.88
323.795	158.88
324.024	211.88
324.253	382.88
324.482	802.88
324.71	1666.88
324.939	2092.88
325.168	768.88
325.397	239.88
325.626	172.88
325.855	143.88
326.084	135.88
326.313	146.88
326.542	146.88
326.77	241.88
326.999	476.88
327.228	903.88
327.457	1650.88
327.686	1301.88
327.914	344.88
328.143	182.88
328.372	154.88
328.6	134.88
328.829	120.88
329.058	117.88
329.287	129.88
329.515	117.88
329.744	108.88
329.972	94.88
330.201	107.88
330.43	111.88
330.658	113.88
330.887	137.88
331.115	116.88
331.344	105.88
331.572	98.88
331.801	115.88
332.03	109.88
332.258	106.88
332.486	105.88
332.715	90.88
332.943	82.88
333.172	83.88
333.4	100.88
333.629	109.88
333.857	117.88
334.085	115.88
334.314	96.88
334.542	97.88
334.771	98.88
334.999	94.88
335.227	99.88
335.455	95.88
335.684	94.88
335.912	104.88
336.14	97.88
336.369	102.88
336.597	98.88
336.825	101.88
337.053	86.88
337.281	93.88
337.51	86.88
337.738	100.88
337.966	89.88
338.194	87.88
338.422	78.88
338.65	83.88
338.878	91.88
339.106	84.88
339.334	94.88
339.562	74.88
339.79	97.88
340.018	83.88
340.246	97.88
340.474	96.88
340.702	94.88
340.93	102.88
341.158	103.88
341.386	91.88
341.614	98.88
341.842	96.88
342.07	108.88
342.298	116.88
342.526	104.88
342.754	87.88
342.981	94.88
343.209	86.88
343.437	96.88
343.665	76.88
343.893	79.88
344.12	94.88
344.348	92.88
344.576	102.88
344.804	99.88
345.031	85.88
345.259	91.88
345.487	91.88
345.714	112.88
345.942	92.88
346.17	84.88
346.397	99.88
346.625	82.88
346.853	93.88
347.08	87.88
347.308	82.88
347.535	100.88
347.763	100.88
347.99	100.88
348.218	98.88
348.445	93.88
348.673	94.88
348.9	102.88
349.128	96.88
349.355	102.88
349.583	91.88
349.81	105.88
350.037	99.88
350.265	85.88
350.492	99.88
350.72	99.88
350.947	89.88
351.174	118.88
351.402	113.88
351.629	102.88
351.856	96.88
352.083	109.88
352.311	101.88
352.538	103.88
352.765	107.88
352.992	106.88
353.22	118.88
353.447	114.88
353.674	113.88
353.901	114.88
354.128	98.88
354.355	95.88
354.583	91.88
354.81	89.88
355.037	87.88
355.264	96.88
355.491	103.88
355.718	102.88
355.945	101.88
356.172	92.88
356.399	104.88
356.626	90.88
356.853	95.88
357.08	102.88
357.307	104.88
357.534	113.88
357.761	85.88
357.988	98.88
358.215	104.88
358.441	89.88
358.668	82.88
358.895	82.88
359.122	100.88
359.349	101.88
359.576	89.88
359.802	95.88
360.029	122.88
360.256	103.88
360.483	88.88
360.709	101.88
360.936	105.88
361.163	91.88
361.39	109.88
361.616	92.88
361.843	83.88
362.07	91.88
362.296	96.88
362.523	88.88
362.749	84.88
362.976	89.88
363.203	97.88
363.429	98.88
363.656	103.88
363.882	100.88
364.109	92.88
364.335	84.88
364.562	87.88
364.788	95.88
365.015	102.88
365.241	116.88
365.468	128.88
365.694	103.88
365.92	102.88
366.147	92.88
366.373	90.88
366.599	79.88
366.826	90.88
367.052	100.88
367.278	82.88
367.505	94.88
367.731	88.88
367.957	89.88
368.184	100.88
368.41	88.88
368.636	118.88
368.862	107.88
369.089	97.88
369.315	97.88
369.541	86.88
369.767	84.88
369.993	94.88
370.219	87.88
370.445	82.88
370.672	99.88
370.898	103.88
371.124	93.88
371.35	79.88
371.576	86.88
371.802	91.88
372.028	102.88
372.254	98.88
372.48	82.88
372.706	82.88
372.932	91.88
373.158	97.88
373.384	91.88
373.61	83.88
373.835	94.88
374.061	86.88
374.287	94.88
374.513	95.88
374.739	100.88
374.965	93.88
375.191	93.88
375.416	96.88
375.642	90.88
375.868	61.88
376.094	106.88
376.319	82.88
376.545	95.88
376.771	88.88
376.997	81.88
377.222	82.88
377.448	83.88
377.674	84.88
377.899	103.88
378.125	88.88
378.35	90.88
378.576	92.88
378.802	84.88
379.027	96.88
379.253	94.88
379.478	95.88
379.704	105.88
379.929	86.88
380.155	99.88
380.38	101.88
380.606	104.88
380.831	92.88
381.057	101.88
381.282	104.88
381.507	96.88
381.733	102.88
381.958	89.88
382.184	92.88
382.409	110.88
382.634	112.88
382.86	106.88
383.085	103.88
383.31	104.88
383.535	107.88
383.761	99.88
383.986	105.88
384.211	115.88
384.436	110.88
384.662	102.88
384.887	103.88
385.112	120.88
385.337	106.88
385.562	118.88
385.787	122.88
386.013	112.88
386.238	120.88
386.463	100.88
386.688	114.88
386.913	106.88
387.138	106.88
387.363	100.88
387.588	114.88
387.813	97.88
388.038	90.88
388.263	119.88
388.488	112.88
388.713	104.88
388.938	106.88
389.163	111.88
389.387	105.88
389.612	85.88
389.837	94.88
390.062	88.88
390.287	83.88
390.512	103.88
390.736	92.88
390.961	90.88
391.186	100.88
391.411	93.88
391.636	90.88
391.86	85.88
392.085	81.88
392.31	87.88
392.534	86.88
392.759	73.88
392.984	84.88
393.208	92.88
393.433	88.88
393.658	95.88
393.882	89.88
394.107	90.88
394.331	81.88
394.556	104.88
394.78	90.88
395.005	88.88
395.229	95.88
395.454	83.88
395.678	85.88
395.903	79.88
396.127	77.88
396.352	85.88
396.576	90.88
396.801	81.88
397.025	94.88
397.249	93.88
397.474	83.88
397.698	95.88
397.922	88.88
398.147	72.88
398.371	76.88
398.595	78.88
398.82	93.88
399.044	90.88
399.268	84.88
399.492	75.88
399.717	87.88
399.941	72.88
400.165	86.88
400.389	94.88
400.613	92.88
400.837	101.88
401.062	91.88
401.286	93.88
401.51	94.88
401.734	98.88
401.958	88.88
402.182	122.88
402.406	150.88
402.63	124.88
402.854	88.88
403.078	85.88
403.302	86.88
403.526	102.88
403.75	98.88
403.974	78.88
404.198	87.88
404.422	87.88
404.645	88.88
404.869	89.88
405.093	82.88
405.317	87.88
405.541	94.88
405.765	103.88
405.988	128.88
406.212	165.88
406.436	208.88
406.66	144.88
406.883	99.88
407.107	92.88
407.331	91.88
407.555	87.88
407.778	90.88
408.002	89.88
408.226	101.88
408.449	82.88
408.673	96.88
408.896	96.88
409.12	100.88
409.344	90.88
409.567	102.88
409.791	83.88
410.014	96.88
410.238	103.88
410.461	90.88
410.685	98.88
410.908	98.88
411.132	91.88
411.355	97.88
411.578	93.88
411.802	86.88
412.025	84.88
412.249	86.88
412.472	98.88
412.695	98.88
412.919	92.88
413.142	72.88
413.365	86.88
413.589	91.88
413.812	88.88
414.035	91.88
414.258	81.88
414.482	81.88
414.705	77.88
414.928	89.88
415.151	100.88
415.374	101.88
415.597	84.88
415.821	102.88
416.044	93.88
416.267	86.88
416.49	88.88
416.713	96.88
416.936	84.88
417.159	95.88
417.382	79.88
417.605	81.88
417.828	102.88
418.051	101.88
418.274	91.88
418.497	95.88
418.72	90.88
418.943	100.88
419.166	102.88
419.389	103.88
419.611	98.88
419.834	92.88
420.057	89.88
420.28	85.88
420.503	79.88
420.726	86.88
420.948	95.88
421.171	104.88
421.394	105.88
421.617	90.88
421.839	97.88
422.062	81.88
422.285	83.88
422.507	103.88
422.73	91.88
422.953	95.88
423.175	82.88
423.398	78.88
423.621	83.88
423.843	102.88
424.066	85.88
424.288	87.88
424.511	88.88
424.733	97.88
424.956	104.88
425.178	91.88
425.401	94.88
425.623	99.88
425.846	112.88
426.068	99.88
426.291	94.88
426.513	91.88
426.735	80.88
426.958	91.88
427.18	104.88
427.402	129.88
427.625	157.88
427.847	127.88
428.069	115.88
428.292	83.88
428.514	91.88
428.736	95.88
428.958	89.88
429.181	103.88
429.403	91.88
429.625	70.88
429.847	87.88
430.069	98.88
430.292	86.88
430.514	94.88
430.736	90.88
430.958	86.88
431.18	78.88
431.402	94.88
431.624	82.88
431.846	87.88
432.068	88.88
432.29	83.88
432.512	96.88
432.734	95.88
432.956	89.88
433.178	100.88
433.4	93.88
433.622	95.88
433.844	97.88
434.066	91.88
434.287	98.88
434.509	90.88
434.731	101.88
434.953	80.88
435.175	78.88
435.397	91.88
435.618	89.88
435.84	91.88
436.062	96.88
436.284	96.88
436.505	100.88
436.727	88.88
436.949	93.88
437.17	86.88
437.392	83.88
437.614	86.88
437.835	115.88
438.057	110.88
438.278	110.88
438.5	100.88
438.721	93.88
438.943	98.88
439.165	78.88
439.386	91.88
439.608	97.88
439.829	98.88
440.05	117.88
440.272	127.88
440.493	100.88
440.715	94.88
440.936	78.88
441.158	93.88
441.379	112.88
441.6	93.88
441.822	90.88
442.043	90.88
442.264	108.88
442.486	87.88
442.707	90.88
442.928	101.88
443.149	122.88
443.371	137.88
443.592	116.88
443.813	105.88
444.034	110.88
444.255	99.88
444.476	87.88
444.698	95.88
444.919	91.88
445.14	141.88
445.361	126.88
445.582	117.88
445.803	114.88
446.024	124.88
446.245	126.88
446.466	117.88
446.687	82.88
446.908	79.88
447.129	71.88
447.35	89.88
447.571	82.88
447.792	98.88
448.013	88.88
448.234	94.88
448.455	104.88
448.675	104.88
448.896	117.88
449.117	108.88
449.338	122.88
449.559	108.88
449.779	115.88
450	93.88
450.221	79.88
450.442	88.88
450.662	92.88
450.883	103.88
451.104	110.88
451.324	85.88
451.545	95.88
451.766	87.88
451.986	82.88
452.207	90.88
452.428	81.88
452.648	97.88
452.869	107.88
453.089	111.88
453.31	118.88
453.53	92.88
453.751	91.88
453.971	114.88
454.192	98.88
454.412	85.88
454.633	96.88
454.853	89.88
455.073	94.88
455.294	90.88
455.514	91.88
455.734	95.88
455.955	88.88
456.175	89.88
456.395	84.88
456.616	75.88
456.836	86.88
457.056	94.88
457.276	91.88
457.497	87.88
457.717	85.88
457.937	88.88
458.157	82.88
458.377	100.88
458.598	92.88
458.818	134.88
459.038	150.88
459.258	110.88
459.478	107.88
459.698	77.88
459.918	78.88
460.138	88.88
460.358	101.88
460.578	74.88
460.798	90.88
461.018	95.88
461.238	97.88
461.458	98.88
461.678	88.88
461.898	80.88
462.118	79.88
462.338	83.88
462.558	90.88
462.777	103.88
462.997	97.88
463.217	96.88
463.437	73.88
463.657	90.88
463.876	75.88
464.096	98.88
464.316	96.88
464.536	92.88
464.755	87.88
464.975	112.88
465.195	156.88
465.414	163.88
465.634	87.88
465.854	100.88
466.073	76.88
466.293	82.88
466.512	69.88
466.732	74.88
466.951	80.88
467.171	91.88
467.391	99.88
467.61	106.88
467.829	102.88
468.049	108.88
468.268	81.88
468.488	84.88
468.707	91.88
468.927	95.88
469.146	106.88
469.365	84.88
469.585	89.88
469.804	98.88
470.023	86.88
470.243	96.88
470.462	96.88
470.681	111.88
470.901	89.88
471.12	86.88
471.339	92.88
471.558	90.88
471.777	90.88
471.997	73.88
472.216	90.88
472.435	107.88
472.654	92.88
472.873	97.88
473.092	96.88
473.311	87.88
473.53	82.88
473.749	92.88
473.968	99.88
474.187	96.88
474.406	85.88
474.625	92.88
474.844	99.88
475.063	91.88
475.282	83.88
475.501	76.88
475.72	90.88
475.939	83.88
476.158	85.88
476.377	78.88
476.596	85.88
476.814	89.88
477.033	95.88
477.252	89.88
477.471	92.88
477.69	99.88
477.908	95.88
478.127	65.88
478.346	90.88
478.564	75.88
478.783	112.88
479.002	106.88
479.22	92.88
479.439	107.88
479.658	82.88
479.876	90.88
480.095	92.88
480.313	83.88
480.532	98.88
480.751	89.88
480.969	100.88
481.188	117.88
481.406	105.88
481.624	90.88
481.843	103.88
482.061	85.88
482.28	96.88
482.498	100.88
482.717	95.88
482.935	106.88
483.153	97.88
483.372	94.88
483.59	76.88
483.808	93.88
484.027	92.88
484.245	82.88
484.463	83.88
484.681	91.88
484.9	89.88
485.118	96.88
485.336	91.88
485.554	91.88
485.772	110.88
485.99	102.88
486.209	98.88
486.427	99.88
486.645	119.88
486.863	118.88
487.081	111.88
487.299	91.88
487.517	97.88
487.735	95.88
487.953	94.88
488.171	102.88
488.389	100.88
488.607	96.88
488.825	98.88
489.043	100.88
489.261	97.88
489.479	84.88
489.696	97.88
489.914	97.88
490.132	90.88
490.35	76.88
490.568	97.88
490.786	87.88
491.003	91.88
491.221	92.88
491.439	102.88
491.657	98.88
491.874	96.88
492.092	76.88
492.31	90.88
492.527	90.88
492.745	81.88
492.963	104.88
493.18	91.88
493.398	105.88
493.615	91.88
493.833	87.88
494.05	92.88
494.268	83.88
494.485	85.88
494.703	105.88
494.92	109.88
495.138	92.88
495.355	94.88
495.573	85.88
495.79	86.88
496.008	92.88
496.225	75.88
496.442	98.88
496.66	91.88
496.877	92.88
497.094	103.88
497.312	93.88
497.529	79.88
497.746	101.88
497.963	89.88
498.181	105.88
498.398	90.88
498.615	111.88
498.832	109.88
499.049	97.88
499.267	96.88
499.484	87.88
499.701	102.88
499.918	101.88
500.135	81.88
500.352	91.88
500.569	98.88
500.786	87.88
501.003	91.88
501.22	104.88
501.437	93.88
501.654	93.88
501.871	113.88
502.088	97.88
502.305	98.88
502.522	97.88
502.739	94.88
502.956	83.88
503.172	102.88
503.389	110.88
503.606	96.88
503.823	94.88
504.04	97.88
504.256	96.88
504.473	95.88
504.69	98.88
504.907	87.88
505.123	93.88
505.34	89.88
505.557	90.88
505.773	95.88
505.99	100.88
506.207	78.88
506.423	98.88
506.64	84.88
506.856	97.88
507.073	94.88
507.289	98.88
507.506	97.88
507.722	108.88
507.939	135.88
508.155	86.88
508.372	101.88
508.588	101.88
508.805	101.88
509.021	111.88
509.238	95.88
509.454	99.88
509.67	115.88
509.887	116.88
510.103	130.88
510.319	229.88
510.536	784.88
510.752	2375.88
510.968	668.88
511.184	158.88
511.401	112.88
511.617	100.88
511.833	101.88
512.049	85.88
512.265	95.88
512.481	100.88
512.698	79.88
512.914	105.88
513.13	92.88
513.346	91.88
513.562	94.88
513.778	91.88
513.994	107.88
514.21	103.88
514.426	122.88
514.642	136.88
514.858	131.88
515.074	153.88
515.29	462.88
