Data from Uncirc_2004_H10_HRD10591_00027.txt Node
Date: Wed Jan 03 10:32:18 EST 2024
User: Yrep
Spectrometer: HR+D1059
Trigger mode: 1
Integration Time (sec): 1.000000E-1
Scans to average: 1
Electric dark correction enabled: true
Nonlinearity correction enabled: false
Boxcar width: 0
XAxis mode: Wavelengths
Number of Pixels in Spectrum: 2048
>>>>>Begin Spectral Data<<<<<
223.165	-28.75
223.4	-28.75
223.635	-28.75
223.869	-13.75
224.104	-4.75
224.338	-17.75
224.573	-13.75
224.808	-7.75
225.042	-8.75
225.277	-11.75
225.511	-3.75
225.746	-8.75
225.98	18.25
226.215	2.25
226.449	16.25
226.683	20.25
226.918	35.25
227.152	27.25
227.387	31.25
227.621	38.25
227.856	46.25
228.09	46.25
228.324	47.25
228.559	52.25
228.793	52.25
229.027	54.25
229.262	73.25
229.496	68.25
229.73	89.25
229.964	87.25
230.199	74.25
230.433	75.25
230.667	61.25
230.901	77.25
231.136	71.25
231.37	69.25
231.604	67.25
231.838	65.25
232.072	95.25
232.306	81.25
232.541	61.25
232.775	72.25
233.009	81.25
233.243	80.25
233.477	77.25
233.711	83.25
233.945	81.25
234.179	86.25
234.413	91.25
234.647	73.25
234.881	76.25
235.115	61.25
235.349	77.25
235.583	94.25
235.817	86.25
236.051	65.25
236.285	63.25
236.519	64.25
236.753	78.25
236.987	63.25
237.221	84.25
237.455	81.25
237.689	78.25
237.922	73.25
238.156	80.25
238.39	51.25
238.624	58.25
238.858	56.25
239.091	81.25
239.325	84.25
239.559	75.25
239.793	76.25
240.027	85.25
240.26	67.25
240.494	72.25
240.728	77.25
240.961	74.25
241.195	83.25
241.429	89.25
241.662	67.25
241.896	71.25
242.13	79.25
242.363	71.25
242.597	74.25
242.83	71.25
243.064	64.25
243.298	83.25
243.531	81.25
243.765	67.25
243.998	73.25
244.232	78.25
244.465	76.25
244.699	80.25
244.932	82.25
245.166	67.25
245.399	76.25
245.633	81.25
245.866	70.25
246.099	69.25
246.333	70.25
246.566	88.25
246.8	77.25
247.033	70.25
247.266	69.25
247.5	75.25
247.733	73.25
247.966	72.25
248.2	83.25
248.433	81.25
248.666	75.25
248.899	73.25
249.133	76.25
249.366	83.25
249.599	95.25
249.832	87.25
250.066	81.25
250.299	75.25
250.532	76.25
250.765	77.25
250.998	90.25
251.231	71.25
251.465	87.25
251.698	89.25
251.931	81.25
252.164	79.25
252.397	71.25
252.63	83.25
252.863	86.25
253.096	84.25
253.329	64.25
253.562	77.25
253.795	66.25
254.028	84.25
254.261	65.25
254.494	84.25
254.727	87.25
254.96	80.25
255.193	89.25
255.426	86.25
255.659	82.25
255.892	77.25
256.124	69.25
256.357	79.25
256.59	81.25
256.823	75.25
257.056	86.25
257.289	81.25
257.521	81.25
257.754	71.25
257.987	78.25
258.22	89.25
258.452	82.25
258.685	73.25
258.918	77.25
259.151	84.25
259.383	66.25
259.616	85.25
259.849	81.25
260.081	81.25
260.314	82.25
260.547	78.25
260.779	70.25
261.012	66.25
261.244	71.25
261.477	84.25
261.71	86.25
261.942	100.25
262.175	100.25
262.407	87.25
262.64	75.25
262.872	89.25
263.105	70.25
263.337	79.25
263.57	73.25
263.802	70.25
264.035	75.25
264.267	83.25
264.499	68.25
264.732	76.25
264.964	84.25
265.197	73.25
265.429	63.25
265.661	96.25
265.894	75.25
266.126	89.25
266.358	86.25
266.591	84.25
266.823	79.25
267.055	79.25
267.287	76.25
267.52	85.25
267.752	68.25
267.984	94.25
268.216	83.25
268.448	81.25
268.681	82.25
268.913	78.25
269.145	78.25
269.377	88.25
269.609	73.25
269.841	86.25
270.073	73.25
270.306	91.25
270.538	89.25
270.77	79.25
271.002	68.25
271.234	78.25
271.466	96.25
271.698	75.25
271.93	81.25
272.162	84.25
272.394	78.25
272.626	106.25
272.858	92.25
273.09	95.25
273.322	83.25
273.553	73.25
273.785	92.25
274.017	69.25
274.249	87.25
274.481	89.25
274.713	89.25
274.945	80.25
275.176	94.25
275.408	83.25
275.64	75.25
275.872	93.25
276.104	80.25
276.335	98.25
276.567	89.25
276.799	97.25
277.031	90.25
277.262	87.25
277.494	97.25
277.726	93.25
277.957	77.25
278.189	71.25
278.421	97.25
278.652	97.25
278.884	75.25
279.115	83.25
279.347	82.25
279.579	82.25
279.81	95.25
280.042	63.25
280.273	73.25
280.505	83.25
280.736	84.25
280.968	81.25
281.199	73.25
281.431	87.25
281.662	81.25
281.894	76.25
282.125	90.25
282.356	100.25
282.588	129.25
282.819	112.25
283.051	75.25
283.282	76.25
283.513	77.25
283.745	85.25
283.976	81.25
284.207	96.25
284.439	78.25
284.67	86.25
284.901	75.25
285.132	81.25
285.364	84.25
285.595	81.25
285.826	92.25
286.057	74.25
286.288	80.25
286.52	82.25
286.751	73.25
286.982	79.25
287.213	78.25
287.444	91.25
287.675	70.25
287.906	90.25
288.138	86.25
288.369	83.25
288.6	94.25
288.831	67.25
289.062	82.25
289.293	78.25
289.524	94.25
289.755	73.25
289.986	81.25
290.217	85.25
290.448	84.25
290.679	84.25
290.91	87.25
291.141	75.25
291.371	91.25
291.602	81.25
291.833	87.25
292.064	94.25
292.295	79.25
292.526	80.25
292.757	89.25
292.987	74.25
293.218	86.25
293.449	95.25
293.68	101.25
293.91	87.25
294.141	97.25
294.372	91.25
294.603	90.25
294.833	86.25
295.064	92.25
295.295	81.25
295.525	77.25
295.756	102.25
295.987	107.25
296.217	129.25
296.448	127.25
296.679	98.25
296.909	77.25
297.14	87.25
297.37	90.25
297.601	86.25
297.831	83.25
298.062	103.25
298.292	89.25
298.523	79.25
298.753	89.25
298.984	79.25
299.214	98.25
299.445	103.25
299.675	76.25
299.905	89.25
300.136	95.25
300.366	92.25
300.597	84.25
300.827	95.25
301.057	81.25
301.288	105.25
301.518	88.25
301.748	83.25
301.979	92.25
302.209	82.25
302.439	88.25
302.669	91.25
302.9	87.25
303.13	85.25
303.36	90.25
303.59	84.25
303.82	96.25
304.051	98.25
304.281	90.25
304.511	94.25
304.741	84.25
304.971	88.25
305.201	78.25
305.431	92.25
305.661	95.25
305.891	79.25
306.121	89.25
306.352	106.25
306.582	90.25
306.812	79.25
307.042	76.25
307.272	91.25
307.502	97.25
307.731	86.25
307.961	92.25
308.191	89.25
308.421	93.25
308.651	81.25
308.881	74.25
309.111	91.25
309.341	72.25
309.571	85.25
309.8	98.25
310.03	93.25
310.26	81.25
310.49	97.25
310.72	92.25
310.949	104.25
311.179	94.25
311.409	88.25
311.639	94.25
311.868	99.25
312.098	88.25
312.328	89.25
312.557	110.25
312.787	105.25
313.017	85.25
313.246	94.25
313.476	93.25
313.706	82.25
313.935	82.25
314.165	97.25
314.394	92.25
314.624	86.25
314.853	89.25
315.083	90.25
315.312	97.25
315.542	103.25
315.771	101.25
316.001	85.25
316.23	86.25
316.46	83.25
316.689	92.25
316.919	89.25
317.148	87.25
317.377	91.25
317.607	78.25
317.836	89.25
318.065	106.25
318.295	96.25
318.524	80.25
318.753	98.25
318.983	84.25
319.212	91.25
319.441	93.25
319.67	95.25
319.9	103.25
320.129	96.25
320.358	91.25
320.587	97.25
320.816	102.25
321.046	91.25
321.275	94.25
321.504	89.25
321.733	109.25
321.962	92.25
322.191	96.25
322.42	106.25
322.649	110.25
322.878	102.25
323.108	108.25
323.337	114.25
323.566	150.25
323.795	161.25
324.024	202.25
324.253	380.25
324.482	861.25
324.71	1777.25
324.939	2291.25
325.168	850.25
325.397	246.25
325.626	146.25
325.855	130.25
326.084	123.25
326.313	125.25
326.542	150.25
326.77	235.25
326.999	481.25
327.228	1001.25
327.457	1770.25
327.686	1417.25
327.914	378.25
328.143	182.25
328.372	124.25
328.6	127.25
328.829	110.25
329.058	110.25
329.287	118.25
329.515	114.25
329.744	91.25
329.972	91.25
330.201	124.25
330.43	103.25
330.658	104.25
330.887	131.25
331.115	105.25
331.344	101.25
331.572	81.25
331.801	118.25
332.03	94.25
332.258	99.25
332.486	92.25
332.715	83.25
332.943	101.25
333.172	101.25
333.4	91.25
333.629	96.25
333.857	110.25
334.085	104.25
334.314	94.25
334.542	100.25
334.771	101.25
334.999	102.25
335.227	97.25
335.455	105.25
335.684	108.25
335.912	91.25
336.14	87.25
336.369	97.25
336.597	97.25
336.825	90.25
337.053	85.25
337.281	79.25
337.51	90.25
337.738	95.25
337.966	95.25
338.194	87.25
338.422	87.25
338.65	116.25
338.878	84.25
339.106	79.25
339.334	82.25
339.562	86.25
339.79	93.25
340.018	109.25
340.246	75.25
340.474	73.25
340.702	93.25
340.93	81.25
341.158	92.25
341.386	84.25
341.614	104.25
341.842	91.25
342.07	90.25
342.298	87.25
342.526	93.25
342.754	76.25
342.981	83.25
343.209	85.25
343.437	101.25
343.665	84.25
343.893	89.25
344.12	86.25
344.348	91.25
344.576	79.25
344.804	87.25
345.031	90.25
345.259	102.25
345.487	86.25
345.714	94.25
345.942	91.25
346.17	83.25
346.397	87.25
346.625	76.25
346.853	86.25
347.08	93.25
347.308	82.25
347.535	91.25
347.763	90.25
347.99	104.25
348.218	100.25
348.445	98.25
348.673	107.25
348.9	83.25
349.128	94.25
349.355	89.25
349.583	98.25
349.81	108.25
350.037	92.25
350.265	98.25
350.492	69.25
350.72	101.25
350.947	103.25
351.174	108.25
351.402	111.25
351.629	95.25
351.856	95.25
352.083	102.25
352.311	102.25
352.538	102.25
352.765	99.25
352.992	100.25
353.22	109.25
353.447	108.25
353.674	86.25
353.901	91.25
354.128	97.25
354.355	98.25
354.583	103.25
354.81	109.25
355.037	85.25
355.264	90.25
355.491	94.25
355.718	103.25
355.945	84.25
356.172	91.25
356.399	88.25
356.626	94.25
356.853	99.25
357.08	87.25
357.307	84.25
357.534	89.25
357.761	97.25
357.988	97.25
358.215	102.25
358.441	107.25
358.668	100.25
358.895	83.25
359.122	96.25
359.349	76.25
359.576	91.25
359.802	95.25
360.029	100.25
360.256	100.25
360.483	85.25
360.709	83.25
360.936	77.25
361.163	91.25
361.39	105.25
361.616	104.25
361.843	78.25
362.07	85.25
362.296	81.25
362.523	77.25
362.749	89.25
362.976	85.25
363.203	82.25
363.429	93.25
363.656	80.25
363.882	85.25
364.109	95.25
364.335	79.25
364.562	73.25
364.788	75.25
365.015	91.25
365.241	85.25
365.468	106.25
365.694	91.25
365.92	93.25
366.147	92.25
366.373	82.25
366.599	84.25
366.826	87.25
367.052	86.25
367.278	84.25
367.505	84.25
367.731	87.25
367.957	83.25
368.184	80.25
368.41	86.25
368.636	98.25
368.862	109.25
369.089	93.25
369.315	77.25
369.541	86.25
369.767	84.25
369.993	91.25
370.219	86.25
370.445	93.25
370.672	84.25
370.898	88.25
371.124	94.25
371.35	83.25
371.576	83.25
371.802	99.25
372.028	83.25
372.254	71.25
372.48	82.25
372.706	83.25
372.932	79.25
373.158	79.25
373.384	83.25
373.61	86.25
373.835	93.25
374.061	83.25
374.287	84.25
374.513	97.25
374.739	78.25
374.965	85.25
375.191	83.25
375.416	82.25
375.642	78.25
375.868	99.25
376.094	78.25
376.319	78.25
376.545	80.25
376.771	101.25
376.997	76.25
377.222	93.25
377.448	91.25
377.674	81.25
377.899	81.25
378.125	93.25
378.35	80.25
378.576	91.25
378.802	97.25
379.027	73.25
379.253	80.25
379.478	77.25
379.704	92.25
379.929	106.25
380.155	86.25
380.38	92.25
380.606	114.25
380.831	97.25
381.057	101.25
381.282	100.25
381.507	89.25
381.733	94.25
381.958	84.25
382.184	91.25
382.409	100.25
382.634	96.25
382.86	87.25
383.085	99.25
383.31	106.25
383.535	105.25
383.761	97.25
383.986	98.25
384.211	94.25
384.436	97.25
384.662	89.25
384.887	104.25
385.112	93.25
385.337	105.25
385.562	102.25
385.787	87.25
386.013	111.25
386.238	122.25
386.463	106.25
386.688	112.25
386.913	94.25
387.138	101.25
387.363	90.25
387.588	84.25
387.813	103.25
388.038	108.25
388.263	105.25
388.488	123.25
388.713	104.25
388.938	95.25
389.163	91.25
389.387	91.25
389.612	79.25
389.837	90.25
390.062	88.25
390.287	81.25
390.512	84.25
390.736	107.25
390.961	80.25
391.186	106.25
391.411	91.25
391.636	87.25
391.86	86.25
392.085	89.25
392.31	89.25
392.534	95.25
392.759	92.25
392.984	81.25
393.208	82.25
393.433	80.25
393.658	86.25
393.882	81.25
394.107	76.25
394.331	75.25
394.556	83.25
394.78	86.25
395.005	86.25
395.229	81.25
395.454	79.25
395.678	88.25
395.903	87.25
396.127	79.25
396.352	100.25
396.576	77.25
396.801	94.25
397.025	99.25
397.249	84.25
397.474	93.25
397.698	87.25
397.922	77.25
398.147	90.25
398.371	78.25
398.595	83.25
398.82	76.25
399.044	90.25
399.268	69.25
399.492	90.25
399.717	92.25
399.941	92.25
400.165	83.25
400.389	86.25
400.613	91.25
400.837	87.25
401.062	108.25
401.286	87.25
401.51	78.25
401.734	78.25
401.958	93.25
402.182	134.25
402.406	153.25
402.63	121.25
402.854	85.25
403.078	90.25
403.302	78.25
403.526	78.25
403.75	81.25
403.974	86.25
404.198	92.25
404.422	83.25
404.645	95.25
404.869	94.25
405.093	82.25
405.317	93.25
405.541	95.25
405.765	98.25
405.988	114.25
406.212	176.25
406.436	214.25
406.66	141.25
406.883	106.25
407.107	101.25
407.331	86.25
407.555	89.25
407.778	99.25
408.002	81.25
408.226	87.25
408.449	87.25
408.673	88.25
408.896	80.25
409.12	94.25
409.344	87.25
409.567	78.25
409.791	96.25
410.014	98.25
410.238	97.25
410.461	86.25
410.685	99.25
410.908	92.25
411.132	95.25
411.355	83.25
411.578	86.25
411.802	78.25
412.025	86.25
412.249	94.25
412.472	87.25
412.695	97.25
412.919	76.25
413.142	96.25
413.365	85.25
413.589	82.25
413.812	109.25
414.035	102.25
414.258	79.25
414.482	83.25
414.705	93.25
414.928	74.25
415.151	80.25
415.374	90.25
415.597	80.25
415.821	80.25
416.044	98.25
416.267	91.25
416.49	86.25
416.713	81.25
416.936	94.25
417.159	81.25
417.382	77.25
417.605	95.25
417.828	87.25
418.051	83.25
418.274	76.25
418.497	79.25
418.72	84.25
418.943	79.25
419.166	91.25
419.389	87.25
419.611	76.25
419.834	83.25
420.057	87.25
420.28	82.25
420.503	78.25
420.726	99.25
420.948	93.25
421.171	91.25
421.394	79.25
421.617	86.25
421.839	93.25
422.062	92.25
422.285	97.25
422.507	87.25
422.73	97.25
422.953	100.25
423.175	77.25
423.398	94.25
423.621	85.25
423.843	95.25
424.066	87.25
424.288	73.25
424.511	82.25
424.733	78.25
424.956	98.25
425.178	101.25
425.401	80.25
425.623	90.25
425.846	98.25
426.068	82.25
426.291	78.25
426.513	78.25
426.735	60.25
426.958	85.25
427.18	97.25
427.402	119.25
427.625	153.25
427.847	113.25
428.069	106.25
428.292	84.25
428.514	89.25
428.736	77.25
428.958	74.25
429.181	90.25
429.403	68.25
429.625	85.25
429.847	89.25
430.069	76.25
430.292	81.25
430.514	84.25
430.736	92.25
430.958	94.25
431.18	69.25
431.402	84.25
431.624	74.25
431.846	82.25
432.068	74.25
432.29	78.25
432.512	94.25
432.734	98.25
432.956	91.25
433.178	96.25
433.4	90.25
433.622	80.25
433.844	95.25
434.066	86.25
434.287	92.25
434.509	80.25
434.731	83.25
434.953	81.25
435.175	82.25
435.397	102.25
435.618	78.25
435.84	85.25
436.062	106.25
436.284	111.25
436.505	95.25
436.727	98.25
436.949	90.25
437.17	83.25
437.392	89.25
437.614	93.25
437.835	117.25
438.057	115.25
438.278	112.25
438.5	109.25
438.721	106.25
438.943	100.25
439.165	87.25
439.386	80.25
439.608	88.25
439.829	117.25
440.05	102.25
440.272	130.25
440.493	83.25
440.715	82.25
440.936	89.25
441.158	74.25
441.379	95.25
441.6	81.25
441.822	82.25
442.043	79.25
442.264	92.25
442.486	107.25
442.707	95.25
442.928	94.25
443.149	133.25
443.371	125.25
443.592	105.25
443.813	100.25
444.034	107.25
444.255	94.25
444.476	77.25
444.698	85.25
444.919	91.25
445.14	142.25
445.361	117.25
445.582	110.25
445.803	123.25
446.024	116.25
446.245	115.25
446.466	122.25
446.687	88.25
446.908	84.25
447.129	79.25
447.35	82.25
447.571	80.25
447.792	95.25
448.013	91.25
448.234	93.25
448.455	97.25
448.675	106.25
448.896	106.25
449.117	94.25
449.338	96.25
449.559	115.25
449.779	127.25
450	84.25
450.221	78.25
450.442	81.25
450.662	97.25
450.883	98.25
451.104	88.25
451.324	83.25
451.545	84.25
451.766	79.25
451.986	78.25
452.207	76.25
452.428	80.25
452.648	96.25
452.869	104.25
453.089	101.25
453.31	105.25
453.53	64.25
453.751	92.25
453.971	96.25
454.192	106.25
454.412	103.25
454.633	84.25
454.853	80.25
455.073	91.25
455.294	91.25
455.514	103.25
455.734	86.25
455.955	80.25
456.175	80.25
456.395	84.25
456.616	86.25
456.836	80.25
457.056	91.25
457.276	78.25
457.497	83.25
457.717	80.25
457.937	86.25
458.157	85.25
458.377	80.25
458.598	105.25
458.818	133.25
459.038	141.25
459.258	101.25
459.478	93.25
459.698	81.25
459.918	82.25
460.138	91.25
460.358	81.25
460.578	88.25
460.798	80.25
461.018	83.25
461.238	88.25
461.458	81.25
461.678	70.25
461.898	86.25
462.118	73.25
462.338	79.25
462.558	87.25
462.777	82.25
462.997	77.25
463.217	78.25
463.437	92.25
463.657	70.25
463.876	83.25
464.096	87.25
464.316	83.25
464.536	101.25
464.755	95.25
464.975	87.25
465.195	148.25
465.414	148.25
465.634	78.25
465.854	82.25
466.073	78.25
466.293	78.25
466.512	82.25
466.732	87.25
466.951	86.25
467.171	95.25
467.391	101.25
467.61	90.25
467.829	93.25
468.049	89.25
468.268	74.25
468.488	79.25
468.707	91.25
468.927	67.25
469.146	81.25
469.365	92.25
469.585	83.25
469.804	91.25
470.023	91.25
470.243	83.25
470.462	87.25
470.681	110.25
470.901	96.25
471.12	75.25
471.339	86.25
471.558	84.25
471.777	67.25
471.997	91.25
472.216	92.25
472.435	93.25
472.654	89.25
472.873	79.25
473.092	82.25
473.311	91.25
473.53	88.25
473.749	86.25
473.968	98.25
474.187	108.25
474.406	79.25
474.625	94.25
474.844	85.25
475.063	93.25
475.282	87.25
475.501	93.25
475.72	86.25
475.939	83.25
476.158	81.25
476.377	72.25
476.596	79.25
476.814	89.25
477.033	78.25
477.252	97.25
477.471	92.25
477.69	81.25
477.908	66.25
478.127	77.25
478.346	81.25
478.564	90.25
478.783	98.25
479.002	94.25
479.22	97.25
479.439	100.25
479.658	87.25
479.876	93.25
480.095	86.25
480.313	82.25
480.532	84.25
480.751	84.25
480.969	97.25
481.188	122.25
481.406	102.25
481.624	81.25
481.843	78.25
482.061	83.25
482.28	100.25
482.498	90.25
482.717	89.25
482.935	91.25
483.153	97.25
483.372	94.25
483.59	83.25
483.808	85.25
484.027	84.25
484.245	99.25
484.463	93.25
484.681	108.25
484.9	90.25
485.118	82.25
485.336	81.25
485.554	92.25
485.772	82.25
485.99	100.25
486.209	92.25
486.427	92.25
486.645	103.25
486.863	99.25
487.081	97.25
487.299	100.25
487.517	96.25
487.735	83.25
487.953	103.25
488.171	92.25
488.389	95.25
488.607	94.25
488.825	85.25
489.043	88.25
489.261	77.25
489.479	84.25
489.696	87.25
489.914	82.25
490.132	90.25
490.35	101.25
490.568	94.25
490.786	95.25
491.003	76.25
491.221	83.25
491.439	77.25
491.657	92.25
491.874	91.25
492.092	89.25
492.31	94.25
492.527	94.25
492.745	91.25
492.963	84.25
493.18	89.25
493.398	94.25
493.615	95.25
493.833	91.25
494.05	95.25
494.268	97.25
494.485	90.25
494.703	88.25
494.92	83.25
495.138	82.25
495.355	84.25
495.573	81.25
495.79	95.25
496.008	87.25
496.225	89.25
496.442	84.25
496.66	99.25
496.877	100.25
497.094	86.25
497.312	99.25
497.529	85.25
497.746	84.25
497.963	76.25
498.181	95.25
498.398	96.25
498.615	102.25
498.832	109.25
499.049	90.25
499.267	81.25
499.484	96.25
499.701	96.25
499.918	85.25
500.135	84.25
500.352	90.25
500.569	77.25
500.786	96.25
501.003	94.25
501.22	104.25
501.437	84.25
501.654	89.25
501.871	99.25
502.088	90.25
502.305	76.25
502.522	94.25
502.739	87.25
502.956	96.25
503.172	84.25
503.389	95.25
503.606	94.25
503.823	97.25
504.04	85.25
504.256	91.25
504.473	85.25
504.69	86.25
504.907	95.25
505.123	68.25
505.34	77.25
505.557	97.25
505.773	93.25
505.99	89.25
506.207	89.25
506.423	94.25
506.64	99.25
506.856	92.25
507.073	87.25
507.289	94.25
507.506	106.25
507.722	100.25
507.939	116.25
508.155	97.25
508.372	79.25
508.588	75.25
508.805	87.25
509.021	111.25
509.238	107.25
509.454	93.25
509.67	81.25
509.887	121.25
510.103	121.25
510.319	227.25
510.536	811.25
510.752	2413.25
510.968	677.25
511.184	148.25
511.401	118.25
511.617	100.25
511.833	86.25
512.049	94.25
512.265	90.25
512.481	96.25
512.698	90.25
512.914	90.25
513.13	100.25
513.346	94.25
513.562	84.25
513.778	104.25
513.994	89.25
514.21	118.25
514.426	113.25
514.642	112.25
514.858	111.25
515.074	168.25
515.29	451.25
515.506	1445.25
515.721	542.25
515.937	163.25
516.153	108.25
516.369	86.25
516.585	86.25
516.801	81.25
