Data from Uncirc_2004_H10_HRD10591_00054.txt Node
Date: Wed Jan 03 10:32:23 EST 2024
User: Yrep
Spectrometer: HR+D1059
Trigger mode: 1
Integration Time (sec): 1.000000E-1
Scans to average: 1
Electric dark correction enabled: true
Nonlinearity correction enabled: false
Boxcar width: 0
XAxis mode: Wavelengths
Number of Pixels in Spectrum: 2048
>>>>>Begin Spectral Data<<<<<
223.165	-12.25
223.4	-12.25
223.635	-12.25
223.869	-22.25
224.104	-16.25
224.338	-9.25
224.573	-25.25
224.808	-22.25
225.042	-19.25
225.277	-11.25
225.511	-12.25
225.746	14.75
225.98	-2.25
226.215	15.75
226.449	34.75
226.683	32.75
226.918	17.75
227.152	36.75
227.387	45.75
227.621	51.75
227.856	42.75
228.09	45.75
228.324	71.75
228.559	58.75
228.793	51.75
229.027	56.75
229.262	58.75
229.496	68.75
229.73	72.75
229.964	81.75
230.199	68.75
230.433	64.75
230.667	79.75
230.901	87.75
231.136	69.75
231.37	71.75
231.604	70.75
231.838	84.75
232.072	81.75
232.306	70.75
232.541	68.75
232.775	70.75
233.009	84.75
233.243	82.75
233.477	86.75
233.711	78.75
233.945	88.75
234.179	77.75
234.413	84.75
234.647	69.75
234.881	72.75
235.115	72.75
235.349	91.75
235.583	81.75
235.817	77.75
236.051	85.75
236.285	73.75
236.519	75.75
236.753	83.75
236.987	66.75
237.221	85.75
237.455	82.75
237.689	76.75
237.922	83.75
238.156	79.75
238.39	70.75
238.624	84.75
238.858	74.75
239.091	74.75
239.325	87.75
239.559	91.75
239.793	68.75
240.027	68.75
240.26	66.75
240.494	72.75
240.728	71.75
240.961	77.75
241.195	71.75
241.429	68.75
241.662	68.75
241.896	65.75
242.13	77.75
242.363	80.75
242.597	73.75
242.83	74.75
243.064	70.75
243.298	67.75
243.531	76.75
243.765	72.75
243.998	77.75
244.232	77.75
244.465	78.75
244.699	72.75
244.932	87.75
245.166	69.75
245.399	76.75
245.633	83.75
245.866	76.75
246.099	77.75
246.333	77.75
246.566	72.75
246.8	64.75
247.033	70.75
247.266	77.75
247.5	84.75
247.733	80.75
247.966	82.75
248.2	83.75
248.433	84.75
248.666	83.75
248.899	70.75
249.133	76.75
249.366	80.75
249.599	89.75
249.832	84.75
250.066	69.75
250.299	82.75
250.532	93.75
250.765	74.75
250.998	80.75
251.231	81.75
251.465	72.75
251.698	73.75
251.931	77.75
252.164	65.75
252.397	83.75
252.63	70.75
252.863	70.75
253.096	68.75
253.329	79.75
253.562	76.75
253.795	96.75
254.028	75.75
254.261	62.75
254.494	92.75
254.727	77.75
254.96	77.75
255.193	97.75
255.426	81.75
255.659	68.75
255.892	83.75
256.124	71.75
256.357	79.75
256.59	88.75
256.823	68.75
257.056	74.75
257.289	82.75
257.521	86.75
257.754	80.75
257.987	66.75
258.22	90.75
258.452	80.75
258.685	82.75
258.918	84.75
259.151	72.75
259.383	78.75
259.616	45.75
259.849	74.75
260.081	86.75
260.314	78.75
260.547	69.75
260.779	70.75
261.012	67.75
261.244	77.75
261.477	83.75
261.71	96.75
261.942	108.75
262.175	130.75
262.407	90.75
262.64	74.75
262.872	78.75
263.105	79.75
263.337	75.75
263.57	74.75
263.802	81.75
264.035	67.75
264.267	77.75
264.499	86.75
264.732	66.75
264.964	66.75
265.197	80.75
265.429	79.75
265.661	86.75
265.894	87.75
266.126	81.75
266.358	84.75
266.591	71.75
266.823	78.75
267.055	79.75
267.287	77.75
267.52	88.75
267.752	77.75
267.984	72.75
268.216	85.75
268.448	68.75
268.681	79.75
268.913	76.75
269.145	78.75
269.377	83.75
269.609	91.75
269.841	80.75
270.073	64.75
270.306	68.75
270.538	75.75
270.77	89.75
271.002	71.75
271.234	77.75
271.466	80.75
271.698	79.75
271.93	86.75
272.162	83.75
272.394	89.75
272.626	71.75
272.858	83.75
273.09	80.75
273.322	86.75
273.553	83.75
273.785	94.75
274.017	81.75
274.249	88.75
274.481	82.75
274.713	79.75
274.945	73.75
275.176	84.75
275.408	79.75
275.64	74.75
275.872	72.75
276.104	85.75
276.335	88.75
276.567	93.75
276.799	116.75
277.031	87.75
277.262	79.75
277.494	81.75
277.726	97.75
277.957	79.75
278.189	75.75
278.421	79.75
278.652	90.75
278.884	78.75
279.115	90.75
279.347	75.75
279.579	81.75
279.81	91.75
280.042	95.75
280.273	89.75
280.505	82.75
280.736	85.75
280.968	83.75
281.199	80.75
281.431	78.75
281.662	82.75
281.894	92.75
282.125	95.75
282.356	124.75
282.588	126.75
282.819	107.75
283.051	83.75
283.282	69.75
283.513	88.75
283.745	90.75
283.976	74.75
284.207	71.75
284.439	80.75
284.67	90.75
284.901	78.75
285.132	80.75
285.364	76.75
285.595	85.75
285.826	78.75
286.057	83.75
286.288	85.75
286.52	83.75
286.751	86.75
286.982	91.75
287.213	78.75
287.444	85.75
287.675	81.75
287.906	88.75
288.138	72.75
288.369	100.75
288.6	86.75
288.831	83.75
289.062	87.75
289.293	73.75
289.524	77.75
289.755	84.75
289.986	77.75
290.217	75.75
290.448	97.75
290.679	91.75
290.91	88.75
291.141	70.75
291.371	90.75
291.602	91.75
291.833	94.75
292.064	72.75
292.295	62.75
292.526	80.75
292.757	80.75
292.987	83.75
293.218	95.75
293.449	95.75
293.68	90.75
293.91	85.75
294.141	80.75
294.372	84.75
294.603	81.75
294.833	90.75
295.064	89.75
295.295	79.75
295.525	81.75
295.756	97.75
295.987	121.75
296.217	147.75
296.448	116.75
296.679	81.75
296.909	78.75
297.14	85.75
297.37	84.75
297.601	82.75
297.831	91.75
298.062	86.75
298.292	86.75
298.523	86.75
298.753	79.75
298.984	80.75
299.214	84.75
299.445	82.75
299.675	79.75
299.905	92.75
300.136	95.75
300.366	88.75
300.597	92.75
300.827	95.75
301.057	103.75
301.288	86.75
301.518	83.75
301.748	80.75
301.979	87.75
302.209	71.75
302.439	95.75
302.669	79.75
302.9	93.75
303.13	95.75
303.36	81.75
303.59	88.75
303.82	93.75
304.051	85.75
304.281	87.75
304.511	88.75
304.741	93.75
304.971	69.75
305.201	76.75
305.431	90.75
305.661	72.75
305.891	83.75
306.121	86.75
306.352	92.75
306.582	101.75
306.812	92.75
307.042	82.75
307.272	90.75
307.502	88.75
307.731	94.75
307.961	79.75
308.191	88.75
308.421	84.75
308.651	75.75
308.881	92.75
309.111	90.75
309.341	94.75
309.571	91.75
309.8	92.75
310.03	91.75
310.26	94.75
310.49	97.75
310.72	84.75
310.949	96.75
311.179	95.75
311.409	102.75
311.639	96.75
311.868	85.75
312.098	94.75
312.328	81.75
312.557	88.75
312.787	97.75
313.017	92.75
313.246	98.75
313.476	90.75
313.706	81.75
313.935	90.75
314.165	92.75
314.394	97.75
314.624	92.75
314.853	93.75
315.083	92.75
315.312	89.75
315.542	74.75
315.771	93.75
316.001	85.75
316.23	97.75
316.46	94.75
316.689	85.75
316.919	96.75
317.148	100.75
317.377	80.75
317.607	85.75
317.836	81.75
318.065	78.75
318.295	87.75
318.524	84.75
318.753	68.75
318.983	88.75
319.212	106.75
319.441	116.75
319.67	110.75
319.9	78.75
320.129	85.75
320.358	86.75
320.587	87.75
320.816	88.75
321.046	88.75
321.275	95.75
321.504	103.75
321.733	89.75
321.962	79.75
322.191	95.75
322.42	100.75
322.649	97.75
322.878	115.75
323.108	116.75
323.337	120.75
323.566	134.75
323.795	160.75
324.024	213.75
324.253	388.75
324.482	847.75
324.71	1772.75
324.939	2219.75
325.168	828.75
325.397	245.75
325.626	138.75
325.855	121.75
326.084	111.75
326.313	134.75
326.542	158.75
326.77	221.75
326.999	461.75
327.228	973.75
327.457	1797.75
327.686	1354.75
327.914	377.75
328.143	194.75
328.372	135.75
328.6	131.75
328.829	93.75
329.058	110.75
329.287	123.75
329.515	112.75
329.744	96.75
329.972	99.75
330.201	98.75
330.43	100.75
330.658	131.75
330.887	135.75
331.115	117.75
331.344	95.75
331.572	96.75
331.801	102.75
332.03	92.75
332.258	93.75
332.486	87.75
332.715	88.75
332.943	85.75
333.172	97.75
333.4	83.75
333.629	88.75
333.857	103.75
334.085	103.75
334.314	87.75
334.542	93.75
334.771	94.75
334.999	86.75
335.227	91.75
335.455	98.75
335.684	110.75
335.912	86.75
336.14	83.75
336.369	106.75
336.597	102.75
336.825	96.75
337.053	88.75
337.281	81.75
337.51	75.75
337.738	93.75
337.966	98.75
338.194	101.75
338.422	107.75
338.65	80.75
338.878	72.75
339.106	82.75
339.334	79.75
339.562	97.75
339.79	91.75
340.018	94.75
340.246	75.75
340.474	88.75
340.702	86.75
340.93	84.75
341.158	85.75
341.386	103.75
341.614	96.75
341.842	97.75
342.07	69.75
342.298	101.75
342.526	95.75
342.754	83.75
342.981	85.75
343.209	91.75
343.437	97.75
343.665	80.75
343.893	94.75
344.12	98.75
344.348	81.75
344.576	98.75
344.804	83.75
345.031	87.75
345.259	98.75
345.487	91.75
345.714	90.75
345.942	73.75
346.17	89.75
346.397	81.75
346.625	86.75
346.853	78.75
347.08	80.75
347.308	92.75
347.535	87.75
347.763	105.75
347.99	112.75
348.218	91.75
348.445	93.75
348.673	94.75
348.9	96.75
349.128	86.75
349.355	94.75
349.583	92.75
349.81	96.75
350.037	94.75
350.265	90.75
350.492	92.75
350.72	88.75
350.947	93.75
351.174	92.75
351.402	104.75
351.629	111.75
351.856	97.75
352.083	88.75
352.311	100.75
352.538	114.75
352.765	103.75
352.992	118.75
353.22	102.75
353.447	102.75
353.674	100.75
353.901	97.75
354.128	93.75
354.355	102.75
354.583	87.75
354.81	96.75
355.037	94.75
355.264	102.75
355.491	82.75
355.718	85.75
355.945	94.75
356.172	104.75
356.399	103.75
356.626	85.75
356.853	82.75
357.08	99.75
357.307	90.75
357.534	91.75
357.761	76.75
357.988	95.75
358.215	93.75
358.441	102.75
358.668	78.75
358.895	70.75
359.122	67.75
359.349	80.75
359.576	101.75
359.802	94.75
360.029	104.75
360.256	104.75
360.483	90.75
360.709	82.75
360.936	87.75
361.163	88.75
361.39	96.75
361.616	94.75
361.843	98.75
362.07	95.75
362.296	93.75
362.523	82.75
362.749	83.75
362.976	90.75
363.203	95.75
363.429	91.75
363.656	81.75
363.882	87.75
364.109	61.75
364.335	88.75
364.562	80.75
364.788	78.75
365.015	85.75
365.241	110.75
365.468	92.75
365.694	110.75
365.92	101.75
366.147	93.75
366.373	90.75
366.599	95.75
366.826	89.75
367.052	87.75
367.278	94.75
367.505	81.75
367.731	100.75
367.957	91.75
368.184	88.75
368.41	89.75
368.636	106.75
368.862	105.75
369.089	104.75
369.315	97.75
369.541	68.75
369.767	87.75
369.993	100.75
370.219	95.75
370.445	90.75
370.672	80.75
370.898	82.75
371.124	75.75
371.35	80.75
371.576	86.75
371.802	82.75
372.028	86.75
372.254	84.75
372.48	88.75
372.706	82.75
372.932	88.75
373.158	98.75
373.384	80.75
373.61	87.75
373.835	85.75
374.061	102.75
374.287	85.75
374.513	83.75
374.739	88.75
374.965	95.75
375.191	70.75
375.416	93.75
375.642	87.75
375.868	90.75
376.094	86.75
376.319	71.75
376.545	87.75
376.771	96.75
376.997	84.75
377.222	92.75
377.448	79.75
377.674	98.75
377.899	87.75
378.125	93.75
378.35	85.75
378.576	86.75
378.802	86.75
379.027	94.75
379.253	98.75
379.478	85.75
379.704	80.75
379.929	74.75
380.155	108.75
380.38	95.75
380.606	94.75
380.831	103.75
381.057	103.75
381.282	91.75
381.507	101.75
381.733	88.75
381.958	94.75
382.184	97.75
382.409	104.75
382.634	96.75
382.86	115.75
383.085	90.75
383.31	92.75
383.535	95.75
383.761	94.75
383.986	100.75
384.211	96.75
384.436	95.75
384.662	81.75
384.887	110.75
385.112	100.75
385.337	89.75
385.562	102.75
385.787	108.75
386.013	94.75
386.238	112.75
386.463	89.75
386.688	105.75
386.913	106.75
387.138	106.75
387.363	113.75
387.588	99.75
387.813	110.75
388.038	112.75
388.263	108.75
388.488	106.75
388.713	92.75
388.938	106.75
389.163	99.75
389.387	98.75
389.612	92.75
389.837	82.75
390.062	90.75
390.287	88.75
390.512	94.75
390.736	93.75
390.961	99.75
391.186	98.75
391.411	89.75
391.636	87.75
391.86	83.75
392.085	79.75
392.31	78.75
392.534	77.75
392.759	68.75
392.984	86.75
393.208	97.75
393.433	101.75
393.658	94.75
393.882	97.75
394.107	86.75
394.331	90.75
394.556	88.75
394.78	90.75
395.005	92.75
395.229	85.75
395.454	82.75
395.678	82.75
395.903	100.75
396.127	86.75
396.352	96.75
396.576	89.75
396.801	94.75
397.025	99.75
397.249	78.75
397.474	90.75
397.698	84.75
397.922	85.75
398.147	91.75
398.371	86.75
398.595	94.75
398.82	88.75
399.044	87.75
399.268	82.75
399.492	87.75
399.717	71.75
399.941	87.75
400.165	87.75
400.389	81.75
400.613	92.75
400.837	94.75
401.062	95.75
401.286	98.75
401.51	87.75
401.734	74.75
401.958	94.75
402.182	130.75
402.406	164.75
402.63	115.75
402.854	86.75
403.078	81.75
403.302	103.75
403.526	88.75
403.75	74.75
403.974	85.75
404.198	94.75
404.422	85.75
404.645	81.75
404.869	92.75
405.093	95.75
405.317	102.75
405.541	109.75
405.765	98.75
405.988	115.75
406.212	168.75
406.436	225.75
406.66	140.75
406.883	81.75
407.107	93.75
407.331	96.75
407.555	103.75
407.778	75.75
408.002	77.75
408.226	91.75
408.449	89.75
408.673	84.75
408.896	84.75
409.12	93.75
409.344	98.75
409.567	88.75
409.791	75.75
410.014	99.75
410.238	88.75
410.461	87.75
410.685	79.75
410.908	96.75
411.132	93.75
411.355	94.75
411.578	82.75
411.802	101.75
412.025	70.75
412.249	86.75
412.472	96.75
412.695	92.75
412.919	89.75
413.142	84.75
413.365	95.75
413.589	83.75
413.812	86.75
414.035	90.75
414.258	92.75
414.482	84.75
414.705	86.75
414.928	87.75
415.151	84.75
415.374	74.75
415.597	79.75
415.821	90.75
416.044	89.75
416.267	85.75
416.49	88.75
416.713	92.75
416.936	97.75
417.159	81.75
417.382	83.75
417.605	85.75
417.828	96.75
418.051	85.75
418.274	85.75
418.497	83.75
418.72	98.75
418.943	80.75
419.166	81.75
419.389	94.75
419.611	73.75
419.834	90.75
420.057	87.75
420.28	81.75
420.503	86.75
420.726	87.75
420.948	102.75
421.171	94.75
421.394	96.75
421.617	86.75
421.839	90.75
422.062	95.75
422.285	83.75
422.507	98.75
422.73	96.75
422.953	82.75
423.175	84.75
423.398	93.75
423.621	88.75
423.843	77.75
424.066	85.75
424.288	84.75
424.511	87.75
424.733	87.75
424.956	91.75
425.178	97.75
425.401	92.75
425.623	96.75
425.846	92.75
426.068	100.75
426.291	88.75
426.513	100.75
426.735	92.75
426.958	86.75
427.18	82.75
427.402	128.75
427.625	162.75
427.847	126.75
428.069	94.75
428.292	78.75
428.514	81.75
428.736	91.75
428.958	89.75
429.181	78.75
429.403	86.75
429.625	94.75
429.847	76.75
430.069	94.75
430.292	93.75
430.514	93.75
430.736	81.75
430.958	100.75
431.18	81.75
431.402	82.75
431.624	88.75
431.846	72.75
432.068	93.75
432.29	66.75
432.512	79.75
432.734	86.75
432.956	84.75
433.178	87.75
433.4	99.75
433.622	86.75
433.844	72.75
434.066	89.75
434.287	89.75
434.509	87.75
434.731	79.75
434.953	84.75
435.175	80.75
435.397	94.75
435.618	100.75
435.84	109.75
436.062	131.75
436.284	108.75
436.505	103.75
436.727	100.75
436.949	98.75
437.17	90.75
437.392	79.75
437.614	89.75
437.835	99.75
438.057	102.75
438.278	101.75
438.5	87.75
438.721	125.75
438.943	101.75
439.165	94.75
439.386	78.75
439.608	87.75
439.829	97.75
440.05	99.75
440.272	132.75
440.493	107.75
440.715	83.75
440.936	88.75
441.158	90.75
441.379	99.75
441.6	72.75
441.822	102.75
442.043	89.75
442.264	92.75
442.486	87.75
442.707	84.75
442.928	102.75
443.149	129.75
443.371	113.75
443.592	102.75
443.813	106.75
444.034	100.75
444.255	93.75
444.476	96.75
444.698	92.75
444.919	82.75
445.14	125.75
445.361	119.75
445.582	102.75
445.803	134.75
446.024	115.75
446.245	115.75
446.466	110.75
446.687	93.75
446.908	88.75
447.129	81.75
447.35	79.75
447.571	81.75
447.792	82.75
448.013	101.75
448.234	103.75
448.455	101.75
448.675	107.75
448.896	91.75
449.117	96.75
449.338	91.75
449.559	122.75
449.779	133.75
450	86.75
450.221	94.75
450.442	74.75
450.662	92.75
450.883	102.75
451.104	106.75
451.324	90.75
451.545	82.75
451.766	79.75
451.986	87.75
452.207	94.75
452.428	80.75
452.648	87.75
452.869	98.75
453.089	119.75
453.31	121.75
453.53	90.75
453.751	90.75
453.971	106.75
454.192	117.75
454.412	92.75
454.633	98.75
454.853	85.75
455.073	69.75
455.294	86.75
455.514	100.75
455.734	93.75
455.955	86.75
456.175	76.75
456.395	75.75
456.616	82.75
456.836	84.75
457.056	88.75
457.276	76.75
457.497	63.75
457.717	73.75
457.937	93.75
458.157	96.75
458.377	97.75
458.598	103.75
458.818	141.75
459.038	152.75
459.258	103.75
459.478	99.75
459.698	78.75
459.918	85.75
460.138	93.75
460.358	85.75
460.578	95.75
460.798	92.75
461.018	89.75
461.238	86.75
461.458	84.75
461.678	80.75
461.898	87.75
462.118	84.75
462.338	96.75
462.558	77.75
462.777	73.75
462.997	73.75
463.217	87.75
463.437	84.75
463.657	78.75
463.876	83.75
464.096	96.75
464.316	107.75
464.536	89.75
464.755	100.75
464.975	113.75
465.195	158.75
465.414	165.75
465.634	92.75
465.854	88.75
466.073	77.75
466.293	81.75
466.512	82.75
466.732	83.75
466.951	92.75
467.171	95.75
467.391	96.75
467.61	101.75
467.829	101.75
468.049	90.75
468.268	92.75
468.488	93.75
468.707	92.75
468.927	84.75
469.146	97.75
469.365	87.75
469.585	87.75
469.804	80.75
470.023	104.75
470.243	79.75
470.462	86.75
470.681	108.75
470.901	78.75
471.12	89.75
471.339	97.75
471.558	91.75
471.777	100.75
471.997	88.75
472.216	92.75
472.435	101.75
472.654	79.75
472.873	92.75
473.092	80.75
473.311	80.75
473.53	79.75
473.749	92.75
473.968	94.75
474.187	94.75
474.406	93.75
474.625	99.75
474.844	86.75
475.063	80.75
475.282	96.75
475.501	88.75
475.72	79.75
475.939	82.75
476.158	80.75
476.377	79.75
476.596	86.75
476.814	82.75
477.033	89.75
477.252	85.75
477.471	82.75
477.69	86.75
477.908	86.75
478.127	99.75
478.346	75.75
478.564	87.75
478.783	106.75
479.002	87.75
479.22	107.75
479.439	117.75
479.658	94.75
479.876	92.75
480.095	94.75
480.313	83.75
480.532	85.75
480.751	82.75
480.969	84.75
481.188	127.75
481.406	124.75
481.624	89.75
481.843	79.75
482.061	97.75
482.28	79.75
482.498	90.75
482.717	92.75
482.935	91.75
483.153	85.75
483.372	82.75
483.59	86.75
483.808	107.75
484.027	83.75
484.245	82.75
484.463	84.75
484.681	95.75
484.9	90.75
485.118	85.75
485.336	99.75
485.554	90.75
485.772	99.75
485.99	88.75
486.209	88.75
486.427	93.75
486.645	106.75
486.863	130.75
487.081	94.75
487.299	98.75
487.517	92.75
487.735	91.75
487.953	105.75
488.171	94.75
488.389	96.75
488.607	90.75
488.825	87.75
489.043	85.75
489.261	102.75
489.479	84.75
489.696	96.75
489.914	101.75
490.132	94.75
490.35	83.75
490.568	74.75
490.786	91.75
491.003	99.75
491.221	87.75
491.439	81.75
491.657	97.75
491.874	92.75
492.092	90.75
492.31	93.75
492.527	88.75
492.745	89.75
492.963	86.75
493.18	88.75
493.398	83.75
493.615	94.75
493.833	88.75
494.05	86.75
494.268	89.75
494.485	86.75
494.703	85.75
494.92	87.75
495.138	92.75
495.355	94.75
495.573	96.75
495.79	87.75
496.008	94.75
496.225	99.75
496.442	88.75
496.66	101.75
496.877	86.75
497.094	90.75
497.312	84.75
497.529	80.75
497.746	90.75
497.963	87.75
498.181	91.75
498.398	91.75
498.615	119.75
498.832	108.75
499.049	83.75
499.267	98.75
499.484	85.75
499.701	88.75
499.918	91.75
500.135	78.75
500.352	92.75
500.569	84.75
500.786	80.75
501.003	91.75
501.22	88.75
501.437	91.75
501.654	90.75
501.871	106.75
502.088	87.75
502.305	89.75
502.522	78.75
502.739	91.75
502.956	83.75
503.172	94.75
503.389	97.75
503.606	91.75
503.823	94.75
504.04	87.75
504.256	84.75
504.473	92.75
504.69	95.75
504.907	95.75
505.123	87.75
505.34	77.75
505.557	77.75
505.773	91.75
505.99	99.75
506.207	90.75
506.423	87.75
506.64	88.75
506.856	94.75
507.073	93.75
507.289	99.75
507.506	99.75
507.722	108.75
507.939	99.75
508.155	101.75
508.372	93.75
508.588	100.75
508.805	101.75
509.021	108.75
509.238	95.75
509.454	97.75
509.67	94.75
509.887	123.75
510.103	150.75
510.319	221.75
510.536	849.75
510.752	2679.75
510.968	719.75
511.184	175.75
511.401	109.75
511.617	92.75
511.833	94.75
512.049	92.75
512.265	86.75
512.481	92.75
512.698	82.75
512.914	94.75
513.13	87.75
513.346	91.75
513.562	92.75
513.778	92.75
513.994	100.75
514.21	100.75
514.426	126.75
514.642	130.75
514.858	116.75
515.074	175.75
515.29	491.75
515.506	1582.75
515.721	588.75
515.937	162.75
516.153	112.75
516.369	99.75
516.585	101.75
516.801	108.75
