Data from Uncirc_2004_H10_HRD10591_00083.txt Node
Date: Wed Jan 03 10:32:29 EST 2024
User: Yrep
Spectrometer: HR+D1059
Trigger mode: 1
Integration Time (sec): 1.000000E-1
Scans to average: 1
Electric dark correction enabled: true
Nonlinearity correction enabled: false
Boxcar width: 0
XAxis mode: Wavelengths
Number of Pixels in Spectrum: 2048
>>>>>Begin Spectral Data<<<<<
223.165	-16.81
223.4	-16.81
223.635	-16.81
223.869	-7.81
224.104	-23.81
224.338	-18.81
224.573	-14.81
224.808	0.19
225.042	-7.81
225.277	-8.81
225.511	5.19
225.746	4.19
225.98	-2.81
226.215	16.19
226.449	13.19
226.683	5.19
226.918	25.19
227.152	32.19
227.387	35.19
227.621	34.19
227.856	45.19
228.09	48.19
228.324	53.19
228.559	55.19
228.793	47.19
229.027	72.19
229.262	65.19
229.496	73.19
229.73	83.19
229.964	79.19
230.199	72.19
230.433	79.19
230.667	69.19
230.901	78.19
231.136	77.19
231.37	78.19
231.604	80.19
231.838	91.19
232.072	74.19
232.306	70.19
232.541	82.19
232.775	77.19
233.009	71.19
233.243	87.19
233.477	85.19
233.711	79.19
233.945	64.19
234.179	80.19
234.413	70.19
234.647	83.19
234.881	81.19
235.115	83.19
235.349	81.19
235.583	89.19
235.817	71.19
236.051	86.19
236.285	81.19
236.519	72.19
236.753	72.19
236.987	84.19
237.221	92.19
237.455	76.19
237.689	85.19
237.922	84.19
238.156	83.19
238.39	70.19
238.624	67.19
238.858	83.19
239.091	81.19
239.325	77.19
239.559	97.19
239.793	85.19
240.027	78.19
240.26	87.19
240.494	73.19
240.728	68.19
240.961	78.19
241.195	84.19
241.429	79.19
241.662	77.19
241.896	68.19
242.13	74.19
242.363	75.19
242.597	82.19
242.83	80.19
243.064	81.19
243.298	68.19
243.531	89.19
243.765	73.19
243.998	74.19
244.232	56.19
244.465	71.19
244.699	79.19
244.932	75.19
245.166	78.19
245.399	76.19
245.633	74.19
245.866	77.19
246.099	80.19
246.333	76.19
246.566	75.19
246.8	81.19
247.033	83.19
247.266	87.19
247.5	79.19
247.733	86.19
247.966	81.19
248.2	69.19
248.433	79.19
248.666	76.19
248.899	83.19
249.133	87.19
249.366	91.19
249.599	95.19
249.832	76.19
250.066	83.19
250.299	85.19
250.532	73.19
250.765	69.19
250.998	65.19
251.231	73.19
251.465	68.19
251.698	80.19
251.931	81.19
252.164	73.19
252.397	86.19
252.63	77.19
252.863	71.19
253.096	69.19
253.329	78.19
253.562	86.19
253.795	83.19
254.028	84.19
254.261	75.19
254.494	92.19
254.727	69.19
254.96	73.19
255.193	76.19
255.426	81.19
255.659	79.19
255.892	86.19
256.124	82.19
256.357	89.19
256.59	87.19
256.823	64.19
257.056	103.19
257.289	90.19
257.521	80.19
257.754	85.19
257.987	96.19
258.22	71.19
258.452	87.19
258.685	73.19
258.918	79.19
259.151	78.19
259.383	72.19
259.616	75.19
259.849	85.19
260.081	79.19
260.314	84.19
260.547	87.19
260.779	68.19
261.012	60.19
261.244	96.19
261.477	96.19
261.71	82.19
261.942	119.19
262.175	112.19
262.407	79.19
262.64	73.19
262.872	75.19
263.105	72.19
263.337	83.19
263.57	89.19
263.802	91.19
264.035	77.19
264.267	77.19
264.499	100.19
264.732	82.19
264.964	86.19
265.197	89.19
265.429	92.19
265.661	86.19
265.894	78.19
266.126	77.19
266.358	89.19
266.591	92.19
266.823	73.19
267.055	90.19
267.287	83.19
267.52	86.19
267.752	92.19
267.984	89.19
268.216	84.19
268.448	96.19
268.681	93.19
268.913	93.19
269.145	88.19
269.377	92.19
269.609	91.19
269.841	82.19
270.073	88.19
270.306	92.19
270.538	96.19
270.77	79.19
271.002	66.19
271.234	83.19
271.466	80.19
271.698	83.19
271.93	79.19
272.162	87.19
272.394	85.19
272.626	76.19
272.858	99.19
273.09	72.19
273.322	94.19
273.553	83.19
273.785	81.19
274.017	89.19
274.249	92.19
274.481	79.19
274.713	77.19
274.945	78.19
275.176	77.19
275.408	104.19
275.64	104.19
275.872	82.19
276.104	83.19
276.335	88.19
276.567	99.19
276.799	106.19
277.031	92.19
277.262	82.19
277.494	100.19
277.726	82.19
277.957	78.19
278.189	80.19
278.421	87.19
278.652	87.19
278.884	82.19
279.115	72.19
279.347	82.19
279.579	89.19
279.81	77.19
280.042	97.19
280.273	97.19
280.505	88.19
280.736	85.19
280.968	68.19
281.199	79.19
281.431	74.19
281.662	85.19
281.894	77.19
282.125	99.19
282.356	111.19
282.588	127.19
282.819	92.19
283.051	87.19
283.282	85.19
283.513	84.19
283.745	84.19
283.976	94.19
284.207	93.19
284.439	89.19
284.67	75.19
284.901	69.19
285.132	72.19
285.364	86.19
285.595	80.19
285.826	89.19
286.057	87.19
286.288	89.19
286.52	75.19
286.751	89.19
286.982	94.19
287.213	71.19
287.444	93.19
287.675	108.19
287.906	97.19
288.138	80.19
288.369	98.19
288.6	77.19
288.831	91.19
289.062	99.19
289.293	92.19
289.524	92.19
289.755	89.19
289.986	87.19
290.217	109.19
290.448	89.19
290.679	91.19
290.91	73.19
291.141	91.19
291.371	80.19
291.602	88.19
291.833	72.19
292.064	95.19
292.295	87.19
292.526	81.19
292.757	85.19
292.987	91.19
293.218	69.19
293.449	87.19
293.68	78.19
293.91	100.19
294.141	91.19
294.372	83.19
294.603	83.19
294.833	84.19
295.064	88.19
295.295	86.19
295.525	92.19
295.756	92.19
295.987	109.19
296.217	120.19
296.448	119.19
296.679	90.19
296.909	97.19
297.14	103.19
297.37	93.19
297.601	95.19
297.831	90.19
298.062	99.19
298.292	94.19
298.523	89.19
298.753	82.19
298.984	86.19
299.214	91.19
299.445	95.19
299.675	104.19
299.905	108.19
300.136	82.19
300.366	93.19
300.597	86.19
300.827	102.19
301.057	98.19
301.288	87.19
301.518	93.19
301.748	84.19
301.979	97.19
302.209	102.19
302.439	88.19
302.669	91.19
302.9	89.19
303.13	88.19
303.36	83.19
303.59	114.19
303.82	102.19
304.051	86.19
304.281	93.19
304.511	95.19
304.741	80.19
304.971	83.19
305.201	87.19
305.431	92.19
305.661	97.19
305.891	89.19
306.121	113.19
306.352	92.19
306.582	108.19
306.812	92.19
307.042	92.19
307.272	101.19
307.502	96.19
307.731	83.19
307.961	83.19
308.191	99.19
308.421	83.19
308.651	88.19
308.881	83.19
309.111	80.19
309.341	105.19
309.571	95.19
309.8	87.19
310.03	107.19
310.26	82.19
310.49	100.19
310.72	93.19
310.949	118.19
311.179	104.19
311.409	100.19
311.639	96.19
311.868	81.19
312.098	98.19
312.328	88.19
312.557	97.19
312.787	96.19
313.017	80.19
313.246	98.19
313.476	93.19
313.706	89.19
313.935	91.19
314.165	104.19
314.394	94.19
314.624	91.19
314.853	102.19
315.083	104.19
315.312	91.19
315.542	79.19
315.771	99.19
316.001	93.19
316.23	91.19
316.46	92.19
316.689	94.19
316.919	83.19
317.148	88.19
317.377	98.19
317.607	93.19
317.836	104.19
318.065	97.19
318.295	85.19
318.524	85.19
318.753	85.19
318.983	90.19
319.212	89.19
319.441	99.19
319.67	97.19
319.9	96.19
320.129	92.19
320.358	95.19
320.587	98.19
320.816	97.19
321.046	90.19
321.275	95.19
321.504	91.19
321.733	92.19
321.962	118.19
322.191	97.19
322.42	97.19
322.649	111.19
322.878	100.19
323.108	107.19
323.337	104.19
323.566	129.19
323.795	131.19
324.024	192.19
324.253	355.19
324.482	739.19
324.71	1493.19
324.939	2003.19
325.168	737.19
325.397	227.19
325.626	139.19
325.855	127.19
326.084	117.19
326.313	139.19
326.542	146.19
326.77	227.19
326.999	431.19
327.228	867.19
327.457	1527.19
327.686	1200.19
327.914	326.19
328.143	187.19
328.372	139.19
328.6	114.19
328.829	110.19
329.058	121.19
329.287	116.19
329.515	99.19
329.744	100.19
329.972	89.19
330.201	100.19
330.43	108.19
330.658	112.19
330.887	132.19
331.115	108.19
331.344	94.19
331.572	84.19
331.801	102.19
332.03	99.19
332.258	96.19
332.486	90.19
332.715	89.19
332.943	103.19
333.172	105.19
333.4	88.19
333.629	90.19
333.857	115.19
334.085	97.19
334.314	86.19
334.542	110.19
334.771	98.19
334.999	89.19
335.227	103.19
335.455	97.19
335.684	80.19
335.912	92.19
336.14	101.19
336.369	95.19
336.597	95.19
336.825	82.19
337.053	97.19
337.281	100.19
337.51	98.19
337.738	93.19
337.966	91.19
338.194	98.19
338.422	95.19
338.65	91.19
338.878	101.19
339.106	87.19
339.334	83.19
339.562	89.19
339.79	91.19
340.018	85.19
340.246	91.19
340.474	96.19
340.702	83.19
340.93	89.19
341.158	91.19
341.386	98.19
341.614	99.19
341.842	88.19
342.07	102.19
342.298	96.19
342.526	76.19
342.754	92.19
342.981	96.19
343.209	110.19
343.437	100.19
343.665	87.19
343.893	101.19
344.12	78.19
344.348	83.19
344.576	90.19
344.804	84.19
345.031	93.19
345.259	97.19
345.487	100.19
345.714	100.19
345.942	93.19
346.17	104.19
346.397	83.19
346.625	103.19
346.853	82.19
347.08	88.19
347.308	104.19
347.535	96.19
347.763	88.19
347.99	98.19
348.218	107.19
348.445	94.19
348.673	98.19
348.9	87.19
349.128	89.19
349.355	113.19
349.583	89.19
349.81	90.19
350.037	91.19
350.265	94.19
350.492	88.19
350.72	97.19
350.947	91.19
351.174	100.19
351.402	107.19
351.629	103.19
351.856	103.19
352.083	101.19
352.311	104.19
352.538	99.19
352.765	100.19
352.992	101.19
353.22	114.19
353.447	102.19
353.674	88.19
353.901	89.19
354.128	82.19
354.355	91.19
354.583	94.19
354.81	98.19
355.037	99.19
355.264	83.19
355.491	86.19
355.718	100.19
355.945	84.19
356.172	93.19
356.399	94.19
356.626	97.19
356.853	88.19
357.08	95.19
357.307	89.19
357.534	98.19
357.761	92.19
357.988	86.19
358.215	94.19
358.441	89.19
358.668	71.19
358.895	93.19
359.122	77.19
359.349	87.19
359.576	94.19
359.802	94.19
360.029	96.19
360.256	110.19
360.483	97.19
360.709	80.19
360.936	92.19
361.163	91.19
361.39	79.19
361.616	87.19
361.843	91.19
362.07	93.19
362.296	87.19
362.523	85.19
362.749	92.19
362.976	85.19
363.203	79.19
363.429	79.19
363.656	84.19
363.882	75.19
364.109	82.19
364.335	103.19
364.562	95.19
364.788	76.19
365.015	95.19
365.241	97.19
365.468	95.19
365.694	85.19
365.92	89.19
366.147	86.19
366.373	78.19
366.599	102.19
366.826	79.19
367.052	79.19
367.278	106.19
367.505	79.19
367.731	96.19
367.957	88.19
368.184	89.19
368.41	91.19
368.636	100.19
368.862	111.19
369.089	98.19
369.315	103.19
369.541	89.19
369.767	96.19
369.993	93.19
370.219	94.19
370.445	89.19
370.672	94.19
370.898	81.19
371.124	84.19
371.35	92.19
371.576	99.19
371.802	99.19
372.028	94.19
372.254	84.19
372.48	86.19
372.706	73.19
372.932	82.19
373.158	79.19
373.384	86.19
373.61	103.19
373.835	93.19
374.061	94.19
374.287	92.19
374.513	78.19
374.739	97.19
374.965	93.19
375.191	86.19
375.416	81.19
375.642	81.19
375.868	88.19
376.094	81.19
376.319	101.19
376.545	82.19
376.771	77.19
376.997	88.19
377.222	89.19
377.448	79.19
377.674	91.19
377.899	86.19
378.125	95.19
378.35	89.19
378.576	78.19
378.802	98.19
379.027	78.19
379.253	80.19
379.478	91.19
379.704	96.19
379.929	96.19
380.155	78.19
380.38	102.19
380.606	92.19
380.831	89.19
381.057	96.19
381.282	88.19
381.507	97.19
381.733	108.19
381.958	103.19
382.184	97.19
382.409	93.19
382.634	108.19
382.86	93.19
383.085	83.19
383.31	106.19
383.535	94.19
383.761	106.19
383.986	98.19
384.211	102.19
384.436	91.19
384.662	94.19
384.887	105.19
385.112	81.19
385.337	108.19
385.562	111.19
385.787	104.19
386.013	99.19
386.238	89.19
386.463	89.19
386.688	111.19
386.913	110.19
387.138	102.19
387.363	104.19
387.588	98.19
387.813	84.19
388.038	102.19
388.263	116.19
388.488	99.19
388.713	101.19
388.938	88.19
389.163	88.19
389.387	106.19
389.612	87.19
389.837	97.19
390.062	112.19
390.287	100.19
390.512	99.19
390.736	85.19
390.961	88.19
391.186	89.19
391.411	79.19
391.636	81.19
391.86	86.19
392.085	95.19
392.31	88.19
392.534	83.19
392.759	75.19
392.984	88.19
393.208	81.19
393.433	98.19
393.658	89.19
393.882	91.19
394.107	84.19
394.331	75.19
394.556	81.19
394.78	86.19
395.005	86.19
395.229	86.19
395.454	89.19
395.678	86.19
395.903	81.19
396.127	71.19
396.352	78.19
396.576	93.19
396.801	90.19
397.025	73.19
397.249	86.19
397.474	90.19
397.698	88.19
397.922	85.19
398.147	88.19
398.371	85.19
398.595	88.19
398.82	79.19
399.044	83.19
399.268	96.19
399.492	88.19
399.717	88.19
399.941	93.19
400.165	97.19
400.389	97.19
400.613	79.19
400.837	88.19
401.062	82.19
401.286	83.19
401.51	79.19
401.734	93.19
401.958	101.19
402.182	113.19
402.406	143.19
402.63	104.19
402.854	84.19
403.078	79.19
403.302	95.19
403.526	67.19
403.75	77.19
403.974	79.19
404.198	72.19
404.422	91.19
404.645	88.19
404.869	84.19
405.093	90.19
405.317	94.19
405.541	89.19
405.765	109.19
405.988	124.19
406.212	170.19
406.436	209.19
406.66	125.19
406.883	93.19
407.107	87.19
407.331	89.19
407.555	103.19
407.778	100.19
408.002	88.19
408.226	96.19
408.449	77.19
408.673	97.19
408.896	89.19
409.12	88.19
409.344	81.19
409.567	79.19
409.791	85.19
410.014	106.19
410.238	93.19
410.461	82.19
410.685	95.19
410.908	101.19
411.132	106.19
411.355	90.19
411.578	82.19
411.802	86.19
412.025	85.19
412.249	90.19
412.472	87.19
412.695	93.19
412.919	88.19
413.142	86.19
413.365	78.19
413.589	77.19
413.812	100.19
414.035	84.19
414.258	82.19
414.482	95.19
414.705	90.19
414.928	91.19
415.151	97.19
415.374	94.19
415.597	81.19
415.821	86.19
416.044	86.19
416.267	101.19
416.49	96.19
416.713	98.19
416.936	89.19
417.159	86.19
417.382	82.19
417.605	84.19
417.828	107.19
418.051	83.19
418.274	92.19
418.497	72.19
418.72	88.19
418.943	96.19
419.166	80.19
419.389	89.19
419.611	80.19
419.834	76.19
420.057	78.19
420.28	88.19
420.503	86.19
420.726	67.19
420.948	86.19
421.171	92.19
421.394	99.19
421.617	87.19
421.839	92.19
422.062	88.19
422.285	99.19
422.507	92.19
422.73	97.19
422.953	90.19
423.175	96.19
423.398	78.19
423.621	87.19
423.843	73.19
424.066	80.19
424.288	93.19
424.511	103.19
424.733	94.19
424.956	101.19
425.178	113.19
425.401	99.19
425.623	100.19
425.846	97.19
426.068	93.19
426.291	74.19
426.513	103.19
426.735	74.19
426.958	89.19
427.18	103.19
427.402	127.19
427.625	150.19
427.847	124.19
428.069	86.19
428.292	93.19
428.514	83.19
428.736	87.19
428.958	79.19
429.181	83.19
429.403	71.19
429.625	84.19
429.847	86.19
430.069	101.19
430.292	93.19
430.514	104.19
430.736	80.19
430.958	76.19
431.18	80.19
431.402	93.19
431.624	88.19
431.846	86.19
432.068	79.19
432.29	83.19
432.512	85.19
432.734	88.19
432.956	93.19
433.178	88.19
433.4	89.19
433.622	87.19
433.844	87.19
434.066	79.19
434.287	93.19
434.509	91.19
434.731	88.19
434.953	75.19
435.175	91.19
435.397	94.19
435.618	81.19
435.84	106.19
436.062	110.19
436.284	91.19
436.505	91.19
436.727	98.19
436.949	94.19
437.17	81.19
437.392	81.19
437.614	86.19
437.835	92.19
438.057	101.19
438.278	99.19
438.5	90.19
438.721	117.19
438.943	96.19
439.165	84.19
439.386	89.19
439.608	80.19
439.829	91.19
440.05	111.19
440.272	129.19
440.493	91.19
440.715	91.19
440.936	84.19
441.158	109.19
441.379	87.19
441.6	94.19
441.822	103.19
442.043	91.19
442.264	103.19
442.486	83.19
442.707	89.19
442.928	86.19
443.149	123.19
443.371	116.19
443.592	95.19
443.813	82.19
444.034	96.19
444.255	86.19
444.476	86.19
444.698	77.19
444.919	89.19
445.14	126.19
445.361	109.19
445.582	109.19
445.803	130.19
446.024	115.19
446.245	120.19
446.466	124.19
446.687	93.19
446.908	97.19
447.129	89.19
447.35	100.19
447.571	78.19
447.792	96.19
448.013	92.19
448.234	111.19
448.455	87.19
448.675	101.19
448.896	109.19
449.117	81.19
449.338	86.19
449.559	129.19
449.779	118.19
450	100.19
450.221	92.19
450.442	89.19
450.662	91.19
450.883	103.19
451.104	102.19
451.324	79.19
451.545	88.19
451.766	87.19
451.986	85.19
452.207	84.19
452.428	96.19
452.648	101.19
452.869	109.19
453.089	111.19
453.31	113.19
453.53	97.19
453.751	100.19
453.971	97.19
454.192	102.19
454.412	87.19
454.633	92.19
454.853	87.19
455.073	83.19
455.294	83.19
455.514	94.19
455.734	81.19
455.955	89.19
456.175	89.19
456.395	79.19
456.616	89.19
456.836	72.19
457.056	86.19
457.276	83.19
457.497	92.19
457.717	84.19
457.937	85.19
458.157	93.19
458.377	103.19
458.598	99.19
458.818	146.19
459.038	148.19
459.258	112.19
459.478	96.19
459.698	85.19
459.918	77.19
460.138	70.19
460.358	83.19
460.578	79.19
460.798	85.19
461.018	97.19
461.238	94.19
461.458	88.19
461.678	88.19
461.898	87.19
462.118	81.19
462.338	88.19
462.558	88.19
462.777	89.19
462.997	82.19
463.217	81.19
463.437	78.19
463.657	79.19
463.876	87.19
464.096	87.19
464.316	87.19
464.536	97.19
464.755	94.19
464.975	102.19
465.195	158.19
465.414	141.19
465.634	98.19
465.854	72.19
466.073	92.19
466.293	93.19
466.512	91.19
466.732	78.19
466.951	75.19
467.171	84.19
467.391	102.19
467.61	103.19
467.829	100.19
468.049	86.19
468.268	87.19
468.488	91.19
468.707	85.19
468.927	85.19
469.146	93.19
469.365	80.19
469.585	76.19
469.804	91.19
470.023	86.19
470.243	87.19
470.462	98.19
470.681	116.19
470.901	91.19
471.12	79.19
471.339	88.19
471.558	86.19
471.777	87.19
471.997	85.19
472.216	93.19
472.435	107.19
472.654	85.19
472.873	91.19
473.092	85.19
473.311	75.19
473.53	89.19
473.749	88.19
473.968	93.19
474.187	112.19
474.406	89.19
474.625	82.19
474.844	83.19
475.063	75.19
475.282	88.19
475.501	82.19
475.72	82.19
475.939	79.19
476.158	89.19
476.377	77.19
476.596	80.19
476.814	95.19
477.033	89.19
477.252	87.19
477.471	94.19
477.69	85.19
477.908	86.19
478.127	81.19
478.346	97.19
478.564	91.19
478.783	101.19
479.002	88.19
479.22	97.19
479.439	100.19
479.658	86.19
479.876	96.19
480.095	80.19
480.313	95.19
480.532	95.19
480.751	95.19
480.969	100.19
481.188	123.19
481.406	104.19
481.624	85.19
481.843	96.19
482.061	65.19
482.28	85.19
482.498	86.19
482.717	80.19
482.935	89.19
483.153	88.19
483.372	88.19
483.59	90.19
483.808	99.19
484.027	91.19
484.245	99.19
484.463	89.19
484.681	105.19
484.9	99.19
485.118	101.19
485.336	101.19
485.554	96.19
485.772	100.19
485.99	100.19
486.209	85.19
486.427	87.19
486.645	97.19
486.863	108.19
487.081	105.19
487.299	78.19
487.517	93.19
487.735	100.19
487.953	94.19
488.171	83.19
488.389	95.19
488.607	100.19
488.825	96.19
489.043	83.19
489.261	90.19
489.479	89.19
489.696	92.19
489.914	94.19
490.132	77.19
490.35	107.19
490.568	84.19
490.786	87.19
491.003	99.19
491.221	97.19
491.439	81.19
491.657	93.19
491.874	81.19
492.092	97.19
492.31	96.19
492.527	87.19
492.745	96.19
492.963	83.19
493.18	104.19
493.398	87.19
493.615	93.19
493.833	106.19
494.05	85.19
494.268	114.19
494.485	89.19
494.703	97.19
494.92	87.19
495.138	107.19
495.355	95.19
495.573	77.19
495.79	88.19
496.008	85.19
496.225	77.19
496.442	84.19
496.66	98.19
496.877	89.19
497.094	96.19
497.312	79.19
497.529	104.19
497.746	91.19
497.963	83.19
498.181	81.19
498.398	107.19
498.615	108.19
498.832	88.19
499.049	87.19
499.267	86.19
499.484	79.19
499.701	74.19
499.918	85.19
500.135	101.19
500.352	92.19
500.569	92.19
500.786	74.19
501.003	88.19
501.22	81.19
501.437	88.19
501.654	87.19
501.871	104.19
502.088	105.19
502.305	101.19
502.522	95.19
502.739	87.19
502.956	79.19
503.172	88.19
503.389	86.19
503.606	98.19
503.823	91.19
504.04	103.19
504.256	82.19
504.473	85.19
504.69	75.19
504.907	84.19
505.123	90.19
505.34	96.19
505.557	97.19
505.773	79.19
505.99	91.19
506.207	82.19
506.423	89.19
506.64	104.19
506.856	87.19
507.073	99.19
507.289	103.19
507.506	88.19
507.722	97.19
507.939	104.19
508.155	101.19
508.372	97.19
508.588	85.19
508.805	96.19
509.021	96.19
509.238	113.19
509.454	106.19
509.67	100.19
509.887	108.19
510.103	139.19
510.319	214.19
510.536	775.19
510.752	2383.19
510.968	652.19
511.184	146.19
511.401	103.19
511.617	95.19
511.833	80.19
512.049	89.19
512.265	90.19
512.481	91.19
512.698	97.19
512.914	93.19
513.13	105.19
513.346	92.19
513.562	114.19
513.778	98.19
513.994	95.19
514.21	97.19
514.426	96.19
514.642	128.19
514.858	126.19
515.074	159.19
515.29	447.19
515.506	1409.19
515.721	537.19
515.937	141.19
516.153	111.19
516.369	104.19
