Data from Uncirc_2004_H10_HRD10591_00015.txt Node
Date: Wed Jan 03 10:32:15 EST 2024
User: Yrep
Spectrometer: HR+D1059
Trigger mode: 1
Integration Time (sec): 1.000000E-1
Scans to average: 1
Electric dark correction enabled: true
Nonlinearity correction enabled: false
Boxcar width: 0
XAxis mode: Wavelengths
Number of Pixels in Spectrum: 2048
>>>>>Begin Spectral Data<<<<<
223.165	-25.75
223.4	-25.75
223.635	-25.75
223.869	-7.75
224.104	-19.75
224.338	-11.75
224.573	-11.75
224.808	2.25
225.042	-16.75
225.277	-13.75
225.511	0.25
225.746	3.25
225.98	8.25
226.215	11.25
226.449	11.25
226.683	11.25
226.918	22.25
227.152	37.25
227.387	26.25
227.621	40.25
227.856	50.25
228.09	42.25
228.324	52.25
228.559	66.25
228.793	41.25
229.027	66.25
229.262	58.25
229.496	59.25
229.73	91.25
229.964	84.25
230.199	68.25
230.433	79.25
230.667	74.25
230.901	75.25
231.136	73.25
231.37	69.25
231.604	76.25
231.838	85.25
232.072	78.25
232.306	87.25
232.541	74.25
232.775	72.25
233.009	82.25
233.243	78.25
233.477	70.25
233.711	91.25
233.945	78.25
234.179	75.25
234.413	94.25
234.647	91.25
234.881	86.25
235.115	75.25
235.349	64.25
235.583	78.25
235.817	64.25
236.051	86.25
236.285	77.25
236.519	76.25
236.753	74.25
236.987	88.25
237.221	79.25
237.455	77.25
237.689	82.25
237.922	81.25
238.156	71.25
238.39	69.25
238.624	70.25
238.858	78.25
239.091	79.25
239.325	74.25
239.559	82.25
239.793	73.25
240.027	80.25
240.26	83.25
240.494	73.25
240.728	81.25
240.961	69.25
241.195	62.25
241.429	75.25
241.662	67.25
241.896	60.25
242.13	83.25
242.363	88.25
242.597	68.25
242.83	78.25
243.064	71.25
243.298	72.25
243.531	87.25
243.765	70.25
243.998	79.25
244.232	80.25
244.465	93.25
244.699	87.25
244.932	84.25
245.166	69.25
245.399	80.25
245.633	79.25
245.866	65.25
246.099	84.25
246.333	74.25
246.566	77.25
246.8	83.25
247.033	83.25
247.266	61.25
247.5	87.25
247.733	84.25
247.966	83.25
248.2	85.25
248.433	73.25
248.666	86.25
248.899	102.25
249.133	88.25
249.366	86.25
249.599	96.25
249.832	78.25
250.066	86.25
250.299	81.25
250.532	89.25
250.765	83.25
250.998	88.25
251.231	87.25
251.465	80.25
251.698	79.25
251.931	72.25
252.164	89.25
252.397	69.25
252.63	67.25
252.863	72.25
253.096	73.25
253.329	80.25
253.562	92.25
253.795	74.25
254.028	84.25
254.261	76.25
254.494	81.25
254.727	87.25
254.96	78.25
255.193	86.25
255.426	85.25
255.659	77.25
255.892	79.25
256.124	83.25
256.357	67.25
256.59	85.25
256.823	76.25
257.056	92.25
257.289	98.25
257.521	77.25
257.754	87.25
257.987	88.25
258.22	91.25
258.452	81.25
258.685	87.25
258.918	79.25
259.151	75.25
259.383	77.25
259.616	72.25
259.849	89.25
260.081	88.25
260.314	79.25
260.547	85.25
260.779	76.25
261.012	84.25
261.244	87.25
261.477	82.25
261.71	99.25
261.942	96.25
262.175	115.25
262.407	83.25
262.64	87.25
262.872	74.25
263.105	80.25
263.337	87.25
263.57	81.25
263.802	85.25
264.035	74.25
264.267	80.25
264.499	91.25
264.732	79.25
264.964	83.25
265.197	88.25
265.429	85.25
265.661	90.25
265.894	102.25
266.126	86.25
266.358	82.25
266.591	87.25
266.823	79.25
267.055	92.25
267.287	99.25
267.52	82.25
267.752	87.25
267.984	69.25
268.216	87.25
268.448	91.25
268.681	83.25
268.913	81.25
269.145	87.25
269.377	84.25
269.609	84.25
269.841	83.25
270.073	75.25
270.306	97.25
270.538	88.25
270.77	77.25
271.002	78.25
271.234	86.25
271.466	75.25
271.698	83.25
271.93	80.25
272.162	83.25
272.394	83.25
272.626	77.25
272.858	84.25
273.09	80.25
273.322	92.25
273.553	88.25
273.785	81.25
274.017	85.25
274.249	89.25
274.481	78.25
274.713	85.25
274.945	96.25
275.176	83.25
275.408	94.25
275.64	96.25
275.872	85.25
276.104	88.25
276.335	88.25
276.567	92.25
276.799	101.25
277.031	96.25
277.262	85.25
277.494	92.25
277.726	81.25
277.957	80.25
278.189	96.25
278.421	88.25
278.652	86.25
278.884	89.25
279.115	95.25
279.347	75.25
279.579	90.25
279.81	80.25
280.042	88.25
280.273	91.25
280.505	83.25
280.736	95.25
280.968	82.25
281.199	93.25
281.431	89.25
281.662	79.25
281.894	84.25
282.125	85.25
282.356	101.25
282.588	129.25
282.819	94.25
283.051	89.25
283.282	86.25
283.513	75.25
283.745	83.25
283.976	75.25
284.207	79.25
284.439	96.25
284.67	93.25
284.901	81.25
285.132	62.25
285.364	86.25
285.595	90.25
285.826	73.25
286.057	73.25
286.288	87.25
286.52	74.25
286.751	90.25
286.982	86.25
287.213	73.25
287.444	85.25
287.675	67.25
287.906	74.25
288.138	100.25
288.369	93.25
288.6	92.25
288.831	81.25
289.062	86.25
289.293	83.25
289.524	76.25
289.755	89.25
289.986	96.25
290.217	96.25
290.448	83.25
290.679	88.25
290.91	74.25
291.141	93.25
291.371	87.25
291.602	92.25
291.833	80.25
292.064	68.25
292.295	80.25
292.526	93.25
292.757	88.25
292.987	83.25
293.218	87.25
293.449	82.25
293.68	95.25
293.91	79.25
294.141	86.25
294.372	95.25
294.603	84.25
294.833	77.25
295.064	80.25
295.295	95.25
295.525	73.25
295.756	94.25
295.987	111.25
296.217	123.25
296.448	110.25
296.679	91.25
296.909	86.25
297.14	79.25
297.37	81.25
297.601	87.25
297.831	82.25
298.062	82.25
298.292	88.25
298.523	89.25
298.753	93.25
298.984	87.25
299.214	81.25
299.445	82.25
299.675	94.25
299.905	98.25
300.136	83.25
300.366	82.25
300.597	95.25
300.827	96.25
301.057	98.25
301.288	106.25
301.518	107.25
301.748	86.25
301.979	99.25
302.209	94.25
302.439	86.25
302.669	89.25
302.9	93.25
303.13	83.25
303.36	89.25
303.59	98.25
303.82	101.25
304.051	99.25
304.281	96.25
304.511	88.25
304.741	75.25
304.971	76.25
305.201	98.25
305.431	105.25
305.661	97.25
305.891	96.25
306.121	90.25
306.352	89.25
306.582	103.25
306.812	88.25
307.042	93.25
307.272	70.25
307.502	87.25
307.731	94.25
307.961	84.25
308.191	89.25
308.421	76.25
308.651	86.25
308.881	84.25
309.111	82.25
309.341	92.25
309.571	87.25
309.8	92.25
310.03	89.25
310.26	87.25
310.49	92.25
310.72	81.25
310.949	94.25
311.179	88.25
311.409	81.25
311.639	88.25
311.868	84.25
312.098	98.25
312.328	90.25
312.557	85.25
312.787	96.25
313.017	96.25
313.246	89.25
313.476	97.25
313.706	88.25
313.935	83.25
314.165	104.25
314.394	96.25
314.624	93.25
314.853	94.25
315.083	98.25
315.312	98.25
315.542	88.25
315.771	95.25
316.001	72.25
316.23	79.25
316.46	83.25
316.689	95.25
316.919	97.25
317.148	85.25
317.377	89.25
317.607	93.25
317.836	77.25
318.065	87.25
318.295	93.25
318.524	79.25
318.753	94.25
318.983	94.25
319.212	92.25
319.441	125.25
319.67	110.25
319.9	97.25
320.129	90.25
320.358	103.25
320.587	99.25
320.816	96.25
321.046	95.25
321.275	100.25
321.504	91.25
321.733	83.25
321.962	101.25
322.191	88.25
322.42	103.25
322.649	112.25
322.878	96.25
323.108	113.25
323.337	131.25
323.566	111.25
323.795	150.25
324.024	198.25
324.253	381.25
324.482	744.25
324.71	1476.25
324.939	1952.25
325.168	715.25
325.397	226.25
325.626	134.25
325.855	97.25
326.084	112.25
326.313	138.25
326.542	148.25
326.77	214.25
326.999	438.25
327.228	864.25
327.457	1521.25
327.686	1215.25
327.914	302.25
328.143	180.25
328.372	141.25
328.6	116.25
328.829	120.25
329.058	113.25
329.287	111.25
329.515	107.25
329.744	99.25
329.972	109.25
330.201	117.25
330.43	111.25
330.658	110.25
330.887	127.25
331.115	125.25
331.344	99.25
331.572	85.25
331.801	88.25
332.03	96.25
332.258	95.25
332.486	75.25
332.715	92.25
332.943	89.25
333.172	96.25
333.4	83.25
333.629	102.25
333.857	111.25
334.085	110.25
334.314	89.25
334.542	105.25
334.771	91.25
334.999	97.25
335.227	103.25
335.455	97.25
335.684	100.25
335.912	102.25
336.14	89.25
336.369	101.25
336.597	96.25
336.825	99.25
337.053	90.25
337.281	85.25
337.51	99.25
337.738	103.25
337.966	94.25
338.194	100.25
338.422	95.25
338.65	100.25
338.878	88.25
339.106	87.25
339.334	92.25
339.562	97.25
339.79	75.25
340.018	103.25
340.246	95.25
340.474	77.25
340.702	100.25
340.93	83.25
341.158	77.25
341.386	95.25
341.614	100.25
341.842	104.25
342.07	88.25
342.298	90.25
342.526	93.25
342.754	92.25
342.981	89.25
343.209	87.25
343.437	112.25
343.665	86.25
343.893	85.25
344.12	80.25
344.348	97.25
344.576	84.25
344.804	93.25
345.031	98.25
345.259	73.25
345.487	89.25
345.714	84.25
345.942	79.25
346.17	85.25
346.397	85.25
346.625	79.25
346.853	77.25
347.08	96.25
347.308	96.25
347.535	101.25
347.763	90.25
347.99	106.25
348.218	95.25
348.445	107.25
348.673	96.25
348.9	88.25
349.128	89.25
349.355	92.25
349.583	98.25
349.81	101.25
350.037	85.25
350.265	104.25
350.492	84.25
350.72	95.25
350.947	99.25
351.174	107.25
351.402	96.25
351.629	101.25
351.856	89.25
352.083	101.25
352.311	95.25
352.538	96.25
352.765	101.25
352.992	111.25
353.22	107.25
353.447	100.25
353.674	97.25
353.901	94.25
354.128	92.25
354.355	93.25
354.583	93.25
354.81	85.25
355.037	96.25
355.264	90.25
355.491	99.25
355.718	110.25
355.945	89.25
356.172	109.25
356.399	89.25
356.626	92.25
356.853	97.25
357.08	107.25
357.307	91.25
357.534	103.25
357.761	97.25
357.988	93.25
358.215	93.25
358.441	88.25
358.668	95.25
358.895	82.25
359.122	92.25
359.349	96.25
359.576	100.25
359.802	104.25
360.029	90.25
360.256	105.25
360.483	97.25
360.709	82.25
360.936	97.25
361.163	91.25
361.39	87.25
361.616	75.25
361.843	87.25
362.07	76.25
362.296	83.25
362.523	84.25
362.749	92.25
362.976	88.25
363.203	90.25
363.429	79.25
363.656	93.25
363.882	88.25
364.109	79.25
364.335	85.25
364.562	93.25
364.788	87.25
365.015	88.25
365.241	109.25
365.468	102.25
365.694	89.25
365.92	82.25
366.147	76.25
366.373	80.25
366.599	77.25
366.826	88.25
367.052	82.25
367.278	86.25
367.505	86.25
367.731	91.25
367.957	73.25
368.184	83.25
368.41	109.25
368.636	112.25
368.862	105.25
369.089	94.25
369.315	94.25
369.541	97.25
369.767	96.25
369.993	86.25
370.219	86.25
370.445	86.25
370.672	86.25
370.898	89.25
371.124	87.25
371.35	86.25
371.576	93.25
371.802	84.25
372.028	99.25
372.254	89.25
372.48	78.25
372.706	91.25
372.932	82.25
373.158	83.25
373.384	87.25
373.61	76.25
373.835	74.25
374.061	71.25
374.287	91.25
374.513	81.25
374.739	87.25
374.965	77.25
375.191	83.25
375.416	88.25
375.642	92.25
375.868	103.25
376.094	96.25
376.319	92.25
376.545	88.25
376.771	91.25
376.997	85.25
377.222	94.25
377.448	102.25
377.674	93.25
377.899	102.25
378.125	104.25
378.35	88.25
378.576	98.25
378.802	93.25
379.027	83.25
379.253	99.25
379.478	92.25
379.704	101.25
379.929	91.25
380.155	105.25
380.38	95.25
380.606	91.25
380.831	97.25
381.057	93.25
381.282	95.25
381.507	107.25
381.733	91.25
381.958	117.25
382.184	99.25
382.409	101.25
382.634	108.25
382.86	92.25
383.085	114.25
383.31	107.25
383.535	121.25
383.761	117.25
383.986	87.25
384.211	120.25
384.436	98.25
384.662	99.25
384.887	103.25
385.112	125.25
385.337	112.25
385.562	92.25
385.787	104.25
386.013	117.25
386.238	124.25
386.463	107.25
386.688	110.25
386.913	96.25
387.138	102.25
387.363	114.25
387.588	100.25
387.813	100.25
388.038	133.25
388.263	120.25
388.488	128.25
388.713	107.25
388.938	94.25
389.163	96.25
389.387	93.25
389.612	100.25
389.837	99.25
390.062	93.25
390.287	92.25
390.512	84.25
390.736	94.25
390.961	89.25
391.186	92.25
391.411	87.25
391.636	83.25
391.86	76.25
392.085	88.25
392.31	97.25
392.534	92.25
392.759	90.25
392.984	96.25
393.208	69.25
393.433	96.25
393.658	103.25
393.882	87.25
394.107	92.25
394.331	86.25
394.556	94.25
394.78	83.25
395.005	77.25
395.229	80.25
395.454	90.25
395.678	88.25
395.903	71.25
396.127	93.25
396.352	67.25
396.576	97.25
396.801	91.25
397.025	93.25
397.249	78.25
397.474	97.25
397.698	100.25
397.922	93.25
398.147	89.25
398.371	105.25
398.595	76.25
398.82	86.25
399.044	95.25
399.268	84.25
399.492	77.25
399.717	98.25
399.941	95.25
400.165	93.25
400.389	80.25
400.613	82.25
400.837	75.25
401.062	94.25
401.286	98.25
401.51	96.25
401.734	95.25
401.958	87.25
402.182	106.25
402.406	137.25
402.63	107.25
402.854	88.25
403.078	94.25
403.302	85.25
403.526	92.25
403.75	97.25
403.974	92.25
404.198	85.25
404.422	93.25
404.645	99.25
404.869	87.25
405.093	99.25
405.317	93.25
405.541	97.25
405.765	101.25
405.988	109.25
406.212	159.25
406.436	204.25
406.66	139.25
406.883	104.25
407.107	82.25
407.331	96.25
407.555	101.25
407.778	93.25
408.002	89.25
408.226	98.25
408.449	87.25
408.673	81.25
408.896	87.25
409.12	85.25
409.344	94.25
409.567	84.25
409.791	75.25
410.014	93.25
410.238	79.25
410.461	91.25
410.685	98.25
410.908	108.25
411.132	85.25
411.355	106.25
411.578	92.25
411.802	93.25
412.025	78.25
412.249	89.25
412.472	93.25
412.695	88.25
412.919	100.25
413.142	81.25
413.365	87.25
413.589	75.25
413.812	95.25
414.035	78.25
414.258	86.25
414.482	76.25
414.705	86.25
414.928	95.25
415.151	94.25
415.374	97.25
415.597	96.25
415.821	89.25
416.044	86.25
416.267	96.25
416.49	86.25
416.713	78.25
416.936	86.25
417.159	84.25
417.382	89.25
417.605	85.25
417.828	100.25
418.051	100.25
418.274	88.25
418.497	94.25
418.72	82.25
418.943	100.25
419.166	100.25
419.389	84.25
419.611	87.25
419.834	78.25
420.057	72.25
420.28	71.25
420.503	85.25
420.726	103.25
420.948	94.25
421.171	86.25
421.394	87.25
421.617	90.25
421.839	84.25
422.062	106.25
422.285	109.25
422.507	108.25
422.73	98.25
422.953	95.25
423.175	86.25
423.398	73.25
423.621	98.25
423.843	92.25
424.066	100.25
424.288	92.25
424.511	86.25
424.733	97.25
424.956	105.25
425.178	97.25
425.401	96.25
425.623	87.25
425.846	80.25
426.068	98.25
426.291	87.25
426.513	89.25
426.735	95.25
426.958	95.25
427.18	83.25
427.402	118.25
427.625	132.25
427.847	108.25
428.069	105.25
428.292	81.25
428.514	86.25
428.736	97.25
428.958	84.25
429.181	76.25
429.403	86.25
429.625	87.25
429.847	89.25
430.069	94.25
430.292	82.25
430.514	83.25
430.736	84.25
430.958	78.25
431.18	85.25
431.402	92.25
431.624	92.25
431.846	101.25
432.068	88.25
432.29	96.25
432.512	90.25
432.734	93.25
432.956	87.25
433.178	92.25
433.4	93.25
433.622	97.25
433.844	80.25
434.066	89.25
434.287	86.25
434.509	97.25
434.731	85.25
434.953	92.25
435.175	93.25
435.397	93.25
435.618	109.25
435.84	110.25
436.062	105.25
436.284	105.25
436.505	89.25
436.727	105.25
436.949	87.25
437.17	83.25
437.392	82.25
437.614	99.25
437.835	93.25
438.057	99.25
438.278	95.25
438.5	100.25
438.721	110.25
438.943	86.25
439.165	88.25
439.386	85.25
439.608	96.25
439.829	101.25
440.05	111.25
440.272	118.25
440.493	105.25
440.715	95.25
440.936	88.25
441.158	93.25
441.379	74.25
441.6	84.25
441.822	103.25
442.043	92.25
442.264	94.25
442.486	86.25
442.707	104.25
442.928	95.25
443.149	119.25
443.371	101.25
443.592	99.25
443.813	95.25
444.034	98.25
444.255	88.25
444.476	88.25
444.698	87.25
444.919	86.25
445.14	122.25
445.361	95.25
445.582	101.25
445.803	132.25
446.024	113.25
446.245	127.25
446.466	105.25
446.687	81.25
446.908	105.25
447.129	86.25
447.35	84.25
447.571	106.25
447.792	79.25
448.013	85.25
448.234	90.25
448.455	81.25
448.675	126.25
448.896	112.25
449.117	94.25
449.338	104.25
449.559	116.25
449.779	117.25
450	93.25
450.221	84.25
450.442	70.25
450.662	92.25
450.883	95.25
451.104	101.25
451.324	93.25
451.545	95.25
451.766	88.25
451.986	99.25
452.207	94.25
452.428	84.25
452.648	102.25
452.869	91.25
453.089	104.25
453.31	108.25
453.53	107.25
453.751	80.25
453.971	91.25
454.192	97.25
454.412	83.25
454.633	86.25
454.853	72.25
455.073	80.25
455.294	84.25
455.514	106.25
455.734	107.25
455.955	77.25
456.175	83.25
456.395	68.25
456.616	89.25
456.836	86.25
457.056	81.25
457.276	85.25
457.497	88.25
457.717	88.25
457.937	78.25
458.157	84.25
458.377	89.25
458.598	92.25
458.818	126.25
459.038	135.25
459.258	91.25
459.478	89.25
459.698	85.25
459.918	77.25
460.138	85.25
460.358	84.25
460.578	76.25
460.798	89.25
461.018	96.25
461.238	89.25
461.458	87.25
461.678	95.25
461.898	89.25
462.118	92.25
462.338	77.25
462.558	69.25
462.777	80.25
462.997	76.25
463.217	97.25
463.437	85.25
463.657	85.25
463.876	99.25
464.096	92.25
464.316	96.25
464.536	93.25
464.755	100.25
464.975	98.25
465.195	142.25
465.414	151.25
465.634	93.25
465.854	87.25
466.073	78.25
466.293	99.25
466.512	89.25
466.732	82.25
466.951	105.25
467.171	86.25
467.391	86.25
467.61	98.25
467.829	93.25
468.049	85.25
468.268	87.25
468.488	72.25
468.707	81.25
468.927	81.25
469.146	85.25
469.365	88.25
469.585	70.25
469.804	80.25
470.023	92.25
470.243	79.25
470.462	87.25
470.681	111.25
470.901	82.25
471.12	76.25
471.339	94.25
471.558	76.25
471.777	75.25
471.997	83.25
472.216	98.25
472.435	96.25
472.654	87.25
472.873	82.25
473.092	65.25
473.311	80.25
473.53	84.25
473.749	85.25
473.968	87.25
474.187	86.25
474.406	89.25
474.625	91.25
474.844	93.25
475.063	85.25
475.282	86.25
475.501	93.25
475.72	79.25
475.939	71.25
476.158	89.25
476.377	86.25
476.596	81.25
476.814	96.25
477.033	99.25
477.252	101.25
477.471	73.25
477.69	85.25
477.908	95.25
478.127	88.25
478.346	98.25
478.564	92.25
478.783	83.25
479.002	84.25
479.22	86.25
479.439	84.25
479.658	96.25
479.876	97.25
480.095	83.25
480.313	95.25
480.532	80.25
480.751	87.25
480.969	96.25
481.188	113.25
481.406	108.25
481.624	81.25
481.843	78.25
482.061	93.25
482.28	99.25
482.498	87.25
482.717	81.25
482.935	95.25
483.153	95.25
483.372	101.25
483.59	89.25
483.808	94.25
484.027	84.25
484.245	98.25
484.463	98.25
484.681	96.25
484.9	92.25
485.118	92.25
485.336	95.25
485.554	102.25
485.772	102.25
485.99	112.25
486.209	120.25
486.427	95.25
486.645	119.25
486.863	107.25
487.081	101.25
487.299	94.25
487.517	92.25
487.735	97.25
487.953	115.25
488.171	96.25
488.389	89.25
488.607	91.25
488.825	83.25
489.043	87.25
489.261	86.25
489.479	87.25
489.696	103.25
489.914	87.25
490.132	91.25
490.35	86.25
490.568	97.25
490.786	98.25
491.003	97.25
491.221	86.25
491.439	101.25
491.657	106.25
491.874	88.25
492.092	93.25
492.31	97.25
492.527	81.25
492.745	90.25
492.963	97.25
493.18	109.25
493.398	72.25
493.615	93.25
493.833	90.25
494.05	88.25
494.268	95.25
494.485	80.25
494.703	96.25
494.92	94.25
495.138	88.25
495.355	93.25
495.573	92.25
495.79	95.25
496.008	81.25
496.225	83.25
496.442	87.25
496.66	95.25
496.877	85.25
497.094	94.25
497.312	100.25
497.529	87.25
497.746	105.25
497.963	97.25
498.181	94.25
498.398	92.25
498.615	94.25
498.832	85.25
499.049	89.25
499.267	77.25
499.484	95.25
499.701	92.25
499.918	95.25
500.135	92.25
500.352	96.25
500.569	88.25
500.786	86.25
501.003	87.25
501.22	87.25
501.437	89.25
501.654	93.25
501.871	97.25
502.088	87.25
502.305	91.25
502.522	82.25
502.739	88.25
502.956	89.25
503.172	91.25
503.389	97.25
503.606	102.25
503.823	95.25
504.04	103.25
504.256	95.25
504.473	102.25
504.69	86.25
504.907	101.25
505.123	88.25
505.34	83.25
505.557	83.25
505.773	86.25
505.99	99.25
506.207	100.25
506.423	92.25
506.64	93.25
506.856	88.25
507.073	88.25
507.289	92.25
507.506	92.25
507.722	108.25
507.939	107.25
508.155	96.25
508.372	103.25
508.588	92.25
508.805	107.25
509.021	94.25
509.238	118.25
509.454	111.25
509.67	100.25
509.887	96.25
510.103	146.25
510.319	207.25
510.536	713.25
510.752	2145.25
510.968	599.25
511.184	158.25
511.401	114.25
511.617	95.25
511.833	91.25
512.049	91.25
512.265	93.25
512.481	73.25
512.698	86.25
512.914	79.25
513.13	104.25
513.346	93.25
513.562	81.25
513.778	98.25
513.994	107.25
514.21	105.25
514.426	111.25
514.642	134.25
514.858	106.25
515.074	160.25
515.29	409.25
515.506	1243.25
515.721	475.25
515.937	151.25
516.153	116.25
516.369	95.25
516.585	83.25
