Data from Uncirc_2004_H10_HRD10591_00092.txt Node
Date: Wed Jan 03 10:32:31 EST 2024
User: Yrep
Spectrometer: HR+D1059
Trigger mode: 1
Integration Time (sec): 1.000000E-1
Scans to average: 1
Electric dark correction enabled: true
Nonlinearity correction enabled: false
Boxcar width: 0
XAxis mode: Wavelengths
Number of Pixels in Spectrum: 2048
>>>>>Begin Spectral Data<<<<<
223.165	-25.31
223.4	-25.31
223.635	-25.31
223.869	-21.31
224.104	-30.31
224.338	-11.31
224.573	-24.31
224.808	-5.31
225.042	-5.31
225.277	0.69
225.511	6.69
225.746	9.69
225.98	2.69
226.215	9.69
226.449	24.69
226.683	21.69
226.918	18.69
227.152	28.69
227.387	41.69
227.621	51.69
227.856	57.69
228.09	59.69
228.324	56.69
228.559	69.69
228.793	47.69
229.027	63.69
229.262	62.69
229.496	84.69
229.73	74.69
229.964	88.69
230.199	83.69
230.433	67.69
230.667	85.69
230.901	84.69
231.136	72.69
231.37	102.69
231.604	84.69
231.838	78.69
232.072	82.69
232.306	106.69
232.541	88.69
232.775	87.69
233.009	92.69
233.243	77.69
233.477	79.69
233.711	77.69
233.945	79.69
234.179	91.69
234.413	83.69
234.647	68.69
234.881	90.69
235.115	83.69
235.349	85.69
235.583	81.69
235.817	80.69
236.051	75.69
236.285	75.69
236.519	76.69
236.753	82.69
236.987	78.69
237.221	83.69
237.455	92.69
237.689	78.69
237.922	83.69
238.156	84.69
238.39	88.69
238.624	84.69
238.858	68.69
239.091	87.69
239.325	83.69
239.559	91.69
239.793	92.69
240.027	86.69
240.26	85.69
240.494	78.69
240.728	75.69
240.961	80.69
241.195	81.69
241.429	85.69
241.662	74.69
241.896	63.69
242.13	82.69
242.363	81.69
242.597	84.69
242.83	82.69
243.064	82.69
243.298	81.69
243.531	65.69
243.765	80.69
243.998	65.69
244.232	80.69
244.465	100.69
244.699	79.69
244.932	81.69
245.166	76.69
245.399	79.69
245.633	77.69
245.866	78.69
246.099	77.69
246.333	77.69
246.566	78.69
246.8	84.69
247.033	78.69
247.266	90.69
247.5	76.69
247.733	73.69
247.966	86.69
248.2	73.69
248.433	75.69
248.666	77.69
248.899	84.69
249.133	90.69
249.366	103.69
249.599	89.69
249.832	75.69
250.066	97.69
250.299	84.69
250.532	83.69
250.765	89.69
250.998	83.69
251.231	81.69
251.465	81.69
251.698	82.69
251.931	84.69
252.164	92.69
252.397	91.69
252.63	98.69
252.863	79.69
253.096	74.69
253.329	82.69
253.562	86.69
253.795	90.69
254.028	78.69
254.261	95.69
254.494	91.69
254.727	89.69
254.96	88.69
255.193	105.69
255.426	86.69
255.659	87.69
255.892	89.69
256.124	72.69
256.357	82.69
256.59	85.69
256.823	75.69
257.056	86.69
257.289	86.69
257.521	87.69
257.754	83.69
257.987	70.69
258.22	82.69
258.452	94.69
258.685	97.69
258.918	87.69
259.151	67.69
259.383	91.69
259.616	78.69
259.849	78.69
260.081	80.69
260.314	85.69
260.547	82.69
260.779	86.69
261.012	87.69
261.244	89.69
261.477	88.69
261.71	104.69
261.942	125.69
262.175	117.69
262.407	86.69
262.64	89.69
262.872	82.69
263.105	91.69
263.337	102.69
263.57	78.69
263.802	90.69
264.035	104.69
264.267	80.69
264.499	82.69
264.732	95.69
264.964	84.69
265.197	97.69
265.429	82.69
265.661	80.69
265.894	89.69
266.126	84.69
266.358	91.69
266.591	91.69
266.823	90.69
267.055	85.69
267.287	91.69
267.52	83.69
267.752	83.69
267.984	87.69
268.216	87.69
268.448	92.69
268.681	104.69
268.913	75.69
269.145	85.69
269.377	91.69
269.609	101.69
269.841	96.69
270.073	89.69
270.306	91.69
270.538	82.69
270.77	99.69
271.002	82.69
271.234	93.69
271.466	99.69
271.698	91.69
271.93	73.69
272.162	99.69
272.394	89.69
272.626	93.69
272.858	86.69
273.09	106.69
273.322	87.69
273.553	74.69
273.785	96.69
274.017	78.69
274.249	90.69
274.481	94.69
274.713	84.69
274.945	98.69
275.176	89.69
275.408	87.69
275.64	88.69
275.872	96.69
276.104	71.69
276.335	92.69
276.567	104.69
276.799	110.69
277.031	96.69
277.262	96.69
277.494	92.69
277.726	89.69
277.957	95.69
278.189	91.69
278.421	85.69
278.652	102.69
278.884	100.69
279.115	88.69
279.347	90.69
279.579	85.69
279.81	95.69
280.042	99.69
280.273	82.69
280.505	76.69
280.736	99.69
280.968	79.69
281.199	82.69
281.431	83.69
281.662	81.69
281.894	84.69
282.125	110.69
282.356	127.69
282.588	133.69
282.819	113.69
283.051	91.69
283.282	100.69
283.513	102.69
283.745	93.69
283.976	84.69
284.207	92.69
284.439	79.69
284.67	81.69
284.901	91.69
285.132	89.69
285.364	95.69
285.595	81.69
285.826	105.69
286.057	90.69
286.288	87.69
286.52	94.69
286.751	81.69
286.982	92.69
287.213	83.69
287.444	81.69
287.675	82.69
287.906	99.69
288.138	96.69
288.369	99.69
288.6	96.69
288.831	104.69
289.062	88.69
289.293	97.69
289.524	80.69
289.755	90.69
289.986	94.69
290.217	96.69
290.448	87.69
290.679	97.69
290.91	101.69
291.141	80.69
291.371	88.69
291.602	82.69
291.833	103.69
292.064	94.69
292.295	82.69
292.526	98.69
292.757	91.69
292.987	103.69
293.218	81.69
293.449	94.69
293.68	107.69
293.91	84.69
294.141	95.69
294.372	98.69
294.603	98.69
294.833	91.69
295.064	86.69
295.295	99.69
295.525	96.69
295.756	113.69
295.987	120.69
296.217	146.69
296.448	122.69
296.679	92.69
296.909	91.69
297.14	86.69
297.37	97.69
297.601	85.69
297.831	100.69
298.062	94.69
298.292	88.69
298.523	84.69
298.753	99.69
298.984	86.69
299.214	100.69
299.445	91.69
299.675	95.69
299.905	87.69
300.136	109.69
300.366	97.69
300.597	82.69
300.827	95.69
301.057	94.69
301.288	108.69
301.518	102.69
301.748	97.69
301.979	102.69
302.209	96.69
302.439	95.69
302.669	102.69
302.9	90.69
303.13	100.69
303.36	103.69
303.59	107.69
303.82	106.69
304.051	94.69
304.281	92.69
304.511	86.69
304.741	96.69
304.971	98.69
305.201	85.69
305.431	91.69
305.661	95.69
305.891	96.69
306.121	105.69
306.352	102.69
306.582	107.69
306.812	102.69
307.042	104.69
307.272	99.69
307.502	88.69
307.731	107.69
307.961	104.69
308.191	70.69
308.421	96.69
308.651	91.69
308.881	102.69
309.111	102.69
309.341	97.69
309.571	92.69
309.8	98.69
310.03	92.69
310.26	99.69
310.49	94.69
310.72	96.69
310.949	99.69
311.179	92.69
311.409	88.69
311.639	98.69
311.868	107.69
312.098	100.69
312.328	107.69
312.557	94.69
312.787	111.69
313.017	101.69
313.246	107.69
313.476	85.69
313.706	82.69
313.935	98.69
314.165	88.69
314.394	98.69
314.624	101.69
314.853	99.69
315.083	92.69
315.312	96.69
315.542	121.69
315.771	94.69
316.001	92.69
316.23	97.69
316.46	96.69
316.689	110.69
316.919	92.69
317.148	105.69
317.377	100.69
317.607	97.69
317.836	91.69
318.065	83.69
318.295	94.69
318.524	97.69
318.753	99.69
318.983	92.69
319.212	99.69
319.441	118.69
319.67	111.69
319.9	95.69
320.129	98.69
320.358	101.69
320.587	90.69
320.816	84.69
321.046	111.69
321.275	108.69
321.504	91.69
321.733	100.69
321.962	88.69
322.191	105.69
322.42	96.69
322.649	110.69
322.878	113.69
323.108	132.69
323.337	122.69
323.566	134.69
323.795	150.69
324.024	214.69
324.253	404.69
324.482	818.69
324.71	1640.69
324.939	2144.69
325.168	804.69
325.397	243.69
325.626	156.69
325.855	126.69
326.084	119.69
326.313	119.69
326.542	154.69
326.77	226.69
326.999	450.69
327.228	960.69
327.457	1707.69
327.686	1325.69
327.914	347.69
328.143	194.69
328.372	150.69
328.6	118.69
328.829	121.69
329.058	106.69
329.287	117.69
329.515	106.69
329.744	102.69
329.972	104.69
330.201	98.69
330.43	105.69
330.658	112.69
330.887	143.69
331.115	137.69
331.344	103.69
331.572	91.69
331.801	116.69
332.03	102.69
332.258	102.69
332.486	99.69
332.715	100.69
332.943	104.69
333.172	109.69
333.4	99.69
333.629	95.69
333.857	119.69
334.085	121.69
334.314	107.69
334.542	113.69
334.771	114.69
334.999	106.69
335.227	102.69
335.455	104.69
335.684	104.69
335.912	91.69
336.14	110.69
336.369	87.69
336.597	94.69
336.825	92.69
337.053	106.69
337.281	99.69
337.51	101.69
337.738	115.69
337.966	108.69
338.194	91.69
338.422	91.69
338.65	93.69
338.878	91.69
339.106	89.69
339.334	98.69
339.562	104.69
339.79	103.69
340.018	90.69
340.246	100.69
340.474	111.69
340.702	96.69
340.93	106.69
341.158	97.69
341.386	103.69
341.614	79.69
341.842	96.69
342.07	83.69
342.298	99.69
342.526	96.69
342.754	83.69
342.981	93.69
343.209	85.69
343.437	104.69
343.665	86.69
343.893	95.69
344.12	92.69
344.348	82.69
344.576	81.69
344.804	89.69
345.031	92.69
345.259	94.69
345.487	90.69
345.714	87.69
345.942	95.69
346.17	94.69
346.397	97.69
346.625	92.69
346.853	95.69
347.08	81.69
347.308	88.69
347.535	102.69
347.763	97.69
347.99	99.69
348.218	108.69
348.445	98.69
348.673	108.69
348.9	111.69
349.128	89.69
349.355	96.69
349.583	111.69
349.81	99.69
350.037	102.69
350.265	105.69
350.492	98.69
350.72	94.69
350.947	95.69
351.174	105.69
351.402	105.69
351.629	101.69
351.856	119.69
352.083	101.69
352.311	97.69
352.538	117.69
352.765	106.69
352.992	105.69
353.22	111.69
353.447	113.69
353.674	98.69
353.901	97.69
354.128	92.69
354.355	91.69
354.583	104.69
354.81	101.69
355.037	93.69
355.264	97.69
355.491	95.69
355.718	83.69
355.945	109.69
356.172	105.69
356.399	92.69
356.626	102.69
356.853	93.69
357.08	100.69
357.307	79.69
357.534	83.69
357.761	110.69
357.988	96.69
358.215	101.69
358.441	96.69
358.668	96.69
358.895	96.69
359.122	88.69
359.349	86.69
359.576	87.69
359.802	113.69
360.029	115.69
360.256	126.69
360.483	105.69
360.709	91.69
360.936	95.69
361.163	83.69
361.39	96.69
361.616	112.69
361.843	103.69
362.07	96.69
362.296	105.69
362.523	95.69
362.749	101.69
362.976	91.69
363.203	95.69
363.429	92.69
363.656	94.69
363.882	100.69
364.109	80.69
364.335	88.69
364.562	103.69
364.788	105.69
365.015	95.69
365.241	100.69
365.468	111.69
365.694	105.69
365.92	75.69
366.147	93.69
366.373	74.69
366.599	93.69
366.826	81.69
367.052	84.69
367.278	94.69
367.505	98.69
367.731	90.69
367.957	91.69
368.184	92.69
368.41	110.69
368.636	110.69
368.862	116.69
369.089	103.69
369.315	95.69
369.541	91.69
369.767	109.69
369.993	105.69
370.219	98.69
370.445	96.69
370.672	91.69
370.898	90.69
371.124	85.69
371.35	86.69
371.576	90.69
371.802	100.69
372.028	84.69
372.254	95.69
372.48	87.69
372.706	78.69
372.932	81.69
373.158	92.69
373.384	99.69
373.61	102.69
373.835	89.69
374.061	86.69
374.287	91.69
374.513	86.69
374.739	98.69
374.965	99.69
375.191	104.69
375.416	93.69
375.642	90.69
375.868	90.69
376.094	104.69
376.319	89.69
376.545	83.69
376.771	91.69
376.997	88.69
377.222	81.69
377.448	88.69
377.674	90.69
377.899	98.69
378.125	82.69
378.35	98.69
378.576	104.69
378.802	104.69
379.027	83.69
379.253	82.69
379.478	87.69
379.704	108.69
379.929	102.69
380.155	106.69
380.38	90.69
380.606	113.69
380.831	84.69
381.057	99.69
381.282	87.69
381.507	99.69
381.733	87.69
381.958	96.69
382.184	101.69
382.409	95.69
382.634	111.69
382.86	99.69
383.085	86.69
383.31	102.69
383.535	114.69
383.761	94.69
383.986	91.69
384.211	94.69
384.436	101.69
384.662	99.69
384.887	110.69
385.112	106.69
385.337	97.69
385.562	114.69
385.787	105.69
386.013	102.69
386.238	114.69
386.463	117.69
386.688	96.69
386.913	103.69
387.138	100.69
387.363	100.69
387.588	104.69
387.813	107.69
388.038	116.69
388.263	101.69
388.488	105.69
388.713	106.69
388.938	87.69
389.163	111.69
389.387	101.69
389.612	93.69
389.837	97.69
390.062	88.69
390.287	99.69
390.512	94.69
390.736	87.69
390.961	98.69
391.186	86.69
391.411	97.69
391.636	82.69
391.86	90.69
392.085	92.69
392.31	84.69
392.534	99.69
392.759	78.69
392.984	89.69
393.208	99.69
393.433	77.69
393.658	93.69
393.882	92.69
394.107	92.69
394.331	80.69
394.556	87.69
394.78	91.69
395.005	76.69
395.229	92.69
395.454	87.69
395.678	94.69
395.903	87.69
396.127	87.69
396.352	92.69
396.576	85.69
396.801	79.69
397.025	89.69
397.249	91.69
397.474	90.69
397.698	92.69
397.922	92.69
398.147	99.69
398.371	77.69
398.595	70.69
398.82	87.69
399.044	82.69
399.268	91.69
399.492	106.69
399.717	97.69
399.941	89.69
400.165	95.69
400.389	87.69
400.613	99.69
400.837	100.69
401.062	91.69
401.286	83.69
401.51	80.69
401.734	85.69
401.958	95.69
402.182	136.69
402.406	152.69
402.63	107.69
402.854	96.69
403.078	94.69
403.302	86.69
403.526	95.69
403.75	94.69
403.974	86.69
404.198	105.69
404.422	91.69
404.645	98.69
404.869	100.69
405.093	89.69
405.317	99.69
405.541	106.69
405.765	99.69
405.988	129.69
406.212	204.69
406.436	207.69
406.66	167.69
406.883	109.69
407.107	102.69
407.331	97.69
407.555	87.69
407.778	82.69
408.002	82.69
408.226	79.69
408.449	89.69
408.673	75.69
408.896	97.69
409.12	107.69
409.344	85.69
409.567	97.69
409.791	82.69
410.014	84.69
410.238	111.69
410.461	106.69
410.685	97.69
410.908	96.69
411.132	104.69
411.355	104.69
411.578	90.69
411.802	87.69
412.025	88.69
412.249	84.69
412.472	89.69
412.695	95.69
412.919	104.69
413.142	91.69
413.365	88.69
413.589	94.69
413.812	99.69
414.035	103.69
414.258	87.69
414.482	96.69
414.705	102.69
414.928	90.69
415.151	82.69
415.374	103.69
415.597	96.69
415.821	90.69
416.044	83.69
416.267	75.69
416.49	95.69
416.713	87.69
416.936	88.69
417.159	88.69
417.382	100.69
417.605	95.69
417.828	95.69
418.051	100.69
418.274	97.69
418.497	96.69
418.72	89.69
418.943	96.69
419.166	87.69
419.389	96.69
419.611	82.69
419.834	100.69
420.057	79.69
420.28	75.69
420.503	89.69
420.726	99.69
420.948	90.69
421.171	100.69
421.394	89.69
421.617	97.69
421.839	88.69
422.062	96.69
422.285	86.69
422.507	83.69
422.73	95.69
422.953	103.69
423.175	83.69
423.398	96.69
423.621	89.69
423.843	82.69
424.066	92.69
424.288	91.69
424.511	93.69
424.733	98.69
424.956	100.69
425.178	106.69
425.401	96.69
425.623	110.69
425.846	84.69
426.068	82.69
426.291	90.69
426.513	99.69
426.735	106.69
426.958	88.69
427.18	92.69
427.402	134.69
427.625	154.69
427.847	132.69
428.069	108.69
428.292	98.69
428.514	98.69
428.736	88.69
428.958	87.69
429.181	95.69
429.403	74.69
429.625	84.69
429.847	82.69
430.069	104.69
430.292	96.69
430.514	76.69
430.736	82.69
430.958	87.69
431.18	79.69
431.402	82.69
431.624	90.69
431.846	96.69
432.068	95.69
432.29	84.69
432.512	96.69
432.734	83.69
432.956	103.69
433.178	98.69
433.4	92.69
433.622	107.69
433.844	91.69
434.066	100.69
434.287	92.69
434.509	87.69
434.731	82.69
434.953	89.69
435.175	77.69
435.397	87.69
435.618	106.69
435.84	114.69
436.062	108.69
436.284	119.69
436.505	91.69
436.727	97.69
436.949	88.69
437.17	84.69
437.392	82.69
437.614	107.69
437.835	107.69
438.057	111.69
438.278	113.69
438.5	98.69
438.721	130.69
438.943	102.69
439.165	110.69
439.386	79.69
439.608	105.69
439.829	105.69
440.05	110.69
440.272	143.69
440.493	88.69
440.715	81.69
440.936	91.69
441.158	91.69
441.379	83.69
441.6	107.69
441.822	101.69
442.043	96.69
442.264	103.69
442.486	100.69
442.707	95.69
442.928	117.69
443.149	125.69
443.371	134.69
443.592	111.69
443.813	115.69
444.034	103.69
444.255	91.69
444.476	98.69
444.698	80.69
444.919	90.69
445.14	128.69
445.361	135.69
445.582	107.69
445.803	134.69
446.024	134.69
446.245	125.69
446.466	107.69
446.687	93.69
446.908	89.69
447.129	95.69
447.35	104.69
447.571	93.69
447.792	84.69
448.013	108.69
448.234	100.69
448.455	103.69
448.675	102.69
448.896	106.69
449.117	91.69
449.338	94.69
449.559	118.69
449.779	131.69
450	98.69
450.221	99.69
450.442	90.69
450.662	94.69
450.883	115.69
451.104	115.69
451.324	96.69
451.545	89.69
451.766	90.69
451.986	91.69
452.207	92.69
452.428	103.69
452.648	103.69
452.869	100.69
453.089	101.69
453.31	119.69
453.53	95.69
453.751	89.69
453.971	93.69
454.192	98.69
454.412	94.69
454.633	85.69
454.853	87.69
455.073	87.69
455.294	97.69
455.514	94.69
455.734	108.69
455.955	86.69
456.175	76.69
456.395	99.69
456.616	88.69
456.836	76.69
457.056	87.69
457.276	105.69
457.497	89.69
457.717	80.69
457.937	107.69
458.157	84.69
458.377	88.69
458.598	94.69
458.818	141.69
459.038	157.69
459.258	112.69
459.478	83.69
459.698	73.69
459.918	84.69
460.138	86.69
460.358	86.69
460.578	103.69
460.798	87.69
461.018	92.69
461.238	89.69
461.458	88.69
461.678	78.69
461.898	85.69
462.118	91.69
462.338	96.69
462.558	84.69
462.777	88.69
462.997	96.69
463.217	93.69
463.437	90.69
463.657	81.69
463.876	84.69
464.096	99.69
464.316	91.69
464.536	98.69
464.755	108.69
464.975	112.69
465.195	169.69
465.414	146.69
465.634	88.69
465.854	93.69
466.073	89.69
466.293	77.69
466.512	81.69
466.732	104.69
466.951	95.69
467.171	91.69
467.391	79.69
467.61	93.69
467.829	98.69
468.049	102.69
468.268	97.69
468.488	91.69
468.707	92.69
468.927	86.69
469.146	74.69
469.365	98.69
469.585	92.69
469.804	83.69
470.023	103.69
470.243	90.69
470.462	95.69
470.681	106.69
470.901	99.69
471.12	92.69
471.339	92.69
471.558	91.69
471.777	90.69
471.997	91.69
472.216	93.69
472.435	99.69
472.654	89.69
472.873	86.69
473.092	91.69
473.311	110.69
473.53	76.69
473.749	88.69
473.968	83.69
474.187	111.69
474.406	87.69
474.625	94.69
474.844	94.69
475.063	75.69
475.282	92.69
475.501	81.69
475.72	89.69
475.939	87.69
476.158	89.69
476.377	89.69
476.596	92.69
476.814	87.69
477.033	105.69
477.252	99.69
477.471	84.69
477.69	102.69
477.908	95.69
478.127	94.69
478.346	80.69
478.564	91.69
478.783	97.69
479.002	86.69
479.22	85.69
479.439	101.69
479.658	111.69
479.876	87.69
480.095	97.69
480.313	100.69
480.532	93.69
480.751	102.69
480.969	105.69
481.188	111.69
481.406	120.69
481.624	102.69
481.843	98.69
482.061	91.69
482.28	97.69
482.498	86.69
482.717	90.69
482.935	92.69
483.153	82.69
483.372	90.69
483.59	90.69
483.808	98.69
484.027	96.69
484.245	110.69
484.463	93.69
484.681	100.69
484.9	94.69
485.118	102.69
485.336	106.69
485.554	93.69
485.772	98.69
485.99	104.69
486.209	87.69
486.427	92.69
486.645	111.69
486.863	118.69
487.081	94.69
487.299	93.69
487.517	90.69
487.735	90.69
487.953	84.69
488.171	107.69
488.389	106.69
488.607	102.69
488.825	88.69
489.043	79.69
489.261	87.69
489.479	93.69
489.696	89.69
489.914	107.69
490.132	92.69
490.35	88.69
490.568	86.69
490.786	90.69
491.003	96.69
491.221	90.69
491.439	100.69
491.657	87.69
491.874	93.69
492.092	100.69
492.31	105.69
492.527	91.69
492.745	95.69
492.963	110.69
493.18	87.69
493.398	101.69
493.615	95.69
493.833	102.69
494.05	92.69
494.268	99.69
494.485	79.69
494.703	91.69
494.92	95.69
495.138	104.69
495.355	98.69
495.573	97.69
495.79	90.69
496.008	83.69
496.225	85.69
496.442	103.69
496.66	97.69
496.877	101.69
497.094	77.69
497.312	96.69
497.529	100.69
497.746	91.69
497.963	105.69
498.181	100.69
498.398	114.69
498.615	103.69
498.832	107.69
499.049	95.69
499.267	91.69
499.484	110.69
499.701	95.69
499.918	89.69
500.135	92.69
500.352	92.69
500.569	98.69
500.786	101.69
501.003	83.69
501.22	86.69
501.437	87.69
501.654	98.69
501.871	109.69
502.088	96.69
502.305	94.69
502.522	91.69
502.739	105.69
502.956	90.69
503.172	97.69
503.389	100.69
503.606	107.69
503.823	102.69
504.04	99.69
504.256	99.69
504.473	86.69
504.69	97.69
504.907	96.69
505.123	88.69
505.34	102.69
505.557	80.69
505.773	90.69
505.99	90.69
506.207	98.69
506.423	70.69
506.64	77.69
506.856	109.69
507.073	104.69
507.289	94.69
507.506	105.69
507.722	108.69
507.939	107.69
508.155	99.69
508.372	91.69
508.588	113.69
508.805	106.69
509.021	112.69
509.238	96.69
509.454	87.69
509.67	96.69
509.887	112.69
510.103	139.69
510.319	233.69
510.536	766.69
510.752	2482.69
510.968	693.69
511.184	160.69
511.401	103.69
511.617	99.69
511.833	112.69
512.049	83.69
512.265	95.69
512.481	86.69
512.698	88.69
512.914	85.69
513.13	90.69
513.346	95.69
513.562	81.69
513.778	86.69
513.994	92.69
514.21	96.69
514.426	117.69
514.642	136.69
