Data from Uncirc_2004_H10_HRD10591_00060.txt Node
Date: Wed Jan 03 10:32:24 EST 2024
User: Yrep
Spectrometer: HR+D1059
Trigger mode: 1
Integration Time (sec): 1.000000E-1
Scans to average: 1
Electric dark correction enabled: true
Nonlinearity correction enabled: false
Boxcar width: 0
XAxis mode: Wavelengths
Number of Pixels in Spectrum: 2048
>>>>>Begin Spectral Data<<<<<
223.165	-20.75
223.4	-20.75
223.635	-20.75
223.869	-22.75
224.104	-5.75
224.338	-3.75
224.573	-0.75
224.808	-12.75
225.042	-6.75
225.277	-6.75
225.511	-10.75
225.746	4.25
225.98	7.25
226.215	-7.75
226.449	18.25
226.683	16.25
226.918	15.25
227.152	37.25
227.387	47.25
227.621	20.25
227.856	36.25
228.09	40.25
228.324	43.25
228.559	44.25
228.793	43.25
229.027	51.25
229.262	63.25
229.496	56.25
229.73	76.25
229.964	72.25
230.199	62.25
230.433	65.25
230.667	65.25
230.901	74.25
231.136	81.25
231.37	59.25
231.604	74.25
231.838	89.25
232.072	88.25
232.306	90.25
232.541	62.25
232.775	72.25
233.009	79.25
233.243	78.25
233.477	77.25
233.711	67.25
233.945	94.25
234.179	80.25
234.413	70.25
234.647	74.25
234.881	77.25
235.115	76.25
235.349	77.25
235.583	93.25
235.817	69.25
236.051	81.25
236.285	90.25
236.519	81.25
236.753	70.25
236.987	68.25
237.221	75.25
237.455	87.25
237.689	86.25
237.922	81.25
238.156	77.25
238.39	67.25
238.624	78.25
238.858	61.25
239.091	66.25
239.325	74.25
239.559	77.25
239.793	86.25
240.027	74.25
240.26	71.25
240.494	80.25
240.728	71.25
240.961	59.25
241.195	69.25
241.429	76.25
241.662	68.25
241.896	68.25
242.13	74.25
242.363	77.25
242.597	71.25
242.83	78.25
243.064	68.25
243.298	60.25
243.531	87.25
243.765	64.25
243.998	76.25
244.232	93.25
244.465	91.25
244.699	84.25
244.932	87.25
245.166	84.25
245.399	81.25
245.633	74.25
245.866	81.25
246.099	67.25
246.333	87.25
246.566	79.25
246.8	65.25
247.033	81.25
247.266	83.25
247.5	84.25
247.733	80.25
247.966	71.25
248.2	66.25
248.433	76.25
248.666	69.25
248.899	70.25
249.133	80.25
249.366	93.25
249.599	96.25
249.832	71.25
250.066	73.25
250.299	74.25
250.532	67.25
250.765	76.25
250.998	59.25
251.231	68.25
251.465	87.25
251.698	77.25
251.931	70.25
252.164	87.25
252.397	85.25
252.63	91.25
252.863	82.25
253.096	80.25
253.329	85.25
253.562	77.25
253.795	72.25
254.028	82.25
254.261	69.25
254.494	64.25
254.727	87.25
254.96	83.25
255.193	68.25
255.426	84.25
255.659	79.25
255.892	54.25
256.124	67.25
256.357	70.25
256.59	85.25
256.823	89.25
257.056	74.25
257.289	71.25
257.521	83.25
257.754	80.25
257.987	72.25
258.22	98.25
258.452	91.25
258.685	83.25
258.918	66.25
259.151	87.25
259.383	76.25
259.616	70.25
259.849	75.25
260.081	68.25
260.314	72.25
260.547	95.25
260.779	88.25
261.012	77.25
261.244	95.25
261.477	80.25
261.71	82.25
261.942	101.25
262.175	109.25
262.407	88.25
262.64	92.25
262.872	68.25
263.105	88.25
263.337	86.25
263.57	58.25
263.802	81.25
264.035	81.25
264.267	74.25
264.499	75.25
264.732	79.25
264.964	74.25
265.197	74.25
265.429	62.25
265.661	65.25
265.894	87.25
266.126	98.25
266.358	91.25
266.591	88.25
266.823	85.25
267.055	90.25
267.287	85.25
267.52	81.25
267.752	65.25
267.984	77.25
268.216	90.25
268.448	78.25
268.681	86.25
268.913	87.25
269.145	78.25
269.377	84.25
269.609	78.25
269.841	88.25
270.073	60.25
270.306	82.25
270.538	72.25
270.77	86.25
271.002	81.25
271.234	96.25
271.466	78.25
271.698	78.25
271.93	77.25
272.162	80.25
272.394	91.25
272.626	82.25
272.858	90.25
273.09	75.25
273.322	76.25
273.553	85.25
273.785	98.25
274.017	76.25
274.249	82.25
274.481	86.25
274.713	83.25
274.945	80.25
275.176	71.25
275.408	88.25
275.64	92.25
275.872	88.25
276.104	78.25
276.335	88.25
276.567	93.25
276.799	87.25
277.031	100.25
277.262	88.25
277.494	72.25
277.726	90.25
277.957	75.25
278.189	73.25
278.421	85.25
278.652	77.25
278.884	74.25
279.115	83.25
279.347	93.25
279.579	81.25
279.81	82.25
280.042	86.25
280.273	78.25
280.505	78.25
280.736	63.25
280.968	68.25
281.199	72.25
281.431	88.25
281.662	75.25
281.894	73.25
282.125	95.25
282.356	122.25
282.588	134.25
282.819	122.25
283.051	72.25
283.282	95.25
283.513	97.25
283.745	83.25
283.976	74.25
284.207	77.25
284.439	85.25
284.67	87.25
284.901	85.25
285.132	77.25
285.364	74.25
285.595	68.25
285.826	83.25
286.057	98.25
286.288	101.25
286.52	89.25
286.751	93.25
286.982	91.25
287.213	84.25
287.444	83.25
287.675	95.25
287.906	95.25
288.138	79.25
288.369	98.25
288.6	82.25
288.831	99.25
289.062	86.25
289.293	70.25
289.524	80.25
289.755	95.25
289.986	77.25
290.217	93.25
290.448	79.25
290.679	87.25
290.91	83.25
291.141	87.25
291.371	90.25
291.602	90.25
291.833	83.25
292.064	78.25
292.295	81.25
292.526	93.25
292.757	87.25
292.987	87.25
293.218	74.25
293.449	87.25
293.68	71.25
293.91	70.25
294.141	95.25
294.372	91.25
294.603	101.25
294.833	86.25
295.064	74.25
295.295	110.25
295.525	99.25
295.756	107.25
295.987	108.25
296.217	133.25
296.448	119.25
296.679	84.25
296.909	82.25
297.14	91.25
297.37	78.25
297.601	98.25
297.831	87.25
298.062	85.25
298.292	92.25
298.523	82.25
298.753	93.25
298.984	86.25
299.214	85.25
299.445	95.25
299.675	94.25
299.905	86.25
300.136	83.25
300.366	85.25
300.597	92.25
300.827	78.25
301.057	95.25
301.288	103.25
301.518	90.25
301.748	94.25
301.979	93.25
302.209	91.25
302.439	72.25
302.669	80.25
302.9	84.25
303.13	81.25
303.36	95.25
303.59	92.25
303.82	112.25
304.051	92.25
304.281	89.25
304.511	103.25
304.741	77.25
304.971	90.25
305.201	98.25
305.431	92.25
305.661	84.25
305.891	87.25
306.121	95.25
306.352	92.25
306.582	101.25
306.812	109.25
307.042	82.25
307.272	109.25
307.502	97.25
307.731	84.25
307.961	98.25
308.191	85.25
308.421	102.25
308.651	87.25
308.881	84.25
309.111	74.25
309.341	79.25
309.571	103.25
309.8	105.25
310.03	86.25
310.26	89.25
310.49	86.25
310.72	92.25
310.949	95.25
311.179	93.25
311.409	99.25
311.639	92.25
311.868	85.25
312.098	90.25
312.328	97.25
312.557	98.25
312.787	90.25
313.017	101.25
313.246	87.25
313.476	88.25
313.706	83.25
313.935	69.25
314.165	89.25
314.394	96.25
314.624	86.25
314.853	90.25
315.083	88.25
315.312	94.25
315.542	83.25
315.771	87.25
316.001	89.25
316.23	98.25
316.46	95.25
316.689	86.25
316.919	73.25
317.148	81.25
317.377	90.25
317.607	94.25
317.836	92.25
318.065	86.25
318.295	89.25
318.524	87.25
318.753	91.25
318.983	90.25
319.212	90.25
319.441	100.25
319.67	107.25
319.9	83.25
320.129	99.25
320.358	87.25
320.587	84.25
320.816	86.25
321.046	106.25
321.275	99.25
321.504	98.25
321.733	94.25
321.962	93.25
322.191	105.25
322.42	99.25
322.649	100.25
322.878	89.25
323.108	116.25
323.337	118.25
323.566	132.25
323.795	157.25
324.024	202.25
324.253	382.25
324.482	799.25
324.71	1681.25
324.939	2119.25
325.168	788.25
325.397	251.25
325.626	158.25
325.855	122.25
326.084	121.25
326.313	148.25
326.542	168.25
326.77	225.25
326.999	459.25
327.228	917.25
327.457	1658.25
327.686	1306.25
327.914	370.25
328.143	200.25
328.372	140.25
328.6	113.25
328.829	103.25
329.058	102.25
329.287	115.25
329.515	103.25
329.744	116.25
329.972	88.25
330.201	94.25
330.43	100.25
330.658	126.25
330.887	145.25
331.115	116.25
331.344	99.25
331.572	100.25
331.801	98.25
332.03	106.25
332.258	103.25
332.486	88.25
332.715	93.25
332.943	80.25
333.172	98.25
333.4	90.25
333.629	88.25
333.857	105.25
334.085	109.25
334.314	80.25
334.542	102.25
334.771	107.25
334.999	105.25
335.227	100.25
335.455	88.25
335.684	96.25
335.912	95.25
336.14	88.25
336.369	87.25
336.597	103.25
336.825	104.25
337.053	91.25
337.281	95.25
337.51	93.25
337.738	90.25
337.966	92.25
338.194	81.25
338.422	86.25
338.65	96.25
338.878	88.25
339.106	76.25
339.334	70.25
339.562	95.25
339.79	80.25
340.018	84.25
340.246	88.25
340.474	87.25
340.702	79.25
340.93	95.25
341.158	102.25
341.386	91.25
341.614	96.25
341.842	95.25
342.07	90.25
342.298	84.25
342.526	92.25
342.754	95.25
342.981	85.25
343.209	81.25
343.437	95.25
343.665	107.25
343.893	91.25
344.12	89.25
344.348	75.25
344.576	87.25
344.804	78.25
345.031	84.25
345.259	76.25
345.487	87.25
345.714	93.25
345.942	98.25
346.17	100.25
346.397	86.25
346.625	90.25
346.853	78.25
347.08	82.25
347.308	96.25
347.535	105.25
347.763	108.25
347.99	98.25
348.218	87.25
348.445	105.25
348.673	99.25
348.9	93.25
349.128	98.25
349.355	82.25
349.583	91.25
349.81	85.25
350.037	88.25
350.265	107.25
350.492	102.25
350.72	83.25
350.947	93.25
351.174	114.25
351.402	108.25
351.629	95.25
351.856	97.25
352.083	102.25
352.311	112.25
352.538	96.25
352.765	107.25
352.992	102.25
353.22	88.25
353.447	80.25
353.674	88.25
353.901	103.25
354.128	110.25
354.355	80.25
354.583	97.25
354.81	96.25
355.037	91.25
355.264	95.25
355.491	91.25
355.718	86.25
355.945	78.25
356.172	80.25
356.399	96.25
356.626	104.25
356.853	76.25
357.08	92.25
357.307	93.25
357.534	88.25
357.761	102.25
357.988	98.25
358.215	88.25
358.441	100.25
358.668	88.25
358.895	91.25
359.122	80.25
359.349	86.25
359.576	89.25
359.802	98.25
360.029	125.25
360.256	102.25
360.483	95.25
360.709	83.25
360.936	82.25
361.163	99.25
361.39	88.25
361.616	113.25
361.843	75.25
362.07	90.25
362.296	103.25
362.523	84.25
362.749	86.25
362.976	84.25
363.203	91.25
363.429	79.25
363.656	83.25
363.882	81.25
364.109	95.25
364.335	96.25
364.562	106.25
364.788	97.25
365.015	93.25
365.241	109.25
365.468	101.25
365.694	106.25
365.92	96.25
366.147	88.25
366.373	94.25
366.599	81.25
366.826	80.25
367.052	91.25
367.278	90.25
367.505	87.25
367.731	90.25
367.957	90.25
368.184	82.25
368.41	92.25
368.636	110.25
368.862	111.25
369.089	98.25
369.315	74.25
369.541	86.25
369.767	87.25
369.993	75.25
370.219	85.25
370.445	84.25
370.672	85.25
370.898	90.25
371.124	94.25
371.35	87.25
371.576	83.25
371.802	81.25
372.028	68.25
372.254	85.25
372.48	86.25
372.706	90.25
372.932	95.25
373.158	87.25
373.384	80.25
373.61	91.25
373.835	89.25
374.061	87.25
374.287	91.25
374.513	78.25
374.739	87.25
374.965	88.25
375.191	75.25
375.416	92.25
375.642	96.25
375.868	89.25
376.094	90.25
376.319	71.25
376.545	89.25
376.771	96.25
376.997	85.25
377.222	91.25
377.448	91.25
377.674	88.25
377.899	86.25
378.125	76.25
378.35	87.25
378.576	83.25
378.802	92.25
379.027	78.25
379.253	91.25
379.478	90.25
379.704	88.25
379.929	92.25
380.155	75.25
380.38	86.25
380.606	86.25
380.831	99.25
381.057	103.25
381.282	85.25
381.507	74.25
381.733	97.25
381.958	95.25
382.184	94.25
382.409	95.25
382.634	102.25
382.86	97.25
383.085	100.25
383.31	110.25
383.535	86.25
383.761	86.25
383.986	83.25
384.211	95.25
384.436	100.25
384.662	93.25
384.887	105.25
385.112	101.25
385.337	90.25
385.562	107.25
385.787	96.25
386.013	101.25
386.238	101.25
386.463	109.25
386.688	99.25
386.913	87.25
387.138	105.25
387.363	99.25
387.588	102.25
387.813	101.25
388.038	98.25
388.263	99.25
388.488	99.25
388.713	97.25
388.938	82.25
389.163	91.25
389.387	94.25
389.612	94.25
389.837	80.25
390.062	93.25
390.287	98.25
390.512	90.25
390.736	91.25
390.961	85.25
391.186	84.25
391.411	95.25
391.636	93.25
391.86	83.25
392.085	98.25
392.31	97.25
392.534	82.25
392.759	83.25
392.984	78.25
393.208	100.25
393.433	87.25
393.658	91.25
393.882	80.25
394.107	70.25
394.331	81.25
394.556	75.25
394.78	97.25
395.005	79.25
395.229	95.25
395.454	80.25
395.678	78.25
395.903	85.25
396.127	86.25
396.352	99.25
396.576	84.25
396.801	74.25
397.025	82.25
397.249	86.25
397.474	83.25
397.698	87.25
397.922	83.25
398.147	98.25
398.371	85.25
398.595	91.25
398.82	88.25
399.044	92.25
399.268	79.25
399.492	78.25
399.717	94.25
399.941	74.25
400.165	94.25
400.389	87.25
400.613	86.25
400.837	87.25
401.062	85.25
401.286	96.25
401.51	71.25
401.734	88.25
401.958	109.25
402.182	134.25
402.406	161.25
402.63	118.25
402.854	81.25
403.078	84.25
403.302	87.25
403.526	84.25
403.75	76.25
403.974	81.25
404.198	76.25
404.422	94.25
404.645	90.25
404.869	83.25
405.093	99.25
405.317	86.25
405.541	88.25
405.765	90.25
405.988	123.25
406.212	178.25
406.436	204.25
406.66	143.25
406.883	94.25
407.107	87.25
407.331	95.25
407.555	88.25
407.778	90.25
408.002	90.25
408.226	82.25
408.449	80.25
408.673	93.25
408.896	86.25
409.12	84.25
409.344	66.25
409.567	83.25
409.791	86.25
410.014	87.25
410.238	108.25
410.461	74.25
410.685	85.25
410.908	88.25
411.132	102.25
411.355	94.25
411.578	85.25
411.802	87.25
412.025	96.25
412.249	75.25
412.472	74.25
412.695	86.25
412.919	78.25
413.142	90.25
413.365	94.25
413.589	91.25
413.812	95.25
414.035	97.25
414.258	91.25
414.482	88.25
414.705	78.25
414.928	102.25
415.151	78.25
415.374	83.25
415.597	89.25
415.821	84.25
416.044	91.25
416.267	79.25
416.49	87.25
416.713	89.25
416.936	97.25
417.159	78.25
417.382	82.25
417.605	100.25
417.828	90.25
418.051	103.25
418.274	91.25
418.497	66.25
418.72	80.25
418.943	92.25
419.166	86.25
419.389	78.25
419.611	84.25
419.834	82.25
420.057	80.25
420.28	91.25
420.503	98.25
420.726	83.25
420.948	99.25
421.171	84.25
421.394	85.25
421.617	84.25
421.839	71.25
422.062	70.25
422.285	84.25
422.507	89.25
422.73	92.25
422.953	83.25
423.175	90.25
423.398	97.25
423.621	82.25
423.843	90.25
424.066	74.25
424.288	80.25
424.511	76.25
424.733	90.25
424.956	105.25
425.178	85.25
425.401	96.25
425.623	98.25
425.846	87.25
426.068	82.25
426.291	79.25
426.513	90.25
426.735	82.25
426.958	76.25
427.18	79.25
427.402	116.25
427.625	160.25
427.847	131.25
428.069	111.25
428.292	76.25
428.514	81.25
428.736	66.25
428.958	72.25
429.181	96.25
429.403	96.25
429.625	84.25
429.847	74.25
430.069	88.25
430.292	86.25
430.514	62.25
430.736	90.25
430.958	88.25
431.18	81.25
431.402	85.25
431.624	88.25
431.846	89.25
432.068	84.25
432.29	89.25
432.512	79.25
432.734	84.25
432.956	84.25
433.178	95.25
433.4	86.25
433.622	91.25
433.844	82.25
434.066	95.25
434.287	92.25
434.509	87.25
434.731	88.25
434.953	93.25
435.175	90.25
435.397	83.25
435.618	98.25
435.84	101.25
436.062	115.25
436.284	116.25
436.505	111.25
436.727	96.25
436.949	72.25
437.17	97.25
437.392	73.25
437.614	92.25
437.835	105.25
438.057	120.25
438.278	107.25
438.5	97.25
438.721	100.25
438.943	96.25
439.165	83.25
439.386	89.25
439.608	93.25
439.829	101.25
440.05	103.25
440.272	151.25
440.493	98.25
440.715	95.25
440.936	91.25
441.158	83.25
441.379	82.25
441.6	82.25
441.822	90.25
442.043	76.25
442.264	104.25
442.486	92.25
442.707	88.25
442.928	94.25
443.149	133.25
443.371	124.25
443.592	118.25
443.813	102.25
444.034	103.25
444.255	93.25
444.476	82.25
444.698	90.25
444.919	87.25
445.14	132.25
445.361	119.25
445.582	98.25
445.803	118.25
446.024	112.25
446.245	119.25
446.466	106.25
446.687	80.25
446.908	80.25
447.129	81.25
447.35	88.25
447.571	64.25
447.792	90.25
448.013	99.25
448.234	103.25
448.455	98.25
448.675	97.25
448.896	116.25
449.117	105.25
449.338	117.25
449.559	117.25
449.779	111.25
450	92.25
450.221	92.25
450.442	93.25
450.662	76.25
450.883	113.25
451.104	104.25
451.324	86.25
451.545	84.25
451.766	69.25
451.986	81.25
452.207	82.25
452.428	88.25
452.648	98.25
452.869	119.25
453.089	107.25
453.31	111.25
453.53	84.25
453.751	89.25
453.971	110.25
454.192	114.25
454.412	86.25
454.633	103.25
454.853	86.25
455.073	94.25
455.294	77.25
455.514	102.25
455.734	78.25
455.955	88.25
456.175	84.25
456.395	92.25
456.616	79.25
456.836	84.25
457.056	91.25
457.276	86.25
457.497	86.25
457.717	76.25
457.937	88.25
458.157	86.25
458.377	87.25
458.598	94.25
458.818	136.25
459.038	136.25
459.258	114.25
459.478	91.25
459.698	63.25
459.918	86.25
460.138	85.25
460.358	69.25
460.578	86.25
460.798	91.25
461.018	73.25
461.238	88.25
461.458	86.25
461.678	89.25
461.898	70.25
462.118	85.25
462.338	89.25
462.558	98.25
462.777	74.25
462.997	81.25
463.217	62.25
463.437	86.25
463.657	78.25
463.876	89.25
464.096	87.25
464.316	83.25
464.536	78.25
464.755	76.25
464.975	102.25
465.195	150.25
465.414	160.25
465.634	100.25
465.854	91.25
466.073	89.25
466.293	100.25
466.512	79.25
466.732	101.25
466.951	90.25
467.171	85.25
467.391	94.25
467.61	97.25
467.829	100.25
468.049	99.25
468.268	88.25
468.488	88.25
468.707	88.25
468.927	79.25
469.146	86.25
469.365	88.25
469.585	96.25
469.804	87.25
470.023	94.25
470.243	101.25
470.462	107.25
470.681	100.25
470.901	94.25
471.12	93.25
471.339	85.25
471.558	97.25
471.777	86.25
471.997	86.25
472.216	91.25
472.435	101.25
472.654	80.25
472.873	89.25
473.092	79.25
473.311	72.25
473.53	88.25
473.749	81.25
473.968	94.25
474.187	98.25
474.406	83.25
474.625	76.25
474.844	78.25
475.063	84.25
475.282	80.25
475.501	82.25
475.72	90.25
475.939	90.25
476.158	84.25
476.377	74.25
476.596	87.25
476.814	92.25
477.033	86.25
477.252	91.25
477.471	84.25
477.69	86.25
477.908	102.25
478.127	105.25
478.346	87.25
478.564	97.25
478.783	86.25
479.002	82.25
479.22	80.25
479.439	112.25
479.658	113.25
479.876	78.25
480.095	79.25
480.313	102.25
480.532	87.25
480.751	90.25
480.969	83.25
481.188	124.25
481.406	124.25
481.624	69.25
481.843	87.25
482.061	75.25
482.28	81.25
482.498	80.25
482.717	82.25
482.935	86.25
483.153	79.25
483.372	84.25
483.59	84.25
483.808	83.25
484.027	91.25
484.245	96.25
484.463	86.25
484.681	102.25
484.9	93.25
485.118	93.25
485.336	100.25
485.554	102.25
485.772	98.25
485.99	87.25
486.209	109.25
486.427	94.25
486.645	103.25
486.863	105.25
487.081	103.25
487.299	91.25
487.517	83.25
487.735	89.25
487.953	84.25
488.171	91.25
488.389	99.25
488.607	91.25
488.825	80.25
489.043	93.25
489.261	87.25
489.479	83.25
489.696	92.25
489.914	95.25
490.132	84.25
490.35	90.25
490.568	95.25
490.786	95.25
491.003	74.25
491.221	93.25
491.439	83.25
491.657	95.25
491.874	100.25
492.092	90.25
492.31	106.25
492.527	81.25
492.745	78.25
492.963	83.25
493.18	100.25
493.398	79.25
493.615	98.25
493.833	86.25
494.05	85.25
494.268	83.25
494.485	86.25
494.703	86.25
494.92	89.25
495.138	86.25
495.355	85.25
495.573	91.25
495.79	84.25
496.008	111.25
496.225	88.25
496.442	92.25
496.66	88.25
496.877	80.25
497.094	92.25
497.312	80.25
497.529	87.25
497.746	87.25
497.963	100.25
498.181	94.25
498.398	87.25
498.615	96.25
498.832	99.25
499.049	91.25
499.267	76.25
499.484	81.25
499.701	84.25
499.918	88.25
500.135	90.25
500.352	86.25
500.569	106.25
500.786	83.25
501.003	93.25
501.22	70.25
501.437	103.25
501.654	107.25
501.871	104.25
502.088	84.25
502.305	96.25
502.522	93.25
502.739	82.25
502.956	85.25
503.172	81.25
503.389	93.25
503.606	110.25
503.823	91.25
504.04	91.25
504.256	85.25
504.473	85.25
504.69	77.25
504.907	92.25
505.123	67.25
505.34	88.25
505.557	80.25
505.773	90.25
505.99	95.25
506.207	79.25
506.423	96.25
506.64	82.25
506.856	74.25
507.073	87.25
507.289	76.25
507.506	88.25
507.722	113.25
507.939	113.25
508.155	91.25
508.372	101.25
508.588	101.25
508.805	91.25
509.021	92.25
509.238	94.25
509.454	110.25
509.67	86.25
509.887	103.25
510.103	136.25
510.319	213.25
510.536	804.25
510.752	2592.25
510.968	706.25
511.184	160.25
511.401	108.25
511.617	95.25
511.833	92.25
512.049	88.25
512.265	81.25
512.481	96.25
512.698	78.25
512.914	102.25
513.13	78.25
513.346	92.25
513.562	102.25
513.778	98.25
513.994	76.25
514.21	102.25
514.426	119.25
514.642	134.25
514.858	117.25
515.074	172.25
515.29	458.25
515.506	1533.25
515.721	570.25
515.937	162.25
516.153	121.25
516.369	100.25
516.585	86.25
516.801	92.25
