Data from Uncirc_2004_H10_HRD10591_00099.txt Node
Date: Wed Jan 03 10:32:32 EST 2024
User: Yrep
Spectrometer: HR+D1059
Trigger mode: 1
Integration Time (sec): 1.000000E-1
Scans to average: 1
Electric dark correction enabled: true
Nonlinearity correction enabled: false
Boxcar width: 0
XAxis mode: Wavelengths
Number of Pixels in Spectrum: 2048
>>>>>Begin Spectral Data<<<<<
223.165	-15.44
223.4	-15.44
223.635	-15.44
223.869	-19.44
224.104	-24.44
224.338	-17.44
224.573	-19.44
224.808	-9.44
225.042	-16.44
225.277	1.56
225.511	1.56
225.746	9.56
225.98	5.56
226.215	2.56
226.449	28.56
226.683	5.56
226.918	31.56
227.152	35.56
227.387	36.56
227.621	39.56
227.856	32.56
228.09	48.56
228.324	48.56
228.559	57.56
228.793	168.56
229.027	467.56
229.262	518.56
229.496	611.56
229.73	802.56
229.964	819.56
230.199	546.56
230.433	488.56
230.667	461.56
230.901	456.56
231.136	432.56
231.37	440.56
231.604	438.56
231.838	461.56
232.072	446.56
232.306	493.56
232.541	437.56
232.775	474.56
233.009	495.56
233.243	495.56
233.477	462.56
233.711	484.56
233.945	507.56
234.179	514.56
234.413	513.56
234.647	507.56
234.881	518.56
235.115	529.56
235.349	548.56
235.583	547.56
235.817	581.56
236.051	610.56
236.285	607.56
236.519	632.56
236.753	703.56
236.987	928.56
237.221	1422.56
237.455	1550.56
237.689	904.56
237.922	755.56
238.156	707.56
238.39	684.56
238.624	632.56
238.858	639.56
239.091	671.56
239.325	656.56
239.559	681.56
239.793	697.56
240.027	769.56
240.26	905.56
240.494	978.56
240.728	976.56
240.961	933.56
241.195	795.56
241.429	760.56
241.662	780.56
241.896	770.56
242.13	752.56
242.363	762.56
242.597	784.56
242.83	802.56
243.064	824.56
243.298	816.56
243.531	800.56
243.765	838.56
243.998	824.56
244.232	840.56
244.465	875.56
244.699	871.56
244.932	908.56
245.166	883.56
245.399	887.56
245.633	867.56
245.866	895.56
246.099	890.56
246.333	944.56
246.566	974.56
246.8	985.56
247.033	1025.56
247.266	1069.56
247.5	1095.56
247.733	1133.56
247.966	1139.56
248.2	1156.56
248.433	1163.56
248.666	1222.56
248.899	1330.56
249.133	1439.56
249.366	1393.56
249.599	1312.56
249.832	1196.56
250.066	1241.56
250.299	1237.56
250.532	1352.56
250.765	1529.56
250.998	1719.56
251.231	1614.56
251.465	1486.56
251.698	1398.56
251.931	1356.56
252.164	1381.56
252.397	1437.56
252.63	1493.56
252.863	1548.56
253.096	1693.56
253.329	1720.56
253.562	1616.56
253.795	1564.56
254.028	1546.56
254.261	1598.56
254.494	1836.56
254.727	2128.56
254.96	2258.56
255.193	1985.56
255.426	1761.56
255.659	1636.56
255.892	1640.56
256.124	1548.56
256.357	1573.56
256.59	1519.56
256.823	1473.56
257.056	1492.56
257.289	1526.56
257.521	1515.56
257.754	1519.56
257.987	1520.56
258.22	1518.56
258.452	1518.56
258.685	1546.56
258.918	1576.56
259.151	1601.56
259.383	1713.56
259.616	1717.56
259.849	1780.56
260.081	1930.56
260.314	2098.56
260.547	2044.56
260.779	1876.56
261.012	1766.56
261.244	1725.56
261.477	1684.56
261.71	1714.56
261.942	1726.56
262.175	1812.56
262.407	1729.56
262.64	1614.56
262.872	1635.56
263.105	1624.56
263.337	1644.56
263.57	1676.56
263.802	1677.56
264.035	1657.56
264.267	1692.56
264.499	1649.56
264.732	1666.56
264.964	1697.56
265.197	1710.56
265.429	1712.56
265.661	1677.56
265.894	1717.56
266.126	1758.56
266.358	1778.56
266.591	1752.56
266.823	1866.56
267.055	1891.56
267.287	1850.56
267.52	1873.56
267.752	1865.56
267.984	1869.56
268.216	1907.56
268.448	1941.56
268.681	2012.56
268.913	2106.56
269.145	2329.56
269.377	2420.56
269.609	2274.56
269.841	2274.56
270.073	2413.56
270.306	2659.56
270.538	2835.56
270.77	2695.56
271.002	2529.56
271.234	2511.56
271.466	2657.56
271.698	2810.56
271.93	2812.56
272.162	2784.56
272.394	2706.56
272.626	2564.56
272.858	2425.56
273.09	2292.56
273.322	2302.56
273.553	2223.56
273.785	2240.56
274.017	2244.56
274.249	2234.56
274.481	2242.56
274.713	2256.56
274.945	2297.56
275.176	2277.56
275.408	2301.56
275.64	2260.56
275.872	2281.56
276.104	2294.56
276.335	2306.56
276.567	2389.56
276.799	2583.56
277.031	2791.56
277.262	2915.56
277.494	2754.56
277.726	2636.56
277.957	2483.56
278.189	2432.56
278.421	2353.56
278.652	2397.56
278.884	2385.56
279.115	2385.56
279.347	2435.56
279.579	2388.56
279.81	2365.56
280.042	2379.56
280.273	2372.56
280.505	2414.56
280.736	2402.56
280.968	2403.56
281.199	2449.56
281.431	2474.56
281.662	2489.56
281.894	2533.56
282.125	2557.56
282.356	2688.56
282.588	2804.56
282.819	2730.56
283.051	2570.56
283.282	2560.56
283.513	2605.56
283.745	2694.56
283.976	2629.56
284.207	2686.56
284.439	2674.56
284.67	2620.56
284.901	2637.56
285.132	2653.56
285.364	2612.56
285.595	2622.56
285.826	2688.56
286.057	2676.56
286.288	2683.56
286.52	2723.56
286.751	2692.56
286.982	2737.56
287.213	2770.56
287.444	2781.56
287.675	2832.56
287.906	2929.56
288.138	2995.56
288.369	2943.56
288.6	2948.56
288.831	2866.56
289.062	2881.56
289.293	2874.56
289.524	2852.56
289.755	2832.56
289.986	2794.56
290.217	2792.56
290.448	2883.56
290.679	2822.56
290.91	2861.56
291.141	2909.56
291.371	2876.56
291.602	2836.56
291.833	2822.56
292.064	2841.56
292.295	2858.56
292.526	2883.56
292.757	2878.56
292.987	2871.56
293.218	2821.56
293.449	2895.56
293.68	2880.56
293.91	2897.56
294.141	2899.56
294.372	2853.56
294.603	2892.56
294.833	2933.56
295.064	2958.56
295.295	2960.56
295.525	2859.56
295.756	3007.56
295.987	3126.56
296.217	3297.56
296.448	3207.56
296.679	2963.56
296.909	2987.56
297.14	3000.56
297.37	3077.56
297.601	3059.56
297.831	3098.56
298.062	3053.56
298.292	3148.56
298.523	3161.56
298.753	3138.56
298.984	3104.56
299.214	3068.56
299.445	3086.56
299.675	3176.56
299.905	3251.56
300.136	3171.56
300.366	3232.56
300.597	3285.56
300.827	3323.56
301.057	3402.56
301.288	3474.56
301.518	3349.56
301.748	3384.56
301.979	3460.56
302.209	3490.56
302.439	3476.56
302.669	3393.56
302.9	3397.56
303.13	3304.56
303.36	3392.56
303.59	3410.56
303.82	3455.56
304.051	3428.56
304.281	3373.56
304.511	3293.56
304.741	3377.56
304.971	3291.56
305.201	3323.56
305.431	3336.56
305.661	3354.56
305.891	3280.56
306.121	3299.56
306.352	3417.56
306.582	3356.56
306.812	3261.56
307.042	3296.56
307.272	3292.56
307.502	3276.56
307.731	3335.56
307.961	3321.56
308.191	3317.56
308.421	3368.56
308.651	3402.56
308.881	3340.56
309.111	3412.56
309.341	3388.56
309.571	3523.56
309.8	3563.56
310.03	3622.56
310.26	3683.56
310.49	3632.56
310.72	3790.56
310.949	3834.56
311.179	3712.56
311.409	3706.56
311.639	3753.56
311.868	3710.56
312.098	3730.56
312.328	3883.56
312.557	4004.56
312.787	4064.56
313.017	3956.56
313.246	3909.56
313.476	3817.56
313.706	3870.56
313.935	3912.56
314.165	4049.56
314.394	4021.56
314.624	4044.56
314.853	3880.56
315.083	3874.56
315.312	3818.56
315.542	3797.56
315.771	3767.56
316.001	3757.56
316.23	3789.56
316.46	3670.56
316.689	3804.56
316.919	3821.56
317.148	3802.56
317.377	3844.56
317.607	3775.56
317.836	3761.56
318.065	3738.56
318.295	3768.56
318.524	3711.56
318.753	3708.56
318.983	3790.56
319.212	3725.56
319.441	3789.56
319.67	3855.56
319.9	3784.56
320.129	3778.56
320.358	3765.56
320.587	3841.56
320.816	3869.56
321.046	3947.56
321.275	3903.56
321.504	3881.56
321.733	3944.56
321.962	3924.56
322.191	4071.56
322.42	4211.56
322.649	4280.56
322.878	4348.56
323.108	4427.56
323.337	4596.56
323.566	4823.56
323.795	5078.56
324.024	5740.56
324.253	7477.56
324.482	11200.56
324.71	15440.56
324.939	15606.56
325.168	13321.56
325.397	6744.56
325.626	5336.56
325.855	4964.56
326.084	4915.56
326.313	4865.56
326.542	5037.56
326.77	5696.56
326.999	7148.56
327.228	10561.56
327.457	14532.56
327.686	13850.56
327.914	7538.56
328.143	6017.56
328.372	5609.56
328.6	5382.56
328.829	5285.56
329.058	5488.56
329.287	5432.56
329.515	5096.56
329.744	4910.56
329.972	4868.56
330.201	4958.56
330.43	5360.56
330.658	5593.56
330.887	5875.56
331.115	5498.56
331.344	5111.56
331.572	4907.56
331.801	5101.56
332.03	5129.56
332.258	5076.56
332.486	5105.56
332.715	5159.56
332.943	5297.56
333.172	5473.56
333.4	5557.56
333.629	5728.56
333.857	5817.56
334.085	5688.56
334.314	5722.56
334.542	5627.56
334.771	5553.56
334.999	5362.56
335.227	5313.56
335.455	5249.56
335.684	5087.56
335.912	5092.56
336.14	5078.56
336.369	4984.56
336.597	5081.56
336.825	5074.56
337.053	4964.56
337.281	4833.56
337.51	4824.56
337.738	4845.56
337.966	4843.56
338.194	4782.56
338.422	4751.56
338.65	4638.56
338.878	4649.56
339.106	4534.56
339.334	4677.56
339.562	4505.56
339.79	4478.56
340.018	4532.56
340.246	4475.56
340.474	4488.56
340.702	4508.56
340.93	4516.56
341.158	4496.56
341.386	4493.56
341.614	4539.56
341.842	4529.56
342.07	4446.56
342.298	4464.56
342.526	4395.56
342.754	4371.56
342.981	4426.56
343.209	4560.56
343.437	4781.56
343.665	5037.56
343.893	5189.56
344.12	5315.56
344.348	5057.56
344.576	4816.56
344.804	4804.56
345.031	4739.56
345.259	4682.56
345.487	4604.56
345.714	4442.56
345.942	4364.56
346.17	4341.56
346.397	4304.56
346.625	4331.56
346.853	4296.56
347.08	4301.56
347.308	4310.56
347.535	4417.56
347.763	4423.56
347.99	4386.56
348.218	4401.56
348.445	4415.56
348.673	4365.56
348.9	4279.56
349.128	4223.56
349.355	4161.56
349.583	4152.56
349.81	4211.56
350.037	4152.56
350.265	4188.56
350.492	4163.56
350.72	4181.56
350.947	4168.56
351.174	4324.56
351.402	4321.56
351.629	4289.56
351.856	4280.56
352.083	4328.56
352.311	4344.56
352.538	4375.56
352.765	4275.56
352.992	4248.56
353.22	4271.56
353.447	4165.56
353.674	4102.56
353.901	4025.56
354.128	4057.56
354.355	4011.56
354.583	4138.56
354.81	4030.56
355.037	4068.56
355.264	4063.56
355.491	4002.56
355.718	4057.56
355.945	4068.56
356.172	4091.56
356.399	4043.56
356.626	4035.56
356.853	4025.56
357.08	4015.56
357.307	4070.56
357.534	4071.56
357.761	4086.56
357.988	4078.56
358.215	4133.56
358.441	4057.56
358.668	4050.56
358.895	4161.56
359.122	4168.56
359.349	4264.56
359.576	4395.56
359.802	4572.56
360.029	4720.56
360.256	4706.56
360.483	4507.56
360.709	4333.56
360.936	4310.56
361.163	4319.56
361.39	4406.56
361.616	4354.56
361.843	4309.56
362.07	4302.56
362.296	4323.56
362.523	4305.56
362.749	4346.56
362.976	4202.56
363.203	4164.56
363.429	4139.56
363.656	4158.56
363.882	4154.56
364.109	4118.56
364.335	4155.56
364.562	4193.56
364.788	4182.56
365.015	4138.56
365.241	4186.56
365.468	4174.56
365.694	4236.56
365.92	4165.56
366.147	4191.56
366.373	4136.56
366.599	4115.56
366.826	4092.56
367.052	4090.56
367.278	4203.56
367.505	4121.56
367.731	4168.56
367.957	4142.56
368.184	4197.56
368.41	4260.56
368.636	4369.56
368.862	4332.56
369.089	4318.56
369.315	4286.56
369.541	4232.56
369.767	4313.56
369.993	4318.56
370.219	4298.56
370.445	4297.56
370.672	4355.56
370.898	4335.56
371.124	4380.56
371.35	4385.56
371.576	4428.56
371.802	4379.56
372.028	4421.56
372.254	4360.56
372.48	4468.56
372.706	4528.56
372.932	4590.56
373.158	4580.56
373.384	4472.56
373.61	4440.56
373.835	4453.56
374.061	4488.56
374.287	4558.56
374.513	4605.56
374.739	4776.56
374.965	4884.56
375.191	4806.56
375.416	4756.56
375.642	4537.56
375.868	4582.56
376.094	4513.56
376.319	4518.56
376.545	4467.56
376.771	4479.56
376.997	4459.56
377.222	4479.56
377.448	4430.56
377.674	4396.56
377.899	4380.56
378.125	4325.56
378.35	4348.56
378.576	4345.56
378.802	4336.56
379.027	4328.56
379.253	4399.56
379.478	4344.56
379.704	4367.56
379.929	4417.56
380.155	4427.56
380.38	4387.56
380.606	4444.56
380.831	4385.56
381.057	4550.56
381.282	4431.56
381.507	4488.56
381.733	4472.56
381.958	4531.56
382.184	4561.56
382.409	4621.56
382.634	4660.56
382.86	4658.56
383.085	4776.56
383.31	4827.56
383.535	4880.56
383.761	4914.56
383.986	4970.56
384.211	5101.56
384.436	5140.56
384.662	5270.56
384.887	5295.56
385.112	5292.56
385.337	5384.56
385.562	5364.56
385.787	5439.56
386.013	5465.56
386.238	5485.56
386.463	5438.56
386.688	5523.56
386.913	5306.56
387.138	5305.56
387.363	5306.56
387.588	5283.56
387.813	5245.56
388.038	5240.56
388.263	5286.56
388.488	5381.56
388.713	5316.56
388.938	5292.56
389.163	5289.56
389.387	5262.56
389.612	5144.56
389.837	5165.56
390.062	5178.56
390.287	5231.56
390.512	5263.56
390.736	5348.56
390.961	5404.56
391.186	5485.56
391.411	5638.56
391.636	5809.56
391.86	5945.56
392.085	6020.56
392.31	5850.56
392.534	5772.56
392.759	5654.56
392.984	5535.56
393.208	5532.56
393.433	5540.56
393.658	5490.56
393.882	5501.56
394.107	5563.56
394.331	5650.56
394.556	5558.56
394.78	5618.56
395.005	5690.56
395.229	5726.56
395.454	5865.56
395.678	5977.56
395.903	5925.56
396.127	6073.56
396.352	5858.56
396.576	5707.56
396.801	5646.56
397.025	5701.56
397.249	5786.56
397.474	5958.56
397.698	5956.56
397.922	6162.56
398.147	6300.56
398.371	6405.56
398.595	6561.56
398.82	6819.56
399.044	7322.56
399.268	8139.56
399.492	9319.56
399.717	9924.56
399.941	9751.56
400.165	8992.56
400.389	8319.56
400.613	7574.56
400.837	6997.56
401.062	6821.56
401.286	6733.56
401.51	6697.56
401.734	6626.56
401.958	6856.56
402.182	6887.56
402.406	7077.56
402.63	7089.56
402.854	7193.56
403.078	7298.56
403.302	7445.56
403.526	7596.56
403.75	7586.56
403.974	7640.56
404.198	7681.56
404.422	7796.56
404.645	7620.56
404.869	7507.56
405.093	7718.56
405.317	7864.56
405.541	7930.56
405.765	7437.56
405.988	7519.56
406.212	7617.56
406.436	7933.56
406.66	8071.56
406.883	8007.56
407.107	8732.56
407.331	9192.56
407.555	9677.56
407.778	9314.56
408.002	8549.56
408.226	8111.56
408.449	8078.56
408.673	7892.56
408.896	8066.56
409.12	8106.56
409.344	7691.56
409.567	7394.56
409.791	7402.56
410.014	7195.56
410.238	7155.56
410.461	7266.56
410.685	7296.56
410.908	7400.56
411.132	7611.56
411.355	7588.56
411.578	7235.56
411.802	6966.56
412.025	6909.56
412.249	7087.56
412.472	7134.56
412.695	6984.56
412.919	6780.56
413.142	6675.56
413.365	6549.56
413.589	6637.56
413.812	6486.56
414.035	6495.56
414.258	6549.56
414.482	6630.56
414.705	6654.56
414.928	6609.56
415.151	6633.56
415.374	6713.56
415.597	6551.56
415.821	6481.56
416.044	6445.56
416.267	6422.56
416.49	6519.56
416.713	6306.56
416.936	6536.56
417.159	6489.56
417.382	6492.56
417.605	6587.56
417.828	6660.56
418.051	6833.56
418.274	6665.56
418.497	6659.56
418.72	6764.56
418.943	6715.56
419.166	7145.56
419.389	7431.56
419.611	7307.56
419.834	7163.56
420.057	7015.56
420.28	6828.56
420.503	6599.56
420.726	6685.56
420.948	6804.56
421.171	7272.56
421.394	7208.56
421.617	6675.56
421.839	6698.56
422.062	6853.56
422.285	6993.56
422.507	7781.56
422.73	8227.56
422.953	7650.56
423.175	7247.56
423.398	7210.56
423.621	7246.56
423.843	7527.56
424.066	7465.56
424.288	7395.56
424.511	7535.56
424.733	8131.56
424.956	8546.56
425.178	7988.56
425.401	8085.56
425.623	8072.56
425.846	7041.56
426.068	6801.56
426.291	6782.56
426.513	6778.56
426.735	6901.56
426.958	7314.56
427.18	8160.56
427.402	9309.56
427.625	9346.56
427.847	7864.56
428.069	6983.56
428.292	6647.56
428.514	6261.56
428.736	6176.56
428.958	6165.56
429.181	5965.56
429.403	6053.56
429.625	6195.56
429.847	6545.56
430.069	7083.56
430.292	6591.56
430.514	5997.56
430.736	6012.56
430.958	5957.56
431.18	5859.56
431.402	5843.56
431.624	5824.56
431.846	5949.56
432.068	5930.56
432.29	6011.56
432.512	5900.56
432.734	6044.56
432.956	5941.56
433.178	5981.56
433.4	5953.56
433.622	5896.56
433.844	6001.56
434.066	5952.56
434.287	6053.56
434.509	6323.56
434.731	6572.56
434.953	6751.56
435.175	6857.56
435.397	6953.56
435.618	6915.56
435.84	7228.56
436.062	8059.56
436.284	8031.56
436.505	6737.56
436.727	6395.56
436.949	6123.56
437.17	6064.56
437.392	5993.56
437.614	6157.56
437.835	6540.56
438.057	7589.56
438.278	8284.56
438.5	8191.56
438.721	8947.56
438.943	7905.56
439.165	6582.56
439.386	6451.56
439.608	6560.56
439.829	6548.56
440.05	6955.56
440.272	7324.56
440.493	6657.56
440.715	6385.56
440.936	6310.56
441.158	6398.56
441.379	6460.56
441.6	6911.56
441.822	7014.56
442.043	7560.56
442.264	8282.56
442.486	8136.56
442.707	7095.56
442.928	6970.56
443.149	7249.56
443.371	7325.56
443.592	7943.56
443.813	9006.56
444.034	8914.56
444.255	7766.56
444.476	7619.56
444.698	7850.56
444.919	7995.56
445.14	7684.56
445.361	7460.56
445.582	7632.56
445.803	8254.56
446.024	8905.56
446.245	8480.56
446.466	7659.56
446.687	6658.56
446.908	6325.56
447.129	5977.56
447.35	5827.56
447.571	5803.56
447.792	5796.56
448.013	5835.56
448.234	6003.56
448.455	6742.56
448.675	8004.56
448.896	8530.56
449.117	7051.56
449.338	7180.56
449.559	8561.56
449.779	8864.56
450	6750.56
450.221	5950.56
450.442	5741.56
450.662	5671.56
450.883	5778.56
451.104	5894.56
451.324	5694.56
451.545	5512.56
451.766	5381.56
451.986	5268.56
452.207	5196.56
452.428	5215.56
452.648	5265.56
452.869	5271.56
453.089	5373.56
453.31	5468.56
453.53	5226.56
453.751	5152.56
453.971	5209.56
454.192	5311.56
454.412	5086.56
454.633	5061.56
454.853	5010.56
455.073	5062.56
455.294	5590.56
455.514	6060.56
455.734	5619.56
455.955	4978.56
456.175	4909.56
456.395	4778.56
456.616	4726.56
456.836	4865.56
457.056	4763.56
457.276	4699.56
457.497	4893.56
457.717	4815.56
457.937	4977.56
458.157	5088.56
458.377	5167.56
458.598	5459.56
458.818	6239.56
459.038	6971.56
459.258	6924.56
459.478	6150.56
459.698	6059.56
459.918	6093.56
460.138	6239.56
460.358	6501.56
460.578	6459.56
460.798	6613.56
461.018	6614.56
461.238	6443.56
461.458	6365.56
461.678	6369.56
461.898	6554.56
462.118	6589.56
462.338	6911.56
462.558	7127.56
462.777	7420.56
462.997	7968.56
463.217	8414.56
463.437	8150.56
463.657	7566.56
463.876	7410.56
464.096	7405.56
464.316	7400.56
464.536	7456.56
464.755	7224.56
464.975	7086.56
465.195	7290.56
465.414	7239.56
465.634	6442.56
465.854	6162.56
466.073	5888.56
466.293	5668.56
466.512	5545.56
466.732	5390.56
466.951	5383.56
467.171	5390.56
467.391	5494.56
467.61	5578.56
467.829	5537.56
468.049	5349.56
468.268	5241.56
468.488	5171.56
468.707	5169.56
468.927	5124.56
469.146	5093.56
469.365	5229.56
469.585	5200.56
469.804	5462.56
470.023	5624.56
470.243	5567.56
470.462	5662.56
470.681	5816.56
470.901	5664.56
471.12	5571.56
471.339	5489.56
471.558	5451.56
471.777	5374.56
471.997	5220.56
472.216	5218.56
472.435	5287.56
472.654	5130.56
472.873	5155.56
473.092	5076.56
473.311	5107.56
473.53	5184.56
473.749	5345.56
473.968	5874.56
474.187	6829.56
474.406	6429.56
474.625	5472.56
474.844	5176.56
475.063	5141.56
475.282	5155.56
475.501	5202.56
475.72	5301.56
475.939	5260.56
476.158	5352.56
476.377	5327.56
476.596	5363.56
476.814	5513.56
477.033	5497.56
477.252	5696.56
477.471	5728.56
477.69	5798.56
477.908	5917.56
478.127	6160.56
478.346	6136.56
478.564	6233.56
478.783	6380.56
479.002	6552.56
479.22	6522.56
479.439	6587.56
479.658	6843.56
479.876	6769.56
480.095	7047.56
480.313	7480.56
480.532	7295.56
480.751	7198.56
480.969	7024.56
481.188	6958.56
481.406	6762.56
481.624	6493.56
481.843	6232.56
482.061	6214.56
482.28	6086.56
482.498	6070.56
482.717	6022.56
482.935	5993.56
483.153	6028.56
483.372	6042.56
483.59	5980.56
483.808	6085.56
484.027	6018.56
484.245	6049.56
484.463	6121.56
484.681	6147.56
484.9	6233.56
485.118	6286.56
485.336	6293.56
485.554	6465.56
485.772	6474.56
485.99	6414.56
486.209	6484.56
486.427	6513.56
486.645	6620.56
486.863	6699.56
487.081	6636.56
487.299	6544.56
487.517	6571.56
487.735	6453.56
487.953	6444.56
