Data from Uncirc_2004_H10_HRD10591_00038.txt Node
Date: Wed Jan 03 10:32:20 EST 2024
User: Yrep
Spectrometer: HR+D1059
Trigger mode: 1
Integration Time (sec): 1.000000E-1
Scans to average: 1
Electric dark correction enabled: true
Nonlinearity correction enabled: false
Boxcar width: 0
XAxis mode: Wavelengths
Number of Pixels in Spectrum: 2048
>>>>>Begin Spectral Data<<<<<
223.165	-21.25
223.4	-21.25
223.635	-21.25
223.869	-18.25
224.104	-5.25
224.338	-27.25
224.573	-15.25
224.808	-9.25
225.042	-19.25
225.277	-3.25
225.511	5.75
225.746	0.75
225.98	4.75
226.215	18.75
226.449	16.75
226.683	24.75
226.918	22.75
227.152	24.75
227.387	43.75
227.621	34.75
227.856	49.75
228.09	49.75
228.324	48.75
228.559	60.75
228.793	63.75
229.027	60.75
229.262	64.75
229.496	73.75
229.73	82.75
229.964	84.75
230.199	64.75
230.433	80.75
230.667	89.75
230.901	78.75
231.136	68.75
231.37	70.75
231.604	80.75
231.838	72.75
232.072	80.75
232.306	95.75
232.541	84.75
232.775	103.75
233.009	83.75
233.243	92.75
233.477	80.75
233.711	82.75
233.945	83.75
234.179	86.75
234.413	83.75
234.647	91.75
234.881	77.75
235.115	75.75
235.349	73.75
235.583	67.75
235.817	75.75
236.051	77.75
236.285	70.75
236.519	85.75
236.753	85.75
236.987	78.75
237.221	78.75
237.455	83.75
237.689	87.75
237.922	83.75
238.156	82.75
238.39	74.75
238.624	71.75
238.858	71.75
239.091	82.75
239.325	74.75
239.559	80.75
239.793	80.75
240.027	91.75
240.26	82.75
240.494	68.75
240.728	69.75
240.961	74.75
241.195	75.75
241.429	85.75
241.662	76.75
241.896	83.75
242.13	88.75
242.363	80.75
242.597	73.75
242.83	73.75
243.064	69.75
243.298	85.75
243.531	78.75
243.765	91.75
243.998	90.75
244.232	80.75
244.465	75.75
244.699	90.75
244.932	82.75
245.166	69.75
245.399	79.75
245.633	73.75
245.866	82.75
246.099	94.75
246.333	91.75
246.566	81.75
246.8	78.75
247.033	83.75
247.266	73.75
247.5	72.75
247.733	96.75
247.966	94.75
248.2	79.75
248.433	92.75
248.666	83.75
248.899	73.75
249.133	84.75
249.366	95.75
249.599	96.75
249.832	92.75
250.066	89.75
250.299	83.75
250.532	87.75
250.765	89.75
250.998	97.75
251.231	83.75
251.465	86.75
251.698	74.75
251.931	71.75
252.164	81.75
252.397	85.75
252.63	82.75
252.863	90.75
253.096	70.75
253.329	67.75
253.562	77.75
253.795	75.75
254.028	80.75
254.261	81.75
254.494	90.75
254.727	92.75
254.96	97.75
255.193	84.75
255.426	72.75
255.659	90.75
255.892	79.75
256.124	73.75
256.357	65.75
256.59	79.75
256.823	80.75
257.056	84.75
257.289	81.75
257.521	88.75
257.754	79.75
257.987	94.75
258.22	68.75
258.452	97.75
258.685	81.75
258.918	86.75
259.151	88.75
259.383	82.75
259.616	71.75
259.849	72.75
260.081	80.75
260.314	84.75
260.547	82.75
260.779	83.75
261.012	81.75
261.244	79.75
261.477	96.75
261.71	89.75
261.942	119.75
262.175	106.75
262.407	92.75
262.64	82.75
262.872	76.75
263.105	86.75
263.337	92.75
263.57	86.75
263.802	90.75
264.035	95.75
264.267	78.75
264.499	91.75
264.732	92.75
264.964	90.75
265.197	82.75
265.429	71.75
265.661	95.75
265.894	91.75
266.126	80.75
266.358	80.75
266.591	81.75
266.823	78.75
267.055	65.75
267.287	84.75
267.52	92.75
267.752	89.75
267.984	92.75
268.216	89.75
268.448	89.75
268.681	86.75
268.913	86.75
269.145	95.75
269.377	75.75
269.609	86.75
269.841	92.75
270.073	92.75
270.306	74.75
270.538	88.75
270.77	87.75
271.002	92.75
271.234	84.75
271.466	81.75
271.698	96.75
271.93	89.75
272.162	95.75
272.394	98.75
272.626	83.75
272.858	73.75
273.09	91.75
273.322	68.75
273.553	78.75
273.785	82.75
274.017	96.75
274.249	88.75
274.481	90.75
274.713	82.75
274.945	94.75
275.176	88.75
275.408	82.75
275.64	95.75
275.872	96.75
276.104	84.75
276.335	86.75
276.567	96.75
276.799	103.75
277.031	98.75
277.262	88.75
277.494	90.75
277.726	86.75
277.957	96.75
278.189	84.75
278.421	90.75
278.652	87.75
278.884	81.75
279.115	91.75
279.347	70.75
279.579	82.75
279.81	96.75
280.042	66.75
280.273	84.75
280.505	90.75
280.736	82.75
280.968	84.75
281.199	82.75
281.431	90.75
281.662	90.75
281.894	96.75
282.125	99.75
282.356	118.75
282.588	133.75
282.819	113.75
283.051	86.75
283.282	76.75
283.513	89.75
283.745	86.75
283.976	82.75
284.207	83.75
284.439	78.75
284.67	100.75
284.901	88.75
285.132	82.75
285.364	96.75
285.595	82.75
285.826	74.75
286.057	98.75
286.288	91.75
286.52	94.75
286.751	73.75
286.982	87.75
287.213	86.75
287.444	99.75
287.675	80.75
287.906	81.75
288.138	97.75
288.369	103.75
288.6	99.75
288.831	90.75
289.062	91.75
289.293	105.75
289.524	106.75
289.755	85.75
289.986	84.75
290.217	88.75
290.448	80.75
290.679	88.75
290.91	91.75
291.141	91.75
291.371	83.75
291.602	98.75
291.833	75.75
292.064	94.75
292.295	84.75
292.526	102.75
292.757	95.75
292.987	92.75
293.218	88.75
293.449	76.75
293.68	75.75
293.91	92.75
294.141	87.75
294.372	78.75
294.603	88.75
294.833	87.75
295.064	75.75
295.295	72.75
295.525	83.75
295.756	97.75
295.987	92.75
296.217	140.75
296.448	130.75
296.679	108.75
296.909	88.75
297.14	83.75
297.37	77.75
297.601	94.75
297.831	94.75
298.062	92.75
298.292	82.75
298.523	90.75
298.753	99.75
298.984	97.75
299.214	100.75
299.445	95.75
299.675	101.75
299.905	102.75
300.136	83.75
300.366	83.75
300.597	96.75
300.827	90.75
301.057	97.75
301.288	95.75
301.518	95.75
301.748	90.75
301.979	103.75
302.209	99.75
302.439	95.75
302.669	99.75
302.9	100.75
303.13	96.75
303.36	87.75
303.59	100.75
303.82	105.75
304.051	83.75
304.281	86.75
304.511	93.75
304.741	102.75
304.971	96.75
305.201	108.75
305.431	91.75
305.661	96.75
305.891	85.75
306.121	99.75
306.352	101.75
306.582	105.75
306.812	95.75
307.042	89.75
307.272	84.75
307.502	98.75
307.731	85.75
307.961	93.75
308.191	92.75
308.421	94.75
308.651	84.75
308.881	89.75
309.111	92.75
309.341	102.75
309.571	101.75
309.8	103.75
310.03	80.75
310.26	90.75
310.49	102.75
310.72	107.75
310.949	103.75
311.179	94.75
311.409	102.75
311.639	97.75
311.868	87.75
312.098	92.75
312.328	98.75
312.557	102.75
312.787	123.75
313.017	103.75
313.246	101.75
313.476	91.75
313.706	82.75
313.935	91.75
314.165	101.75
314.394	99.75
314.624	99.75
314.853	109.75
315.083	107.75
315.312	83.75
315.542	100.75
315.771	88.75
316.001	93.75
316.23	106.75
316.46	87.75
316.689	89.75
316.919	92.75
317.148	94.75
317.377	92.75
317.607	94.75
317.836	98.75
318.065	87.75
318.295	86.75
318.524	98.75
318.753	105.75
318.983	89.75
319.212	116.75
319.441	126.75
319.67	113.75
319.9	98.75
320.129	96.75
320.358	114.75
320.587	98.75
320.816	115.75
321.046	95.75
321.275	95.75
321.504	88.75
321.733	102.75
321.962	101.75
322.191	102.75
322.42	98.75
322.649	103.75
322.878	114.75
323.108	114.75
323.337	118.75
323.566	145.75
323.795	155.75
324.024	205.75
324.253	393.75
324.482	828.75
324.71	1690.75
324.939	2183.75
325.168	788.75
325.397	239.75
325.626	146.75
325.855	129.75
326.084	129.75
326.313	134.75
326.542	155.75
326.77	216.75
326.999	468.75
327.228	998.75
327.457	1723.75
327.686	1367.75
327.914	374.75
328.143	195.75
328.372	142.75
328.6	137.75
328.829	118.75
329.058	104.75
329.287	138.75
329.515	111.75
329.744	107.75
329.972	97.75
330.201	104.75
330.43	99.75
330.658	117.75
330.887	140.75
331.115	113.75
331.344	111.75
331.572	102.75
331.801	110.75
332.03	102.75
332.258	85.75
332.486	97.75
332.715	83.75
332.943	96.75
333.172	77.75
333.4	77.75
333.629	89.75
333.857	107.75
334.085	98.75
334.314	90.75
334.542	108.75
334.771	115.75
334.999	93.75
335.227	99.75
335.455	107.75
335.684	95.75
335.912	98.75
336.14	97.75
336.369	82.75
336.597	105.75
336.825	100.75
337.053	87.75
337.281	104.75
337.51	89.75
337.738	98.75
337.966	85.75
338.194	107.75
338.422	91.75
338.65	95.75
338.878	110.75
339.106	85.75
339.334	98.75
339.562	95.75
339.79	99.75
340.018	85.75
340.246	90.75
340.474	104.75
340.702	104.75
340.93	97.75
341.158	90.75
341.386	93.75
341.614	91.75
341.842	99.75
342.07	90.75
342.298	84.75
342.526	91.75
342.754	104.75
342.981	90.75
343.209	101.75
343.437	97.75
343.665	99.75
343.893	92.75
344.12	103.75
344.348	89.75
344.576	99.75
344.804	99.75
345.031	84.75
345.259	102.75
345.487	108.75
345.714	87.75
345.942	102.75
346.17	93.75
346.397	91.75
346.625	93.75
346.853	97.75
347.08	92.75
347.308	108.75
347.535	115.75
347.763	107.75
347.99	105.75
348.218	111.75
348.445	105.75
348.673	88.75
348.9	94.75
349.128	85.75
349.355	92.75
349.583	92.75
349.81	94.75
350.037	107.75
350.265	103.75
350.492	86.75
350.72	99.75
350.947	103.75
351.174	116.75
351.402	113.75
351.629	108.75
351.856	86.75
352.083	102.75
352.311	117.75
352.538	102.75
352.765	102.75
352.992	113.75
353.22	119.75
353.447	117.75
353.674	117.75
353.901	110.75
354.128	109.75
354.355	89.75
354.583	97.75
354.81	93.75
355.037	103.75
355.264	100.75
355.491	90.75
355.718	95.75
355.945	106.75
356.172	104.75
356.399	98.75
356.626	100.75
356.853	105.75
357.08	96.75
357.307	94.75
357.534	89.75
357.761	114.75
357.988	100.75
358.215	103.75
358.441	98.75
358.668	89.75
358.895	105.75
359.122	88.75
359.349	90.75
359.576	87.75
359.802	102.75
360.029	111.75
360.256	104.75
360.483	101.75
360.709	96.75
360.936	90.75
361.163	99.75
361.39	102.75
361.616	86.75
361.843	85.75
362.07	105.75
362.296	107.75
362.523	108.75
362.749	87.75
362.976	96.75
363.203	92.75
363.429	79.75
363.656	95.75
363.882	95.75
364.109	103.75
364.335	68.75
364.562	96.75
364.788	92.75
365.015	98.75
365.241	107.75
365.468	110.75
365.694	102.75
365.92	96.75
366.147	92.75
366.373	92.75
366.599	78.75
366.826	85.75
367.052	81.75
367.278	85.75
367.505	95.75
367.731	83.75
367.957	76.75
368.184	90.75
368.41	107.75
368.636	106.75
368.862	130.75
369.089	99.75
369.315	96.75
369.541	94.75
369.767	104.75
369.993	91.75
370.219	88.75
370.445	89.75
370.672	101.75
370.898	96.75
371.124	83.75
371.35	83.75
371.576	88.75
371.802	87.75
372.028	89.75
372.254	91.75
372.48	79.75
372.706	82.75
372.932	98.75
373.158	97.75
373.384	99.75
373.61	79.75
373.835	83.75
374.061	88.75
374.287	90.75
374.513	90.75
374.739	90.75
374.965	88.75
375.191	91.75
375.416	93.75
375.642	105.75
375.868	87.75
376.094	85.75
376.319	90.75
376.545	89.75
376.771	102.75
376.997	86.75
377.222	102.75
377.448	89.75
377.674	91.75
377.899	93.75
378.125	91.75
378.35	81.75
378.576	89.75
378.802	90.75
379.027	94.75
379.253	103.75
379.478	99.75
379.704	91.75
379.929	94.75
380.155	94.75
380.38	118.75
380.606	101.75
380.831	100.75
381.057	100.75
381.282	103.75
381.507	94.75
381.733	97.75
381.958	109.75
382.184	91.75
382.409	103.75
382.634	99.75
382.86	106.75
383.085	112.75
383.31	107.75
383.535	99.75
383.761	99.75
383.986	100.75
384.211	83.75
384.436	101.75
384.662	98.75
384.887	111.75
385.112	95.75
385.337	111.75
385.562	119.75
385.787	98.75
386.013	103.75
386.238	116.75
386.463	107.75
386.688	100.75
386.913	102.75
387.138	103.75
387.363	105.75
387.588	95.75
387.813	104.75
388.038	116.75
388.263	114.75
388.488	108.75
388.713	113.75
388.938	101.75
389.163	92.75
389.387	92.75
389.612	96.75
389.837	102.75
390.062	99.75
390.287	103.75
390.512	104.75
390.736	87.75
390.961	91.75
391.186	91.75
391.411	95.75
391.636	87.75
391.86	90.75
392.085	87.75
392.31	77.75
392.534	87.75
392.759	86.75
392.984	92.75
393.208	80.75
393.433	97.75
393.658	86.75
393.882	67.75
394.107	81.75
394.331	106.75
394.556	92.75
394.78	103.75
395.005	95.75
395.229	91.75
395.454	87.75
395.678	87.75
395.903	86.75
396.127	96.75
396.352	80.75
396.576	105.75
396.801	89.75
397.025	91.75
397.249	81.75
397.474	81.75
397.698	96.75
397.922	96.75
398.147	78.75
398.371	104.75
398.595	100.75
398.82	89.75
399.044	79.75
399.268	92.75
399.492	90.75
399.717	84.75
399.941	96.75
400.165	86.75
400.389	77.75
400.613	84.75
400.837	90.75
401.062	100.75
401.286	79.75
401.51	97.75
401.734	110.75
401.958	115.75
402.182	128.75
402.406	172.75
402.63	129.75
402.854	98.75
403.078	92.75
403.302	75.75
403.526	105.75
403.75	95.75
403.974	81.75
404.198	100.75
404.422	106.75
404.645	97.75
404.869	86.75
405.093	96.75
405.317	114.75
405.541	100.75
405.765	102.75
405.988	103.75
406.212	187.75
406.436	242.75
406.66	130.75
406.883	97.75
407.107	78.75
407.331	94.75
407.555	87.75
407.778	93.75
408.002	94.75
408.226	82.75
408.449	83.75
408.673	94.75
408.896	97.75
409.12	87.75
409.344	106.75
409.567	84.75
409.791	100.75
410.014	104.75
410.238	90.75
410.461	90.75
410.685	96.75
410.908	80.75
411.132	94.75
411.355	92.75
411.578	97.75
411.802	82.75
412.025	81.75
412.249	94.75
412.472	83.75
412.695	99.75
412.919	94.75
413.142	89.75
413.365	90.75
413.589	83.75
413.812	87.75
414.035	101.75
414.258	104.75
414.482	96.75
414.705	97.75
414.928	96.75
415.151	98.75
415.374	94.75
415.597	78.75
415.821	95.75
416.044	90.75
416.267	91.75
416.49	100.75
416.713	90.75
416.936	84.75
417.159	93.75
417.382	82.75
417.605	84.75
417.828	88.75
418.051	92.75
418.274	86.75
418.497	88.75
418.72	79.75
418.943	100.75
419.166	82.75
419.389	96.75
419.611	97.75
419.834	105.75
420.057	100.75
420.28	83.75
420.503	91.75
420.726	94.75
420.948	91.75
421.171	92.75
421.394	90.75
421.617	104.75
421.839	100.75
422.062	88.75
422.285	91.75
422.507	109.75
422.73	104.75
422.953	97.75
423.175	93.75
423.398	96.75
423.621	93.75
423.843	95.75
424.066	94.75
424.288	85.75
424.511	82.75
424.733	96.75
424.956	105.75
425.178	98.75
425.401	114.75
425.623	92.75
425.846	98.75
426.068	103.75
426.291	91.75
426.513	91.75
426.735	86.75
426.958	99.75
427.18	101.75
427.402	128.75
427.625	176.75
427.847	131.75
428.069	98.75
428.292	104.75
428.514	92.75
428.736	91.75
428.958	87.75
429.181	91.75
429.403	100.75
429.625	76.75
429.847	91.75
430.069	97.75
430.292	89.75
430.514	81.75
430.736	78.75
430.958	85.75
431.18	86.75
431.402	87.75
431.624	89.75
431.846	94.75
432.068	88.75
432.29	84.75
432.512	84.75
432.734	94.75
432.956	98.75
433.178	95.75
433.4	99.75
433.622	103.75
433.844	87.75
434.066	109.75
434.287	84.75
434.509	92.75
434.731	79.75
434.953	81.75
435.175	87.75
435.397	103.75
435.618	85.75
435.84	99.75
436.062	121.75
436.284	107.75
436.505	83.75
436.727	103.75
436.949	89.75
437.17	76.75
437.392	83.75
437.614	88.75
437.835	98.75
438.057	106.75
438.278	109.75
438.5	110.75
438.721	123.75
438.943	123.75
439.165	97.75
439.386	96.75
439.608	108.75
439.829	103.75
440.05	117.75
440.272	144.75
440.493	98.75
440.715	82.75
440.936	85.75
441.158	87.75
441.379	86.75
441.6	71.75
441.822	114.75
442.043	90.75
442.264	112.75
442.486	92.75
442.707	98.75
442.928	111.75
443.149	145.75
443.371	123.75
443.592	95.75
443.813	109.75
444.034	89.75
444.255	95.75
444.476	81.75
444.698	89.75
444.919	92.75
445.14	128.75
445.361	103.75
445.582	114.75
445.803	112.75
446.024	136.75
446.245	121.75
446.466	122.75
446.687	88.75
446.908	87.75
447.129	87.75
447.35	88.75
447.571	108.75
447.792	84.75
448.013	94.75
448.234	114.75
448.455	110.75
448.675	111.75
448.896	116.75
449.117	103.75
449.338	96.75
449.559	127.75
449.779	129.75
450	95.75
450.221	77.75
450.442	96.75
450.662	83.75
450.883	98.75
451.104	100.75
451.324	107.75
451.545	98.75
451.766	91.75
451.986	97.75
452.207	97.75
452.428	91.75
452.648	100.75
452.869	117.75
453.089	94.75
453.31	104.75
453.53	99.75
453.751	83.75
453.971	104.75
454.192	117.75
454.412	108.75
454.633	81.75
454.853	91.75
455.073	75.75
455.294	97.75
455.514	95.75
455.734	91.75
455.955	93.75
456.175	88.75
456.395	85.75
456.616	74.75
456.836	87.75
457.056	86.75
457.276	84.75
457.497	95.75
457.717	87.75
457.937	96.75
458.157	96.75
458.377	86.75
458.598	97.75
458.818	146.75
459.038	153.75
459.258	111.75
459.478	108.75
459.698	90.75
459.918	66.75
460.138	80.75
460.358	99.75
460.578	74.75
460.798	101.75
461.018	91.75
461.238	96.75
461.458	82.75
461.678	82.75
461.898	88.75
462.118	95.75
462.338	101.75
462.558	88.75
462.777	84.75
462.997	84.75
463.217	82.75
463.437	97.75
463.657	88.75
463.876	88.75
464.096	99.75
464.316	94.75
464.536	85.75
464.755	105.75
464.975	113.75
465.195	166.75
465.414	156.75
465.634	94.75
465.854	88.75
466.073	112.75
466.293	95.75
466.512	94.75
466.732	73.75
466.951	86.75
467.171	99.75
467.391	98.75
467.61	92.75
467.829	104.75
468.049	91.75
468.268	115.75
468.488	96.75
468.707	87.75
468.927	97.75
469.146	75.75
469.365	82.75
469.585	80.75
469.804	105.75
470.023	100.75
470.243	85.75
470.462	85.75
470.681	117.75
470.901	92.75
471.12	100.75
471.339	98.75
471.558	80.75
471.777	97.75
471.997	100.75
472.216	98.75
472.435	101.75
472.654	95.75
472.873	93.75
473.092	91.75
473.311	91.75
473.53	81.75
473.749	83.75
473.968	92.75
474.187	94.75
474.406	92.75
474.625	102.75
474.844	88.75
475.063	89.75
475.282	82.75
475.501	86.75
475.72	91.75
475.939	93.75
476.158	83.75
476.377	96.75
476.596	81.75
476.814	101.75
477.033	96.75
477.252	99.75
477.471	83.75
477.69	95.75
477.908	91.75
478.127	84.75
478.346	99.75
478.564	94.75
478.783	98.75
479.002	104.75
479.22	92.75
479.439	108.75
479.658	110.75
479.876	109.75
480.095	106.75
480.313	96.75
480.532	80.75
480.751	99.75
480.969	119.75
481.188	132.75
481.406	107.75
481.624	85.75
481.843	90.75
482.061	90.75
482.28	93.75
482.498	102.75
482.717	112.75
482.935	91.75
483.153	92.75
483.372	95.75
483.59	93.75
483.808	85.75
484.027	110.75
484.245	99.75
484.463	93.75
484.681	114.75
484.9	89.75
485.118	96.75
485.336	89.75
485.554	93.75
485.772	89.75
485.99	104.75
486.209	98.75
486.427	115.75
486.645	112.75
486.863	107.75
487.081	103.75
487.299	89.75
487.517	93.75
487.735	96.75
487.953	96.75
488.171	90.75
488.389	100.75
488.607	92.75
488.825	100.75
489.043	92.75
489.261	92.75
489.479	103.75
489.696	97.75
489.914	101.75
490.132	89.75
490.35	90.75
490.568	91.75
490.786	92.75
491.003	84.75
491.221	100.75
491.439	96.75
491.657	89.75
491.874	103.75
492.092	88.75
492.31	91.75
492.527	80.75
492.745	87.75
492.963	88.75
493.18	92.75
493.398	88.75
493.615	91.75
493.833	94.75
494.05	102.75
494.268	91.75
494.485	92.75
494.703	92.75
494.92	68.75
495.138	91.75
495.355	105.75
495.573	98.75
495.79	88.75
496.008	95.75
496.225	90.75
496.442	103.75
496.66	107.75
496.877	86.75
497.094	92.75
497.312	82.75
497.529	80.75
497.746	98.75
497.963	92.75
498.181	99.75
498.398	94.75
498.615	109.75
498.832	101.75
499.049	102.75
499.267	108.75
499.484	92.75
499.701	93.75
499.918	94.75
500.135	79.75
500.352	99.75
500.569	98.75
500.786	84.75
501.003	101.75
501.22	82.75
501.437	102.75
501.654	101.75
501.871	121.75
502.088	79.75
502.305	94.75
502.522	95.75
502.739	98.75
502.956	79.75
503.172	95.75
503.389	91.75
503.606	98.75
503.823	94.75
504.04	93.75
504.256	90.75
504.473	96.75
504.69	95.75
504.907	85.75
505.123	94.75
505.34	86.75
505.557	98.75
505.773	98.75
505.99	96.75
506.207	80.75
506.423	82.75
506.64	95.75
506.856	105.75
507.073	98.75
507.289	94.75
507.506	103.75
507.722	108.75
507.939	107.75
508.155	95.75
508.372	91.75
508.588	94.75
508.805	113.75
509.021	96.75
509.238	100.75
509.454	113.75
509.67	97.75
509.887	111.75
510.103	127.75
510.319	229.75
510.536	851.75
510.752	2513.75
510.968	708.75
511.184	174.75
511.401	103.75
511.617	100.75
511.833	89.75
512.049	102.75
512.265	94.75
512.481	78.75
512.698	104.75
512.914	101.75
513.13	104.75
513.346	89.75
513.562	92.75
513.778	95.75
513.994	94.75
514.21	102.75
514.426	124.75
514.642	135.75
514.858	121.75
