Data from Uncirc_2004_H10_HRD10591_00033.txt Node
Date: Wed Jan 03 10:32:19 EST 2024
User: Yrep
Spectrometer: HR+D1059
Trigger mode: 1
Integration Time (sec): 1.000000E-1
Scans to average: 1
Electric dark correction enabled: true
Nonlinearity correction enabled: false
Boxcar width: 0
XAxis mode: Wavelengths
Number of Pixels in Spectrum: 2048
>>>>>Begin Spectral Data<<<<<
223.165	-9.5
223.4	-9.5
223.635	-9.5
223.869	-12.5
224.104	-18.5
224.338	-1.5
224.573	-15.5
224.808	-22.5
225.042	-1.5
225.277	4.5
225.511	-2.5
225.746	-1.5
225.98	16.5
226.215	14.5
226.449	9.5
226.683	8.5
226.918	2.5
227.152	29.5
227.387	39.5
227.621	33.5
227.856	56.5
228.09	52.5
228.324	44.5
228.559	49.5
228.793	58.5
229.027	58.5
229.262	55.5
229.496	66.5
229.73	75.5
229.964	95.5
230.199	65.5
230.433	73.5
230.667	81.5
230.901	86.5
231.136	72.5
231.37	70.5
231.604	77.5
231.838	81.5
232.072	83.5
232.306	70.5
232.541	71.5
232.775	71.5
233.009	81.5
233.243	71.5
233.477	86.5
233.711	91.5
233.945	85.5
234.179	87.5
234.413	72.5
234.647	75.5
234.881	73.5
235.115	79.5
235.349	81.5
235.583	77.5
235.817	88.5
236.051	77.5
236.285	88.5
236.519	95.5
236.753	77.5
236.987	79.5
237.221	90.5
237.455	86.5
237.689	78.5
237.922	73.5
238.156	76.5
238.39	88.5
238.624	66.5
238.858	87.5
239.091	69.5
239.325	75.5
239.559	80.5
239.793	73.5
240.027	85.5
240.26	84.5
240.494	83.5
240.728	70.5
240.961	71.5
241.195	83.5
241.429	79.5
241.662	83.5
241.896	81.5
242.13	75.5
242.363	79.5
242.597	92.5
242.83	76.5
243.064	81.5
243.298	78.5
243.531	87.5
243.765	71.5
243.998	80.5
244.232	79.5
244.465	82.5
244.699	97.5
244.932	79.5
245.166	69.5
245.399	91.5
245.633	77.5
245.866	81.5
246.099	79.5
246.333	86.5
246.566	78.5
246.8	71.5
247.033	80.5
247.266	74.5
247.5	75.5
247.733	88.5
247.966	82.5
248.2	81.5
248.433	76.5
248.666	81.5
248.899	78.5
249.133	85.5
249.366	103.5
249.599	101.5
249.832	88.5
250.066	99.5
250.299	66.5
250.532	77.5
250.765	72.5
250.998	74.5
251.231	70.5
251.465	88.5
251.698	73.5
251.931	72.5
252.164	80.5
252.397	70.5
252.63	59.5
252.863	83.5
253.096	85.5
253.329	67.5
253.562	81.5
253.795	88.5
254.028	82.5
254.261	87.5
254.494	79.5
254.727	74.5
254.96	71.5
255.193	88.5
255.426	77.5
255.659	91.5
255.892	90.5
256.124	83.5
256.357	90.5
256.59	79.5
256.823	77.5
257.056	87.5
257.289	88.5
257.521	91.5
257.754	86.5
257.987	91.5
258.22	91.5
258.452	77.5
258.685	97.5
258.918	80.5
259.151	89.5
259.383	82.5
259.616	69.5
259.849	69.5
260.081	84.5
260.314	81.5
260.547	81.5
260.779	79.5
261.012	91.5
261.244	87.5
261.477	95.5
261.71	88.5
261.942	101.5
262.175	99.5
262.407	89.5
262.64	99.5
262.872	84.5
263.105	86.5
263.337	74.5
263.57	97.5
263.802	72.5
264.035	84.5
264.267	75.5
264.499	65.5
264.732	73.5
264.964	67.5
265.197	88.5
265.429	81.5
265.661	94.5
265.894	94.5
266.126	94.5
266.358	98.5
266.591	82.5
266.823	80.5
267.055	96.5
267.287	88.5
267.52	80.5
267.752	81.5
267.984	75.5
268.216	95.5
268.448	96.5
268.681	81.5
268.913	85.5
269.145	74.5
269.377	83.5
269.609	76.5
269.841	93.5
270.073	78.5
270.306	86.5
270.538	92.5
270.77	82.5
271.002	85.5
271.234	87.5
271.466	86.5
271.698	87.5
271.93	82.5
272.162	90.5
272.394	82.5
272.626	87.5
272.858	82.5
273.09	89.5
273.322	86.5
273.553	70.5
273.785	93.5
274.017	86.5
274.249	84.5
274.481	79.5
274.713	66.5
274.945	72.5
275.176	86.5
275.408	81.5
275.64	85.5
275.872	76.5
276.104	95.5
276.335	93.5
276.567	97.5
276.799	91.5
277.031	88.5
277.262	86.5
277.494	74.5
277.726	73.5
277.957	80.5
278.189	80.5
278.421	78.5
278.652	97.5
278.884	83.5
279.115	80.5
279.347	88.5
279.579	81.5
279.81	79.5
280.042	99.5
280.273	98.5
280.505	89.5
280.736	72.5
280.968	72.5
281.199	101.5
281.431	88.5
281.662	92.5
281.894	85.5
282.125	97.5
282.356	114.5
282.588	131.5
282.819	113.5
283.051	89.5
283.282	87.5
283.513	87.5
283.745	96.5
283.976	84.5
284.207	91.5
284.439	91.5
284.67	70.5
284.901	94.5
285.132	85.5
285.364	79.5
285.595	88.5
285.826	85.5
286.057	86.5
286.288	83.5
286.52	91.5
286.751	83.5
286.982	71.5
287.213	81.5
287.444	87.5
287.675	86.5
287.906	85.5
288.138	83.5
288.369	82.5
288.6	86.5
288.831	82.5
289.062	93.5
289.293	76.5
289.524	98.5
289.755	90.5
289.986	91.5
290.217	97.5
290.448	90.5
290.679	97.5
290.91	91.5
291.141	99.5
291.371	87.5
291.602	82.5
291.833	82.5
292.064	86.5
292.295	103.5
292.526	89.5
292.757	95.5
292.987	100.5
293.218	89.5
293.449	100.5
293.68	101.5
293.91	86.5
294.141	88.5
294.372	91.5
294.603	94.5
294.833	83.5
295.064	91.5
295.295	82.5
295.525	89.5
295.756	111.5
295.987	119.5
296.217	130.5
296.448	125.5
296.679	100.5
296.909	95.5
297.14	89.5
297.37	95.5
297.601	99.5
297.831	89.5
298.062	85.5
298.292	100.5
298.523	95.5
298.753	77.5
298.984	82.5
299.214	79.5
299.445	98.5
299.675	89.5
299.905	97.5
300.136	96.5
300.366	83.5
300.597	80.5
300.827	101.5
301.057	100.5
301.288	87.5
301.518	93.5
301.748	84.5
301.979	106.5
302.209	98.5
302.439	84.5
302.669	79.5
302.9	86.5
303.13	90.5
303.36	103.5
303.59	109.5
303.82	94.5
304.051	81.5
304.281	84.5
304.511	88.5
304.741	85.5
304.971	85.5
305.201	90.5
305.431	84.5
305.661	83.5
305.891	83.5
306.121	103.5
306.352	104.5
306.582	105.5
306.812	97.5
307.042	108.5
307.272	81.5
307.502	105.5
307.731	105.5
307.961	98.5
308.191	98.5
308.421	90.5
308.651	97.5
308.881	86.5
309.111	88.5
309.341	93.5
309.571	103.5
309.8	100.5
310.03	97.5
310.26	98.5
310.49	95.5
310.72	101.5
310.949	106.5
311.179	98.5
311.409	99.5
311.639	97.5
311.868	107.5
312.098	97.5
312.328	101.5
312.557	106.5
312.787	101.5
313.017	94.5
313.246	97.5
313.476	96.5
313.706	94.5
313.935	98.5
314.165	105.5
314.394	98.5
314.624	79.5
314.853	89.5
315.083	84.5
315.312	90.5
315.542	90.5
315.771	95.5
316.001	89.5
316.23	103.5
316.46	93.5
316.689	79.5
316.919	89.5
317.148	93.5
317.377	90.5
317.607	96.5
317.836	98.5
318.065	91.5
318.295	107.5
318.524	96.5
318.753	100.5
318.983	99.5
319.212	96.5
319.441	102.5
319.67	102.5
319.9	88.5
320.129	98.5
320.358	104.5
320.587	104.5
320.816	90.5
321.046	88.5
321.275	104.5
321.504	101.5
321.733	106.5
321.962	102.5
322.191	89.5
322.42	95.5
322.649	102.5
322.878	89.5
323.108	110.5
323.337	121.5
323.566	120.5
323.795	147.5
324.024	190.5
324.253	353.5
324.482	737.5
324.71	1519.5
324.939	1910.5
325.168	711.5
325.397	232.5
325.626	141.5
325.855	130.5
326.084	129.5
326.313	119.5
326.542	149.5
326.77	227.5
326.999	430.5
327.228	863.5
327.457	1520.5
327.686	1195.5
327.914	353.5
328.143	179.5
328.372	132.5
328.6	122.5
328.829	118.5
329.058	119.5
329.287	127.5
329.515	110.5
329.744	104.5
329.972	99.5
330.201	105.5
330.43	113.5
330.658	115.5
330.887	119.5
331.115	112.5
331.344	106.5
331.572	85.5
331.801	97.5
332.03	97.5
332.258	87.5
332.486	100.5
332.715	91.5
332.943	108.5
333.172	89.5
333.4	99.5
333.629	96.5
333.857	118.5
334.085	111.5
334.314	98.5
334.542	108.5
334.771	105.5
334.999	93.5
335.227	91.5
335.455	88.5
335.684	95.5
335.912	101.5
336.14	101.5
336.369	90.5
336.597	90.5
336.825	104.5
337.053	98.5
337.281	96.5
337.51	95.5
337.738	97.5
337.966	91.5
338.194	100.5
338.422	93.5
338.65	105.5
338.878	90.5
339.106	79.5
339.334	99.5
339.562	82.5
339.79	82.5
340.018	111.5
340.246	68.5
340.474	90.5
340.702	87.5
340.93	97.5
341.158	87.5
341.386	97.5
341.614	102.5
341.842	97.5
342.07	98.5
342.298	90.5
342.526	106.5
342.754	93.5
342.981	95.5
343.209	100.5
343.437	102.5
343.665	100.5
343.893	93.5
344.12	96.5
344.348	98.5
344.576	88.5
344.804	101.5
345.031	104.5
345.259	98.5
345.487	101.5
345.714	90.5
345.942	93.5
346.17	85.5
346.397	88.5
346.625	79.5
346.853	105.5
347.08	108.5
347.308	87.5
347.535	90.5
347.763	87.5
347.99	94.5
348.218	96.5
348.445	109.5
348.673	84.5
348.9	104.5
349.128	94.5
349.355	98.5
349.583	98.5
349.81	95.5
350.037	86.5
350.265	91.5
350.492	98.5
350.72	93.5
350.947	102.5
351.174	103.5
351.402	119.5
351.629	110.5
351.856	108.5
352.083	99.5
352.311	106.5
352.538	107.5
352.765	114.5
352.992	120.5
353.22	117.5
353.447	100.5
353.674	103.5
353.901	104.5
354.128	114.5
354.355	88.5
354.583	97.5
354.81	101.5
355.037	99.5
355.264	109.5
355.491	92.5
355.718	89.5
355.945	102.5
356.172	91.5
356.399	95.5
356.626	84.5
356.853	104.5
357.08	107.5
357.307	89.5
357.534	97.5
357.761	104.5
357.988	91.5
358.215	99.5
358.441	93.5
358.668	100.5
358.895	96.5
359.122	98.5
359.349	100.5
359.576	92.5
359.802	115.5
360.029	107.5
360.256	110.5
360.483	91.5
360.709	79.5
360.936	95.5
361.163	101.5
361.39	97.5
361.616	97.5
361.843	94.5
362.07	94.5
362.296	96.5
362.523	103.5
362.749	91.5
362.976	76.5
363.203	87.5
363.429	81.5
363.656	90.5
363.882	97.5
364.109	88.5
364.335	87.5
364.562	90.5
364.788	91.5
365.015	92.5
365.241	96.5
365.468	109.5
365.694	109.5
365.92	100.5
366.147	85.5
366.373	84.5
366.599	100.5
366.826	96.5
367.052	96.5
367.278	104.5
367.505	84.5
367.731	95.5
367.957	83.5
368.184	89.5
368.41	97.5
368.636	112.5
368.862	107.5
369.089	117.5
369.315	90.5
369.541	85.5
369.767	93.5
369.993	89.5
370.219	97.5
370.445	89.5
370.672	93.5
370.898	94.5
371.124	96.5
371.35	74.5
371.576	98.5
371.802	70.5
372.028	91.5
372.254	95.5
372.48	94.5
372.706	96.5
372.932	92.5
373.158	80.5
373.384	75.5
373.61	93.5
373.835	78.5
374.061	105.5
374.287	86.5
374.513	88.5
374.739	76.5
374.965	86.5
375.191	81.5
375.416	100.5
375.642	98.5
375.868	95.5
376.094	86.5
376.319	93.5
376.545	90.5
376.771	90.5
376.997	94.5
377.222	87.5
377.448	113.5
377.674	95.5
377.899	100.5
378.125	90.5
378.35	96.5
378.576	82.5
378.802	99.5
379.027	81.5
379.253	87.5
379.478	99.5
379.704	97.5
379.929	85.5
380.155	99.5
380.38	94.5
380.606	100.5
380.831	98.5
381.057	97.5
381.282	104.5
381.507	93.5
381.733	97.5
381.958	101.5
382.184	98.5
382.409	101.5
382.634	105.5
382.86	98.5
383.085	104.5
383.31	113.5
383.535	106.5
383.761	114.5
383.986	111.5
384.211	85.5
384.436	108.5
384.662	102.5
384.887	99.5
385.112	117.5
385.337	99.5
385.562	88.5
385.787	112.5
386.013	103.5
386.238	112.5
386.463	111.5
386.688	119.5
386.913	104.5
387.138	114.5
387.363	121.5
387.588	101.5
387.813	107.5
388.038	125.5
388.263	122.5
388.488	127.5
388.713	90.5
388.938	115.5
389.163	97.5
389.387	101.5
389.612	95.5
389.837	90.5
390.062	109.5
390.287	87.5
390.512	93.5
390.736	78.5
390.961	78.5
391.186	101.5
391.411	87.5
391.636	96.5
391.86	96.5
392.085	87.5
392.31	87.5
392.534	91.5
392.759	109.5
392.984	95.5
393.208	88.5
393.433	99.5
393.658	71.5
393.882	89.5
394.107	84.5
394.331	84.5
394.556	86.5
394.78	82.5
395.005	85.5
395.229	78.5
395.454	99.5
395.678	88.5
395.903	88.5
396.127	90.5
396.352	81.5
396.576	71.5
396.801	98.5
397.025	95.5
397.249	85.5
397.474	106.5
397.698	83.5
397.922	87.5
398.147	90.5
398.371	98.5
398.595	76.5
398.82	86.5
399.044	74.5
399.268	81.5
399.492	68.5
399.717	81.5
399.941	89.5
400.165	107.5
400.389	86.5
400.613	78.5
400.837	85.5
401.062	79.5
401.286	90.5
401.51	97.5
401.734	80.5
401.958	93.5
402.182	129.5
402.406	151.5
402.63	130.5
402.854	99.5
403.078	85.5
403.302	80.5
403.526	92.5
403.75	94.5
403.974	91.5
404.198	90.5
404.422	91.5
404.645	75.5
404.869	89.5
405.093	102.5
405.317	103.5
405.541	103.5
405.765	103.5
405.988	109.5
406.212	162.5
406.436	215.5
406.66	140.5
406.883	91.5
407.107	105.5
407.331	82.5
407.555	111.5
407.778	90.5
408.002	88.5
408.226	105.5
408.449	77.5
408.673	101.5
408.896	94.5
409.12	97.5
409.344	92.5
409.567	95.5
409.791	86.5
410.014	84.5
410.238	90.5
410.461	90.5
410.685	87.5
410.908	90.5
411.132	101.5
411.355	101.5
411.578	90.5
411.802	99.5
412.025	75.5
412.249	89.5
412.472	86.5
412.695	83.5
412.919	99.5
413.142	92.5
413.365	85.5
413.589	96.5
413.812	73.5
414.035	106.5
414.258	85.5
414.482	87.5
414.705	97.5
414.928	83.5
415.151	95.5
415.374	93.5
415.597	96.5
415.821	74.5
416.044	100.5
416.267	81.5
416.49	99.5
416.713	92.5
416.936	97.5
417.159	87.5
417.382	85.5
417.605	95.5
417.828	102.5
418.051	84.5
418.274	87.5
418.497	78.5
418.72	76.5
418.943	83.5
419.166	85.5
419.389	77.5
419.611	97.5
419.834	94.5
420.057	87.5
420.28	87.5
420.503	77.5
420.726	88.5
420.948	87.5
421.171	89.5
421.394	87.5
421.617	101.5
421.839	99.5
422.062	100.5
422.285	87.5
422.507	86.5
422.73	79.5
422.953	102.5
423.175	96.5
423.398	89.5
423.621	89.5
423.843	80.5
424.066	103.5
424.288	95.5
424.511	91.5
424.733	106.5
424.956	109.5
425.178	89.5
425.401	91.5
425.623	93.5
425.846	93.5
426.068	95.5
426.291	95.5
426.513	90.5
426.735	100.5
426.958	93.5
427.18	93.5
427.402	120.5
427.625	157.5
427.847	125.5
428.069	94.5
428.292	90.5
428.514	90.5
428.736	84.5
428.958	82.5
429.181	90.5
429.403	95.5
429.625	98.5
429.847	93.5
430.069	97.5
430.292	89.5
430.514	89.5
430.736	97.5
430.958	81.5
431.18	74.5
431.402	85.5
431.624	95.5
431.846	84.5
432.068	86.5
432.29	83.5
432.512	80.5
432.734	79.5
432.956	95.5
433.178	97.5
433.4	93.5
433.622	106.5
433.844	86.5
434.066	73.5
434.287	78.5
434.509	82.5
434.731	85.5
434.953	90.5
435.175	78.5
435.397	103.5
435.618	95.5
435.84	91.5
436.062	115.5
436.284	102.5
436.505	84.5
436.727	100.5
436.949	99.5
437.17	78.5
437.392	81.5
437.614	104.5
437.835	118.5
438.057	110.5
438.278	96.5
438.5	90.5
438.721	98.5
438.943	92.5
439.165	81.5
439.386	93.5
439.608	88.5
439.829	97.5
440.05	119.5
440.272	100.5
440.493	95.5
440.715	96.5
440.936	89.5
441.158	85.5
441.379	93.5
441.6	94.5
441.822	88.5
442.043	95.5
442.264	112.5
442.486	105.5
442.707	97.5
442.928	96.5
443.149	109.5
443.371	131.5
443.592	112.5
443.813	113.5
444.034	102.5
444.255	86.5
444.476	89.5
444.698	87.5
444.919	91.5
445.14	127.5
445.361	132.5
445.582	102.5
445.803	119.5
446.024	137.5
446.245	131.5
446.466	98.5
446.687	80.5
446.908	93.5
447.129	93.5
447.35	76.5
447.571	80.5
447.792	86.5
448.013	101.5
448.234	104.5
448.455	101.5
448.675	113.5
448.896	115.5
449.117	95.5
449.338	108.5
449.559	121.5
449.779	113.5
450	95.5
450.221	89.5
450.442	77.5
450.662	98.5
450.883	99.5
451.104	102.5
451.324	106.5
451.545	79.5
451.766	78.5
451.986	94.5
452.207	87.5
452.428	80.5
452.648	96.5
452.869	109.5
453.089	109.5
453.31	125.5
453.53	101.5
453.751	94.5
453.971	99.5
454.192	106.5
454.412	87.5
454.633	83.5
454.853	85.5
455.073	89.5
455.294	90.5
455.514	102.5
455.734	100.5
455.955	78.5
456.175	78.5
456.395	79.5
456.616	80.5
456.836	88.5
457.056	77.5
457.276	83.5
457.497	93.5
457.717	86.5
457.937	91.5
458.157	98.5
458.377	88.5
458.598	99.5
458.818	143.5
459.038	135.5
459.258	107.5
459.478	73.5
459.698	70.5
459.918	77.5
460.138	96.5
460.358	74.5
460.578	86.5
460.798	98.5
461.018	76.5
461.238	89.5
461.458	90.5
461.678	87.5
461.898	89.5
462.118	86.5
462.338	73.5
462.558	78.5
462.777	97.5
462.997	85.5
463.217	89.5
463.437	85.5
463.657	93.5
463.876	98.5
464.096	83.5
464.316	100.5
464.536	87.5
464.755	87.5
464.975	93.5
465.195	159.5
465.414	144.5
465.634	100.5
465.854	99.5
466.073	91.5
466.293	89.5
466.512	88.5
466.732	82.5
466.951	86.5
467.171	83.5
467.391	107.5
467.61	84.5
467.829	97.5
468.049	79.5
468.268	90.5
468.488	79.5
468.707	83.5
468.927	83.5
469.146	94.5
469.365	95.5
469.585	97.5
469.804	94.5
470.023	100.5
470.243	84.5
470.462	90.5
470.681	97.5
470.901	90.5
471.12	85.5
471.339	92.5
471.558	91.5
471.777	80.5
471.997	88.5
472.216	99.5
472.435	84.5
472.654	85.5
472.873	87.5
473.092	86.5
473.311	83.5
473.53	94.5
473.749	93.5
473.968	83.5
474.187	107.5
474.406	85.5
474.625	95.5
474.844	88.5
475.063	92.5
475.282	89.5
475.501	90.5
475.72	84.5
475.939	91.5
476.158	85.5
476.377	83.5
476.596	91.5
476.814	88.5
477.033	94.5
477.252	104.5
477.471	97.5
477.69	94.5
477.908	81.5
478.127	87.5
478.346	87.5
478.564	95.5
478.783	90.5
479.002	80.5
479.22	101.5
479.439	95.5
479.658	105.5
479.876	107.5
480.095	91.5
480.313	90.5
480.532	85.5
480.751	98.5
480.969	100.5
481.188	127.5
481.406	113.5
481.624	96.5
481.843	92.5
482.061	89.5
482.28	90.5
482.498	84.5
482.717	80.5
482.935	88.5
483.153	83.5
483.372	101.5
483.59	97.5
483.808	96.5
484.027	98.5
484.245	90.5
484.463	94.5
484.681	103.5
484.9	93.5
485.118	94.5
485.336	88.5
485.554	109.5
485.772	107.5
485.99	79.5
486.209	102.5
486.427	104.5
486.645	110.5
486.863	103.5
487.081	88.5
487.299	106.5
487.517	92.5
487.735	101.5
487.953	84.5
488.171	86.5
488.389	97.5
488.607	114.5
488.825	95.5
489.043	95.5
489.261	99.5
489.479	81.5
489.696	92.5
489.914	85.5
490.132	79.5
490.35	98.5
490.568	82.5
490.786	99.5
491.003	86.5
491.221	82.5
491.439	81.5
491.657	97.5
491.874	95.5
492.092	81.5
492.31	97.5
492.527	80.5
492.745	100.5
492.963	92.5
493.18	95.5
493.398	85.5
493.615	85.5
493.833	98.5
494.05	100.5
494.268	89.5
494.485	102.5
494.703	93.5
494.92	88.5
495.138	64.5
495.355	77.5
495.573	88.5
495.79	81.5
496.008	87.5
496.225	96.5
496.442	78.5
496.66	86.5
496.877	95.5
497.094	103.5
497.312	110.5
497.529	74.5
497.746	87.5
497.963	91.5
498.181	86.5
498.398	89.5
498.615	106.5
498.832	116.5
499.049	93.5
499.267	96.5
499.484	89.5
499.701	103.5
499.918	83.5
500.135	89.5
500.352	83.5
500.569	81.5
500.786	94.5
501.003	91.5
501.22	82.5
501.437	96.5
501.654	86.5
501.871	91.5
502.088	99.5
502.305	95.5
502.522	85.5
502.739	87.5
502.956	86.5
503.172	101.5
503.389	100.5
503.606	102.5
503.823	114.5
504.04	111.5
504.256	94.5
504.473	97.5
504.69	95.5
504.907	107.5
505.123	109.5
505.34	91.5
505.557	97.5
505.773	91.5
505.99	87.5
506.207	76.5
506.423	95.5
506.64	98.5
506.856	89.5
507.073	95.5
507.289	80.5
507.506	97.5
507.722	106.5
507.939	106.5
508.155	99.5
508.372	102.5
508.588	88.5
508.805	94.5
509.021	101.5
509.238	109.5
509.454	92.5
509.67	94.5
509.887	115.5
510.103	119.5
510.319	209.5
510.536	742.5
510.752	2343.5
510.968	658.5
511.184	150.5
511.401	107.5
511.617	94.5
511.833	92.5
512.049	94.5
512.265	78.5
512.481	76.5
512.698	95.5
512.914	96.5
513.13	98.5
513.346	103.5
513.562	78.5
513.778	104.5
513.994	87.5
514.21	98.5
514.426	119.5
514.642	132.5
514.858	121.5
515.074	130.5
515.29	447.5
515.506	1382.5
515.721	532.5
515.937	155.5
516.153	123.5
516.369	94.5
516.585	102.5
516.801	86.5
517.016	81.5
517.232	102.5
517.448	102.5
517.664	87.5
517.879	97.5
518.095	94.5
518.311	98.5
518.527	105.5
518.742	95.5
518.958	96.5
519.173	95.5
519.389	98.5
519.605	93.5
519.82	90.5
520.036	97.5
520.251	106.5
520.467	101.5
520.682	104.5
520.898	108.5
521.113	108.5
521.329	139.5
521.544	195.5
521.76	533.5
521.975	2335.5
522.19	1398.5
522.406	308.5
522.621	138.5
522.836	99.5
523.052	100.5
523.267	86.5
523.482	94.5
523.698	103.5
523.913	125.5
524.128	104.5
524.343	91.5
524.559	98.5
524.774	92.5
524.989	110.5
525.204	110.5
525.419	97.5
525.634	101.5
525.849	94.5
526.064	100.5
526.28	91.5
526.495	97.5
526.71	84.5
526.925	74.5
527.14	85.5
527.355	93.5
527.57	81.5
527.785	95.5
527.999	97.5
528.214	85.5
528.429	98.5
528.644	101.5
528.859	93.5
529.074	99.5
529.289	110.5
529.503	158.5
529.718	114.5
529.933	96.5
530.148	91.5
530.363	92.5
530.577	101.5
530.792	87.5
531.007	86.5
531.221	87.5
531.436	81.5
531.651	93.5
531.865	89.5
532.08	95.5
532.295	97.5
532.509	101.5
532.724	99.5
532.938	106.5
533.153	96.5
533.367	86.5
533.582	97.5
533.796	107.5
534.011	96.5
534.225	95.5
534.44	82.5
534.654	106.5
534.868	92.5
535.083	98.5
