Data from Uncirc_2004_H10_HRD10591_00010.txt Node
Date: Wed Jan 03 10:32:14 EST 2024
User: Yrep
Spectrometer: HR+D1059
Trigger mode: 1
Integration Time (sec): 1.000000E-1
Scans to average: 1
Electric dark correction enabled: true
Nonlinearity correction enabled: false
Boxcar width: 0
XAxis mode: Wavelengths
Number of Pixels in Spectrum: 2048
>>>>>Begin Spectral Data<<<<<
223.165	-5.75
223.4	-5.75
223.635	-5.75
223.869	-5.75
224.104	-16.75
224.338	-23.75
224.573	-28.75
224.808	-19.75
225.042	-24.75
225.277	0.25
225.511	0.25
225.746	-9.75
225.98	5.25
226.215	12.25
226.449	23.25
226.683	25.25
226.918	31.25
227.152	37.25
227.387	26.25
227.621	42.25
227.856	41.25
228.09	38.25
228.324	45.25
228.559	50.25
228.793	66.25
229.027	53.25
229.262	65.25
229.496	63.25
229.73	82.25
229.964	81.25
230.199	87.25
230.433	69.25
230.667	82.25
230.901	70.25
231.136	68.25
231.37	73.25
231.604	86.25
231.838	79.25
232.072	79.25
232.306	88.25
232.541	76.25
232.775	79.25
233.009	82.25
233.243	86.25
233.477	86.25
233.711	84.25
233.945	84.25
234.179	78.25
234.413	100.25
234.647	59.25
234.881	70.25
235.115	79.25
235.349	79.25
235.583	96.25
235.817	79.25
236.051	69.25
236.285	56.25
236.519	81.25
236.753	76.25
236.987	74.25
237.221	68.25
237.455	82.25
237.689	74.25
237.922	71.25
238.156	74.25
238.39	69.25
238.624	82.25
238.858	66.25
239.091	74.25
239.325	84.25
239.559	74.25
239.793	77.25
240.027	85.25
240.26	58.25
240.494	72.25
240.728	78.25
240.961	69.25
241.195	71.25
241.429	70.25
241.662	66.25
241.896	73.25
242.13	70.25
242.363	77.25
242.597	69.25
242.83	71.25
243.064	66.25
243.298	65.25
243.531	75.25
243.765	82.25
243.998	68.25
244.232	75.25
244.465	79.25
244.699	81.25
244.932	71.25
245.166	65.25
245.399	81.25
245.633	73.25
245.866	68.25
246.099	73.25
246.333	75.25
246.566	73.25
246.8	83.25
247.033	89.25
247.266	81.25
247.5	76.25
247.733	82.25
247.966	82.25
248.2	83.25
248.433	80.25
248.666	81.25
248.899	70.25
249.133	74.25
249.366	77.25
249.599	94.25
249.832	73.25
250.066	77.25
250.299	65.25
250.532	74.25
250.765	73.25
250.998	78.25
251.231	81.25
251.465	82.25
251.698	86.25
251.931	83.25
252.164	84.25
252.397	72.25
252.63	77.25
252.863	81.25
253.096	75.25
253.329	79.25
253.562	76.25
253.795	69.25
254.028	78.25
254.261	84.25
254.494	77.25
254.727	86.25
254.96	70.25
255.193	79.25
255.426	75.25
255.659	81.25
255.892	74.25
256.124	85.25
256.357	76.25
256.59	74.25
256.823	65.25
257.056	67.25
257.289	78.25
257.521	70.25
257.754	68.25
257.987	79.25
258.22	81.25
258.452	79.25
258.685	69.25
258.918	63.25
259.151	74.25
259.383	77.25
259.616	78.25
259.849	70.25
260.081	78.25
260.314	92.25
260.547	104.25
260.779	84.25
261.012	78.25
261.244	73.25
261.477	78.25
261.71	67.25
261.942	108.25
262.175	111.25
262.407	86.25
262.64	79.25
262.872	82.25
263.105	71.25
263.337	86.25
263.57	82.25
263.802	82.25
264.035	83.25
264.267	84.25
264.499	90.25
264.732	87.25
264.964	81.25
265.197	74.25
265.429	77.25
265.661	71.25
265.894	69.25
266.126	82.25
266.358	56.25
266.591	83.25
266.823	85.25
267.055	75.25
267.287	68.25
267.52	83.25
267.752	82.25
267.984	82.25
268.216	77.25
268.448	74.25
268.681	78.25
268.913	81.25
269.145	82.25
269.377	90.25
269.609	81.25
269.841	86.25
270.073	75.25
270.306	74.25
270.538	88.25
270.77	81.25
271.002	81.25
271.234	83.25
271.466	75.25
271.698	70.25
271.93	74.25
272.162	100.25
272.394	84.25
272.626	75.25
272.858	92.25
273.09	93.25
273.322	81.25
273.553	83.25
273.785	75.25
274.017	87.25
274.249	91.25
274.481	84.25
274.713	85.25
274.945	86.25
275.176	75.25
275.408	85.25
275.64	94.25
275.872	72.25
276.104	85.25
276.335	89.25
276.567	100.25
276.799	104.25
277.031	101.25
277.262	73.25
277.494	93.25
277.726	80.25
277.957	78.25
278.189	88.25
278.421	85.25
278.652	74.25
278.884	75.25
279.115	77.25
279.347	66.25
279.579	74.25
279.81	89.25
280.042	78.25
280.273	71.25
280.505	86.25
280.736	75.25
280.968	77.25
281.199	83.25
281.431	85.25
281.662	81.25
281.894	92.25
282.125	91.25
282.356	92.25
282.588	127.25
282.819	108.25
283.051	63.25
283.282	79.25
283.513	81.25
283.745	81.25
283.976	94.25
284.207	102.25
284.439	70.25
284.67	92.25
284.901	90.25
285.132	71.25
285.364	77.25
285.595	92.25
285.826	81.25
286.057	100.25
286.288	100.25
286.52	87.25
286.751	85.25
286.982	86.25
287.213	68.25
287.444	82.25
287.675	79.25
287.906	83.25
288.138	86.25
288.369	90.25
288.6	77.25
288.831	94.25
289.062	81.25
289.293	92.25
289.524	90.25
289.755	84.25
289.986	89.25
290.217	96.25
290.448	94.25
290.679	83.25
290.91	89.25
291.141	73.25
291.371	90.25
291.602	81.25
291.833	78.25
292.064	81.25
292.295	73.25
292.526	86.25
292.757	74.25
292.987	74.25
293.218	71.25
293.449	89.25
293.68	95.25
293.91	84.25
294.141	80.25
294.372	83.25
294.603	92.25
294.833	93.25
295.064	91.25
295.295	84.25
295.525	94.25
295.756	91.25
295.987	109.25
296.217	122.25
296.448	116.25
296.679	101.25
296.909	86.25
297.14	88.25
297.37	82.25
297.601	82.25
297.831	77.25
298.062	83.25
298.292	76.25
298.523	86.25
298.753	91.25
298.984	97.25
299.214	92.25
299.445	98.25
299.675	87.25
299.905	101.25
300.136	91.25
300.366	92.25
300.597	101.25
300.827	92.25
301.057	93.25
301.288	85.25
301.518	83.25
301.748	86.25
301.979	92.25
302.209	94.25
302.439	80.25
302.669	76.25
302.9	67.25
303.13	84.25
303.36	78.25
303.59	84.25
303.82	85.25
304.051	72.25
304.281	90.25
304.511	93.25
304.741	83.25
304.971	95.25
305.201	89.25
305.431	91.25
305.661	101.25
305.891	82.25
306.121	80.25
306.352	90.25
306.582	102.25
306.812	90.25
307.042	84.25
307.272	93.25
307.502	92.25
307.731	77.25
307.961	103.25
308.191	95.25
308.421	81.25
308.651	90.25
308.881	87.25
309.111	82.25
309.341	89.25
309.571	93.25
309.8	90.25
310.03	83.25
310.26	91.25
310.49	93.25
310.72	96.25
310.949	97.25
311.179	109.25
311.409	86.25
311.639	86.25
311.868	95.25
312.098	84.25
312.328	90.25
312.557	75.25
312.787	78.25
313.017	102.25
313.246	98.25
313.476	95.25
313.706	90.25
313.935	95.25
314.165	99.25
314.394	88.25
314.624	91.25
314.853	92.25
315.083	82.25
315.312	91.25
315.542	90.25
315.771	82.25
316.001	86.25
316.23	83.25
316.46	83.25
316.689	88.25
316.919	81.25
317.148	93.25
317.377	95.25
317.607	88.25
317.836	90.25
318.065	88.25
318.295	94.25
318.524	87.25
318.753	88.25
318.983	86.25
319.212	101.25
319.441	106.25
319.67	92.25
319.9	79.25
320.129	84.25
320.358	76.25
320.587	94.25
320.816	102.25
321.046	92.25
321.275	95.25
321.504	84.25
321.733	91.25
321.962	97.25
322.191	91.25
322.42	96.25
322.649	104.25
322.878	95.25
323.108	105.25
323.337	92.25
323.566	128.25
323.795	147.25
324.024	182.25
324.253	349.25
324.482	740.25
324.71	1446.25
324.939	1866.25
325.168	685.25
325.397	212.25
325.626	125.25
325.855	111.25
326.084	113.25
326.313	106.25
326.542	136.25
326.77	233.25
326.999	422.25
327.228	862.25
327.457	1518.25
327.686	1182.25
327.914	317.25
328.143	171.25
328.372	137.25
328.6	108.25
328.829	122.25
329.058	121.25
329.287	118.25
329.515	102.25
329.744	87.25
329.972	94.25
330.201	102.25
330.43	91.25
330.658	99.25
330.887	108.25
331.115	116.25
331.344	108.25
331.572	91.25
331.801	112.25
332.03	99.25
332.258	96.25
332.486	75.25
332.715	84.25
332.943	87.25
333.172	77.25
333.4	97.25
333.629	94.25
333.857	92.25
334.085	117.25
334.314	96.25
334.542	102.25
334.771	95.25
334.999	81.25
335.227	88.25
335.455	96.25
335.684	103.25
335.912	98.25
336.14	105.25
336.369	85.25
336.597	106.25
336.825	97.25
337.053	106.25
337.281	98.25
337.51	92.25
337.738	86.25
337.966	81.25
338.194	85.25
338.422	101.25
338.65	84.25
338.878	95.25
339.106	100.25
339.334	94.25
339.562	85.25
339.79	97.25
340.018	82.25
340.246	93.25
340.474	94.25
340.702	92.25
340.93	94.25
341.158	75.25
341.386	82.25
341.614	77.25
341.842	95.25
342.07	92.25
342.298	81.25
342.526	86.25
342.754	91.25
342.981	95.25
343.209	74.25
343.437	93.25
343.665	90.25
343.893	75.25
344.12	101.25
344.348	93.25
344.576	91.25
344.804	93.25
345.031	90.25
345.259	97.25
345.487	95.25
345.714	94.25
345.942	79.25
346.17	78.25
346.397	84.25
346.625	89.25
346.853	81.25
347.08	91.25
347.308	83.25
347.535	91.25
347.763	91.25
347.99	87.25
348.218	107.25
348.445	106.25
348.673	99.25
348.9	87.25
349.128	100.25
349.355	79.25
349.583	98.25
349.81	88.25
350.037	87.25
350.265	104.25
350.492	97.25
350.72	100.25
350.947	98.25
351.174	102.25
351.402	97.25
351.629	93.25
351.856	102.25
352.083	94.25
352.311	102.25
352.538	91.25
352.765	98.25
352.992	106.25
353.22	112.25
353.447	91.25
353.674	96.25
353.901	93.25
354.128	93.25
354.355	93.25
354.583	89.25
354.81	98.25
355.037	90.25
355.264	87.25
355.491	102.25
355.718	95.25
355.945	96.25
356.172	94.25
356.399	90.25
356.626	103.25
356.853	87.25
357.08	93.25
357.307	91.25
357.534	97.25
357.761	89.25
357.988	93.25
358.215	91.25
358.441	88.25
358.668	102.25
358.895	67.25
359.122	89.25
359.349	92.25
359.576	89.25
359.802	84.25
360.029	103.25
360.256	105.25
360.483	88.25
360.709	96.25
360.936	83.25
361.163	98.25
361.39	84.25
361.616	78.25
361.843	91.25
362.07	95.25
362.296	73.25
362.523	98.25
362.749	84.25
362.976	99.25
363.203	93.25
363.429	87.25
363.656	93.25
363.882	97.25
364.109	93.25
364.335	70.25
364.562	93.25
364.788	85.25
365.015	85.25
365.241	84.25
365.468	118.25
365.694	94.25
365.92	94.25
366.147	86.25
366.373	78.25
366.599	72.25
366.826	75.25
367.052	75.25
367.278	81.25
367.505	95.25
367.731	78.25
367.957	94.25
368.184	91.25
368.41	91.25
368.636	91.25
368.862	97.25
369.089	95.25
369.315	89.25
369.541	79.25
369.767	89.25
369.993	89.25
370.219	93.25
370.445	90.25
370.672	85.25
370.898	85.25
371.124	91.25
371.35	78.25
371.576	81.25
371.802	76.25
372.028	93.25
372.254	92.25
372.48	83.25
372.706	73.25
372.932	87.25
373.158	90.25
373.384	91.25
373.61	97.25
373.835	80.25
374.061	83.25
374.287	95.25
374.513	105.25
374.739	97.25
374.965	85.25
375.191	83.25
375.416	89.25
375.642	91.25
375.868	93.25
376.094	76.25
376.319	75.25
376.545	96.25
376.771	85.25
376.997	79.25
377.222	92.25
377.448	83.25
377.674	91.25
377.899	94.25
378.125	86.25
378.35	93.25
378.576	84.25
378.802	95.25
379.027	77.25
379.253	87.25
379.478	95.25
379.704	99.25
379.929	96.25
380.155	95.25
380.38	85.25
380.606	81.25
380.831	94.25
381.057	95.25
381.282	98.25
381.507	98.25
381.733	90.25
381.958	93.25
382.184	90.25
382.409	100.25
382.634	99.25
382.86	97.25
383.085	95.25
383.31	109.25
383.535	104.25
383.761	106.25
383.986	108.25
384.211	105.25
384.436	101.25
384.662	103.25
384.887	118.25
385.112	110.25
385.337	99.25
385.562	106.25
385.787	122.25
386.013	108.25
386.238	114.25
386.463	109.25
386.688	107.25
386.913	98.25
387.138	125.25
387.363	109.25
387.588	113.25
387.813	100.25
388.038	105.25
388.263	123.25
388.488	115.25
388.713	98.25
388.938	85.25
389.163	84.25
389.387	104.25
389.612	101.25
389.837	80.25
390.062	83.25
390.287	78.25
390.512	97.25
390.736	76.25
390.961	93.25
391.186	97.25
391.411	103.25
391.636	85.25
391.86	99.25
392.085	80.25
392.31	83.25
392.534	90.25
392.759	83.25
392.984	91.25
393.208	86.25
393.433	84.25
393.658	97.25
393.882	75.25
394.107	84.25
394.331	85.25
394.556	79.25
394.78	90.25
395.005	94.25
395.229	101.25
395.454	80.25
395.678	78.25
395.903	73.25
396.127	74.25
396.352	90.25
396.576	86.25
396.801	95.25
397.025	83.25
397.249	86.25
397.474	69.25
397.698	86.25
397.922	76.25
398.147	91.25
398.371	84.25
398.595	94.25
398.82	90.25
399.044	80.25
399.268	89.25
399.492	96.25
399.717	90.25
399.941	93.25
400.165	82.25
400.389	93.25
400.613	87.25
400.837	97.25
401.062	87.25
401.286	96.25
401.51	78.25
401.734	84.25
401.958	93.25
402.182	123.25
402.406	135.25
402.63	106.25
402.854	68.25
403.078	99.25
403.302	85.25
403.526	77.25
403.75	73.25
403.974	93.25
404.198	84.25
404.422	73.25
404.645	86.25
404.869	86.25
405.093	83.25
405.317	88.25
405.541	74.25
405.765	90.25
405.988	112.25
406.212	153.25
406.436	193.25
406.66	137.25
406.883	96.25
407.107	82.25
407.331	80.25
407.555	84.25
407.778	91.25
408.002	92.25
408.226	107.25
408.449	76.25
408.673	83.25
408.896	77.25
409.12	89.25
409.344	96.25
409.567	94.25
409.791	97.25
410.014	92.25
410.238	86.25
410.461	84.25
410.685	80.25
410.908	92.25
411.132	98.25
411.355	97.25
411.578	86.25
411.802	86.25
412.025	85.25
412.249	83.25
412.472	90.25
412.695	79.25
412.919	91.25
413.142	73.25
413.365	88.25
413.589	85.25
413.812	85.25
414.035	91.25
414.258	95.25
414.482	97.25
414.705	87.25
414.928	93.25
415.151	83.25
415.374	86.25
415.597	86.25
415.821	89.25
416.044	81.25
416.267	82.25
416.49	87.25
416.713	82.25
416.936	86.25
417.159	77.25
417.382	75.25
417.605	90.25
417.828	99.25
418.051	95.25
418.274	87.25
418.497	75.25
418.72	79.25
418.943	95.25
419.166	94.25
419.389	91.25
419.611	90.25
419.834	83.25
420.057	81.25
420.28	83.25
420.503	82.25
420.726	86.25
420.948	91.25
421.171	72.25
421.394	82.25
421.617	96.25
421.839	93.25
422.062	88.25
422.285	81.25
422.507	89.25
422.73	82.25
422.953	104.25
423.175	86.25
423.398	71.25
423.621	81.25
423.843	90.25
424.066	79.25
424.288	75.25
424.511	80.25
424.733	83.25
424.956	93.25
425.178	88.25
425.401	109.25
425.623	82.25
425.846	86.25
426.068	94.25
426.291	93.25
426.513	84.25
426.735	85.25
426.958	82.25
427.18	100.25
427.402	107.25
427.625	135.25
427.847	117.25
428.069	103.25
428.292	98.25
428.514	79.25
428.736	87.25
428.958	74.25
429.181	80.25
429.403	76.25
429.625	76.25
429.847	99.25
430.069	83.25
430.292	90.25
430.514	82.25
430.736	84.25
430.958	81.25
431.18	69.25
431.402	80.25
431.624	90.25
431.846	82.25
432.068	82.25
432.29	97.25
432.512	90.25
432.734	92.25
432.956	91.25
433.178	93.25
433.4	85.25
433.622	104.25
433.844	86.25
434.066	85.25
434.287	80.25
434.509	92.25
434.731	80.25
434.953	84.25
435.175	100.25
435.397	102.25
435.618	78.25
435.84	96.25
436.062	119.25
436.284	106.25
436.505	100.25
436.727	99.25
436.949	94.25
437.17	78.25
437.392	77.25
437.614	77.25
437.835	85.25
438.057	96.25
438.278	93.25
438.5	86.25
438.721	115.25
438.943	95.25
439.165	95.25
439.386	87.25
439.608	81.25
439.829	90.25
440.05	121.25
440.272	123.25
440.493	86.25
440.715	74.25
440.936	86.25
441.158	104.25
441.379	75.25
441.6	83.25
441.822	80.25
442.043	92.25
442.264	103.25
442.486	95.25
442.707	71.25
442.928	90.25
443.149	117.25
443.371	121.25
443.592	99.25
443.813	80.25
444.034	97.25
444.255	84.25
444.476	78.25
444.698	104.25
444.919	88.25
445.14	105.25
445.361	106.25
445.582	105.25
445.803	111.25
446.024	120.25
446.245	123.25
446.466	87.25
446.687	96.25
446.908	94.25
447.129	92.25
447.35	83.25
447.571	93.25
447.792	81.25
448.013	86.25
448.234	93.25
448.455	95.25
448.675	103.25
448.896	106.25
449.117	76.25
449.338	82.25
449.559	117.25
449.779	112.25
450	92.25
450.221	86.25
450.442	71.25
450.662	89.25
450.883	115.25
451.104	111.25
451.324	105.25
451.545	85.25
451.766	82.25
451.986	85.25
452.207	79.25
452.428	93.25
452.648	89.25
452.869	103.25
453.089	107.25
453.31	100.25
453.53	93.25
453.751	82.25
453.971	94.25
454.192	112.25
454.412	91.25
454.633	94.25
454.853	91.25
455.073	86.25
455.294	86.25
455.514	85.25
455.734	96.25
455.955	83.25
456.175	81.25
456.395	73.25
456.616	76.25
456.836	79.25
457.056	79.25
457.276	86.25
457.497	75.25
457.717	77.25
457.937	71.25
458.157	86.25
458.377	93.25
458.598	87.25
458.818	135.25
459.038	131.25
459.258	110.25
459.478	89.25
459.698	74.25
459.918	98.25
460.138	96.25
460.358	86.25
460.578	84.25
460.798	69.25
461.018	82.25
461.238	91.25
461.458	74.25
461.678	83.25
461.898	77.25
462.118	84.25
462.338	86.25
462.558	93.25
462.777	86.25
462.997	85.25
463.217	92.25
463.437	98.25
463.657	103.25
463.876	76.25
464.096	92.25
464.316	88.25
464.536	82.25
464.755	91.25
464.975	107.25
465.195	134.25
465.414	144.25
465.634	94.25
465.854	91.25
466.073	83.25
466.293	79.25
466.512	72.25
466.732	81.25
466.951	85.25
467.171	91.25
467.391	86.25
467.61	103.25
467.829	83.25
468.049	80.25
468.268	93.25
468.488	78.25
468.707	76.25
468.927	82.25
469.146	91.25
469.365	81.25
469.585	83.25
469.804	102.25
470.023	88.25
470.243	91.25
470.462	93.25
470.681	93.25
470.901	95.25
471.12	92.25
471.339	94.25
471.558	94.25
471.777	94.25
471.997	82.25
472.216	77.25
472.435	102.25
472.654	87.25
472.873	79.25
473.092	83.25
473.311	91.25
473.53	78.25
473.749	81.25
473.968	107.25
474.187	87.25
474.406	86.25
474.625	83.25
474.844	82.25
475.063	83.25
475.282	90.25
475.501	82.25
475.72	72.25
475.939	83.25
476.158	82.25
476.377	82.25
476.596	84.25
476.814	77.25
477.033	85.25
477.252	91.25
477.471	76.25
477.69	70.25
477.908	90.25
478.127	78.25
478.346	90.25
478.564	101.25
478.783	96.25
479.002	91.25
479.22	86.25
479.439	98.25
479.658	90.25
479.876	91.25
480.095	92.25
480.313	89.25
480.532	91.25
480.751	85.25
480.969	90.25
481.188	112.25
481.406	102.25
481.624	98.25
481.843	80.25
482.061	73.25
482.28	81.25
482.498	87.25
482.717	84.25
482.935	96.25
483.153	84.25
483.372	70.25
483.59	92.25
483.808	96.25
484.027	93.25
484.245	90.25
484.463	83.25
484.681	114.25
484.9	93.25
485.118	96.25
485.336	86.25
485.554	99.25
485.772	94.25
485.99	96.25
486.209	113.25
486.427	114.25
486.645	114.25
486.863	110.25
487.081	113.25
487.299	106.25
487.517	99.25
487.735	94.25
487.953	104.25
488.171	76.25
488.389	88.25
488.607	90.25
488.825	87.25
489.043	85.25
489.261	89.25
489.479	89.25
489.696	83.25
489.914	83.25
490.132	90.25
490.35	83.25
490.568	94.25
490.786	77.25
491.003	80.25
491.221	70.25
491.439	79.25
491.657	81.25
491.874	92.25
492.092	80.25
492.31	97.25
492.527	86.25
492.745	86.25
492.963	88.25
493.18	83.25
493.398	82.25
493.615	98.25
493.833	94.25
494.05	98.25
494.268	100.25
494.485	91.25
494.703	95.25
494.92	82.25
495.138	92.25
495.355	78.25
495.573	109.25
495.79	93.25
496.008	95.25
496.225	98.25
496.442	93.25
496.66	89.25
496.877	94.25
497.094	99.25
497.312	86.25
497.529	75.25
497.746	88.25
497.963	87.25
498.181	77.25
498.398	81.25
498.615	98.25
498.832	89.25
499.049	99.25
499.267	94.25
499.484	84.25
499.701	85.25
499.918	91.25
500.135	74.25
500.352	82.25
500.569	91.25
500.786	87.25
501.003	86.25
501.22	93.25
501.437	100.25
501.654	88.25
501.871	93.25
502.088	93.25
502.305	93.25
502.522	90.25
502.739	103.25
502.956	91.25
503.172	75.25
503.389	79.25
503.606	96.25
503.823	111.25
504.04	91.25
504.256	81.25
504.473	81.25
504.69	70.25
504.907	91.25
505.123	66.25
505.34	90.25
505.557	99.25
505.773	87.25
505.99	89.25
506.207	86.25
506.423	96.25
506.64	99.25
506.856	87.25
507.073	93.25
507.289	90.25
507.506	95.25
507.722	105.25
507.939	86.25
508.155	92.25
508.372	86.25
508.588	84.25
508.805	86.25
509.021	93.25
509.238	104.25
509.454	89.25
509.67	97.25
509.887	99.25
510.103	124.25
510.319	198.25
510.536	720.25
510.752	2043.25
510.968	587.25
511.184	149.25
511.401	99.25
511.617	95.25
511.833	100.25
512.049	84.25
512.265	78.25
512.481	87.25
512.698	80.25
512.914	84.25
513.13	99.25
513.346	104.25
513.562	94.25
513.778	93.25
513.994	102.25
514.21	106.25
514.426	110.25
514.642	131.25
514.858	109.25
515.074	143.25
515.29	406.25
515.506	1259.25
515.721	471.25
515.937	126.25
516.153	103.25
516.369	95.25
516.585	91.25
516.801	85.25
517.016	87.25
517.232	81.25
