Data from Uncirc_2004_H10_HRD10591_00074.txt Node
Date: Wed Jan 03 10:32:27 EST 2024
User: Yrep
Spectrometer: HR+D1059
Trigger mode: 1
Integration Time (sec): 1.000000E-1
Scans to average: 1
Electric dark correction enabled: true
Nonlinearity correction enabled: false
Boxcar width: 0
XAxis mode: Wavelengths
Number of Pixels in Spectrum: 2048
>>>>>Begin Spectral Data<<<<<
223.165	-11.88
223.4	-11.88
223.635	-11.88
223.869	-15.88
224.104	-15.88
224.338	-13.88
224.573	-13.88
224.808	-18.88
225.042	-1.88
225.277	-10.88
225.511	-10.88
225.746	5.12
225.98	13.12
226.215	19.12
226.449	8.12
226.683	7.12
226.918	29.12
227.152	32.12
227.387	41.12
227.621	43.12
227.856	50.12
228.09	50.12
228.324	70.12
228.559	81.12
228.793	56.12
229.027	63.12
229.262	63.12
229.496	60.12
229.73	91.12
229.964	85.12
230.199	83.12
230.433	87.12
230.667	98.12
230.901	73.12
231.136	82.12
231.37	90.12
231.604	94.12
231.838	78.12
232.072	82.12
232.306	84.12
232.541	72.12
232.775	71.12
233.009	84.12
233.243	80.12
233.477	86.12
233.711	81.12
233.945	82.12
234.179	86.12
234.413	80.12
234.647	103.12
234.881	94.12
235.115	94.12
235.349	77.12
235.583	82.12
235.817	81.12
236.051	71.12
236.285	70.12
236.519	84.12
236.753	95.12
236.987	76.12
237.221	84.12
237.455	90.12
237.689	67.12
237.922	73.12
238.156	81.12
238.39	90.12
238.624	77.12
238.858	83.12
239.091	90.12
239.325	74.12
239.559	75.12
239.793	99.12
240.027	86.12
240.26	82.12
240.494	95.12
240.728	80.12
240.961	87.12
241.195	70.12
241.429	79.12
241.662	81.12
241.896	71.12
242.13	78.12
242.363	67.12
242.597	81.12
242.83	79.12
243.064	87.12
243.298	83.12
243.531	77.12
243.765	89.12
243.998	78.12
244.232	91.12
244.465	89.12
244.699	86.12
244.932	77.12
245.166	101.12
245.399	88.12
245.633	76.12
245.866	87.12
246.099	83.12
246.333	85.12
246.566	95.12
246.8	82.12
247.033	82.12
247.266	92.12
247.5	87.12
247.733	86.12
247.966	80.12
248.2	85.12
248.433	91.12
248.666	90.12
248.899	86.12
249.133	95.12
249.366	87.12
249.599	81.12
249.832	84.12
250.066	79.12
250.299	84.12
250.532	89.12
250.765	75.12
250.998	75.12
251.231	82.12
251.465	83.12
251.698	81.12
251.931	84.12
252.164	77.12
252.397	81.12
252.63	78.12
252.863	74.12
253.096	98.12
253.329	78.12
253.562	103.12
253.795	82.12
254.028	89.12
254.261	96.12
254.494	92.12
254.727	77.12
254.96	80.12
255.193	79.12
255.426	86.12
255.659	87.12
255.892	82.12
256.124	89.12
256.357	105.12
256.59	84.12
256.823	75.12
257.056	75.12
257.289	75.12
257.521	91.12
257.754	80.12
257.987	67.12
258.22	71.12
258.452	70.12
258.685	93.12
258.918	100.12
259.151	83.12
259.383	84.12
259.616	73.12
259.849	78.12
260.081	93.12
260.314	92.12
260.547	98.12
260.779	84.12
261.012	86.12
261.244	91.12
261.477	71.12
261.71	98.12
261.942	119.12
262.175	127.12
262.407	84.12
262.64	89.12
262.872	101.12
263.105	81.12
263.337	95.12
263.57	85.12
263.802	74.12
264.035	89.12
264.267	77.12
264.499	79.12
264.732	81.12
264.964	81.12
265.197	83.12
265.429	75.12
265.661	77.12
265.894	82.12
266.126	86.12
266.358	86.12
266.591	85.12
266.823	90.12
267.055	75.12
267.287	90.12
267.52	76.12
267.752	88.12
267.984	73.12
268.216	79.12
268.448	95.12
268.681	82.12
268.913	77.12
269.145	85.12
269.377	91.12
269.609	89.12
269.841	83.12
270.073	78.12
270.306	89.12
270.538	94.12
270.77	95.12
271.002	83.12
271.234	96.12
271.466	82.12
271.698	95.12
271.93	76.12
272.162	78.12
272.394	83.12
272.626	91.12
272.858	90.12
273.09	79.12
273.322	80.12
273.553	92.12
273.785	84.12
274.017	84.12
274.249	91.12
274.481	92.12
274.713	86.12
274.945	84.12
275.176	81.12
275.408	92.12
275.64	90.12
275.872	78.12
276.104	80.12
276.335	86.12
276.567	113.12
276.799	112.12
277.031	112.12
277.262	97.12
277.494	80.12
277.726	96.12
277.957	79.12
278.189	98.12
278.421	85.12
278.652	90.12
278.884	99.12
279.115	97.12
279.347	102.12
279.579	81.12
279.81	91.12
280.042	95.12
280.273	80.12
280.505	81.12
280.736	82.12
280.968	93.12
281.199	88.12
281.431	93.12
281.662	88.12
281.894	91.12
282.125	93.12
282.356	115.12
282.588	148.12
282.819	120.12
283.051	87.12
283.282	85.12
283.513	90.12
283.745	94.12
283.976	84.12
284.207	92.12
284.439	99.12
284.67	88.12
284.901	79.12
285.132	67.12
285.364	75.12
285.595	85.12
285.826	90.12
286.057	87.12
286.288	84.12
286.52	86.12
286.751	92.12
286.982	97.12
287.213	77.12
287.444	82.12
287.675	93.12
287.906	94.12
288.138	84.12
288.369	87.12
288.6	82.12
288.831	79.12
289.062	88.12
289.293	85.12
289.524	97.12
289.755	92.12
289.986	87.12
290.217	100.12
290.448	86.12
290.679	96.12
290.91	87.12
291.141	101.12
291.371	92.12
291.602	87.12
291.833	85.12
292.064	85.12
292.295	83.12
292.526	94.12
292.757	91.12
292.987	88.12
293.218	91.12
293.449	89.12
293.68	94.12
293.91	84.12
294.141	92.12
294.372	95.12
294.603	98.12
294.833	89.12
295.064	80.12
295.295	88.12
295.525	90.12
295.756	111.12
295.987	100.12
296.217	127.12
296.448	115.12
296.679	93.12
296.909	107.12
297.14	109.12
297.37	91.12
297.601	84.12
297.831	89.12
298.062	91.12
298.292	90.12
298.523	95.12
298.753	91.12
298.984	85.12
299.214	86.12
299.445	87.12
299.675	96.12
299.905	88.12
300.136	99.12
300.366	80.12
300.597	83.12
300.827	74.12
301.057	98.12
301.288	105.12
301.518	99.12
301.748	92.12
301.979	90.12
302.209	85.12
302.439	88.12
302.669	87.12
302.9	100.12
303.13	92.12
303.36	95.12
303.59	98.12
303.82	95.12
304.051	97.12
304.281	91.12
304.511	101.12
304.741	94.12
304.971	100.12
305.201	111.12
305.431	97.12
305.661	106.12
305.891	85.12
306.121	99.12
306.352	93.12
306.582	111.12
306.812	96.12
307.042	82.12
307.272	103.12
307.502	106.12
307.731	71.12
307.961	97.12
308.191	93.12
308.421	94.12
308.651	91.12
308.881	95.12
309.111	95.12
309.341	88.12
309.571	106.12
309.8	105.12
310.03	100.12
310.26	95.12
310.49	98.12
310.72	101.12
310.949	105.12
311.179	100.12
311.409	97.12
311.639	90.12
311.868	88.12
312.098	105.12
312.328	87.12
312.557	115.12
312.787	94.12
313.017	98.12
313.246	91.12
313.476	98.12
313.706	88.12
313.935	100.12
314.165	103.12
314.394	120.12
314.624	115.12
314.853	89.12
315.083	83.12
315.312	93.12
315.542	83.12
315.771	98.12
316.001	87.12
316.23	91.12
316.46	109.12
316.689	103.12
316.919	97.12
317.148	93.12
317.377	98.12
317.607	90.12
317.836	90.12
318.065	101.12
318.295	83.12
318.524	87.12
318.753	97.12
318.983	79.12
319.212	106.12
319.441	106.12
319.67	102.12
319.9	101.12
320.129	90.12
320.358	94.12
320.587	89.12
320.816	94.12
321.046	92.12
321.275	100.12
321.504	96.12
321.733	112.12
321.962	115.12
322.191	98.12
322.42	108.12
322.649	116.12
322.878	106.12
323.108	123.12
323.337	121.12
323.566	161.12
323.795	162.12
324.024	208.12
324.253	412.12
324.482	875.12
324.71	1787.12
324.939	2321.12
325.168	859.12
325.397	254.12
325.626	157.12
325.855	129.12
326.084	120.12
326.313	138.12
326.542	164.12
326.77	236.12
326.999	501.12
327.228	997.12
327.457	1818.12
327.686	1395.12
327.914	381.12
328.143	196.12
328.372	158.12
328.6	121.12
328.829	120.12
329.058	138.12
329.287	117.12
329.515	115.12
329.744	95.12
329.972	95.12
330.201	120.12
330.43	106.12
330.658	118.12
330.887	142.12
331.115	124.12
331.344	96.12
331.572	104.12
331.801	91.12
332.03	85.12
332.258	92.12
332.486	81.12
332.715	91.12
332.943	100.12
333.172	100.12
333.4	99.12
333.629	107.12
333.857	126.12
334.085	105.12
334.314	117.12
334.542	97.12
334.771	106.12
334.999	90.12
335.227	102.12
335.455	78.12
335.684	93.12
335.912	91.12
336.14	98.12
336.369	106.12
336.597	103.12
336.825	99.12
337.053	85.12
337.281	91.12
337.51	96.12
337.738	103.12
337.966	100.12
338.194	100.12
338.422	98.12
338.65	92.12
338.878	92.12
339.106	85.12
339.334	73.12
339.562	90.12
339.79	82.12
340.018	89.12
340.246	86.12
340.474	99.12
340.702	91.12
340.93	88.12
341.158	92.12
341.386	93.12
341.614	88.12
341.842	97.12
342.07	101.12
342.298	103.12
342.526	96.12
342.754	76.12
342.981	87.12
343.209	90.12
343.437	92.12
343.665	95.12
343.893	85.12
344.12	101.12
344.348	92.12
344.576	94.12
344.804	88.12
345.031	98.12
345.259	102.12
345.487	101.12
345.714	92.12
345.942	107.12
346.17	91.12
346.397	89.12
346.625	88.12
346.853	90.12
347.08	96.12
347.308	107.12
347.535	94.12
347.763	114.12
347.99	93.12
348.218	113.12
348.445	115.12
348.673	99.12
348.9	86.12
349.128	95.12
349.355	92.12
349.583	75.12
349.81	91.12
350.037	98.12
350.265	98.12
350.492	96.12
350.72	120.12
350.947	97.12
351.174	118.12
351.402	116.12
351.629	93.12
351.856	104.12
352.083	102.12
352.311	106.12
352.538	103.12
352.765	109.12
352.992	116.12
353.22	114.12
353.447	100.12
353.674	96.12
353.901	112.12
354.128	105.12
354.355	107.12
354.583	109.12
354.81	108.12
355.037	89.12
355.264	104.12
355.491	98.12
355.718	92.12
355.945	99.12
356.172	103.12
356.399	111.12
356.626	97.12
356.853	99.12
357.08	98.12
357.307	81.12
357.534	83.12
357.761	104.12
357.988	107.12
358.215	107.12
358.441	113.12
358.668	92.12
358.895	85.12
359.122	96.12
359.349	90.12
359.576	103.12
359.802	116.12
360.029	104.12
360.256	111.12
360.483	100.12
360.709	92.12
360.936	95.12
361.163	89.12
361.39	97.12
361.616	87.12
361.843	104.12
362.07	99.12
362.296	114.12
362.523	109.12
362.749	98.12
362.976	87.12
363.203	97.12
363.429	91.12
363.656	96.12
363.882	91.12
364.109	104.12
364.335	104.12
364.562	116.12
364.788	103.12
365.015	96.12
365.241	87.12
365.468	119.12
365.694	95.12
365.92	112.12
366.147	87.12
366.373	87.12
366.599	96.12
366.826	94.12
367.052	88.12
367.278	99.12
367.505	102.12
367.731	91.12
367.957	108.12
368.184	87.12
368.41	98.12
368.636	109.12
368.862	113.12
369.089	103.12
369.315	105.12
369.541	100.12
369.767	96.12
369.993	76.12
370.219	87.12
370.445	88.12
370.672	77.12
370.898	96.12
371.124	102.12
371.35	95.12
371.576	102.12
371.802	95.12
372.028	91.12
372.254	85.12
372.48	103.12
372.706	81.12
372.932	104.12
373.158	77.12
373.384	87.12
373.61	89.12
373.835	106.12
374.061	99.12
374.287	99.12
374.513	81.12
374.739	102.12
374.965	104.12
375.191	98.12
375.416	87.12
375.642	88.12
375.868	96.12
376.094	89.12
376.319	82.12
376.545	105.12
376.771	92.12
376.997	108.12
377.222	100.12
377.448	98.12
377.674	97.12
377.899	97.12
378.125	86.12
378.35	98.12
378.576	97.12
378.802	100.12
379.027	99.12
379.253	98.12
379.478	103.12
379.704	89.12
379.929	100.12
380.155	91.12
380.38	101.12
380.606	97.12
380.831	94.12
381.057	97.12
381.282	100.12
381.507	93.12
381.733	96.12
381.958	99.12
382.184	95.12
382.409	109.12
382.634	108.12
382.86	99.12
383.085	118.12
383.31	107.12
383.535	102.12
383.761	107.12
383.986	99.12
384.211	102.12
384.436	101.12
384.662	97.12
384.887	102.12
385.112	95.12
385.337	103.12
385.562	117.12
385.787	117.12
386.013	108.12
386.238	121.12
386.463	115.12
386.688	117.12
386.913	99.12
387.138	115.12
387.363	99.12
387.588	113.12
387.813	101.12
388.038	105.12
388.263	105.12
388.488	115.12
388.713	102.12
388.938	95.12
389.163	104.12
389.387	99.12
389.612	116.12
389.837	102.12
390.062	89.12
390.287	81.12
390.512	102.12
390.736	94.12
390.961	101.12
391.186	100.12
391.411	96.12
391.636	98.12
391.86	96.12
392.085	101.12
392.31	97.12
392.534	79.12
392.759	77.12
392.984	91.12
393.208	94.12
393.433	100.12
393.658	95.12
393.882	95.12
394.107	93.12
394.331	86.12
394.556	76.12
394.78	94.12
395.005	112.12
395.229	97.12
395.454	99.12
395.678	98.12
395.903	93.12
396.127	98.12
396.352	88.12
396.576	82.12
396.801	86.12
397.025	90.12
397.249	88.12
397.474	94.12
397.698	94.12
397.922	81.12
398.147	81.12
398.371	83.12
398.595	100.12
398.82	89.12
399.044	97.12
399.268	107.12
399.492	79.12
399.717	95.12
399.941	98.12
400.165	98.12
400.389	85.12
400.613	88.12
400.837	80.12
401.062	88.12
401.286	99.12
401.51	100.12
401.734	106.12
401.958	105.12
402.182	130.12
402.406	161.12
402.63	108.12
402.854	99.12
403.078	102.12
403.302	97.12
403.526	89.12
403.75	106.12
403.974	108.12
404.198	100.12
404.422	98.12
404.645	97.12
404.869	113.12
405.093	88.12
405.317	102.12
405.541	99.12
405.765	101.12
405.988	102.12
406.212	157.12
406.436	213.12
406.66	146.12
406.883	88.12
407.107	81.12
407.331	91.12
407.555	101.12
407.778	93.12
408.002	89.12
408.226	93.12
408.449	99.12
408.673	108.12
408.896	90.12
409.12	100.12
409.344	95.12
409.567	85.12
409.791	99.12
410.014	100.12
410.238	99.12
410.461	103.12
410.685	104.12
410.908	115.12
411.132	107.12
411.355	102.12
411.578	96.12
411.802	90.12
412.025	84.12
412.249	93.12
412.472	102.12
412.695	88.12
412.919	100.12
413.142	83.12
413.365	106.12
413.589	82.12
413.812	85.12
414.035	98.12
414.258	93.12
414.482	93.12
414.705	96.12
414.928	101.12
415.151	95.12
415.374	114.12
415.597	106.12
415.821	81.12
416.044	100.12
416.267	88.12
416.49	92.12
416.713	92.12
416.936	92.12
417.159	87.12
417.382	89.12
417.605	93.12
417.828	93.12
418.051	83.12
418.274	92.12
418.497	90.12
418.72	106.12
418.943	103.12
419.166	84.12
419.389	89.12
419.611	85.12
419.834	94.12
420.057	88.12
420.28	89.12
420.503	79.12
420.726	86.12
420.948	100.12
421.171	84.12
421.394	97.12
421.617	105.12
421.839	106.12
422.062	105.12
422.285	85.12
422.507	103.12
422.73	91.12
422.953	100.12
423.175	98.12
423.398	79.12
423.621	96.12
423.843	101.12
424.066	92.12
424.288	82.12
424.511	102.12
424.733	91.12
424.956	97.12
425.178	85.12
425.401	101.12
425.623	88.12
425.846	90.12
426.068	95.12
426.291	86.12
426.513	91.12
426.735	89.12
426.958	91.12
427.18	100.12
427.402	133.12
427.625	188.12
427.847	138.12
428.069	104.12
428.292	93.12
428.514	97.12
428.736	87.12
428.958	80.12
429.181	97.12
429.403	83.12
429.625	86.12
429.847	80.12
430.069	80.12
430.292	86.12
430.514	95.12
430.736	91.12
430.958	87.12
431.18	88.12
431.402	92.12
431.624	92.12
431.846	90.12
432.068	87.12
432.29	101.12
432.512	90.12
432.734	92.12
432.956	75.12
433.178	85.12
433.4	99.12
433.622	103.12
433.844	103.12
434.066	93.12
434.287	90.12
434.509	79.12
434.731	102.12
434.953	91.12
435.175	91.12
435.397	94.12
435.618	101.12
435.84	95.12
436.062	112.12
436.284	102.12
436.505	97.12
436.727	98.12
436.949	90.12
437.17	90.12
437.392	98.12
437.614	92.12
437.835	112.12
438.057	109.12
438.278	100.12
438.5	108.12
438.721	116.12
438.943	89.12
439.165	97.12
439.386	96.12
439.608	103.12
439.829	98.12
440.05	131.12
440.272	136.12
440.493	94.12
440.715	85.12
440.936	90.12
441.158	84.12
441.379	84.12
441.6	100.12
441.822	93.12
442.043	86.12
442.264	96.12
442.486	113.12
442.707	87.12
442.928	107.12
443.149	135.12
443.371	134.12
443.592	121.12
443.813	105.12
444.034	109.12
444.255	101.12
444.476	87.12
444.698	101.12
444.919	75.12
445.14	108.12
445.361	134.12
445.582	120.12
445.803	132.12
446.024	138.12
446.245	141.12
446.466	117.12
446.687	103.12
446.908	88.12
447.129	97.12
447.35	102.12
447.571	101.12
447.792	93.12
448.013	99.12
448.234	87.12
448.455	101.12
448.675	104.12
448.896	111.12
449.117	103.12
449.338	102.12
449.559	131.12
449.779	117.12
450	101.12
450.221	84.12
450.442	88.12
450.662	97.12
450.883	103.12
451.104	105.12
451.324	107.12
451.545	99.12
451.766	80.12
451.986	91.12
452.207	100.12
452.428	86.12
452.648	106.12
452.869	99.12
453.089	113.12
453.31	125.12
453.53	98.12
453.751	106.12
453.971	99.12
454.192	120.12
454.412	91.12
454.633	88.12
454.853	100.12
455.073	103.12
455.294	84.12
455.514	91.12
455.734	97.12
455.955	89.12
456.175	91.12
456.395	90.12
456.616	104.12
456.836	94.12
457.056	104.12
457.276	97.12
457.497	79.12
457.717	88.12
457.937	103.12
458.157	89.12
458.377	99.12
458.598	108.12
458.818	148.12
459.038	166.12
459.258	113.12
459.478	83.12
459.698	83.12
459.918	102.12
460.138	101.12
460.358	93.12
460.578	97.12
460.798	98.12
461.018	94.12
461.238	86.12
461.458	84.12
461.678	97.12
461.898	96.12
462.118	99.12
462.338	92.12
462.558	88.12
462.777	89.12
462.997	107.12
463.217	81.12
463.437	98.12
463.657	92.12
463.876	85.12
464.096	88.12
464.316	106.12
464.536	109.12
464.755	101.12
464.975	111.12
465.195	182.12
465.414	161.12
465.634	104.12
465.854	79.12
466.073	100.12
466.293	104.12
466.512	96.12
466.732	90.12
466.951	87.12
467.171	103.12
467.391	106.12
467.61	106.12
467.829	98.12
468.049	94.12
468.268	93.12
468.488	96.12
468.707	98.12
468.927	82.12
469.146	95.12
469.365	85.12
469.585	96.12
469.804	85.12
470.023	94.12
470.243	100.12
470.462	108.12
470.681	110.12
470.901	95.12
471.12	92.12
471.339	99.12
471.558	92.12
471.777	83.12
471.997	92.12
472.216	90.12
472.435	113.12
472.654	99.12
472.873	100.12
473.092	79.12
473.311	95.12
473.53	93.12
473.749	90.12
473.968	83.12
474.187	101.12
474.406	97.12
474.625	92.12
474.844	75.12
475.063	76.12
475.282	85.12
475.501	97.12
475.72	100.12
475.939	101.12
476.158	97.12
476.377	97.12
476.596	96.12
476.814	83.12
477.033	102.12
477.252	101.12
477.471	95.12
477.69	96.12
477.908	97.12
478.127	104.12
478.346	93.12
478.564	90.12
478.783	93.12
479.002	101.12
479.22	82.12
479.439	101.12
479.658	112.12
479.876	110.12
480.095	109.12
480.313	100.12
480.532	95.12
480.751	91.12
480.969	90.12
481.188	129.12
481.406	115.12
481.624	84.12
481.843	97.12
482.061	101.12
482.28	88.12
482.498	97.12
482.717	90.12
482.935	83.12
483.153	82.12
483.372	80.12
483.59	93.12
483.808	108.12
484.027	95.12
484.245	108.12
484.463	88.12
484.681	87.12
484.9	88.12
485.118	100.12
485.336	108.12
485.554	98.12
485.772	100.12
485.99	110.12
486.209	98.12
486.427	95.12
486.645	115.12
486.863	107.12
487.081	88.12
487.299	85.12
487.517	87.12
487.735	101.12
487.953	97.12
488.171	94.12
488.389	91.12
488.607	97.12
488.825	101.12
489.043	84.12
489.261	100.12
489.479	95.12
489.696	99.12
489.914	89.12
490.132	99.12
490.35	96.12
490.568	88.12
490.786	84.12
491.003	97.12
491.221	90.12
491.439	98.12
491.657	97.12
491.874	97.12
492.092	95.12
492.31	101.12
492.527	75.12
492.745	105.12
492.963	95.12
493.18	85.12
493.398	91.12
493.615	95.12
493.833	107.12
494.05	77.12
494.268	91.12
494.485	82.12
494.703	102.12
494.92	87.12
495.138	99.12
495.355	108.12
495.573	95.12
495.79	102.12
496.008	89.12
496.225	99.12
496.442	84.12
496.66	98.12
496.877	90.12
497.094	88.12
497.312	104.12
497.529	84.12
497.746	91.12
497.963	84.12
498.181	92.12
498.398	105.12
498.615	119.12
498.832	114.12
499.049	97.12
499.267	82.12
499.484	94.12
499.701	92.12
499.918	87.12
500.135	94.12
500.352	92.12
500.569	110.12
500.786	95.12
501.003	99.12
501.22	96.12
501.437	101.12
501.654	97.12
501.871	98.12
502.088	95.12
502.305	92.12
502.522	108.12
502.739	85.12
502.956	107.12
503.172	93.12
503.389	103.12
503.606	107.12
503.823	88.12
504.04	89.12
504.256	92.12
504.473	83.12
504.69	87.12
504.907	110.12
505.123	100.12
505.34	84.12
505.557	92.12
505.773	98.12
505.99	93.12
506.207	96.12
506.423	86.12
506.64	80.12
506.856	87.12
507.073	94.12
507.289	91.12
507.506	99.12
507.722	108.12
507.939	110.12
508.155	102.12
508.372	91.12
508.588	93.12
508.805	108.12
509.021	98.12
509.238	109.12
509.454	114.12
509.67	114.12
509.887	111.12
510.103	136.12
510.319	243.12
510.536	848.12
510.752	2651.12
510.968	727.12
511.184	164.12
511.401	103.12
511.617	111.12
511.833	106.12
512.049	101.12
512.265	97.12
512.481	110.12
512.698	106.12
512.914	98.12
513.13	102.12
513.346	95.12
513.562	95.12
513.778	102.12
513.994	85.12
514.21	113.12
