Data from Uncirc_2004_H10_HRD10591_00061.txt Node
Date: Wed Jan 03 10:32:25 EST 2024
User: Yrep
Spectrometer: HR+D1059
Trigger mode: 1
Integration Time (sec): 1.000000E-1
Scans to average: 1
Electric dark correction enabled: true
Nonlinearity correction enabled: false
Boxcar width: 0
XAxis mode: Wavelengths
Number of Pixels in Spectrum: 2048
>>>>>Begin Spectral Data<<<<<
223.165	-25
223.4	-25
223.635	-25
223.869	-7
224.104	-1
224.338	-11
224.573	-26
224.808	-16
225.042	-16
225.277	-9
225.511	-1
225.746	6
225.98	15
226.215	7
226.449	18
226.683	11
226.918	22
227.152	33
227.387	32
227.621	45
227.856	33
228.09	63
228.324	56
228.559	42
228.793	47
229.027	51
229.262	67
229.496	85
229.73	75
229.964	72
230.199	83
230.433	64
230.667	81
230.901	86
231.136	82
231.37	86
231.604	73
231.838	76
232.072	74
232.306	89
232.541	91
232.775	72
233.009	74
233.243	84
233.477	76
233.711	86
233.945	86
234.179	81
234.413	78
234.647	86
234.881	88
235.115	78
235.349	74
235.583	78
235.817	96
236.051	76
236.285	77
236.519	76
236.753	83
236.987	72
237.221	92
237.455	74
237.689	74
237.922	75
238.156	67
238.39	83
238.624	74
238.858	82
239.091	75
239.325	89
239.559	90
239.793	94
240.027	78
240.26	83
240.494	78
240.728	78
240.961	76
241.195	71
241.429	80
241.662	68
241.896	80
242.13	80
242.363	71
242.597	66
242.83	85
243.064	84
243.298	90
243.531	88
243.765	87
243.998	82
244.232	82
244.465	92
244.699	86
244.932	75
245.166	71
245.399	86
245.633	91
245.866	83
246.099	81
246.333	65
246.566	77
246.8	76
247.033	82
247.266	74
247.5	70
247.733	83
247.966	91
248.2	81
248.433	72
248.666	84
248.899	101
249.133	94
249.366	87
249.599	90
249.832	96
250.066	98
250.299	78
250.532	75
250.765	83
250.998	76
251.231	83
251.465	95
251.698	87
251.931	73
252.164	80
252.397	94
252.63	93
252.863	81
253.096	78
253.329	89
253.562	86
253.795	73
254.028	79
254.261	81
254.494	78
254.727	83
254.96	87
255.193	82
255.426	79
255.659	84
255.892	87
256.124	95
256.357	86
256.59	87
256.823	74
257.056	81
257.289	82
257.521	80
257.754	75
257.987	104
258.22	82
258.452	82
258.685	114
258.918	90
259.151	66
259.383	74
259.616	71
259.849	79
260.081	91
260.314	83
260.547	71
260.779	82
261.012	83
261.244	79
261.477	83
261.71	91
261.942	100
262.175	106
262.407	103
262.64	79
262.872	74
263.105	80
263.337	88
263.57	93
263.802	75
264.035	82
264.267	102
264.499	80
264.732	82
264.964	87
265.197	91
265.429	90
265.661	91
265.894	96
266.126	85
266.358	99
266.591	83
266.823	82
267.055	84
267.287	86
267.52	83
267.752	86
267.984	80
268.216	75
268.448	82
268.681	87
268.913	93
269.145	74
269.377	80
269.609	71
269.841	98
270.073	95
270.306	87
270.538	85
270.77	89
271.002	83
271.234	79
271.466	92
271.698	95
271.93	67
272.162	90
272.394	88
272.626	85
272.858	80
273.09	78
273.322	59
273.553	90
273.785	73
274.017	72
274.249	92
274.481	87
274.713	80
274.945	90
275.176	79
275.408	83
275.64	88
275.872	75
276.104	95
276.335	92
276.567	97
276.799	105
277.031	100
277.262	78
277.494	82
277.726	84
277.957	90
278.189	86
278.421	84
278.652	97
278.884	83
279.115	78
279.347	78
279.579	85
279.81	92
280.042	98
280.273	94
280.505	90
280.736	96
280.968	81
281.199	86
281.431	82
281.662	88
281.894	82
282.125	107
282.356	119
282.588	130
282.819	127
283.051	97
283.282	83
283.513	96
283.745	88
283.976	79
284.207	90
284.439	92
284.67	89
284.901	86
285.132	86
285.364	91
285.595	90
285.826	84
286.057	87
286.288	90
286.52	91
286.751	70
286.982	96
287.213	94
287.444	84
287.675	81
287.906	91
288.138	83
288.369	79
288.6	76
288.831	79
289.062	88
289.293	95
289.524	70
289.755	86
289.986	89
290.217	89
290.448	89
290.679	90
290.91	92
291.141	94
291.371	80
291.602	68
291.833	97
292.064	82
292.295	89
292.526	92
292.757	98
292.987	103
293.218	79
293.449	82
293.68	105
293.91	105
294.141	93
294.372	91
294.603	97
294.833	78
295.064	96
295.295	87
295.525	99
295.756	116
295.987	128
296.217	131
296.448	121
296.679	96
296.909	76
297.14	74
297.37	82
297.601	85
297.831	82
298.062	87
298.292	83
298.523	87
298.753	98
298.984	80
299.214	83
299.445	100
299.675	102
299.905	79
300.136	80
300.366	91
300.597	101
300.827	105
301.057	90
301.288	99
301.518	84
301.748	82
301.979	100
302.209	93
302.439	88
302.669	101
302.9	87
303.13	98
303.36	92
303.59	81
303.82	99
304.051	81
304.281	91
304.511	92
304.741	79
304.971	92
305.201	94
305.431	94
305.661	87
305.891	84
306.121	97
306.352	96
306.582	88
306.812	75
307.042	94
307.272	97
307.502	93
307.731	96
307.961	90
308.191	83
308.421	97
308.651	89
308.881	87
309.111	91
309.341	103
309.571	106
309.8	104
310.03	105
310.26	95
310.49	104
310.72	104
310.949	106
311.179	80
311.409	97
311.639	92
311.868	88
312.098	96
312.328	97
312.557	92
312.787	105
313.017	100
313.246	95
313.476	94
313.706	102
313.935	79
314.165	93
314.394	82
314.624	92
314.853	97
315.083	87
315.312	106
315.542	101
315.771	92
316.001	87
316.23	90
316.46	88
316.689	91
316.919	89
317.148	102
317.377	90
317.607	98
317.836	98
318.065	92
318.295	97
318.524	82
318.753	96
318.983	100
319.212	96
319.441	94
319.67	99
319.9	89
320.129	95
320.358	107
320.587	87
320.816	95
321.046	99
321.275	118
321.504	88
321.733	86
321.962	92
322.191	105
322.42	102
322.649	95
322.878	85
323.108	102
323.337	135
323.566	145
323.795	138
324.024	203
324.253	391
324.482	817
324.71	1670
324.939	2116
325.168	788
325.397	234
325.626	144
325.855	132
326.084	132
326.313	120
326.542	166
326.77	211
326.999	472
327.228	931
327.457	1658
327.686	1326
327.914	357
328.143	182
328.372	128
328.6	126
328.829	108
329.058	122
329.287	116
329.515	114
329.744	98
329.972	114
330.201	106
330.43	103
330.658	111
330.887	122
331.115	113
331.344	92
331.572	96
331.801	94
332.03	107
332.258	104
332.486	88
332.715	90
332.943	91
333.172	98
333.4	96
333.629	94
333.857	107
334.085	105
334.314	99
334.542	95
334.771	106
334.999	97
335.227	89
335.455	91
335.684	91
335.912	112
336.14	98
336.369	93
336.597	102
336.825	90
337.053	100
337.281	102
337.51	107
337.738	100
337.966	99
338.194	95
338.422	88
338.65	102
338.878	94
339.106	97
339.334	116
339.562	92
339.79	100
340.018	112
340.246	89
340.474	88
340.702	92
340.93	82
341.158	90
341.386	87
341.614	108
341.842	95
342.07	90
342.298	93
342.526	85
342.754	87
342.981	106
343.209	82
343.437	92
343.665	94
343.893	94
344.12	98
344.348	105
344.576	95
344.804	91
345.031	100
345.259	88
345.487	96
345.714	101
345.942	95
346.17	98
346.397	98
346.625	84
346.853	94
347.08	92
347.308	101
347.535	92
347.763	107
347.99	97
348.218	106
348.445	105
348.673	94
348.9	96
349.128	102
349.355	92
349.583	102
349.81	90
350.037	97
350.265	111
350.492	104
350.72	91
350.947	110
351.174	126
351.402	113
351.629	104
351.856	108
352.083	104
352.311	104
352.538	110
352.765	96
352.992	101
353.22	99
353.447	104
353.674	100
353.901	110
354.128	109
354.355	103
354.583	105
354.81	118
355.037	107
355.264	85
355.491	99
355.718	108
355.945	102
356.172	96
356.399	103
356.626	95
356.853	97
357.08	114
357.307	109
357.534	87
357.761	95
357.988	103
358.215	91
358.441	94
358.668	97
358.895	90
359.122	94
359.349	95
359.576	89
359.802	98
360.029	119
360.256	99
360.483	92
360.709	92
360.936	94
361.163	89
361.39	110
361.616	91
361.843	96
362.07	103
362.296	99
362.523	84
362.749	103
362.976	98
363.203	99
363.429	82
363.656	84
363.882	86
364.109	88
364.335	99
364.562	104
364.788	86
365.015	106
365.241	96
365.468	106
365.694	111
365.92	91
366.147	92
366.373	88
366.599	92
366.826	103
367.052	89
367.278	89
367.505	99
367.731	99
367.957	88
368.184	81
368.41	94
368.636	98
368.862	118
369.089	104
369.315	94
369.541	91
369.767	98
369.993	101
370.219	106
370.445	92
370.672	90
370.898	95
371.124	89
371.35	78
371.576	89
371.802	92
372.028	82
372.254	103
372.48	91
372.706	88
372.932	91
373.158	91
373.384	93
373.61	85
373.835	93
374.061	94
374.287	90
374.513	100
374.739	97
374.965	102
375.191	86
375.416	97
375.642	82
375.868	91
376.094	98
376.319	74
376.545	84
376.771	84
376.997	95
377.222	88
377.448	91
377.674	100
377.899	101
378.125	98
378.35	101
378.576	95
378.802	95
379.027	88
379.253	94
379.478	100
379.704	98
379.929	104
380.155	81
380.38	87
380.606	104
380.831	89
381.057	91
381.282	99
381.507	94
381.733	86
381.958	83
382.184	100
382.409	124
382.634	106
382.86	111
383.085	103
383.31	101
383.535	104
383.761	98
383.986	90
384.211	97
384.436	98
384.662	99
384.887	100
385.112	96
385.337	93
385.562	98
385.787	99
386.013	107
386.238	116
386.463	102
386.688	113
386.913	98
387.138	104
387.363	114
387.588	94
387.813	96
388.038	96
388.263	127
388.488	101
388.713	114
388.938	94
389.163	115
389.387	104
389.612	92
389.837	87
390.062	96
390.287	106
390.512	93
390.736	100
390.961	102
391.186	110
391.411	107
391.636	88
391.86	95
392.085	100
392.31	92
392.534	87
392.759	92
392.984	97
393.208	100
393.433	109
393.658	92
393.882	86
394.107	76
394.331	98
394.556	86
394.78	96
395.005	84
395.229	84
395.454	104
395.678	92
395.903	98
396.127	91
396.352	92
396.576	100
396.801	98
397.025	85
397.249	82
397.474	93
397.698	81
397.922	92
398.147	107
398.371	71
398.595	74
398.82	96
399.044	74
399.268	88
399.492	101
399.717	88
399.941	91
400.165	92
400.389	100
400.613	93
400.837	90
401.062	84
401.286	84
401.51	105
401.734	85
401.958	103
402.182	113
402.406	151
402.63	120
402.854	88
403.078	85
403.302	80
403.526	86
403.75	81
403.974	86
404.198	90
404.422	82
404.645	88
404.869	102
405.093	98
405.317	103
405.541	97
405.765	108
405.988	96
406.212	186
406.436	233
406.66	150
406.883	104
407.107	100
407.331	83
407.555	99
407.778	82
408.002	93
408.226	92
408.449	83
408.673	94
408.896	106
409.12	81
409.344	96
409.567	92
409.791	85
410.014	92
410.238	108
410.461	89
410.685	85
410.908	96
411.132	103
411.355	99
411.578	93
411.802	79
412.025	90
412.249	83
412.472	91
412.695	106
412.919	95
413.142	96
413.365	91
413.589	97
413.812	92
414.035	99
414.258	91
414.482	89
414.705	99
414.928	85
415.151	89
415.374	93
415.597	87
415.821	83
416.044	98
416.267	97
416.49	89
416.713	99
416.936	73
417.159	88
417.382	102
417.605	87
417.828	99
418.051	98
418.274	89
418.497	99
418.72	89
418.943	82
419.166	84
419.389	103
419.611	83
419.834	83
420.057	97
420.28	84
420.503	84
420.726	91
420.948	87
421.171	92
421.394	107
421.617	85
421.839	92
422.062	101
422.285	101
422.507	108
422.73	102
422.953	88
423.175	80
423.398	98
423.621	86
423.843	99
424.066	94
424.288	87
424.511	90
424.733	101
424.956	90
425.178	89
425.401	95
425.623	95
425.846	89
426.068	94
426.291	91
426.513	91
426.735	103
426.958	92
427.18	96
427.402	124
427.625	146
427.847	130
428.069	106
428.292	98
428.514	86
428.736	102
428.958	94
429.181	96
429.403	102
429.625	96
429.847	100
430.069	106
430.292	90
430.514	81
430.736	96
430.958	97
431.18	83
431.402	88
431.624	100
431.846	78
432.068	86
432.29	86
432.512	98
432.734	91
432.956	104
433.178	107
433.4	95
433.622	96
433.844	96
434.066	88
434.287	98
434.509	83
434.731	91
434.953	90
435.175	101
435.397	110
435.618	113
435.84	92
436.062	118
436.284	109
436.505	110
436.727	86
436.949	90
437.17	92
437.392	90
437.614	96
437.835	108
438.057	103
438.278	102
438.5	97
438.721	105
438.943	100
439.165	92
439.386	86
439.608	100
439.829	91
440.05	116
440.272	119
440.493	102
440.715	95
440.936	92
441.158	98
441.379	87
441.6	99
441.822	89
442.043	93
442.264	97
442.486	102
442.707	88
442.928	116
443.149	113
443.371	141
443.592	109
443.813	105
444.034	99
444.255	92
444.476	91
444.698	85
444.919	86
445.14	137
445.361	137
445.582	97
445.803	131
446.024	117
446.245	112
446.466	101
446.687	83
446.908	98
447.129	90
447.35	88
447.571	99
447.792	99
448.013	112
448.234	105
448.455	110
448.675	111
448.896	100
449.117	106
449.338	111
449.559	118
449.779	125
450	105
450.221	86
450.442	92
450.662	86
450.883	89
451.104	111
451.324	96
451.545	102
451.766	89
451.986	92
452.207	91
452.428	83
452.648	98
452.869	112
453.089	97
453.31	116
453.53	100
453.751	97
453.971	102
454.192	97
454.412	102
454.633	83
454.853	102
455.073	74
455.294	91
455.514	93
455.734	91
455.955	88
456.175	86
456.395	92
456.616	89
456.836	91
457.056	80
457.276	75
457.497	71
457.717	79
457.937	73
458.157	95
458.377	98
458.598	103
458.818	136
459.038	147
459.258	122
459.478	97
459.698	96
459.918	91
460.138	91
460.358	92
460.578	81
460.798	86
461.018	85
461.238	81
461.458	95
461.678	75
461.898	102
462.118	103
462.338	95
462.558	79
462.777	84
462.997	96
463.217	95
463.437	90
463.657	89
463.876	83
464.096	85
464.316	89
464.536	97
464.755	96
464.975	106
465.195	172
465.414	158
465.634	102
465.854	97
466.073	91
466.293	89
466.512	86
466.732	92
466.951	82
467.171	90
467.391	92
467.61	103
467.829	103
468.049	94
468.268	81
468.488	84
468.707	104
468.927	86
469.146	88
469.365	96
469.585	88
469.804	95
470.023	103
470.243	81
470.462	106
470.681	112
470.901	94
471.12	100
471.339	100
471.558	93
471.777	97
471.997	100
472.216	104
472.435	93
472.654	83
472.873	88
473.092	91
473.311	95
473.53	81
473.749	91
473.968	96
474.187	95
474.406	86
474.625	96
474.844	82
475.063	83
475.282	92
475.501	87
475.72	98
475.939	94
476.158	74
476.377	85
476.596	101
476.814	102
477.033	88
477.252	92
477.471	98
477.69	81
477.908	77
478.127	86
478.346	91
478.564	89
478.783	96
479.002	101
479.22	95
479.439	117
479.658	98
479.876	98
480.095	76
480.313	102
480.532	84
480.751	87
480.969	103
481.188	114
481.406	106
481.624	90
481.843	84
482.061	85
482.28	101
482.498	84
482.717	85
482.935	92
483.153	80
483.372	95
483.59	90
483.808	93
484.027	105
484.245	95
484.463	103
484.681	89
484.9	85
485.118	91
485.336	103
485.554	110
485.772	101
485.99	96
486.209	100
486.427	120
486.645	118
486.863	123
487.081	94
487.299	98
487.517	95
487.735	92
487.953	97
488.171	85
488.389	105
488.607	101
488.825	101
489.043	97
489.261	95
489.479	100
489.696	89
489.914	90
490.132	94
490.35	105
490.568	76
490.786	92
491.003	87
491.221	99
491.439	94
491.657	97
491.874	97
492.092	93
492.31	90
492.527	96
492.745	93
492.963	78
493.18	94
493.398	85
493.615	96
493.833	105
494.05	100
494.268	95
494.485	98
494.703	102
494.92	102
495.138	81
495.355	105
495.573	103
495.79	88
496.008	101
496.225	99
496.442	79
496.66	71
496.877	98
497.094	100
497.312	90
497.529	99
497.746	98
497.963	97
498.181	86
498.398	101
498.615	112
498.832	92
499.049	79
499.267	89
499.484	105
499.701	89
499.918	89
500.135	99
500.352	99
500.569	89
500.786	108
501.003	93
501.22	91
501.437	102
501.654	97
501.871	114
502.088	98
502.305	92
502.522	94
502.739	92
502.956	96
503.172	92
503.389	106
503.606	106
503.823	100
504.04	87
504.256	98
504.473	78
504.69	84
504.907	91
505.123	91
505.34	103
505.557	90
505.773	87
505.99	96
506.207	85
506.423	102
506.64	99
506.856	94
507.073	102
507.289	93
507.506	100
507.722	106
507.939	113
508.155	85
508.372	94
508.588	95
508.805	99
509.021	105
509.238	102
509.454	90
509.67	106
509.887	106
510.103	137
510.319	236
510.536	793
510.752	2411
510.968	670
511.184	169
511.401	123
511.617	115
511.833	104
512.049	92
512.265	81
512.481	86
512.698	100
512.914	95
513.13	97
513.346	105
513.562	108
513.778	103
513.994	96
514.21	104
514.426	112
514.642	142
514.858	126
515.074	156
515.29	454
515.506	1448
515.721	526
515.937	167
516.153	114
516.369	88
516.585	106
516.801	86
517.016	104
517.232	82
517.448	87
517.664	74
517.879	95
518.095	88
518.311	99
518.527	94
518.742	102
518.958	105
519.173	94
519.389	108
519.605	110
519.82	93
520.036	118
520.251	122
520.467	118
520.682	101
520.898	105
521.113	119
521.329	131
521.544	202
521.76	553
521.975	2390
522.19	1434
522.406	301
522.621	121
522.836	89
523.052	87
523.267	101
523.482	106
523.698	104
523.913	108
524.128	99
524.343	105
524.559	89
524.774	97
524.989	101
525.204	107
525.419	90
525.634	94
525.849	91
526.064	97
526.28	92
526.495	84
526.71	91
526.925	83
527.14	92
527.355	79
527.57	98
527.785	96
527.999	95
528.214	102
528.429	103
528.644	99
528.859	94
529.074	98
529.289	129
529.503	165
529.718	134
529.933	89
530.148	105
530.363	99
530.577	81
530.792	69
531.007	84
531.221	94
531.436	88
531.651	86
531.865	99
532.08	98
532.295	87
532.509	91
532.724	108
532.938	75
533.153	94
533.367	84
533.582	98
533.796	92
534.011	111
534.225	89
534.44	104
534.654	97
534.868	101
535.083	101
535.297	91
535.511	104
535.726	110
535.94	90
536.154	100
536.369	91
536.583	97
536.797	91
537.011	94
537.225	81
537.44	97
537.654	95
537.868	90
538.082	94
538.296	97
538.51	78
538.724	92
538.938	95
539.153	90
539.367	106
539.581	102
539.795	87
540.009	98
540.222	94
540.436	85
540.65	91
540.864	92
541.078	114
541.292	88
541.506	78
541.72	95
541.934	87
542.147	99
542.361	105
542.575	75
542.789	85
543.002	84
543.216	87
543.43	90
543.644	102
543.857	82
544.071	94
544.285	83
544.498	84
544.712	96
544.925	89
545.139	68
545.352	93
545.566	96
545.779	83
545.993	76
546.206	103
546.42	91
546.633	76
546.847	105
547.06	113
547.274	112
547.487	89
547.7	92
547.914	90
548.127	90
548.34	85
548.554	90
548.767	94
548.98	89
549.193	91
549.407	91
549.62	93
549.833	86
550.046	84
550.259	95
550.473	104
550.686	85
550.899	94
551.112	89
551.325	89
551.538	88
551.751	94
551.964	93
552.177	89
552.39	108
552.603	99
552.816	86
553.029	85
553.242	96
553.455	96
553.667	135
553.88	116
554.093	92
554.306	95
554.519	87
554.732	93
554.944	85
555.157	103
555.37	96
555.583	99
555.795	99
556.008	79
556.221	106
556.433	91
556.646	90
556.859	99
557.071	102
557.284	91
557.496	91
557.709	89
557.921	100
558.134	79
558.346	86
558.559	96
558.771	87
558.984	81
559.196	96
559.409	94
559.621	97
559.833	83
560.046	80
560.258	88
560.47	79
560.683	91
560.895	92
561.107	89
561.32	96
561.532	93
561.744	91
561.956	90
562.168	94
562.381	89
562.593	96
562.805	99
563.017	103
563.229	102
563.441	89
563.653	94
563.865	98
564.077	87
564.289	99
564.501	78
564.713	79
564.925	86
565.137	99
565.349	103
565.561	92
565.773	96
565.985	98
566.197	80
566.408	80
566.62	98
566.832	103
567.044	89
567.255	79
567.467	93
567.679	76
567.891	87
568.102	85
568.314	87
568.526	91
568.737	99
568.949	104
569.161	83
569.372	97
569.584	93
569.795	100
570.007	129
570.218	254
570.43	148
570.641	100
570.853	106
571.064	87
571.276	99
571.487	77
571.698	90
571.91	99
572.121	95
572.333	93
572.544	85
572.755	99
572.966	95
573.178	98
573.389	89
573.6	92
573.811	83
574.023	95
574.234	91
574.445	93
574.656	83
574.867	108
575.078	88
575.289	92
575.501	93
575.712	87
575.923	96
576.134	96
576.345	85
576.556	93
576.767	91
576.978	92
577.188	102
577.399	101
577.61	91
577.821	111
578.032	132
578.243	282
578.454	793
578.665	225
578.875	111
579.086	92
579.297	96
579.508	92
579.718	81
579.929	109
580.14	92
580.35	80
580.561	80
580.772	87
580.982	95
581.193	93
581.403	77
581.614	95
581.825	97
582.035	110
582.246	82
582.456	92
582.667	83
582.877	96
583.087	87
