Data from Uncirc_2004_H10_HRD10591_00079.txt Node
Date: Wed Jan 03 10:32:28 EST 2024
User: Yrep
Spectrometer: HR+D1059
Trigger mode: 1
Integration Time (sec): 1.000000E-1
Scans to average: 1
Electric dark correction enabled: true
Nonlinearity correction enabled: false
Boxcar width: 0
XAxis mode: Wavelengths
Number of Pixels in Spectrum: 2048
>>>>>Begin Spectral Data<<<<<
223.165	-20.38
223.4	-20.38
223.635	-20.38
223.869	-13.38
224.104	-8.38
224.338	-10.38
224.573	-2.38
224.808	-16.38
225.042	-20.38
225.277	-14.38
225.511	-1.38
225.746	7.62
225.98	1.62
226.215	19.62
226.449	24.62
226.683	7.62
226.918	19.62
227.152	26.62
227.387	28.62
227.621	44.62
227.856	54.62
228.09	46.62
228.324	64.62
228.559	56.62
228.793	174.62
229.027	456.62
229.262	516.62
229.496	608.62
229.73	812.62
229.964	838.62
230.199	532.62
230.433	493.62
230.667	467.62
230.901	460.62
231.136	439.62
231.37	439.62
231.604	460.62
231.838	462.62
232.072	453.62
232.306	458.62
232.541	452.62
232.775	462.62
233.009	458.62
233.243	470.62
233.477	471.62
233.711	463.62
233.945	509.62
234.179	499.62
234.413	506.62
234.647	494.62
234.881	519.62
235.115	520.62
235.349	557.62
235.583	562.62
235.817	586.62
236.051	653.62
236.285	612.62
236.519	593.62
236.753	711.62
236.987	923.62
237.221	1401.62
237.455	1547.62
237.689	895.62
237.922	744.62
238.156	710.62
238.39	670.62
238.624	644.62
238.858	673.62
239.091	668.62
239.325	666.62
239.559	687.62
239.793	731.62
240.027	768.62
240.26	895.62
240.494	979.62
240.728	979.62
240.961	916.62
241.195	816.62
241.429	770.62
241.662	772.62
241.896	751.62
242.13	749.62
242.363	761.62
242.597	781.62
242.83	781.62
243.064	816.62
243.298	823.62
243.531	819.62
243.765	815.62
243.998	833.62
244.232	833.62
244.465	882.62
244.699	904.62
244.932	896.62
245.166	884.62
245.399	908.62
245.633	875.62
245.866	913.62
246.099	912.62
246.333	940.62
246.566	962.62
246.8	952.62
247.033	995.62
247.266	1024.62
247.5	1127.62
247.733	1193.62
247.966	1158.62
248.2	1140.62
248.433	1154.62
248.666	1221.62
248.899	1339.62
249.133	1474.62
249.366	1445.62
249.599	1324.62
249.832	1192.62
250.066	1202.62
250.299	1225.62
250.532	1325.62
250.765	1539.62
250.998	1731.62
251.231	1669.62
251.465	1513.62
251.698	1391.62
251.931	1439.62
252.164	1388.62
252.397	1416.62
252.63	1434.62
252.863	1538.62
253.096	1673.62
253.329	1716.62
253.562	1670.62
253.795	1580.62
254.028	1547.62
254.261	1663.62
254.494	1856.62
254.727	2223.62
254.96	2307.62
255.193	1972.62
255.426	1772.62
255.659	1654.62
255.892	1572.62
256.124	1563.62
256.357	1575.62
256.59	1515.62
256.823	1496.62
257.056	1490.62
257.289	1510.62
257.521	1537.62
257.754	1570.62
257.987	1518.62
258.22	1517.62
258.452	1515.62
258.685	1573.62
258.918	1580.62
259.151	1632.62
259.383	1689.62
259.616	1665.62
259.849	1756.62
260.081	1997.62
260.314	2131.62
260.547	2045.62
260.779	1873.62
261.012	1762.62
261.244	1732.62
261.477	1690.62
261.71	1685.62
261.942	1792.62
262.175	1837.62
262.407	1717.62
262.64	1621.62
262.872	1630.62
263.105	1621.62
263.337	1648.62
263.57	1629.62
263.802	1654.62
264.035	1687.62
264.267	1651.62
264.499	1657.62
264.732	1663.62
264.964	1706.62
265.197	1706.62
265.429	1694.62
265.661	1705.62
265.894	1728.62
266.126	1761.62
266.358	1725.62
266.591	1771.62
266.823	1853.62
267.055	1879.62
267.287	1884.62
267.52	1847.62
267.752	1830.62
267.984	1821.62
268.216	1917.62
268.448	1931.62
268.681	1997.62
268.913	2192.62
269.145	2344.62
269.377	2442.62
269.609	2311.62
269.841	2255.62
270.073	2435.62
270.306	2717.62
270.538	2897.62
270.77	2749.62
271.002	2536.62
271.234	2475.62
271.466	2673.62
271.698	2804.62
271.93	2803.62
272.162	2786.62
272.394	2665.62
272.626	2508.62
272.858	2403.62
273.09	2317.62
273.322	2286.62
273.553	2201.62
273.785	2235.62
274.017	2242.62
274.249	2236.62
274.481	2307.62
274.713	2273.62
274.945	2324.62
275.176	2286.62
275.408	2263.62
275.64	2293.62
275.872	2258.62
276.104	2317.62
276.335	2316.62
276.567	2416.62
276.799	2660.62
277.031	2815.62
277.262	2983.62
277.494	2851.62
277.726	2597.62
277.957	2487.62
278.189	2412.62
278.421	2409.62
278.652	2388.62
278.884	2406.62
279.115	2356.62
279.347	2413.62
279.579	2339.62
279.81	2380.62
280.042	2361.62
280.273	2404.62
280.505	2414.62
280.736	2382.62
280.968	2451.62
281.199	2379.62
281.431	2467.62
281.662	2482.62
281.894	2497.62
282.125	2531.62
282.356	2752.62
282.588	2849.62
282.819	2692.62
283.051	2535.62
283.282	2605.62
283.513	2554.62
283.745	2649.62
283.976	2664.62
284.207	2673.62
284.439	2671.62
284.67	2648.62
284.901	2655.62
285.132	2623.62
285.364	2633.62
285.595	2594.62
285.826	2639.62
286.057	2644.62
286.288	2671.62
286.52	2662.62
286.751	2705.62
286.982	2728.62
287.213	2699.62
287.444	2763.62
287.675	2808.62
287.906	2923.62
288.138	3010.62
288.369	2937.62
288.6	2950.62
288.831	2897.62
289.062	2847.62
289.293	2818.62
289.524	2817.62
289.755	2768.62
289.986	2859.62
290.217	2768.62
290.448	2809.62
290.679	2824.62
290.91	2813.62
291.141	2805.62
291.371	2824.62
291.602	2843.62
291.833	2849.62
292.064	2888.62
292.295	2849.62
292.526	2866.62
292.757	2835.62
292.987	2813.62
293.218	2830.62
293.449	2866.62
293.68	2839.62
293.91	2846.62
294.141	2891.62
294.372	2845.62
294.603	2839.62
294.833	2932.62
295.064	2964.62
295.295	2892.62
295.525	2945.62
295.756	3049.62
295.987	3089.62
296.217	3256.62
296.448	3199.62
296.679	2977.62
296.909	2994.62
297.14	2973.62
297.37	3068.62
297.601	3028.62
297.831	3023.62
298.062	3101.62
298.292	3045.62
298.523	3118.62
298.753	3143.62
298.984	3085.62
299.214	3092.62
299.445	3128.62
299.675	3157.62
299.905	3200.62
300.136	3157.62
300.366	3182.62
300.597	3196.62
300.827	3334.62
301.057	3415.62
301.288	3435.62
301.518	3377.62
301.748	3424.62
301.979	3491.62
302.209	3401.62
302.439	3426.62
302.669	3349.62
302.9	3304.62
303.13	3273.62
303.36	3434.62
303.59	3405.62
303.82	3419.62
304.051	3353.62
304.281	3377.62
304.511	3341.62
304.741	3382.62
304.971	3320.62
305.201	3307.62
305.431	3289.62
305.661	3354.62
305.891	3303.62
306.121	3273.62
306.352	3393.62
306.582	3341.62
306.812	3290.62
307.042	3267.62
307.272	3305.62
307.502	3291.62
307.731	3266.62
307.961	3310.62
308.191	3296.62
308.421	3311.62
308.651	3349.62
308.881	3366.62
309.111	3432.62
309.341	3429.62
309.571	3492.62
309.8	3565.62
310.03	3591.62
310.26	3659.62
310.49	3650.62
310.72	3783.62
310.949	3861.62
311.179	3862.62
311.409	3663.62
311.639	3686.62
311.868	3726.62
312.098	3768.62
312.328	3807.62
312.557	3963.62
312.787	4081.62
313.017	3971.62
313.246	3837.62
313.476	3778.62
313.706	3885.62
313.935	3917.62
314.165	4099.62
314.394	4095.62
314.624	3996.62
314.853	3839.62
315.083	3815.62
315.312	3755.62
315.542	3804.62
315.771	3728.62
316.001	3745.62
316.23	3777.62
316.46	3749.62
316.689	3742.62
316.919	3831.62
317.148	3912.62
317.377	3832.62
317.607	3860.62
317.836	3746.62
318.065	3715.62
318.295	3721.62
318.524	3756.62
318.753	3723.62
318.983	3736.62
319.212	3728.62
319.441	3794.62
319.67	3847.62
319.9	3757.62
320.129	3781.62
320.358	3813.62
320.587	3801.62
320.816	3882.62
321.046	3910.62
321.275	3873.62
321.504	3934.62
321.733	3852.62
321.962	3979.62
322.191	4157.62
322.42	4185.62
322.649	4336.62
322.878	4308.62
323.108	4433.62
323.337	4690.62
323.566	4820.62
323.795	5113.62
324.024	5737.62
324.253	7668.62
324.482	11600.62
324.71	15609.62
324.939	15609.62
325.168	13619.62
325.397	6839.62
325.626	5414.62
325.855	4960.62
326.084	4894.62
326.313	4945.62
326.542	5070.62
326.77	5778.62
326.999	7393.62
327.228	10905.62
327.457	14847.62
327.686	14223.62
327.914	7574.62
328.143	6006.62
328.372	5589.62
328.6	5391.62
328.829	5359.62
329.058	5588.62
329.287	5507.62
329.515	5118.62
329.744	4927.62
329.972	4918.62
330.201	4990.62
330.43	5343.62
330.658	5617.62
330.887	5982.62
331.115	5569.62
331.344	5103.62
331.572	5031.62
331.801	5088.62
332.03	5109.62
332.258	5074.62
332.486	5138.62
332.715	5182.62
332.943	5259.62
333.172	5489.62
333.4	5545.62
333.629	5648.62
333.857	5698.62
334.085	5680.62
334.314	5590.62
334.542	5605.62
334.771	5584.62
334.999	5442.62
335.227	5300.62
335.455	5248.62
335.684	5072.62
335.912	5078.62
336.14	5034.62
336.369	5041.62
336.597	5148.62
336.825	5088.62
337.053	4944.62
337.281	4841.62
337.51	4831.62
337.738	4838.62
337.966	4816.62
338.194	4782.62
338.422	4721.62
338.65	4596.62
338.878	4670.62
339.106	4600.62
339.334	4569.62
339.562	4509.62
339.79	4427.62
340.018	4497.62
340.246	4456.62
340.474	4546.62
340.702	4554.62
340.93	4472.62
341.158	4523.62
341.386	4457.62
341.614	4532.62
341.842	4443.62
342.07	4381.62
342.298	4443.62
342.526	4329.62
342.754	4369.62
342.981	4327.62
343.209	4501.62
343.437	4709.62
343.665	5015.62
343.893	5321.62
344.12	5343.62
344.348	5020.62
344.576	4859.62
344.804	4773.62
345.031	4783.62
345.259	4761.62
345.487	4574.62
345.714	4479.62
345.942	4363.62
346.17	4349.62
346.397	4317.62
346.625	4246.62
346.853	4350.62
347.08	4282.62
347.308	4317.62
347.535	4402.62
347.763	4390.62
347.99	4359.62
348.218	4363.62
348.445	4418.62
348.673	4314.62
348.9	4251.62
349.128	4194.62
349.355	4136.62
349.583	4142.62
349.81	4147.62
350.037	4148.62
350.265	4098.62
350.492	4087.62
350.72	4109.62
350.947	4247.62
351.174	4315.62
351.402	4341.62
351.629	4297.62
351.856	4332.62
352.083	4361.62
352.311	4369.62
352.538	4332.62
352.765	4291.62
352.992	4262.62
353.22	4219.62
353.447	4164.62
353.674	4081.62
353.901	4066.62
354.128	4048.62
354.355	4084.62
354.583	4054.62
354.81	4016.62
355.037	4062.62
355.264	3989.62
355.491	4092.62
355.718	4007.62
355.945	4045.62
356.172	4041.62
356.399	4062.62
356.626	4056.62
356.853	4054.62
357.08	3999.62
357.307	4011.62
357.534	3992.62
357.761	4016.62
357.988	4053.62
358.215	3968.62
358.441	4028.62
358.668	4042.62
358.895	4108.62
359.122	4146.62
359.349	4236.62
359.576	4404.62
359.802	4593.62
360.029	4788.62
360.256	4763.62
360.483	4516.62
360.709	4283.62
360.936	4284.62
361.163	4358.62
361.39	4386.62
361.616	4311.62
361.843	4307.62
362.07	4262.62
362.296	4322.62
362.523	4265.62
362.749	4221.62
362.976	4155.62
363.203	4131.62
363.429	4117.62
363.656	4177.62
363.882	4057.62
364.109	4035.62
364.335	4115.62
364.562	4112.62
364.788	4172.62
365.015	4099.62
365.241	4178.62
365.468	4184.62
365.694	4216.62
365.92	4213.62
366.147	4168.62
366.373	4093.62
366.599	4095.62
366.826	4085.62
367.052	4104.62
367.278	4213.62
367.505	4134.62
367.731	4167.62
367.957	4149.62
368.184	4201.62
368.41	4292.62
368.636	4358.62
368.862	4343.62
369.089	4220.62
369.315	4160.62
369.541	4188.62
369.767	4277.62
369.993	4299.62
370.219	4284.62
370.445	4219.62
370.672	4302.62
370.898	4306.62
371.124	4358.62
371.35	4381.62
371.576	4364.62
371.802	4344.62
372.028	4389.62
372.254	4365.62
372.48	4421.62
372.706	4514.62
372.932	4571.62
373.158	4527.62
373.384	4493.62
373.61	4332.62
373.835	4413.62
374.061	4405.62
374.287	4580.62
374.513	4613.62
374.739	4687.62
374.965	4796.62
375.191	4792.62
375.416	4733.62
375.642	4623.62
375.868	4624.62
376.094	4553.62
376.319	4466.62
376.545	4470.62
376.771	4536.62
376.997	4373.62
377.222	4409.62
377.448	4388.62
377.674	4377.62
377.899	4367.62
378.125	4332.62
378.35	4351.62
378.576	4324.62
378.802	4245.62
379.027	4394.62
379.253	4381.62
379.478	4358.62
379.704	4315.62
379.929	4387.62
380.155	4360.62
380.38	4352.62
380.606	4380.62
380.831	4369.62
381.057	4452.62
381.282	4353.62
381.507	4385.62
381.733	4489.62
381.958	4520.62
382.184	4595.62
382.409	4641.62
382.634	4691.62
382.86	4617.62
383.085	4693.62
383.31	4826.62
383.535	4907.62
383.761	4837.62
383.986	4983.62
384.211	5094.62
384.436	5092.62
384.662	5162.62
384.887	5299.62
385.112	5276.62
385.337	5310.62
385.562	5309.62
385.787	5288.62
386.013	5439.62
386.238	5462.62
386.463	5410.62
386.688	5332.62
386.913	5266.62
387.138	5265.62
387.363	5321.62
387.588	5179.62
387.813	5264.62
388.038	5204.62
388.263	5246.62
388.488	5241.62
388.713	5230.62
388.938	5312.62
389.163	5262.62
389.387	5251.62
389.612	5150.62
389.837	5179.62
390.062	5131.62
390.287	5222.62
390.512	5136.62
390.736	5263.62
390.961	5435.62
391.186	5401.62
391.411	5605.62
391.636	5746.62
391.86	5847.62
392.085	5927.62
392.31	5840.62
392.534	5669.62
392.759	5571.62
392.984	5540.62
393.208	5443.62
393.433	5452.62
393.658	5482.62
393.882	5436.62
394.107	5418.62
394.331	5559.62
394.556	5575.62
394.78	5652.62
395.005	5611.62
395.229	5683.62
395.454	5823.62
395.678	5977.62
395.903	5944.62
396.127	6061.62
396.352	5807.62
396.576	5633.62
396.801	5529.62
397.025	5701.62
397.249	5860.62
397.474	5984.62
397.698	5940.62
397.922	6138.62
398.147	6175.62
398.371	6287.62
398.595	6401.62
398.82	6756.62
399.044	7362.62
399.268	8112.62
399.492	9211.62
399.717	9936.62
399.941	9558.62
400.165	8928.62
400.389	8278.62
400.613	7384.62
400.837	7046.62
401.062	6847.62
401.286	6686.62
401.51	6641.62
401.734	6685.62
401.958	6709.62
402.182	6963.62
402.406	6956.62
402.63	7041.62
402.854	7133.62
403.078	7319.62
403.302	7488.62
403.526	7503.62
403.75	7527.62
403.974	7601.62
404.198	7558.62
404.422	7679.62
404.645	7566.62
404.869	7448.62
405.093	7716.62
405.317	7840.62
405.541	7787.62
405.765	7510.62
405.988	7423.62
406.212	7583.62
406.436	7923.62
406.66	7953.62
406.883	7965.62
407.107	8551.62
407.331	9076.62
407.555	9586.62
407.778	9265.62
408.002	8485.62
408.226	8167.62
408.449	7936.62
408.673	7828.62
408.896	8024.62
409.12	8136.62
409.344	7584.62
409.567	7312.62
409.791	7286.62
410.014	7161.62
410.238	7136.62
410.461	7145.62
410.685	7215.62
410.908	7282.62
411.132	7500.62
411.355	7595.62
411.578	7158.62
411.802	6908.62
412.025	6878.62
412.249	6982.62
412.472	7061.62
412.695	7042.62
412.919	6766.62
413.142	6551.62
413.365	6572.62
413.589	6667.62
413.812	6480.62
414.035	6388.62
414.258	6409.62
414.482	6479.62
414.705	6617.62
414.928	6488.62
415.151	6580.62
415.374	6556.62
415.597	6581.62
415.821	6366.62
416.044	6419.62
416.267	6465.62
416.49	6420.62
416.713	6331.62
416.936	6362.62
417.159	6413.62
417.382	6559.62
417.605	6566.62
417.828	6647.62
418.051	6831.62
418.274	6726.62
418.497	6599.62
418.72	6712.62
418.943	6695.62
419.166	7031.62
419.389	7463.62
419.611	7208.62
419.834	7068.62
420.057	6956.62
420.28	6819.62
420.503	6600.62
420.726	6666.62
420.948	6811.62
421.171	7296.62
421.394	7260.62
421.617	6741.62
421.839	6671.62
422.062	6815.62
422.285	6973.62
422.507	7666.62
422.73	8258.62
422.953	7551.62
423.175	7211.62
423.398	7151.62
423.621	7229.62
423.843	7575.62
424.066	7406.62
424.288	7303.62
424.511	7561.62
424.733	8123.62
424.956	8568.62
425.178	8063.62
425.401	8155.62
425.623	8000.62
425.846	6984.62
426.068	6853.62
426.291	6752.62
426.513	6702.62
426.735	6837.62
426.958	7359.62
427.18	8169.62
427.402	9373.62
427.625	9399.62
427.847	7933.62
428.069	7018.62
428.292	6644.62
428.514	6257.62
428.736	6161.62
428.958	6146.62
429.181	5950.62
429.403	5977.62
429.625	6072.62
429.847	6512.62
430.069	7052.62
430.292	6604.62
430.514	5948.62
430.736	5936.62
430.958	5947.62
431.18	5759.62
431.402	5853.62
431.624	5757.62
431.846	5887.62
432.068	5931.62
432.29	5941.62
432.512	5842.62
432.734	6006.62
432.956	5860.62
433.178	5966.62
433.4	5929.62
433.622	5915.62
433.844	5876.62
434.066	5955.62
434.287	6027.62
434.509	6224.62
434.731	6543.62
434.953	6579.62
435.175	6764.62
435.397	6872.62
435.618	6740.62
435.84	7223.62
436.062	8020.62
436.284	8032.62
436.505	6803.62
436.727	6424.62
436.949	6192.62
437.17	6045.62
437.392	5940.62
437.614	6105.62
437.835	6553.62
438.057	7659.62
438.278	8339.62
438.5	8168.62
438.721	9074.62
438.943	7857.62
439.165	6637.62
439.386	6463.62
439.608	6473.62
439.829	6507.62
440.05	6908.62
440.272	7396.62
440.493	6641.62
440.715	6268.62
440.936	6200.62
441.158	6343.62
441.379	6568.62
441.6	6811.62
441.822	7065.62
442.043	7550.62
442.264	8294.62
442.486	7967.62
442.707	7127.62
442.928	6965.62
443.149	7063.62
443.371	7383.62
443.592	8008.62
443.813	8909.62
444.034	8948.62
444.255	7734.62
444.476	7593.62
444.698	7743.62
444.919	7812.62
445.14	7650.62
445.361	7482.62
445.582	7671.62
445.803	8326.62
446.024	8968.62
446.245	8647.62
446.466	7825.62
446.687	6690.62
446.908	6291.62
447.129	5979.62
447.35	5886.62
447.571	5846.62
447.792	5718.62
448.013	5734.62
448.234	6087.62
448.455	6741.62
448.675	7955.62
448.896	8457.62
449.117	6979.62
449.338	7156.62
449.559	8548.62
449.779	8843.62
450	6745.62
450.221	5958.62
450.442	5703.62
450.662	5643.62
450.883	5713.62
451.104	5859.62
451.324	5637.62
451.545	5512.62
451.766	5340.62
451.986	5223.62
452.207	5228.62
452.428	5147.62
452.648	5213.62
452.869	5263.62
453.089	5315.62
453.31	5415.62
453.53	5244.62
453.751	5190.62
453.971	5234.62
454.192	5337.62
454.412	5135.62
454.633	5117.62
454.853	5065.62
455.073	5053.62
455.294	5484.62
455.514	6131.62
455.734	5506.62
455.955	4918.62
456.175	4862.62
456.395	4803.62
456.616	4782.62
456.836	4747.62
457.056	4784.62
457.276	4686.62
457.497	4892.62
457.717	4851.62
457.937	4888.62
458.157	4983.62
458.377	5091.62
458.598	5480.62
458.818	6261.62
459.038	7029.62
459.258	6943.62
459.478	6116.62
459.698	5912.62
459.918	6019.62
460.138	6220.62
460.358	6434.62
460.578	6466.62
460.798	6513.62
461.018	6587.62
461.238	6489.62
461.458	6391.62
461.678	6317.62
461.898	6461.62
462.118	6585.62
462.338	6968.62
462.558	6990.62
462.777	7352.62
462.997	7971.62
463.217	8396.62
463.437	8079.62
463.657	7572.62
463.876	7340.62
464.096	7394.62
464.316	7335.62
464.536	7427.62
464.755	7148.62
464.975	7041.62
465.195	7346.62
465.414	7346.62
465.634	6424.62
465.854	6049.62
466.073	5750.62
466.293	5643.62
466.512	5476.62
466.732	5419.62
466.951	5382.62
467.171	5293.62
467.391	5413.62
467.61	5504.62
467.829	5496.62
468.049	5415.62
468.268	5223.62
468.488	5133.62
468.707	5051.62
468.927	5108.62
469.146	5098.62
469.365	5159.62
469.585	5218.62
469.804	5419.62
470.023	5616.62
470.243	5566.62
470.462	5721.62
470.681	5828.62
470.901	5657.62
471.12	5460.62
471.339	5387.62
471.558	5438.62
471.777	5324.62
471.997	5206.62
472.216	5165.62
472.435	5265.62
472.654	5134.62
472.873	5092.62
473.092	5151.62
473.311	5044.62
473.53	5144.62
473.749	5236.62
473.968	5798.62
474.187	6873.62
474.406	6447.62
474.625	5503.62
474.844	5139.62
475.063	5159.62
475.282	5128.62
475.501	5262.62
475.72	5199.62
475.939	5282.62
476.158	5220.62
476.377	5353.62
476.596	5316.62
476.814	5500.62
477.033	5543.62
477.252	5604.62
477.471	5616.62
477.69	5849.62
477.908	5931.62
478.127	6035.62
478.346	6123.62
478.564	6217.62
478.783	6386.62
479.002	6444.62
479.22	6490.62
479.439	6529.62
479.658	6666.62
479.876	6772.62
480.095	6990.62
480.313	7407.62
480.532	7220.62
480.751	7075.62
480.969	6988.62
481.188	6916.62
481.406	6709.62
481.624	6380.62
481.843	6209.62
482.061	6158.62
482.28	6055.62
482.498	6052.62
482.717	6004.62
482.935	6015.62
483.153	5927.62
483.372	5986.62
483.59	5981.62
483.808	6046.62
484.027	5988.62
484.245	6055.62
484.463	6136.62
484.681	6149.62
484.9	6186.62
485.118	6263.62
485.336	6300.62
485.554	6359.62
485.772	6421.62
485.99	6363.62
486.209	6435.62
486.427	6491.62
486.645	6608.62
486.863	6635.62
487.081	6559.62
487.299	6480.62
487.517	6495.62
487.735	6496.62
487.953	6439.62
