Data from Uncirc_2004_H10_HRD10591_00095.txt Node
Date: Wed Jan 03 10:32:31 EST 2024
User: Yrep
Spectrometer: HR+D1059
Trigger mode: 1
Integration Time (sec): 1.000000E-1
Scans to average: 1
Electric dark correction enabled: true
Nonlinearity correction enabled: false
Boxcar width: 0
XAxis mode: Wavelengths
Number of Pixels in Spectrum: 2048
>>>>>Begin Spectral Data<<<<<
223.165	-25.75
223.4	-25.75
223.635	-25.75
223.869	-18.75
224.104	-15.75
224.338	-15.75
224.573	-7.75
224.808	-20.75
225.042	-1.75
225.277	-11.75
225.511	5.25
225.746	10.25
225.98	7.25
226.215	6.25
226.449	15.25
226.683	14.25
226.918	24.25
227.152	35.25
227.387	39.25
227.621	24.25
227.856	42.25
228.09	33.25
228.324	32.25
228.559	50.25
228.793	55.25
229.027	59.25
229.262	75.25
229.496	78.25
229.73	96.25
229.964	87.25
230.199	66.25
230.433	63.25
230.667	76.25
230.901	93.25
231.136	68.25
231.37	88.25
231.604	77.25
231.838	70.25
232.072	71.25
232.306	67.25
232.541	74.25
232.775	82.25
233.009	76.25
233.243	81.25
233.477	87.25
233.711	72.25
233.945	77.25
234.179	86.25
234.413	74.25
234.647	62.25
234.881	78.25
235.115	68.25
235.349	62.25
235.583	74.25
235.817	69.25
236.051	82.25
236.285	67.25
236.519	80.25
236.753	76.25
236.987	66.25
237.221	88.25
237.455	85.25
237.689	79.25
237.922	78.25
238.156	70.25
238.39	82.25
238.624	73.25
238.858	78.25
239.091	68.25
239.325	73.25
239.559	67.25
239.793	74.25
240.027	77.25
240.26	72.25
240.494	87.25
240.728	65.25
240.961	76.25
241.195	82.25
241.429	69.25
241.662	83.25
241.896	64.25
242.13	86.25
242.363	77.25
242.597	87.25
242.83	79.25
243.064	79.25
243.298	92.25
243.531	76.25
243.765	67.25
243.998	84.25
244.232	77.25
244.465	71.25
244.699	77.25
244.932	88.25
245.166	101.25
245.399	77.25
245.633	78.25
245.866	66.25
246.099	79.25
246.333	76.25
246.566	74.25
246.8	84.25
247.033	84.25
247.266	60.25
247.5	77.25
247.733	83.25
247.966	94.25
248.2	76.25
248.433	78.25
248.666	75.25
248.899	86.25
249.133	93.25
249.366	97.25
249.599	86.25
249.832	76.25
250.066	83.25
250.299	93.25
250.532	91.25
250.765	83.25
250.998	78.25
251.231	94.25
251.465	71.25
251.698	71.25
251.931	71.25
252.164	75.25
252.397	75.25
252.63	69.25
252.863	74.25
253.096	81.25
253.329	79.25
253.562	67.25
253.795	71.25
254.028	79.25
254.261	75.25
254.494	75.25
254.727	83.25
254.96	81.25
255.193	83.25
255.426	87.25
255.659	80.25
255.892	90.25
256.124	80.25
256.357	83.25
256.59	79.25
256.823	82.25
257.056	84.25
257.289	69.25
257.521	71.25
257.754	86.25
257.987	76.25
258.22	91.25
258.452	81.25
258.685	89.25
258.918	83.25
259.151	78.25
259.383	80.25
259.616	87.25
259.849	92.25
260.081	73.25
260.314	86.25
260.547	80.25
260.779	71.25
261.012	86.25
261.244	75.25
261.477	95.25
261.71	90.25
261.942	120.25
262.175	118.25
262.407	87.25
262.64	98.25
262.872	87.25
263.105	83.25
263.337	94.25
263.57	84.25
263.802	90.25
264.035	86.25
264.267	85.25
264.499	83.25
264.732	77.25
264.964	82.25
265.197	89.25
265.429	81.25
265.661	84.25
265.894	82.25
266.126	83.25
266.358	84.25
266.591	72.25
266.823	79.25
267.055	78.25
267.287	85.25
267.52	81.25
267.752	82.25
267.984	92.25
268.216	103.25
268.448	82.25
268.681	80.25
268.913	89.25
269.145	76.25
269.377	77.25
269.609	74.25
269.841	82.25
270.073	86.25
270.306	62.25
270.538	90.25
270.77	75.25
271.002	85.25
271.234	87.25
271.466	95.25
271.698	97.25
271.93	87.25
272.162	92.25
272.394	77.25
272.626	83.25
272.858	76.25
273.09	86.25
273.322	71.25
273.553	77.25
273.785	85.25
274.017	86.25
274.249	82.25
274.481	78.25
274.713	91.25
274.945	75.25
275.176	93.25
275.408	93.25
275.64	84.25
275.872	81.25
276.104	94.25
276.335	94.25
276.567	95.25
276.799	93.25
277.031	97.25
277.262	89.25
277.494	95.25
277.726	95.25
277.957	92.25
278.189	89.25
278.421	85.25
278.652	84.25
278.884	87.25
279.115	95.25
279.347	82.25
279.579	81.25
279.81	89.25
280.042	91.25
280.273	84.25
280.505	68.25
280.736	99.25
280.968	72.25
281.199	84.25
281.431	87.25
281.662	97.25
281.894	94.25
282.125	97.25
282.356	106.25
282.588	116.25
282.819	96.25
283.051	86.25
283.282	88.25
283.513	82.25
283.745	87.25
283.976	87.25
284.207	79.25
284.439	95.25
284.67	84.25
284.901	92.25
285.132	91.25
285.364	87.25
285.595	78.25
285.826	76.25
286.057	98.25
286.288	83.25
286.52	89.25
286.751	90.25
286.982	82.25
287.213	72.25
287.444	83.25
287.675	88.25
287.906	97.25
288.138	82.25
288.369	100.25
288.6	76.25
288.831	72.25
289.062	88.25
289.293	94.25
289.524	95.25
289.755	85.25
289.986	90.25
290.217	94.25
290.448	78.25
290.679	72.25
290.91	95.25
291.141	75.25
291.371	78.25
291.602	88.25
291.833	82.25
292.064	83.25
292.295	92.25
292.526	97.25
292.757	80.25
292.987	84.25
293.218	83.25
293.449	87.25
293.68	87.25
293.91	90.25
294.141	94.25
294.372	94.25
294.603	85.25
294.833	89.25
295.064	87.25
295.295	80.25
295.525	88.25
295.756	110.25
295.987	111.25
296.217	130.25
296.448	107.25
296.679	84.25
296.909	83.25
297.14	95.25
297.37	98.25
297.601	77.25
297.831	83.25
298.062	98.25
298.292	85.25
298.523	89.25
298.753	88.25
298.984	81.25
299.214	88.25
299.445	90.25
299.675	89.25
299.905	73.25
300.136	100.25
300.366	81.25
300.597	74.25
300.827	75.25
301.057	95.25
301.288	108.25
301.518	83.25
301.748	96.25
301.979	92.25
302.209	77.25
302.439	75.25
302.669	90.25
302.9	81.25
303.13	94.25
303.36	96.25
303.59	99.25
303.82	101.25
304.051	88.25
304.281	73.25
304.511	95.25
304.741	81.25
304.971	76.25
305.201	95.25
305.431	74.25
305.661	84.25
305.891	84.25
306.121	99.25
306.352	99.25
306.582	99.25
306.812	84.25
307.042	84.25
307.272	103.25
307.502	92.25
307.731	85.25
307.961	95.25
308.191	89.25
308.421	84.25
308.651	106.25
308.881	91.25
309.111	98.25
309.341	88.25
309.571	85.25
309.8	98.25
310.03	91.25
310.26	97.25
310.49	89.25
310.72	101.25
310.949	114.25
311.179	77.25
311.409	104.25
311.639	102.25
311.868	104.25
312.098	95.25
312.328	83.25
312.557	94.25
312.787	90.25
313.017	96.25
313.246	83.25
313.476	79.25
313.706	105.25
313.935	87.25
314.165	106.25
314.394	109.25
314.624	92.25
314.853	93.25
315.083	86.25
315.312	91.25
315.542	92.25
315.771	91.25
316.001	87.25
316.23	84.25
316.46	81.25
316.689	78.25
316.919	95.25
317.148	99.25
317.377	90.25
317.607	100.25
317.836	100.25
318.065	88.25
318.295	85.25
318.524	83.25
318.753	76.25
318.983	98.25
319.212	98.25
319.441	113.25
319.67	100.25
319.9	97.25
320.129	84.25
320.358	98.25
320.587	92.25
320.816	103.25
321.046	95.25
321.275	106.25
321.504	104.25
321.733	104.25
321.962	99.25
322.191	100.25
322.42	91.25
322.649	105.25
322.878	102.25
323.108	104.25
323.337	123.25
323.566	125.25
323.795	139.25
324.024	230.25
324.253	412.25
324.482	850.25
324.71	1703.25
324.939	2240.25
325.168	804.25
325.397	243.25
325.626	164.25
325.855	119.25
326.084	142.25
326.313	130.25
326.542	149.25
326.77	224.25
326.999	487.25
327.228	962.25
327.457	1737.25
327.686	1383.25
327.914	344.25
328.143	192.25
328.372	133.25
328.6	121.25
328.829	122.25
329.058	118.25
329.287	137.25
329.515	116.25
329.744	110.25
329.972	109.25
330.201	110.25
330.43	118.25
330.658	98.25
330.887	140.25
331.115	127.25
331.344	92.25
331.572	99.25
331.801	109.25
332.03	107.25
332.258	80.25
332.486	84.25
332.715	95.25
332.943	96.25
333.172	92.25
333.4	88.25
333.629	97.25
333.857	110.25
334.085	103.25
334.314	93.25
334.542	108.25
334.771	104.25
334.999	95.25
335.227	84.25
335.455	92.25
335.684	92.25
335.912	101.25
336.14	101.25
336.369	101.25
336.597	91.25
336.825	86.25
337.053	88.25
337.281	99.25
337.51	81.25
337.738	83.25
337.966	89.25
338.194	94.25
338.422	98.25
338.65	88.25
338.878	88.25
339.106	78.25
339.334	105.25
339.562	76.25
339.79	86.25
340.018	93.25
340.246	91.25
340.474	95.25
340.702	95.25
340.93	93.25
341.158	91.25
341.386	91.25
341.614	101.25
341.842	80.25
342.07	94.25
342.298	93.25
342.526	89.25
342.754	84.25
342.981	71.25
343.209	83.25
343.437	98.25
343.665	94.25
343.893	82.25
344.12	91.25
344.348	85.25
344.576	85.25
344.804	82.25
345.031	85.25
345.259	99.25
345.487	91.25
345.714	98.25
345.942	93.25
346.17	91.25
346.397	93.25
346.625	91.25
346.853	94.25
347.08	94.25
347.308	91.25
347.535	98.25
347.763	86.25
347.99	107.25
348.218	88.25
348.445	111.25
348.673	95.25
348.9	107.25
349.128	93.25
349.355	93.25
349.583	83.25
349.81	88.25
350.037	90.25
350.265	70.25
350.492	97.25
350.72	81.25
350.947	99.25
351.174	111.25
351.402	107.25
351.629	97.25
351.856	111.25
352.083	88.25
352.311	102.25
352.538	114.25
352.765	109.25
352.992	92.25
353.22	101.25
353.447	101.25
353.674	86.25
353.901	92.25
354.128	83.25
354.355	87.25
354.583	82.25
354.81	97.25
355.037	96.25
355.264	93.25
355.491	83.25
355.718	82.25
355.945	87.25
356.172	92.25
356.399	76.25
356.626	91.25
356.853	94.25
357.08	81.25
357.307	71.25
357.534	82.25
357.761	101.25
357.988	92.25
358.215	91.25
358.441	100.25
358.668	95.25
358.895	87.25
359.122	90.25
359.349	85.25
359.576	91.25
359.802	102.25
360.029	115.25
360.256	107.25
360.483	97.25
360.709	78.25
360.936	83.25
361.163	88.25
361.39	82.25
361.616	89.25
361.843	88.25
362.07	83.25
362.296	92.25
362.523	98.25
362.749	88.25
362.976	78.25
363.203	98.25
363.429	83.25
363.656	82.25
363.882	95.25
364.109	70.25
364.335	92.25
364.562	83.25
364.788	94.25
365.015	96.25
365.241	88.25
365.468	97.25
365.694	87.25
365.92	98.25
366.147	80.25
366.373	89.25
366.599	98.25
366.826	85.25
367.052	85.25
367.278	93.25
367.505	89.25
367.731	78.25
367.957	83.25
368.184	87.25
368.41	98.25
368.636	117.25
368.862	122.25
369.089	116.25
369.315	94.25
369.541	95.25
369.767	88.25
369.993	93.25
370.219	83.25
370.445	84.25
370.672	86.25
370.898	80.25
371.124	78.25
371.35	76.25
371.576	103.25
371.802	98.25
372.028	78.25
372.254	86.25
372.48	99.25
372.706	88.25
372.932	96.25
373.158	87.25
373.384	92.25
373.61	98.25
373.835	76.25
374.061	88.25
374.287	88.25
374.513	92.25
374.739	79.25
374.965	86.25
375.191	78.25
375.416	88.25
375.642	100.25
375.868	66.25
376.094	101.25
376.319	91.25
376.545	86.25
376.771	82.25
376.997	87.25
377.222	87.25
377.448	100.25
377.674	79.25
377.899	64.25
378.125	83.25
378.35	89.25
378.576	79.25
378.802	82.25
379.027	92.25
379.253	86.25
379.478	85.25
379.704	85.25
379.929	85.25
380.155	88.25
380.38	92.25
380.606	92.25
380.831	88.25
381.057	100.25
381.282	89.25
381.507	91.25
381.733	94.25
381.958	88.25
382.184	90.25
382.409	109.25
382.634	94.25
382.86	106.25
383.085	85.25
383.31	96.25
383.535	97.25
383.761	92.25
383.986	92.25
384.211	98.25
384.436	85.25
384.662	95.25
384.887	93.25
385.112	94.25
385.337	99.25
385.562	98.25
385.787	98.25
386.013	93.25
386.238	107.25
386.463	103.25
386.688	100.25
386.913	102.25
387.138	108.25
387.363	94.25
387.588	99.25
387.813	98.25
388.038	96.25
388.263	92.25
388.488	101.25
388.713	103.25
388.938	87.25
389.163	93.25
389.387	87.25
389.612	83.25
389.837	93.25
390.062	92.25
390.287	101.25
390.512	93.25
390.736	81.25
390.961	87.25
391.186	83.25
391.411	93.25
391.636	86.25
391.86	88.25
392.085	76.25
392.31	84.25
392.534	74.25
392.759	82.25
392.984	87.25
393.208	77.25
393.433	75.25
393.658	79.25
393.882	87.25
394.107	88.25
394.331	84.25
394.556	82.25
394.78	83.25
395.005	90.25
395.229	80.25
395.454	80.25
395.678	92.25
395.903	81.25
396.127	78.25
396.352	88.25
396.576	74.25
396.801	82.25
397.025	88.25
397.249	68.25
397.474	84.25
397.698	88.25
397.922	82.25
398.147	91.25
398.371	86.25
398.595	87.25
398.82	75.25
399.044	79.25
399.268	78.25
399.492	81.25
399.717	101.25
399.941	75.25
400.165	99.25
400.389	81.25
400.613	91.25
400.837	97.25
401.062	79.25
401.286	98.25
401.51	86.25
401.734	95.25
401.958	93.25
402.182	129.25
402.406	159.25
402.63	138.25
402.854	87.25
403.078	92.25
403.302	83.25
403.526	85.25
403.75	80.25
403.974	83.25
404.198	84.25
404.422	85.25
404.645	83.25
404.869	75.25
405.093	97.25
405.317	88.25
405.541	99.25
405.765	97.25
405.988	108.25
406.212	171.25
406.436	235.25
406.66	149.25
406.883	87.25
407.107	99.25
407.331	86.25
407.555	102.25
407.778	100.25
408.002	98.25
408.226	84.25
408.449	94.25
408.673	68.25
408.896	88.25
409.12	84.25
409.344	97.25
409.567	90.25
409.791	88.25
410.014	86.25
410.238	100.25
410.461	87.25
410.685	88.25
410.908	86.25
411.132	104.25
411.355	95.25
411.578	86.25
411.802	91.25
412.025	76.25
412.249	91.25
412.472	88.25
412.695	88.25
412.919	79.25
413.142	89.25
413.365	85.25
413.589	78.25
413.812	86.25
414.035	93.25
414.258	80.25
414.482	85.25
414.705	82.25
414.928	76.25
415.151	91.25
415.374	81.25
415.597	85.25
415.821	85.25
416.044	81.25
416.267	90.25
416.49	68.25
416.713	83.25
416.936	93.25
417.159	85.25
417.382	93.25
417.605	86.25
417.828	81.25
418.051	92.25
418.274	75.25
418.497	93.25
418.72	73.25
418.943	83.25
419.166	87.25
419.389	87.25
419.611	89.25
419.834	87.25
420.057	85.25
420.28	82.25
420.503	87.25
420.726	84.25
420.948	90.25
421.171	82.25
421.394	96.25
421.617	93.25
421.839	101.25
422.062	87.25
422.285	82.25
422.507	78.25
422.73	94.25
422.953	94.25
423.175	85.25
423.398	85.25
423.621	94.25
423.843	85.25
424.066	89.25
424.288	86.25
424.511	90.25
424.733	98.25
424.956	99.25
425.178	103.25
425.401	92.25
425.623	110.25
425.846	87.25
426.068	93.25
426.291	79.25
426.513	98.25
426.735	75.25
426.958	93.25
427.18	107.25
427.402	136.25
427.625	159.25
427.847	120.25
428.069	103.25
428.292	85.25
428.514	75.25
428.736	74.25
428.958	72.25
429.181	87.25
429.403	85.25
429.625	87.25
429.847	90.25
430.069	85.25
430.292	101.25
430.514	83.25
430.736	85.25
430.958	78.25
431.18	72.25
431.402	82.25
431.624	75.25
431.846	76.25
432.068	80.25
432.29	94.25
432.512	86.25
432.734	78.25
432.956	86.25
433.178	87.25
433.4	102.25
433.622	92.25
433.844	81.25
434.066	89.25
434.287	91.25
434.509	88.25
434.731	72.25
434.953	92.25
435.175	93.25
435.397	90.25
435.618	88.25
435.84	95.25
436.062	122.25
436.284	108.25
436.505	85.25
436.727	86.25
436.949	83.25
437.17	84.25
437.392	85.25
437.614	94.25
437.835	110.25
438.057	100.25
438.278	97.25
438.5	109.25
438.721	115.25
438.943	99.25
439.165	74.25
439.386	79.25
439.608	78.25
439.829	102.25
440.05	112.25
440.272	143.25
440.493	92.25
440.715	94.25
440.936	76.25
441.158	92.25
441.379	96.25
441.6	85.25
441.822	81.25
442.043	83.25
442.264	101.25
442.486	86.25
442.707	87.25
442.928	108.25
443.149	131.25
443.371	123.25
443.592	110.25
443.813	113.25
444.034	119.25
444.255	90.25
444.476	94.25
444.698	77.25
444.919	81.25
445.14	130.25
445.361	107.25
445.582	109.25
445.803	121.25
446.024	142.25
446.245	123.25
446.466	96.25
446.687	88.25
446.908	103.25
447.129	84.25
447.35	93.25
447.571	91.25
447.792	99.25
448.013	97.25
448.234	106.25
448.455	93.25
448.675	109.25
448.896	118.25
449.117	92.25
449.338	105.25
449.559	133.25
449.779	126.25
450	84.25
450.221	91.25
450.442	81.25
450.662	103.25
450.883	110.25
451.104	116.25
451.324	99.25
451.545	85.25
451.766	95.25
451.986	88.25
452.207	87.25
452.428	86.25
452.648	86.25
452.869	97.25
453.089	100.25
453.31	102.25
453.53	100.25
453.751	85.25
453.971	89.25
454.192	107.25
454.412	95.25
454.633	74.25
454.853	84.25
455.073	83.25
455.294	92.25
455.514	96.25
455.734	82.25
455.955	82.25
456.175	92.25
456.395	70.25
456.616	87.25
456.836	94.25
457.056	93.25
457.276	86.25
457.497	65.25
457.717	80.25
457.937	92.25
458.157	89.25
458.377	92.25
458.598	111.25
458.818	140.25
459.038	152.25
459.258	117.25
459.478	95.25
459.698	81.25
459.918	96.25
460.138	87.25
460.358	99.25
460.578	82.25
460.798	82.25
461.018	90.25
461.238	80.25
461.458	93.25
461.678	78.25
461.898	88.25
462.118	80.25
462.338	79.25
462.558	70.25
462.777	83.25
462.997	78.25
463.217	75.25
463.437	70.25
463.657	86.25
463.876	72.25
464.096	80.25
464.316	94.25
464.536	83.25
464.755	99.25
464.975	115.25
465.195	173.25
465.414	160.25
465.634	96.25
465.854	86.25
466.073	89.25
466.293	78.25
466.512	72.25
466.732	84.25
466.951	81.25
467.171	85.25
467.391	95.25
467.61	116.25
467.829	89.25
468.049	83.25
468.268	78.25
468.488	83.25
468.707	95.25
468.927	76.25
469.146	78.25
469.365	69.25
469.585	92.25
469.804	85.25
470.023	86.25
470.243	83.25
470.462	98.25
470.681	105.25
470.901	87.25
471.12	83.25
471.339	84.25
471.558	79.25
471.777	83.25
471.997	90.25
472.216	91.25
472.435	102.25
472.654	89.25
472.873	94.25
473.092	70.25
473.311	88.25
473.53	88.25
473.749	78.25
473.968	92.25
474.187	96.25
474.406	105.25
474.625	83.25
474.844	82.25
475.063	85.25
475.282	80.25
475.501	87.25
475.72	91.25
475.939	66.25
476.158	84.25
476.377	95.25
476.596	83.25
476.814	96.25
477.033	82.25
477.252	84.25
477.471	92.25
477.69	91.25
477.908	80.25
478.127	81.25
478.346	90.25
478.564	81.25
478.783	90.25
479.002	96.25
479.22	87.25
479.439	94.25
479.658	87.25
479.876	100.25
480.095	88.25
480.313	89.25
480.532	93.25
480.751	89.25
480.969	95.25
481.188	113.25
481.406	95.25
481.624	95.25
481.843	84.25
482.061	78.25
482.28	99.25
482.498	76.25
482.717	81.25
482.935	76.25
483.153	72.25
483.372	84.25
483.59	94.25
483.808	83.25
484.027	94.25
484.245	99.25
484.463	87.25
484.681	89.25
484.9	93.25
485.118	98.25
485.336	84.25
485.554	88.25
485.772	86.25
485.99	78.25
486.209	94.25
486.427	110.25
486.645	103.25
486.863	121.25
487.081	112.25
487.299	106.25
487.517	111.25
487.735	99.25
487.953	94.25
488.171	81.25
488.389	81.25
488.607	76.25
488.825	83.25
489.043	83.25
489.261	83.25
489.479	81.25
489.696	83.25
489.914	88.25
490.132	96.25
490.35	71.25
490.568	83.25
490.786	95.25
491.003	87.25
491.221	82.25
491.439	83.25
491.657	82.25
491.874	95.25
492.092	90.25
492.31	93.25
492.527	85.25
492.745	74.25
492.963	87.25
493.18	86.25
493.398	79.25
493.615	98.25
493.833	82.25
494.05	101.25
494.268	75.25
494.485	78.25
494.703	70.25
494.92	95.25
495.138	79.25
495.355	98.25
495.573	105.25
495.79	87.25
496.008	86.25
496.225	84.25
496.442	75.25
496.66	78.25
496.877	97.25
497.094	96.25
497.312	78.25
497.529	98.25
497.746	81.25
497.963	86.25
498.181	86.25
498.398	95.25
498.615	93.25
498.832	97.25
499.049	96.25
499.267	103.25
499.484	85.25
499.701	86.25
499.918	88.25
500.135	91.25
500.352	93.25
500.569	94.25
500.786	89.25
501.003	88.25
501.22	91.25
501.437	88.25
501.654	102.25
501.871	96.25
502.088	93.25
502.305	102.25
502.522	99.25
502.739	79.25
502.956	103.25
503.172	99.25
503.389	85.25
503.606	105.25
503.823	88.25
504.04	94.25
504.256	101.25
504.473	95.25
504.69	77.25
504.907	95.25
505.123	92.25
505.34	76.25
505.557	85.25
505.773	106.25
505.99	96.25
506.207	92.25
506.423	100.25
506.64	92.25
506.856	92.25
507.073	88.25
507.289	93.25
507.506	99.25
507.722	117.25
507.939	94.25
508.155	98.25
508.372	75.25
508.588	99.25
508.805	92.25
509.021	86.25
509.238	88.25
509.454	102.25
509.67	100.25
509.887	124.25
510.103	134.25
510.319	226.25
510.536	829.25
510.752	2558.25
510.968	718.25
511.184	171.25
511.401	120.25
511.617	98.25
511.833	99.25
512.049	99.25
512.265	91.25
512.481	95.25
512.698	86.25
512.914	94.25
513.13	89.25
513.346	88.25
513.562	100.25
513.778	89.25
513.994	84.25
514.21	100.25
514.426	122.25
514.642	126.25
514.858	120.25
515.074	167.25
515.29	488.25
515.506	1574.25
515.721	583.25
515.937	145.25
516.153	110.25
516.369	101.25
516.585	92.25
516.801	96.25
