Data from Uncirc_2004_H10_HRD10591_00077.txt Node
Date: Wed Jan 03 10:32:28 EST 2024
User: Yrep
Spectrometer: HR+D1059
Trigger mode: 1
Integration Time (sec): 1.000000E-1
Scans to average: 1
Electric dark correction enabled: true
Nonlinearity correction enabled: false
Boxcar width: 0
XAxis mode: Wavelengths
Number of Pixels in Spectrum: 2048
>>>>>Begin Spectral Data<<<<<
223.165	-2.69
223.4	-2.69
223.635	-2.69
223.869	-12.69
224.104	-24.69
224.338	-15.69
224.573	-18.69
224.808	-10.69
225.042	-20.69
225.277	-1.69
225.511	-4.69
225.746	2.31
225.98	13.31
226.215	21.31
226.449	6.31
226.683	33.31
226.918	15.31
227.152	20.31
227.387	36.31
227.621	33.31
227.856	48.31
228.09	36.31
228.324	61.31
228.559	65.31
228.793	64.31
229.027	57.31
229.262	63.31
229.496	73.31
229.73	86.31
229.964	87.31
230.199	75.31
230.433	84.31
230.667	81.31
230.901	77.31
231.136	65.31
231.37	78.31
231.604	63.31
231.838	65.31
232.072	88.31
232.306	77.31
232.541	89.31
232.775	102.31
233.009	78.31
233.243	86.31
233.477	77.31
233.711	92.31
233.945	85.31
234.179	81.31
234.413	77.31
234.647	85.31
234.881	83.31
235.115	68.31
235.349	90.31
235.583	62.31
235.817	76.31
236.051	73.31
236.285	81.31
236.519	73.31
236.753	70.31
236.987	72.31
237.221	84.31
237.455	80.31
237.689	85.31
237.922	82.31
238.156	71.31
238.39	63.31
238.624	77.31
238.858	76.31
239.091	89.31
239.325	92.31
239.559	78.31
239.793	84.31
240.027	81.31
240.26	95.31
240.494	84.31
240.728	61.31
240.961	71.31
241.195	77.31
241.429	75.31
241.662	83.31
241.896	74.31
242.13	64.31
242.363	70.31
242.597	68.31
242.83	81.31
243.064	68.31
243.298	86.31
243.531	65.31
243.765	79.31
243.998	75.31
244.232	81.31
244.465	80.31
244.699	81.31
244.932	79.31
245.166	76.31
245.399	81.31
245.633	74.31
245.866	88.31
246.099	81.31
246.333	83.31
246.566	79.31
246.8	82.31
247.033	77.31
247.266	62.31
247.5	67.31
247.733	86.31
247.966	81.31
248.2	78.31
248.433	81.31
248.666	76.31
248.899	92.31
249.133	73.31
249.366	80.31
249.599	93.31
249.832	83.31
250.066	88.31
250.299	75.31
250.532	85.31
250.765	70.31
250.998	82.31
251.231	94.31
251.465	87.31
251.698	83.31
251.931	82.31
252.164	76.31
252.397	78.31
252.63	86.31
252.863	83.31
253.096	69.31
253.329	76.31
253.562	74.31
253.795	71.31
254.028	74.31
254.261	87.31
254.494	75.31
254.727	81.31
254.96	76.31
255.193	78.31
255.426	84.31
255.659	78.31
255.892	71.31
256.124	82.31
256.357	69.31
256.59	96.31
256.823	81.31
257.056	85.31
257.289	79.31
257.521	87.31
257.754	80.31
257.987	87.31
258.22	95.31
258.452	76.31
258.685	88.31
258.918	72.31
259.151	63.31
259.383	56.31
259.616	75.31
259.849	88.31
260.081	90.31
260.314	78.31
260.547	81.31
260.779	77.31
261.012	79.31
261.244	75.31
261.477	85.31
261.71	93.31
261.942	116.31
262.175	94.31
262.407	89.31
262.64	81.31
262.872	87.31
263.105	78.31
263.337	85.31
263.57	87.31
263.802	84.31
264.035	86.31
264.267	85.31
264.499	84.31
264.732	76.31
264.964	82.31
265.197	95.31
265.429	90.31
265.661	80.31
265.894	87.31
266.126	93.31
266.358	80.31
266.591	78.31
266.823	74.31
267.055	97.31
267.287	70.31
267.52	96.31
267.752	77.31
267.984	73.31
268.216	88.31
268.448	77.31
268.681	89.31
268.913	81.31
269.145	78.31
269.377	77.31
269.609	96.31
269.841	92.31
270.073	81.31
270.306	82.31
270.538	80.31
270.77	79.31
271.002	80.31
271.234	75.31
271.466	78.31
271.698	75.31
271.93	101.31
272.162	87.31
272.394	83.31
272.626	92.31
272.858	91.31
273.09	83.31
273.322	83.31
273.553	76.31
273.785	76.31
274.017	86.31
274.249	95.31
274.481	75.31
274.713	88.31
274.945	91.31
275.176	68.31
275.408	83.31
275.64	81.31
275.872	96.31
276.104	90.31
276.335	95.31
276.567	103.31
276.799	115.31
277.031	89.31
277.262	71.31
277.494	106.31
277.726	75.31
277.957	72.31
278.189	80.31
278.421	85.31
278.652	70.31
278.884	91.31
279.115	76.31
279.347	72.31
279.579	83.31
279.81	95.31
280.042	93.31
280.273	81.31
280.505	87.31
280.736	69.31
280.968	77.31
281.199	72.31
281.431	93.31
281.662	89.31
281.894	95.31
282.125	91.31
282.356	135.31
282.588	127.31
282.819	103.31
283.051	83.31
283.282	81.31
283.513	88.31
283.745	85.31
283.976	89.31
284.207	85.31
284.439	87.31
284.67	88.31
284.901	78.31
285.132	80.31
285.364	80.31
285.595	93.31
285.826	78.31
286.057	93.31
286.288	88.31
286.52	83.31
286.751	89.31
286.982	97.31
287.213	88.31
287.444	97.31
287.675	98.31
287.906	90.31
288.138	108.31
288.369	106.31
288.6	94.31
288.831	89.31
289.062	90.31
289.293	77.31
289.524	83.31
289.755	84.31
289.986	76.31
290.217	88.31
290.448	97.31
290.679	84.31
290.91	88.31
291.141	95.31
291.371	101.31
291.602	92.31
291.833	97.31
292.064	93.31
292.295	94.31
292.526	95.31
292.757	102.31
292.987	98.31
293.218	85.31
293.449	81.31
293.68	98.31
293.91	73.31
294.141	89.31
294.372	90.31
294.603	100.31
294.833	86.31
295.064	100.31
295.295	86.31
295.525	97.31
295.756	102.31
295.987	102.31
296.217	135.31
296.448	125.31
296.679	99.31
296.909	106.31
297.14	94.31
297.37	89.31
297.601	79.31
297.831	86.31
298.062	92.31
298.292	76.31
298.523	97.31
298.753	79.31
298.984	92.31
299.214	93.31
299.445	107.31
299.675	99.31
299.905	106.31
300.136	85.31
300.366	88.31
300.597	87.31
300.827	89.31
301.057	98.31
301.288	95.31
301.518	95.31
301.748	85.31
301.979	106.31
302.209	100.31
302.439	86.31
302.669	83.31
302.9	86.31
303.13	92.31
303.36	81.31
303.59	102.31
303.82	94.31
304.051	95.31
304.281	91.31
304.511	88.31
304.741	103.31
304.971	75.31
305.201	84.31
305.431	89.31
305.661	91.31
305.891	92.31
306.121	98.31
306.352	96.31
306.582	95.31
306.812	98.31
307.042	96.31
307.272	106.31
307.502	84.31
307.731	85.31
307.961	84.31
308.191	90.31
308.421	80.31
308.651	96.31
308.881	83.31
309.111	85.31
309.341	84.31
309.571	84.31
309.8	95.31
310.03	107.31
310.26	99.31
310.49	96.31
310.72	105.31
310.949	101.31
311.179	99.31
311.409	96.31
311.639	92.31
311.868	102.31
312.098	94.31
312.328	95.31
312.557	104.31
312.787	99.31
313.017	79.31
313.246	96.31
313.476	101.31
313.706	94.31
313.935	93.31
314.165	93.31
314.394	87.31
314.624	86.31
314.853	101.31
315.083	100.31
315.312	106.31
315.542	90.31
315.771	96.31
316.001	97.31
316.23	80.31
316.46	93.31
316.689	95.31
316.919	97.31
317.148	83.31
317.377	105.31
317.607	107.31
317.836	99.31
318.065	84.31
318.295	89.31
318.524	91.31
318.753	93.31
318.983	94.31
319.212	101.31
319.441	118.31
319.67	97.31
319.9	94.31
320.129	97.31
320.358	109.31
320.587	89.31
320.816	104.31
321.046	101.31
321.275	95.31
321.504	93.31
321.733	94.31
321.962	93.31
322.191	108.31
322.42	106.31
322.649	108.31
322.878	115.31
323.108	126.31
323.337	112.31
323.566	121.31
323.795	157.31
324.024	196.31
324.253	409.31
324.482	857.31
324.71	1753.31
324.939	2227.31
325.168	843.31
325.397	242.31
325.626	153.31
325.855	127.31
326.084	116.31
326.313	131.31
326.542	146.31
326.77	231.31
326.999	467.31
327.228	985.31
327.457	1791.31
327.686	1366.31
327.914	369.31
328.143	186.31
328.372	127.31
328.6	116.31
328.829	109.31
329.058	125.31
329.287	111.31
329.515	105.31
329.744	98.31
329.972	108.31
330.201	116.31
330.43	110.31
330.658	120.31
330.887	142.31
331.115	111.31
331.344	102.31
331.572	100.31
331.801	102.31
332.03	90.31
332.258	85.31
332.486	96.31
332.715	99.31
332.943	99.31
333.172	79.31
333.4	93.31
333.629	112.31
333.857	108.31
334.085	101.31
334.314	108.31
334.542	99.31
334.771	105.31
334.999	100.31
335.227	100.31
335.455	103.31
335.684	90.31
335.912	92.31
336.14	105.31
336.369	95.31
336.597	87.31
336.825	94.31
337.053	86.31
337.281	109.31
337.51	89.31
337.738	97.31
337.966	84.31
338.194	89.31
338.422	89.31
338.65	96.31
338.878	96.31
339.106	85.31
339.334	95.31
339.562	88.31
339.79	82.31
340.018	101.31
340.246	105.31
340.474	104.31
340.702	103.31
340.93	77.31
341.158	86.31
341.386	84.31
341.614	88.31
341.842	97.31
342.07	92.31
342.298	99.31
342.526	91.31
342.754	104.31
342.981	93.31
343.209	92.31
343.437	102.31
343.665	93.31
343.893	79.31
344.12	82.31
344.348	82.31
344.576	83.31
344.804	88.31
345.031	92.31
345.259	81.31
345.487	97.31
345.714	90.31
345.942	83.31
346.17	80.31
346.397	94.31
346.625	85.31
346.853	87.31
347.08	95.31
347.308	77.31
347.535	98.31
347.763	97.31
347.99	101.31
348.218	109.31
348.445	121.31
348.673	108.31
348.9	92.31
349.128	96.31
349.355	100.31
349.583	84.31
349.81	101.31
350.037	87.31
350.265	111.31
350.492	97.31
350.72	108.31
350.947	89.31
351.174	112.31
351.402	97.31
351.629	101.31
351.856	114.31
352.083	107.31
352.311	94.31
352.538	112.31
352.765	93.31
352.992	109.31
353.22	106.31
353.447	103.31
353.674	99.31
353.901	92.31
354.128	102.31
354.355	105.31
354.583	96.31
354.81	101.31
355.037	105.31
355.264	89.31
355.491	87.31
355.718	80.31
355.945	93.31
356.172	96.31
356.399	96.31
356.626	83.31
356.853	81.31
357.08	91.31
357.307	102.31
357.534	97.31
357.761	96.31
357.988	85.31
358.215	82.31
358.441	98.31
358.668	80.31
358.895	84.31
359.122	96.31
359.349	88.31
359.576	104.31
359.802	95.31
360.029	109.31
360.256	106.31
360.483	94.31
360.709	83.31
360.936	86.31
361.163	95.31
361.39	79.31
361.616	107.31
361.843	106.31
362.07	107.31
362.296	102.31
362.523	89.31
362.749	96.31
362.976	90.31
363.203	101.31
363.429	89.31
363.656	90.31
363.882	97.31
364.109	79.31
364.335	103.31
364.562	102.31
364.788	98.31
365.015	83.31
365.241	89.31
365.468	103.31
365.694	99.31
365.92	98.31
366.147	96.31
366.373	92.31
366.599	95.31
366.826	88.31
367.052	96.31
367.278	76.31
367.505	75.31
367.731	92.31
367.957	88.31
368.184	87.31
368.41	110.31
368.636	106.31
368.862	95.31
369.089	95.31
369.315	107.31
369.541	107.31
369.767	97.31
369.993	96.31
370.219	84.31
370.445	81.31
370.672	92.31
370.898	84.31
371.124	79.31
371.35	86.31
371.576	87.31
371.802	72.31
372.028	76.31
372.254	79.31
372.48	89.31
372.706	95.31
372.932	84.31
373.158	82.31
373.384	87.31
373.61	89.31
373.835	95.31
374.061	92.31
374.287	103.31
374.513	83.31
374.739	82.31
374.965	85.31
375.191	89.31
375.416	90.31
375.642	89.31
375.868	96.31
376.094	88.31
376.319	97.31
376.545	93.31
376.771	90.31
376.997	110.31
377.222	99.31
377.448	88.31
377.674	87.31
377.899	94.31
378.125	89.31
378.35	99.31
378.576	79.31
378.802	99.31
379.027	93.31
379.253	85.31
379.478	96.31
379.704	93.31
379.929	104.31
380.155	85.31
380.38	105.31
380.606	86.31
380.831	96.31
381.057	92.31
381.282	94.31
381.507	106.31
381.733	100.31
381.958	98.31
382.184	88.31
382.409	87.31
382.634	102.31
382.86	109.31
383.085	105.31
383.31	112.31
383.535	99.31
383.761	93.31
383.986	99.31
384.211	104.31
384.436	103.31
384.662	82.31
384.887	82.31
385.112	92.31
385.337	106.31
385.562	88.31
385.787	107.31
386.013	116.31
386.238	112.31
386.463	109.31
386.688	111.31
386.913	107.31
387.138	112.31
387.363	110.31
387.588	105.31
387.813	98.31
388.038	105.31
388.263	88.31
388.488	103.31
388.713	85.31
388.938	111.31
389.163	99.31
389.387	97.31
389.612	80.31
389.837	93.31
390.062	96.31
390.287	96.31
390.512	85.31
390.736	87.31
390.961	104.31
391.186	99.31
391.411	79.31
391.636	95.31
391.86	80.31
392.085	105.31
392.31	69.31
392.534	92.31
392.759	91.31
392.984	63.31
393.208	81.31
393.433	88.31
393.658	79.31
393.882	81.31
394.107	99.31
394.331	73.31
394.556	87.31
394.78	86.31
395.005	94.31
395.229	76.31
395.454	81.31
395.678	80.31
395.903	94.31
396.127	96.31
396.352	86.31
396.576	101.31
396.801	77.31
397.025	87.31
397.249	94.31
397.474	84.31
397.698	102.31
397.922	98.31
398.147	82.31
398.371	77.31
398.595	82.31
398.82	84.31
399.044	81.31
399.268	86.31
399.492	85.31
399.717	95.31
399.941	92.31
400.165	73.31
400.389	93.31
400.613	87.31
400.837	81.31
401.062	91.31
401.286	89.31
401.51	75.31
401.734	92.31
401.958	103.31
402.182	116.31
402.406	136.31
402.63	119.31
402.854	92.31
403.078	104.31
403.302	71.31
403.526	96.31
403.75	85.31
403.974	84.31
404.198	86.31
404.422	83.31
404.645	93.31
404.869	87.31
405.093	100.31
405.317	96.31
405.541	95.31
405.765	104.31
405.988	124.31
406.212	162.31
406.436	214.31
406.66	141.31
406.883	96.31
407.107	88.31
407.331	86.31
407.555	93.31
407.778	91.31
408.002	77.31
408.226	100.31
408.449	96.31
408.673	86.31
408.896	96.31
409.12	103.31
409.344	88.31
409.567	86.31
409.791	86.31
410.014	89.31
410.238	79.31
410.461	97.31
410.685	110.31
410.908	106.31
411.132	116.31
411.355	94.31
411.578	83.31
411.802	114.31
412.025	96.31
412.249	82.31
412.472	75.31
412.695	86.31
412.919	90.31
413.142	80.31
413.365	91.31
413.589	92.31
413.812	96.31
414.035	92.31
414.258	81.31
414.482	85.31
414.705	92.31
414.928	84.31
415.151	84.31
415.374	97.31
415.597	83.31
415.821	100.31
416.044	78.31
416.267	81.31
416.49	94.31
416.713	93.31
416.936	95.31
417.159	98.31
417.382	99.31
417.605	86.31
417.828	95.31
418.051	86.31
418.274	100.31
418.497	89.31
418.72	89.31
418.943	96.31
419.166	95.31
419.389	85.31
419.611	78.31
419.834	80.31
420.057	93.31
420.28	92.31
420.503	92.31
420.726	83.31
420.948	87.31
421.171	88.31
421.394	111.31
421.617	91.31
421.839	97.31
422.062	94.31
422.285	84.31
422.507	97.31
422.73	99.31
422.953	79.31
423.175	87.31
423.398	81.31
423.621	86.31
423.843	76.31
424.066	90.31
424.288	90.31
424.511	100.31
424.733	86.31
424.956	101.31
425.178	82.31
425.401	85.31
425.623	101.31
425.846	76.31
426.068	92.31
426.291	97.31
426.513	97.31
426.735	89.31
426.958	83.31
427.18	108.31
427.402	126.31
427.625	180.31
427.847	123.31
428.069	109.31
428.292	97.31
428.514	84.31
428.736	93.31
428.958	74.31
429.181	77.31
429.403	95.31
429.625	96.31
429.847	81.31
430.069	107.31
430.292	98.31
430.514	89.31
430.736	92.31
430.958	81.31
431.18	88.31
431.402	83.31
431.624	88.31
431.846	71.31
432.068	93.31
432.29	92.31
432.512	92.31
432.734	93.31
432.956	89.31
433.178	104.31
433.4	103.31
433.622	85.31
433.844	91.31
434.066	97.31
434.287	88.31
434.509	83.31
434.731	92.31
434.953	105.31
435.175	89.31
435.397	87.31
435.618	86.31
435.84	98.31
436.062	103.31
436.284	103.31
436.505	96.31
436.727	94.31
436.949	86.31
437.17	95.31
437.392	89.31
437.614	102.31
437.835	101.31
438.057	133.31
438.278	118.31
438.5	96.31
438.721	117.31
438.943	90.31
439.165	83.31
439.386	86.31
439.608	87.31
439.829	91.31
440.05	125.31
440.272	142.31
440.493	95.31
440.715	81.31
440.936	84.31
441.158	91.31
441.379	85.31
441.6	94.31
441.822	109.31
442.043	92.31
442.264	97.31
442.486	97.31
442.707	84.31
442.928	97.31
443.149	125.31
443.371	125.31
443.592	104.31
443.813	112.31
444.034	107.31
444.255	77.31
444.476	85.31
444.698	81.31
444.919	87.31
445.14	140.31
445.361	128.31
445.582	108.31
445.803	130.31
446.024	133.31
446.245	131.31
446.466	120.31
446.687	96.31
446.908	80.31
447.129	84.31
447.35	82.31
447.571	79.31
447.792	99.31
448.013	79.31
448.234	91.31
448.455	107.31
448.675	101.31
448.896	120.31
449.117	92.31
449.338	91.31
449.559	114.31
449.779	122.31
450	90.31
450.221	87.31
450.442	81.31
450.662	88.31
450.883	97.31
451.104	102.31
451.324	90.31
451.545	83.31
451.766	94.31
451.986	86.31
452.207	81.31
452.428	100.31
452.648	97.31
452.869	92.31
453.089	110.31
453.31	116.31
453.53	99.31
453.751	80.31
453.971	109.31
454.192	97.31
454.412	89.31
454.633	86.31
454.853	97.31
455.073	80.31
455.294	86.31
455.514	87.31
455.734	91.31
455.955	88.31
456.175	78.31
456.395	85.31
456.616	88.31
456.836	76.31
457.056	87.31
457.276	79.31
457.497	75.31
457.717	75.31
457.937	77.31
458.157	86.31
458.377	95.31
458.598	108.31
458.818	150.31
459.038	143.31
459.258	111.31
459.478	93.31
459.698	78.31
459.918	71.31
460.138	100.31
460.358	87.31
460.578	89.31
460.798	92.31
461.018	99.31
461.238	75.31
461.458	75.31
461.678	78.31
461.898	79.31
462.118	100.31
462.338	87.31
462.558	92.31
462.777	88.31
462.997	81.31
463.217	81.31
463.437	82.31
463.657	90.31
463.876	87.31
464.096	89.31
464.316	80.31
464.536	93.31
464.755	105.31
464.975	104.31
465.195	153.31
465.414	153.31
465.634	98.31
465.854	94.31
466.073	104.31
466.293	73.31
466.512	72.31
466.732	77.31
466.951	71.31
467.171	93.31
467.391	101.31
467.61	97.31
467.829	94.31
468.049	95.31
468.268	95.31
468.488	64.31
468.707	80.31
468.927	89.31
469.146	88.31
469.365	93.31
469.585	87.31
469.804	89.31
470.023	76.31
470.243	87.31
470.462	102.31
470.681	93.31
470.901	87.31
471.12	79.31
471.339	87.31
471.558	78.31
471.777	92.31
471.997	88.31
472.216	101.31
472.435	110.31
472.654	92.31
472.873	78.31
473.092	86.31
473.311	88.31
473.53	88.31
473.749	79.31
473.968	94.31
474.187	113.31
474.406	89.31
474.625	91.31
474.844	68.31
475.063	80.31
475.282	84.31
475.501	81.31
475.72	98.31
475.939	83.31
476.158	88.31
476.377	99.31
476.596	94.31
476.814	90.31
477.033	83.31
477.252	80.31
477.471	77.31
477.69	84.31
477.908	90.31
478.127	86.31
478.346	85.31
478.564	91.31
478.783	104.31
479.002	104.31
479.22	82.31
479.439	106.31
479.658	110.31
479.876	89.31
480.095	98.31
480.313	95.31
480.532	80.31
480.751	88.31
480.969	102.31
481.188	126.31
481.406	111.31
481.624	86.31
481.843	83.31
482.061	85.31
482.28	89.31
482.498	89.31
482.717	96.31
482.935	105.31
483.153	93.31
483.372	82.31
483.59	95.31
483.808	89.31
484.027	99.31
484.245	85.31
484.463	97.31
484.681	84.31
484.9	90.31
485.118	99.31
485.336	107.31
485.554	93.31
485.772	88.31
485.99	99.31
486.209	109.31
486.427	91.31
486.645	113.31
486.863	117.31
487.081	98.31
487.299	86.31
487.517	79.31
487.735	95.31
487.953	99.31
488.171	93.31
488.389	71.31
488.607	107.31
488.825	86.31
489.043	95.31
489.261	91.31
489.479	84.31
489.696	96.31
489.914	88.31
490.132	93.31
490.35	85.31
490.568	82.31
490.786	93.31
491.003	93.31
491.221	87.31
491.439	83.31
491.657	103.31
491.874	78.31
492.092	104.31
492.31	86.31
492.527	98.31
492.745	88.31
492.963	89.31
493.18	99.31
493.398	95.31
493.615	94.31
493.833	90.31
494.05	84.31
494.268	89.31
494.485	88.31
494.703	93.31
494.92	83.31
495.138	79.31
495.355	87.31
495.573	92.31
495.79	78.31
496.008	107.31
496.225	87.31
496.442	96.31
496.66	93.31
496.877	97.31
497.094	85.31
497.312	85.31
497.529	91.31
497.746	80.31
497.963	75.31
498.181	89.31
498.398	95.31
498.615	105.31
498.832	118.31
499.049	90.31
499.267	93.31
499.484	93.31
499.701	84.31
499.918	93.31
500.135	87.31
500.352	90.31
500.569	84.31
500.786	92.31
501.003	81.31
501.22	90.31
501.437	99.31
501.654	113.31
501.871	106.31
502.088	94.31
502.305	92.31
502.522	101.31
502.739	81.31
502.956	97.31
503.172	87.31
503.389	84.31
503.606	96.31
503.823	92.31
504.04	84.31
504.256	78.31
504.473	95.31
504.69	88.31
504.907	105.31
505.123	97.31
505.34	88.31
505.557	90.31
505.773	99.31
505.99	89.31
506.207	87.31
506.423	86.31
506.64	83.31
506.856	80.31
507.073	94.31
507.289	93.31
507.506	104.31
507.722	114.31
507.939	115.31
508.155	100.31
508.372	88.31
508.588	91.31
508.805	91.31
509.021	82.31
509.238	101.31
509.454	104.31
509.67	106.31
509.887	108.31
510.103	138.31
510.319	224.31
510.536	768.31
510.752	2427.31
510.968	670.31
511.184	155.31
511.401	118.31
511.617	99.31
511.833	85.31
512.049	95.31
512.265	84.31
512.481	81.31
512.698	88.31
512.914	98.31
513.13	104.31
513.346	107.31
513.562	97.31
513.778	87.31
513.994	98.31
514.21	90.31
514.426	115.31
514.642	133.31
514.858	123.31
515.074	166.31
515.29	450.31
515.506	1477.31
515.721	542.31
515.937	154.31
