Data from Uncirc_2004_H10_HRD10591_00057.txt Node
Date: Wed Jan 03 10:32:24 EST 2024
User: Yrep
Spectrometer: HR+D1059
Trigger mode: 1
Integration Time (sec): 1.000000E-1
Scans to average: 1
Electric dark correction enabled: true
Nonlinearity correction enabled: false
Boxcar width: 0
XAxis mode: Wavelengths
Number of Pixels in Spectrum: 2048
>>>>>Begin Spectral Data<<<<<
223.165	-8.75
223.4	-8.75
223.635	-8.75
223.869	-14.75
224.104	-22.75
224.338	-11.75
224.573	-20.75
224.808	-26.75
225.042	-2.75
225.277	3.25
225.511	3.25
225.746	16.25
225.98	-4.75
226.215	10.25
226.449	15.25
226.683	12.25
226.918	34.25
227.152	18.25
227.387	33.25
227.621	43.25
227.856	46.25
228.09	46.25
228.324	57.25
228.559	59.25
228.793	61.25
229.027	67.25
229.262	65.25
229.496	66.25
229.73	87.25
229.964	81.25
230.199	79.25
230.433	83.25
230.667	82.25
230.901	90.25
231.136	66.25
231.37	77.25
231.604	77.25
231.838	70.25
232.072	91.25
232.306	81.25
232.541	76.25
232.775	79.25
233.009	87.25
233.243	89.25
233.477	87.25
233.711	74.25
233.945	85.25
234.179	82.25
234.413	77.25
234.647	82.25
234.881	78.25
235.115	77.25
235.349	80.25
235.583	78.25
235.817	66.25
236.051	73.25
236.285	82.25
236.519	68.25
236.753	79.25
236.987	71.25
237.221	82.25
237.455	66.25
237.689	77.25
237.922	65.25
238.156	66.25
238.39	80.25
238.624	80.25
238.858	75.25
239.091	71.25
239.325	85.25
239.559	76.25
239.793	69.25
240.027	77.25
240.26	82.25
240.494	79.25
240.728	81.25
240.961	64.25
241.195	73.25
241.429	74.25
241.662	71.25
241.896	70.25
242.13	83.25
242.363	78.25
242.597	78.25
242.83	65.25
243.064	75.25
243.298	78.25
243.531	80.25
243.765	66.25
243.998	86.25
244.232	77.25
244.465	95.25
244.699	86.25
244.932	84.25
245.166	82.25
245.399	79.25
245.633	77.25
245.866	90.25
246.099	84.25
246.333	62.25
246.566	80.25
246.8	78.25
247.033	71.25
247.266	83.25
247.5	80.25
247.733	90.25
247.966	77.25
248.2	87.25
248.433	80.25
248.666	66.25
248.899	80.25
249.133	76.25
249.366	90.25
249.599	102.25
249.832	81.25
250.066	80.25
250.299	87.25
250.532	73.25
250.765	67.25
250.998	76.25
251.231	80.25
251.465	90.25
251.698	86.25
251.931	100.25
252.164	73.25
252.397	85.25
252.63	90.25
252.863	85.25
253.096	77.25
253.329	79.25
253.562	91.25
253.795	84.25
254.028	89.25
254.261	88.25
254.494	71.25
254.727	90.25
254.96	78.25
255.193	82.25
255.426	79.25
255.659	86.25
255.892	86.25
256.124	88.25
256.357	88.25
256.59	71.25
256.823	94.25
257.056	90.25
257.289	84.25
257.521	91.25
257.754	84.25
257.987	81.25
258.22	78.25
258.452	96.25
258.685	86.25
258.918	90.25
259.151	90.25
259.383	75.25
259.616	95.25
259.849	86.25
260.081	84.25
260.314	82.25
260.547	88.25
260.779	90.25
261.012	78.25
261.244	88.25
261.477	88.25
261.71	90.25
261.942	113.25
262.175	112.25
262.407	86.25
262.64	96.25
262.872	90.25
263.105	89.25
263.337	88.25
263.57	90.25
263.802	78.25
264.035	85.25
264.267	91.25
264.499	81.25
264.732	92.25
264.964	100.25
265.197	103.25
265.429	90.25
265.661	83.25
265.894	99.25
266.126	83.25
266.358	74.25
266.591	82.25
266.823	82.25
267.055	89.25
267.287	90.25
267.52	91.25
267.752	90.25
267.984	80.25
268.216	77.25
268.448	78.25
268.681	83.25
268.913	91.25
269.145	94.25
269.377	89.25
269.609	87.25
269.841	89.25
270.073	91.25
270.306	88.25
270.538	85.25
270.77	87.25
271.002	85.25
271.234	73.25
271.466	91.25
271.698	88.25
271.93	77.25
272.162	86.25
272.394	97.25
272.626	86.25
272.858	95.25
273.09	99.25
273.322	97.25
273.553	78.25
273.785	87.25
274.017	99.25
274.249	91.25
274.481	73.25
274.713	80.25
274.945	70.25
275.176	88.25
275.408	89.25
275.64	83.25
275.872	92.25
276.104	86.25
276.335	85.25
276.567	93.25
276.799	93.25
277.031	102.25
277.262	97.25
277.494	85.25
277.726	96.25
277.957	93.25
278.189	86.25
278.421	82.25
278.652	94.25
278.884	91.25
279.115	97.25
279.347	99.25
279.579	79.25
279.81	84.25
280.042	83.25
280.273	88.25
280.505	88.25
280.736	84.25
280.968	106.25
281.199	89.25
281.431	86.25
281.662	71.25
281.894	89.25
282.125	110.25
282.356	126.25
282.588	156.25
282.819	116.25
283.051	103.25
283.282	85.25
283.513	90.25
283.745	99.25
283.976	93.25
284.207	80.25
284.439	63.25
284.67	77.25
284.901	68.25
285.132	93.25
285.364	89.25
285.595	96.25
285.826	83.25
286.057	96.25
286.288	94.25
286.52	90.25
286.751	97.25
286.982	83.25
287.213	92.25
287.444	90.25
287.675	78.25
287.906	83.25
288.138	94.25
288.369	84.25
288.6	86.25
288.831	85.25
289.062	89.25
289.293	76.25
289.524	80.25
289.755	90.25
289.986	87.25
290.217	93.25
290.448	91.25
290.679	96.25
290.91	87.25
291.141	86.25
291.371	71.25
291.602	100.25
291.833	99.25
292.064	89.25
292.295	96.25
292.526	84.25
292.757	80.25
292.987	90.25
293.218	86.25
293.449	88.25
293.68	88.25
293.91	86.25
294.141	85.25
294.372	86.25
294.603	79.25
294.833	72.25
295.064	69.25
295.295	76.25
295.525	88.25
295.756	97.25
295.987	115.25
296.217	143.25
296.448	135.25
296.679	90.25
296.909	87.25
297.14	90.25
297.37	95.25
297.601	98.25
297.831	91.25
298.062	97.25
298.292	103.25
298.523	90.25
298.753	69.25
298.984	92.25
299.214	85.25
299.445	91.25
299.675	99.25
299.905	94.25
300.136	74.25
300.366	89.25
300.597	94.25
300.827	107.25
301.057	103.25
301.288	105.25
301.518	92.25
301.748	78.25
301.979	101.25
302.209	92.25
302.439	91.25
302.669	84.25
302.9	97.25
303.13	83.25
303.36	82.25
303.59	101.25
303.82	111.25
304.051	95.25
304.281	84.25
304.511	87.25
304.741	80.25
304.971	95.25
305.201	91.25
305.431	91.25
305.661	92.25
305.891	89.25
306.121	102.25
306.352	110.25
306.582	115.25
306.812	101.25
307.042	99.25
307.272	100.25
307.502	99.25
307.731	103.25
307.961	101.25
308.191	88.25
308.421	85.25
308.651	87.25
308.881	81.25
309.111	99.25
309.341	83.25
309.571	101.25
309.8	97.25
310.03	96.25
310.26	109.25
310.49	99.25
310.72	99.25
310.949	96.25
311.179	102.25
311.409	99.25
311.639	91.25
311.868	97.25
312.098	95.25
312.328	99.25
312.557	90.25
312.787	108.25
313.017	105.25
313.246	102.25
313.476	97.25
313.706	100.25
313.935	86.25
314.165	87.25
314.394	98.25
314.624	103.25
314.853	93.25
315.083	76.25
315.312	90.25
315.542	80.25
315.771	98.25
316.001	85.25
316.23	97.25
316.46	88.25
316.689	100.25
316.919	98.25
317.148	89.25
317.377	104.25
317.607	97.25
317.836	96.25
318.065	76.25
318.295	102.25
318.524	91.25
318.753	100.25
318.983	77.25
319.212	93.25
319.441	112.25
319.67	106.25
319.9	91.25
320.129	98.25
320.358	98.25
320.587	79.25
320.816	98.25
321.046	107.25
321.275	115.25
321.504	90.25
321.733	90.25
321.962	97.25
322.191	115.25
322.42	107.25
322.649	95.25
322.878	107.25
323.108	111.25
323.337	123.25
323.566	149.25
323.795	165.25
324.024	203.25
324.253	386.25
324.482	847.25
324.71	1654.25
324.939	2161.25
325.168	791.25
325.397	248.25
325.626	143.25
325.855	132.25
326.084	119.25
326.313	136.25
326.542	159.25
326.77	235.25
326.999	463.25
327.228	918.25
327.457	1671.25
327.686	1296.25
327.914	349.25
328.143	197.25
328.372	153.25
328.6	129.25
328.829	115.25
329.058	119.25
329.287	131.25
329.515	117.25
329.744	105.25
329.972	93.25
330.201	105.25
330.43	120.25
330.658	126.25
330.887	133.25
331.115	114.25
331.344	86.25
331.572	98.25
331.801	104.25
332.03	113.25
332.258	97.25
332.486	91.25
332.715	89.25
332.943	106.25
333.172	109.25
333.4	113.25
333.629	99.25
333.857	114.25
334.085	104.25
334.314	102.25
334.542	117.25
334.771	102.25
334.999	117.25
335.227	96.25
335.455	111.25
335.684	106.25
335.912	104.25
336.14	89.25
336.369	86.25
336.597	107.25
336.825	88.25
337.053	102.25
337.281	91.25
337.51	100.25
337.738	89.25
337.966	100.25
338.194	94.25
338.422	95.25
338.65	98.25
338.878	81.25
339.106	77.25
339.334	90.25
339.562	86.25
339.79	82.25
340.018	101.25
340.246	107.25
340.474	105.25
340.702	101.25
340.93	83.25
341.158	81.25
341.386	98.25
341.614	83.25
341.842	89.25
342.07	91.25
342.298	113.25
342.526	95.25
342.754	77.25
342.981	94.25
343.209	84.25
343.437	97.25
343.665	95.25
343.893	88.25
344.12	109.25
344.348	83.25
344.576	81.25
344.804	100.25
345.031	91.25
345.259	96.25
345.487	99.25
345.714	88.25
345.942	85.25
346.17	81.25
346.397	83.25
346.625	94.25
346.853	109.25
347.08	103.25
347.308	86.25
347.535	98.25
347.763	90.25
347.99	110.25
348.218	96.25
348.445	112.25
348.673	111.25
348.9	105.25
349.128	92.25
349.355	89.25
349.583	91.25
349.81	94.25
350.037	85.25
350.265	85.25
350.492	111.25
350.72	84.25
350.947	106.25
351.174	113.25
351.402	98.25
351.629	110.25
351.856	104.25
352.083	106.25
352.311	101.25
352.538	115.25
352.765	101.25
352.992	122.25
353.22	101.25
353.447	110.25
353.674	100.25
353.901	98.25
354.128	86.25
354.355	90.25
354.583	110.25
354.81	96.25
355.037	105.25
355.264	103.25
355.491	98.25
355.718	96.25
355.945	101.25
356.172	92.25
356.399	80.25
356.626	94.25
356.853	102.25
357.08	99.25
357.307	105.25
357.534	96.25
357.761	88.25
357.988	102.25
358.215	99.25
358.441	89.25
358.668	101.25
358.895	85.25
359.122	101.25
359.349	90.25
359.576	100.25
359.802	105.25
360.029	101.25
360.256	109.25
360.483	112.25
360.709	79.25
360.936	92.25
361.163	97.25
361.39	95.25
361.616	89.25
361.843	89.25
362.07	99.25
362.296	93.25
362.523	94.25
362.749	88.25
362.976	101.25
363.203	105.25
363.429	103.25
363.656	103.25
363.882	104.25
364.109	85.25
364.335	79.25
364.562	88.25
364.788	93.25
365.015	92.25
365.241	101.25
365.468	101.25
365.694	110.25
365.92	93.25
366.147	102.25
366.373	80.25
366.599	72.25
366.826	88.25
367.052	95.25
367.278	88.25
367.505	85.25
367.731	96.25
367.957	96.25
368.184	88.25
368.41	104.25
368.636	106.25
368.862	112.25
369.089	118.25
369.315	94.25
369.541	90.25
369.767	94.25
369.993	114.25
370.219	90.25
370.445	92.25
370.672	82.25
370.898	89.25
371.124	86.25
371.35	78.25
371.576	74.25
371.802	86.25
372.028	87.25
372.254	91.25
372.48	90.25
372.706	105.25
372.932	79.25
373.158	75.25
373.384	95.25
373.61	89.25
373.835	80.25
374.061	97.25
374.287	77.25
374.513	92.25
374.739	96.25
374.965	95.25
375.191	92.25
375.416	91.25
375.642	89.25
375.868	109.25
376.094	88.25
376.319	94.25
376.545	87.25
376.771	104.25
376.997	97.25
377.222	85.25
377.448	101.25
377.674	86.25
377.899	91.25
378.125	89.25
378.35	91.25
378.576	86.25
378.802	87.25
379.027	81.25
379.253	86.25
379.478	76.25
379.704	94.25
379.929	94.25
380.155	79.25
380.38	87.25
380.606	109.25
380.831	95.25
381.057	109.25
381.282	89.25
381.507	114.25
381.733	104.25
381.958	96.25
382.184	96.25
382.409	107.25
382.634	99.25
382.86	90.25
383.085	92.25
383.31	88.25
383.535	102.25
383.761	108.25
383.986	101.25
384.211	74.25
384.436	104.25
384.662	100.25
384.887	107.25
385.112	104.25
385.337	112.25
385.562	102.25
385.787	115.25
386.013	117.25
386.238	121.25
386.463	94.25
386.688	116.25
386.913	99.25
387.138	112.25
387.363	103.25
387.588	82.25
387.813	107.25
388.038	105.25
388.263	106.25
388.488	106.25
388.713	115.25
388.938	101.25
389.163	94.25
389.387	102.25
389.612	99.25
389.837	97.25
390.062	89.25
390.287	102.25
390.512	104.25
390.736	95.25
390.961	91.25
391.186	88.25
391.411	92.25
391.636	108.25
391.86	89.25
392.085	89.25
392.31	97.25
392.534	88.25
392.759	90.25
392.984	87.25
393.208	88.25
393.433	86.25
393.658	78.25
393.882	80.25
394.107	90.25
394.331	78.25
394.556	83.25
394.78	82.25
395.005	83.25
395.229	90.25
395.454	75.25
395.678	74.25
395.903	78.25
396.127	95.25
396.352	92.25
396.576	82.25
396.801	80.25
397.025	89.25
397.249	91.25
397.474	74.25
397.698	100.25
397.922	94.25
398.147	102.25
398.371	78.25
398.595	80.25
398.82	95.25
399.044	90.25
399.268	83.25
399.492	95.25
399.717	94.25
399.941	86.25
400.165	98.25
400.389	88.25
400.613	81.25
400.837	86.25
401.062	86.25
401.286	109.25
401.51	94.25
401.734	88.25
401.958	90.25
402.182	129.25
402.406	137.25
402.63	101.25
402.854	90.25
403.078	90.25
403.302	83.25
403.526	88.25
403.75	90.25
403.974	96.25
404.198	98.25
404.422	94.25
404.645	97.25
404.869	78.25
405.093	91.25
405.317	94.25
405.541	97.25
405.765	90.25
405.988	126.25
406.212	170.25
406.436	230.25
406.66	157.25
406.883	105.25
407.107	97.25
407.331	88.25
407.555	111.25
407.778	90.25
408.002	88.25
408.226	103.25
408.449	82.25
408.673	72.25
408.896	97.25
409.12	78.25
409.344	87.25
409.567	90.25
409.791	99.25
410.014	85.25
410.238	98.25
410.461	85.25
410.685	104.25
410.908	88.25
411.132	86.25
411.355	97.25
411.578	90.25
411.802	86.25
412.025	80.25
412.249	87.25
412.472	91.25
412.695	100.25
412.919	78.25
413.142	94.25
413.365	97.25
413.589	94.25
413.812	90.25
414.035	86.25
414.258	88.25
414.482	86.25
414.705	100.25
414.928	83.25
415.151	99.25
415.374	114.25
415.597	80.25
415.821	78.25
416.044	86.25
416.267	95.25
416.49	83.25
416.713	97.25
416.936	83.25
417.159	95.25
417.382	86.25
417.605	89.25
417.828	99.25
418.051	94.25
418.274	87.25
418.497	97.25
418.72	81.25
418.943	90.25
419.166	83.25
419.389	99.25
419.611	91.25
419.834	88.25
420.057	82.25
420.28	98.25
420.503	81.25
420.726	89.25
420.948	86.25
421.171	91.25
421.394	97.25
421.617	84.25
421.839	88.25
422.062	87.25
422.285	96.25
422.507	86.25
422.73	96.25
422.953	93.25
423.175	95.25
423.398	91.25
423.621	84.25
423.843	84.25
424.066	80.25
424.288	72.25
424.511	84.25
424.733	95.25
424.956	100.25
425.178	124.25
425.401	102.25
425.623	80.25
425.846	109.25
426.068	96.25
426.291	90.25
426.513	84.25
426.735	96.25
426.958	78.25
427.18	102.25
427.402	140.25
427.625	152.25
427.847	134.25
428.069	98.25
428.292	92.25
428.514	98.25
428.736	82.25
428.958	80.25
429.181	88.25
429.403	89.25
429.625	86.25
429.847	94.25
430.069	107.25
430.292	86.25
430.514	90.25
430.736	81.25
430.958	97.25
431.18	91.25
431.402	90.25
431.624	89.25
431.846	83.25
432.068	86.25
432.29	89.25
432.512	85.25
432.734	88.25
432.956	86.25
433.178	98.25
433.4	96.25
433.622	98.25
433.844	83.25
434.066	83.25
434.287	83.25
434.509	100.25
434.731	83.25
434.953	91.25
435.175	78.25
435.397	92.25
435.618	96.25
435.84	100.25
436.062	110.25
436.284	98.25
436.505	102.25
436.727	87.25
436.949	95.25
437.17	98.25
437.392	90.25
437.614	91.25
437.835	101.25
438.057	110.25
438.278	105.25
438.5	101.25
438.721	111.25
438.943	95.25
439.165	85.25
439.386	94.25
439.608	93.25
439.829	96.25
440.05	118.25
440.272	133.25
440.493	96.25
440.715	84.25
440.936	88.25
441.158	100.25
441.379	70.25
441.6	93.25
441.822	108.25
442.043	90.25
442.264	102.25
442.486	93.25
442.707	98.25
442.928	107.25
443.149	121.25
443.371	135.25
443.592	105.25
443.813	97.25
444.034	105.25
444.255	87.25
444.476	97.25
444.698	97.25
444.919	99.25
445.14	138.25
445.361	109.25
445.582	130.25
445.803	133.25
446.024	135.25
446.245	129.25
446.466	115.25
446.687	97.25
446.908	88.25
447.129	93.25
447.35	93.25
447.571	83.25
447.792	105.25
448.013	98.25
448.234	101.25
448.455	99.25
448.675	103.25
448.896	113.25
449.117	98.25
449.338	95.25
449.559	116.25
449.779	120.25
450	103.25
450.221	90.25
450.442	91.25
450.662	98.25
450.883	100.25
451.104	99.25
451.324	93.25
451.545	82.25
451.766	75.25
451.986	91.25
452.207	80.25
452.428	91.25
452.648	97.25
452.869	114.25
453.089	103.25
453.31	111.25
453.53	95.25
453.751	87.25
453.971	109.25
454.192	118.25
454.412	90.25
454.633	88.25
454.853	95.25
455.073	81.25
455.294	90.25
455.514	83.25
455.734	89.25
455.955	75.25
456.175	82.25
456.395	74.25
456.616	85.25
456.836	79.25
457.056	86.25
457.276	75.25
457.497	84.25
457.717	81.25
457.937	68.25
458.157	92.25
458.377	90.25
458.598	98.25
458.818	130.25
459.038	143.25
459.258	104.25
459.478	73.25
459.698	87.25
459.918	88.25
460.138	98.25
460.358	84.25
460.578	91.25
460.798	91.25
461.018	90.25
461.238	90.25
461.458	83.25
461.678	102.25
461.898	86.25
462.118	91.25
462.338	85.25
462.558	90.25
462.777	78.25
462.997	84.25
463.217	76.25
463.437	84.25
463.657	79.25
463.876	100.25
464.096	106.25
464.316	86.25
464.536	81.25
464.755	79.25
464.975	114.25
465.195	159.25
465.414	150.25
465.634	113.25
465.854	87.25
466.073	89.25
466.293	87.25
466.512	83.25
466.732	95.25
466.951	96.25
467.171	83.25
467.391	101.25
467.61	97.25
467.829	91.25
468.049	81.25
468.268	93.25
468.488	104.25
468.707	83.25
468.927	69.25
469.146	83.25
469.365	92.25
469.585	79.25
469.804	92.25
470.023	93.25
470.243	97.25
470.462	85.25
470.681	104.25
470.901	91.25
471.12	89.25
471.339	91.25
471.558	78.25
471.777	89.25
471.997	95.25
472.216	97.25
472.435	113.25
472.654	78.25
472.873	99.25
473.092	83.25
473.311	103.25
473.53	89.25
473.749	99.25
473.968	86.25
474.187	102.25
474.406	86.25
474.625	73.25
474.844	66.25
475.063	82.25
475.282	80.25
475.501	97.25
475.72	77.25
475.939	78.25
476.158	95.25
476.377	94.25
476.596	90.25
476.814	79.25
477.033	97.25
477.252	72.25
477.471	77.25
477.69	84.25
477.908	96.25
478.127	91.25
478.346	83.25
478.564	84.25
478.783	88.25
479.002	90.25
479.22	87.25
479.439	102.25
479.658	89.25
479.876	96.25
480.095	87.25
480.313	92.25
480.532	90.25
480.751	85.25
480.969	101.25
481.188	117.25
481.406	112.25
481.624	84.25
481.843	98.25
482.061	88.25
482.28	87.25
482.498	95.25
482.717	101.25
482.935	95.25
483.153	93.25
483.372	108.25
483.59	88.25
483.808	85.25
484.027	94.25
484.245	101.25
484.463	91.25
484.681	98.25
484.9	90.25
485.118	105.25
485.336	99.25
485.554	99.25
485.772	107.25
485.99	100.25
486.209	97.25
486.427	105.25
486.645	101.25
486.863	110.25
487.081	106.25
487.299	95.25
487.517	105.25
487.735	77.25
487.953	95.25
488.171	80.25
488.389	91.25
488.607	101.25
488.825	78.25
489.043	78.25
489.261	87.25
489.479	86.25
489.696	98.25
489.914	102.25
490.132	84.25
490.35	100.25
490.568	87.25
490.786	100.25
491.003	100.25
491.221	96.25
491.439	88.25
491.657	97.25
491.874	82.25
492.092	92.25
492.31	95.25
492.527	87.25
492.745	93.25
492.963	96.25
493.18	101.25
493.398	99.25
493.615	91.25
493.833	90.25
494.05	98.25
494.268	93.25
494.485	91.25
494.703	93.25
494.92	69.25
495.138	73.25
495.355	90.25
495.573	83.25
495.79	99.25
496.008	112.25
496.225	95.25
496.442	94.25
496.66	101.25
496.877	88.25
497.094	86.25
497.312	82.25
497.529	89.25
497.746	80.25
497.963	76.25
498.181	91.25
498.398	102.25
498.615	102.25
498.832	88.25
499.049	100.25
499.267	102.25
499.484	80.25
499.701	93.25
499.918	88.25
500.135	91.25
500.352	85.25
500.569	96.25
500.786	97.25
501.003	80.25
501.22	93.25
501.437	84.25
501.654	82.25
501.871	97.25
502.088	93.25
502.305	96.25
502.522	92.25
502.739	90.25
502.956	87.25
503.172	88.25
503.389	98.25
503.606	100.25
503.823	99.25
504.04	97.25
504.256	80.25
504.473	73.25
504.69	104.25
504.907	86.25
505.123	83.25
505.34	100.25
505.557	99.25
505.773	81.25
505.99	97.25
506.207	87.25
506.423	86.25
506.64	87.25
506.856	95.25
507.073	95.25
507.289	97.25
507.506	101.25
507.722	105.25
507.939	103.25
508.155	87.25
508.372	108.25
508.588	89.25
508.805	112.25
509.021	107.25
509.238	110.25
509.454	103.25
509.67	101.25
509.887	112.25
510.103	135.25
510.319	224.25
510.536	823.25
510.752	2635.25
510.968	746.25
511.184	168.25
511.401	104.25
511.617	98.25
511.833	94.25
512.049	86.25
512.265	100.25
512.481	94.25
512.698	91.25
512.914	85.25
513.13	99.25
513.346	96.25
513.562	93.25
513.778	97.25
513.994	103.25
514.21	107.25
514.426	130.25
514.642	134.25
514.858	141.25
515.074	170.25
515.29	470.25
515.506	1549.25
