Data from Uncirc_2004_H10_HRD10591_00094.txt Node
Date: Wed Jan 03 10:32:31 EST 2024
User: Yrep
Spectrometer: HR+D1059
Trigger mode: 1
Integration Time (sec): 1.000000E-1
Scans to average: 1
Electric dark correction enabled: true
Nonlinearity correction enabled: false
Boxcar width: 0
XAxis mode: Wavelengths
Number of Pixels in Spectrum: 2048
>>>>>Begin Spectral Data<<<<<
223.165	-24.38
223.4	-24.38
223.635	-24.38
223.869	-15.38
224.104	-16.38
224.338	-16.38
224.573	-3.38
224.808	-5.38
225.042	-19.38
225.277	-10.38
225.511	3.62
225.746	-2.38
225.98	4.62
226.215	14.62
226.449	14.62
226.683	22.62
226.918	24.62
227.152	28.62
227.387	16.62
227.621	35.62
227.856	50.62
228.09	32.62
228.324	50.62
228.559	48.62
228.793	66.62
229.027	67.62
229.262	69.62
229.496	71.62
229.73	81.62
229.964	74.62
230.199	77.62
230.433	69.62
230.667	80.62
230.901	83.62
231.136	67.62
231.37	76.62
231.604	75.62
231.838	78.62
232.072	79.62
232.306	77.62
232.541	70.62
232.775	78.62
233.009	84.62
233.243	84.62
233.477	81.62
233.711	69.62
233.945	76.62
234.179	71.62
234.413	72.62
234.647	82.62
234.881	78.62
235.115	74.62
235.349	77.62
235.583	75.62
235.817	75.62
236.051	86.62
236.285	84.62
236.519	71.62
236.753	82.62
236.987	79.62
237.221	79.62
237.455	77.62
237.689	69.62
237.922	70.62
238.156	81.62
238.39	70.62
238.624	75.62
238.858	77.62
239.091	90.62
239.325	84.62
239.559	78.62
239.793	63.62
240.027	74.62
240.26	70.62
240.494	79.62
240.728	67.62
240.961	66.62
241.195	88.62
241.429	76.62
241.662	61.62
241.896	67.62
242.13	77.62
242.363	68.62
242.597	71.62
242.83	85.62
243.064	73.62
243.298	60.62
243.531	73.62
243.765	75.62
243.998	71.62
244.232	82.62
244.465	75.62
244.699	80.62
244.932	76.62
245.166	75.62
245.399	66.62
245.633	71.62
245.866	67.62
246.099	71.62
246.333	76.62
246.566	82.62
246.8	70.62
247.033	78.62
247.266	70.62
247.5	89.62
247.733	83.62
247.966	79.62
248.2	87.62
248.433	65.62
248.666	77.62
248.899	77.62
249.133	75.62
249.366	77.62
249.599	93.62
249.832	96.62
250.066	88.62
250.299	85.62
250.532	79.62
250.765	79.62
250.998	79.62
251.231	85.62
251.465	80.62
251.698	82.62
251.931	87.62
252.164	91.62
252.397	82.62
252.63	87.62
252.863	92.62
253.096	94.62
253.329	75.62
253.562	91.62
253.795	69.62
254.028	85.62
254.261	78.62
254.494	77.62
254.727	86.62
254.96	70.62
255.193	78.62
255.426	79.62
255.659	77.62
255.892	73.62
256.124	82.62
256.357	87.62
256.59	78.62
256.823	73.62
257.056	70.62
257.289	85.62
257.521	83.62
257.754	78.62
257.987	90.62
258.22	85.62
258.452	70.62
258.685	71.62
258.918	78.62
259.151	81.62
259.383	84.62
259.616	83.62
259.849	89.62
260.081	64.62
260.314	74.62
260.547	78.62
260.779	77.62
261.012	79.62
261.244	77.62
261.477	86.62
261.71	96.62
261.942	106.62
262.175	115.62
262.407	83.62
262.64	91.62
262.872	85.62
263.105	69.62
263.337	92.62
263.57	86.62
263.802	80.62
264.035	82.62
264.267	83.62
264.499	91.62
264.732	81.62
264.964	82.62
265.197	77.62
265.429	87.62
265.661	76.62
265.894	90.62
266.126	77.62
266.358	82.62
266.591	71.62
266.823	80.62
267.055	77.62
267.287	82.62
267.52	81.62
267.752	80.62
267.984	76.62
268.216	79.62
268.448	92.62
268.681	82.62
268.913	83.62
269.145	79.62
269.377	83.62
269.609	87.62
269.841	86.62
270.073	68.62
270.306	77.62
270.538	85.62
270.77	80.62
271.002	74.62
271.234	89.62
271.466	78.62
271.698	91.62
271.93	95.62
272.162	82.62
272.394	92.62
272.626	77.62
272.858	83.62
273.09	89.62
273.322	84.62
273.553	77.62
273.785	77.62
274.017	79.62
274.249	76.62
274.481	93.62
274.713	94.62
274.945	83.62
275.176	86.62
275.408	93.62
275.64	79.62
275.872	84.62
276.104	85.62
276.335	88.62
276.567	99.62
276.799	116.62
277.031	94.62
277.262	97.62
277.494	83.62
277.726	93.62
277.957	91.62
278.189	80.62
278.421	80.62
278.652	86.62
278.884	82.62
279.115	93.62
279.347	91.62
279.579	73.62
279.81	75.62
280.042	94.62
280.273	88.62
280.505	88.62
280.736	96.62
280.968	97.62
281.199	71.62
281.431	85.62
281.662	98.62
281.894	87.62
282.125	95.62
282.356	122.62
282.588	140.62
282.819	107.62
283.051	103.62
283.282	81.62
283.513	94.62
283.745	84.62
283.976	83.62
284.207	96.62
284.439	78.62
284.67	99.62
284.901	84.62
285.132	82.62
285.364	80.62
285.595	85.62
285.826	88.62
286.057	100.62
286.288	94.62
286.52	80.62
286.751	81.62
286.982	87.62
287.213	80.62
287.444	86.62
287.675	91.62
287.906	86.62
288.138	93.62
288.369	92.62
288.6	87.62
288.831	86.62
289.062	92.62
289.293	83.62
289.524	88.62
289.755	97.62
289.986	90.62
290.217	102.62
290.448	94.62
290.679	86.62
290.91	84.62
291.141	93.62
291.371	91.62
291.602	92.62
291.833	86.62
292.064	78.62
292.295	84.62
292.526	77.62
292.757	95.62
292.987	77.62
293.218	80.62
293.449	84.62
293.68	97.62
293.91	72.62
294.141	95.62
294.372	81.62
294.603	84.62
294.833	82.62
295.064	87.62
295.295	76.62
295.525	103.62
295.756	105.62
295.987	103.62
296.217	148.62
296.448	115.62
296.679	92.62
296.909	94.62
297.14	100.62
297.37	82.62
297.601	87.62
297.831	84.62
298.062	81.62
298.292	77.62
298.523	74.62
298.753	86.62
298.984	90.62
299.214	90.62
299.445	97.62
299.675	91.62
299.905	83.62
300.136	76.62
300.366	89.62
300.597	88.62
300.827	107.62
301.057	95.62
301.288	93.62
301.518	85.62
301.748	99.62
301.979	94.62
302.209	100.62
302.439	90.62
302.669	80.62
302.9	88.62
303.13	97.62
303.36	96.62
303.59	95.62
303.82	104.62
304.051	97.62
304.281	85.62
304.511	83.62
304.741	69.62
304.971	87.62
305.201	91.62
305.431	94.62
305.661	85.62
305.891	97.62
306.121	101.62
306.352	110.62
306.582	95.62
306.812	83.62
307.042	91.62
307.272	85.62
307.502	100.62
307.731	93.62
307.961	93.62
308.191	96.62
308.421	78.62
308.651	80.62
308.881	87.62
309.111	97.62
309.341	90.62
309.571	90.62
309.8	92.62
310.03	87.62
310.26	102.62
310.49	101.62
310.72	106.62
310.949	87.62
311.179	94.62
311.409	99.62
311.639	87.62
311.868	90.62
312.098	88.62
312.328	92.62
312.557	85.62
312.787	98.62
313.017	97.62
313.246	93.62
313.476	84.62
313.706	91.62
313.935	80.62
314.165	94.62
314.394	102.62
314.624	98.62
314.853	90.62
315.083	92.62
315.312	96.62
315.542	91.62
315.771	77.62
316.001	83.62
316.23	85.62
316.46	95.62
316.689	88.62
316.919	95.62
317.148	101.62
317.377	98.62
317.607	87.62
317.836	82.62
318.065	73.62
318.295	81.62
318.524	96.62
318.753	100.62
318.983	88.62
319.212	101.62
319.441	111.62
319.67	112.62
319.9	103.62
320.129	90.62
320.358	97.62
320.587	96.62
320.816	101.62
321.046	106.62
321.275	95.62
321.504	93.62
321.733	94.62
321.962	99.62
322.191	99.62
322.42	119.62
322.649	109.62
322.878	127.62
323.108	118.62
323.337	121.62
323.566	134.62
323.795	146.62
324.024	202.62
324.253	412.62
324.482	862.62
324.71	1733.62
324.939	2288.62
325.168	832.62
325.397	229.62
325.626	146.62
325.855	111.62
326.084	98.62
326.313	131.62
326.542	151.62
326.77	230.62
326.999	483.62
327.228	961.62
327.457	1699.62
327.686	1333.62
327.914	378.62
328.143	195.62
328.372	160.62
328.6	132.62
328.829	124.62
329.058	138.62
329.287	126.62
329.515	114.62
329.744	102.62
329.972	88.62
330.201	85.62
330.43	100.62
330.658	116.62
330.887	143.62
331.115	111.62
331.344	98.62
331.572	93.62
331.801	100.62
332.03	107.62
332.258	94.62
332.486	90.62
332.715	93.62
332.943	98.62
333.172	96.62
333.4	103.62
333.629	107.62
333.857	117.62
334.085	101.62
334.314	98.62
334.542	102.62
334.771	98.62
334.999	96.62
335.227	96.62
335.455	95.62
335.684	93.62
335.912	75.62
336.14	101.62
336.369	114.62
336.597	98.62
336.825	91.62
337.053	91.62
337.281	87.62
337.51	102.62
337.738	99.62
337.966	98.62
338.194	96.62
338.422	88.62
338.65	107.62
338.878	92.62
339.106	93.62
339.334	88.62
339.562	81.62
339.79	78.62
340.018	90.62
340.246	90.62
340.474	104.62
340.702	110.62
340.93	95.62
341.158	74.62
341.386	86.62
341.614	91.62
341.842	85.62
342.07	83.62
342.298	85.62
342.526	81.62
342.754	94.62
342.981	74.62
343.209	88.62
343.437	103.62
343.665	78.62
343.893	80.62
344.12	78.62
344.348	90.62
344.576	86.62
344.804	89.62
345.031	99.62
345.259	105.62
345.487	98.62
345.714	105.62
345.942	88.62
346.17	79.62
346.397	83.62
346.625	83.62
346.853	84.62
347.08	89.62
347.308	95.62
347.535	94.62
347.763	87.62
347.99	113.62
348.218	100.62
348.445	102.62
348.673	93.62
348.9	93.62
349.128	92.62
349.355	96.62
349.583	78.62
349.81	93.62
350.037	100.62
350.265	95.62
350.492	92.62
350.72	95.62
350.947	106.62
351.174	98.62
351.402	116.62
351.629	97.62
351.856	108.62
352.083	96.62
352.311	97.62
352.538	110.62
352.765	119.62
352.992	108.62
353.22	97.62
353.447	119.62
353.674	99.62
353.901	104.62
354.128	96.62
354.355	101.62
354.583	98.62
354.81	99.62
355.037	96.62
355.264	80.62
355.491	92.62
355.718	86.62
355.945	101.62
356.172	99.62
356.399	74.62
356.626	87.62
356.853	101.62
357.08	104.62
357.307	102.62
357.534	84.62
357.761	103.62
357.988	94.62
358.215	99.62
358.441	92.62
358.668	93.62
358.895	84.62
359.122	90.62
359.349	83.62
359.576	91.62
359.802	114.62
360.029	104.62
360.256	97.62
360.483	98.62
360.709	78.62
360.936	87.62
361.163	79.62
361.39	96.62
361.616	96.62
361.843	89.62
362.07	84.62
362.296	88.62
362.523	89.62
362.749	73.62
362.976	80.62
363.203	86.62
363.429	83.62
363.656	92.62
363.882	83.62
364.109	99.62
364.335	88.62
364.562	95.62
364.788	92.62
365.015	94.62
365.241	98.62
365.468	119.62
365.694	100.62
365.92	81.62
366.147	82.62
366.373	81.62
366.599	79.62
366.826	81.62
367.052	83.62
367.278	93.62
367.505	81.62
367.731	78.62
367.957	96.62
368.184	92.62
368.41	101.62
368.636	110.62
368.862	108.62
369.089	99.62
369.315	84.62
369.541	93.62
369.767	79.62
369.993	79.62
370.219	78.62
370.445	88.62
370.672	86.62
370.898	71.62
371.124	85.62
371.35	87.62
371.576	94.62
371.802	94.62
372.028	95.62
372.254	98.62
372.48	95.62
372.706	78.62
372.932	94.62
373.158	85.62
373.384	91.62
373.61	97.62
373.835	87.62
374.061	101.62
374.287	100.62
374.513	79.62
374.739	87.62
374.965	92.62
375.191	84.62
375.416	77.62
375.642	90.62
375.868	84.62
376.094	87.62
376.319	94.62
376.545	86.62
376.771	92.62
376.997	81.62
377.222	88.62
377.448	68.62
377.674	84.62
377.899	102.62
378.125	88.62
378.35	86.62
378.576	94.62
378.802	98.62
379.027	100.62
379.253	95.62
379.478	91.62
379.704	79.62
379.929	93.62
380.155	87.62
380.38	103.62
380.606	98.62
380.831	98.62
381.057	94.62
381.282	87.62
381.507	74.62
381.733	76.62
381.958	95.62
382.184	98.62
382.409	115.62
382.634	96.62
382.86	83.62
383.085	93.62
383.31	95.62
383.535	98.62
383.761	100.62
383.986	110.62
384.211	103.62
384.436	95.62
384.662	95.62
384.887	97.62
385.112	94.62
385.337	92.62
385.562	101.62
385.787	94.62
386.013	106.62
386.238	104.62
386.463	94.62
386.688	108.62
386.913	104.62
387.138	99.62
387.363	98.62
387.588	101.62
387.813	110.62
388.038	103.62
388.263	103.62
388.488	111.62
388.713	95.62
388.938	92.62
389.163	95.62
389.387	95.62
389.612	96.62
389.837	94.62
390.062	95.62
390.287	98.62
390.512	105.62
390.736	90.62
390.961	80.62
391.186	85.62
391.411	90.62
391.636	87.62
391.86	78.62
392.085	90.62
392.31	75.62
392.534	69.62
392.759	74.62
392.984	78.62
393.208	85.62
393.433	83.62
393.658	83.62
393.882	76.62
394.107	94.62
394.331	82.62
394.556	97.62
394.78	105.62
395.005	89.62
395.229	79.62
395.454	79.62
395.678	85.62
395.903	75.62
396.127	92.62
396.352	81.62
396.576	80.62
396.801	94.62
397.025	85.62
397.249	72.62
397.474	95.62
397.698	92.62
397.922	83.62
398.147	87.62
398.371	91.62
398.595	95.62
398.82	82.62
399.044	91.62
399.268	80.62
399.492	87.62
399.717	99.62
399.941	80.62
400.165	85.62
400.389	106.62
400.613	81.62
400.837	88.62
401.062	95.62
401.286	84.62
401.51	60.62
401.734	83.62
401.958	105.62
402.182	131.62
402.406	140.62
402.63	116.62
402.854	96.62
403.078	101.62
403.302	82.62
403.526	88.62
403.75	92.62
403.974	87.62
404.198	90.62
404.422	99.62
404.645	87.62
404.869	89.62
405.093	92.62
405.317	99.62
405.541	104.62
405.765	99.62
405.988	129.62
406.212	155.62
406.436	238.62
406.66	142.62
406.883	98.62
407.107	87.62
407.331	99.62
407.555	94.62
407.778	100.62
408.002	82.62
408.226	92.62
408.449	91.62
408.673	84.62
408.896	88.62
409.12	109.62
409.344	92.62
409.567	100.62
409.791	90.62
410.014	77.62
410.238	85.62
410.461	108.62
410.685	81.62
410.908	95.62
411.132	123.62
411.355	105.62
411.578	97.62
411.802	87.62
412.025	84.62
412.249	82.62
412.472	89.62
412.695	84.62
412.919	88.62
413.142	103.62
413.365	91.62
413.589	92.62
413.812	79.62
414.035	91.62
414.258	76.62
414.482	86.62
414.705	89.62
414.928	95.62
415.151	99.62
415.374	86.62
415.597	88.62
415.821	79.62
416.044	86.62
416.267	83.62
416.49	81.62
416.713	91.62
416.936	83.62
417.159	80.62
417.382	79.62
417.605	95.62
417.828	85.62
418.051	82.62
418.274	82.62
418.497	97.62
418.72	73.62
418.943	84.62
419.166	78.62
419.389	96.62
419.611	84.62
419.834	82.62
420.057	88.62
420.28	84.62
420.503	106.62
420.726	84.62
420.948	103.62
421.171	87.62
421.394	77.62
421.617	87.62
421.839	79.62
422.062	92.62
422.285	101.62
422.507	95.62
422.73	116.62
422.953	79.62
423.175	84.62
423.398	88.62
423.621	95.62
423.843	79.62
424.066	91.62
424.288	102.62
424.511	77.62
424.733	100.62
424.956	110.62
425.178	102.62
425.401	95.62
425.623	104.62
425.846	85.62
426.068	92.62
426.291	90.62
426.513	90.62
426.735	78.62
426.958	86.62
427.18	108.62
427.402	128.62
427.625	164.62
427.847	124.62
428.069	94.62
428.292	96.62
428.514	79.62
428.736	79.62
428.958	93.62
429.181	85.62
429.403	95.62
429.625	80.62
429.847	96.62
430.069	101.62
430.292	102.62
430.514	79.62
430.736	84.62
430.958	81.62
431.18	71.62
431.402	99.62
431.624	88.62
431.846	88.62
432.068	102.62
432.29	78.62
432.512	82.62
432.734	80.62
432.956	74.62
433.178	103.62
433.4	91.62
433.622	77.62
433.844	86.62
434.066	85.62
434.287	96.62
434.509	88.62
434.731	91.62
434.953	79.62
435.175	90.62
435.397	85.62
435.618	90.62
435.84	107.62
436.062	115.62
436.284	109.62
436.505	87.62
436.727	103.62
436.949	102.62
437.17	79.62
437.392	102.62
437.614	89.62
437.835	102.62
438.057	128.62
438.278	100.62
438.5	100.62
438.721	116.62
438.943	93.62
439.165	90.62
439.386	77.62
439.608	81.62
439.829	106.62
440.05	108.62
440.272	144.62
440.493	99.62
440.715	80.62
440.936	82.62
441.158	78.62
441.379	86.62
441.6	81.62
441.822	89.62
442.043	95.62
442.264	104.62
442.486	102.62
442.707	85.62
442.928	101.62
443.149	127.62
443.371	125.62
443.592	127.62
443.813	114.62
444.034	104.62
444.255	91.62
444.476	102.62
444.698	92.62
444.919	79.62
445.14	142.62
445.361	127.62
445.582	110.62
445.803	138.62
446.024	143.62
446.245	127.62
446.466	117.62
446.687	91.62
446.908	90.62
447.129	79.62
447.35	95.62
447.571	89.62
447.792	102.62
448.013	103.62
448.234	106.62
448.455	107.62
448.675	101.62
448.896	114.62
449.117	100.62
449.338	110.62
449.559	114.62
449.779	112.62
450	83.62
450.221	83.62
450.442	91.62
450.662	103.62
450.883	101.62
451.104	104.62
451.324	94.62
451.545	82.62
451.766	72.62
451.986	83.62
452.207	87.62
452.428	95.62
452.648	96.62
452.869	95.62
453.089	117.62
453.31	144.62
453.53	92.62
453.751	94.62
453.971	94.62
454.192	104.62
454.412	83.62
454.633	86.62
454.853	74.62
455.073	82.62
455.294	90.62
455.514	96.62
455.734	94.62
455.955	87.62
456.175	86.62
456.395	86.62
456.616	84.62
456.836	92.62
457.056	92.62
457.276	84.62
457.497	85.62
457.717	85.62
457.937	83.62
458.157	82.62
458.377	78.62
458.598	115.62
458.818	154.62
459.038	159.62
459.258	108.62
459.478	88.62
459.698	86.62
459.918	93.62
460.138	87.62
460.358	87.62
460.578	87.62
460.798	101.62
461.018	91.62
461.238	80.62
461.458	86.62
461.678	88.62
461.898	75.62
462.118	85.62
462.338	82.62
462.558	79.62
462.777	86.62
462.997	94.62
463.217	71.62
463.437	83.62
463.657	86.62
463.876	98.62
464.096	80.62
464.316	89.62
464.536	80.62
464.755	87.62
464.975	109.62
465.195	145.62
465.414	167.62
465.634	98.62
465.854	96.62
466.073	78.62
466.293	84.62
466.512	85.62
466.732	71.62
466.951	93.62
467.171	95.62
467.391	85.62
467.61	99.62
467.829	100.62
468.049	92.62
468.268	81.62
468.488	79.62
468.707	91.62
468.927	80.62
469.146	87.62
469.365	84.62
469.585	96.62
469.804	117.62
470.023	91.62
470.243	96.62
470.462	88.62
470.681	106.62
470.901	82.62
471.12	89.62
471.339	78.62
471.558	85.62
471.777	85.62
471.997	98.62
472.216	99.62
472.435	97.62
472.654	86.62
472.873	84.62
473.092	82.62
473.311	85.62
473.53	84.62
473.749	92.62
473.968	88.62
474.187	97.62
474.406	102.62
474.625	72.62
474.844	89.62
475.063	74.62
475.282	95.62
475.501	88.62
475.72	77.62
475.939	80.62
476.158	95.62
476.377	93.62
476.596	75.62
476.814	82.62
477.033	89.62
477.252	94.62
477.471	80.62
477.69	92.62
477.908	83.62
478.127	83.62
478.346	84.62
478.564	98.62
478.783	90.62
479.002	88.62
479.22	106.62
479.439	93.62
479.658	124.62
479.876	91.62
480.095	82.62
480.313	80.62
480.532	80.62
480.751	75.62
480.969	86.62
481.188	114.62
481.406	116.62
481.624	95.62
481.843	96.62
482.061	81.62
482.28	92.62
482.498	87.62
482.717	77.62
482.935	82.62
483.153	86.62
483.372	82.62
483.59	99.62
483.808	81.62
484.027	85.62
484.245	84.62
484.463	103.62
484.681	95.62
484.9	88.62
485.118	86.62
485.336	91.62
485.554	94.62
485.772	98.62
485.99	106.62
486.209	107.62
486.427	114.62
486.645	111.62
486.863	120.62
487.081	88.62
487.299	93.62
487.517	95.62
487.735	86.62
487.953	99.62
488.171	101.62
488.389	94.62
488.607	88.62
488.825	87.62
489.043	82.62
489.261	88.62
489.479	91.62
489.696	93.62
489.914	100.62
490.132	83.62
490.35	90.62
490.568	84.62
490.786	80.62
491.003	93.62
491.221	109.62
491.439	90.62
491.657	98.62
491.874	89.62
492.092	91.62
492.31	88.62
492.527	89.62
492.745	82.62
492.963	96.62
493.18	87.62
493.398	113.62
493.615	100.62
493.833	101.62
494.05	67.62
494.268	92.62
494.485	77.62
494.703	94.62
494.92	106.62
495.138	94.62
495.355	87.62
495.573	96.62
495.79	96.62
496.008	87.62
496.225	91.62
496.442	81.62
496.66	87.62
496.877	91.62
497.094	108.62
497.312	82.62
497.529	86.62
497.746	97.62
497.963	91.62
498.181	91.62
498.398	96.62
498.615	113.62
498.832	93.62
499.049	99.62
499.267	91.62
499.484	91.62
499.701	100.62
499.918	99.62
500.135	98.62
500.352	87.62
500.569	92.62
500.786	85.62
501.003	92.62
501.22	96.62
501.437	94.62
501.654	99.62
501.871	105.62
502.088	86.62
502.305	90.62
502.522	90.62
502.739	78.62
502.956	85.62
503.172	95.62
503.389	84.62
503.606	98.62
503.823	82.62
504.04	87.62
504.256	93.62
504.473	90.62
504.69	90.62
504.907	80.62
505.123	76.62
505.34	85.62
505.557	94.62
505.773	97.62
505.99	86.62
506.207	83.62
506.423	88.62
506.64	81.62
506.856	90.62
507.073	90.62
507.289	90.62
507.506	96.62
507.722	119.62
507.939	108.62
508.155	108.62
508.372	86.62
508.588	79.62
508.805	109.62
509.021	88.62
509.238	97.62
509.454	113.62
509.67	101.62
509.887	111.62
510.103	126.62
510.319	236.62
510.536	843.62
510.752	2712.62
510.968	740.62
511.184	154.62
511.401	106.62
511.617	88.62
511.833	86.62
512.049	80.62
512.265	90.62
512.481	86.62
512.698	89.62
512.914	86.62
513.13	94.62
513.346	94.62
513.562	87.62
513.778	103.62
513.994	110.62
514.21	112.62
514.426	117.62
514.642	124.62
514.858	115.62
515.074	161.62
515.29	497.62
515.506	1658.62
515.721	616.62
515.937	159.62
516.153	119.62
