Data from Uncirc_2004_H10_HRD10591_00035.txt Node
Date: Wed Jan 03 10:32:19 EST 2024
User: Yrep
Spectrometer: HR+D1059
Trigger mode: 1
Integration Time (sec): 1.000000E-1
Scans to average: 1
Electric dark correction enabled: true
Nonlinearity correction enabled: false
Boxcar width: 0
XAxis mode: Wavelengths
Number of Pixels in Spectrum: 2048
>>>>>Begin Spectral Data<<<<<
223.165	-16.31
223.4	-16.31
223.635	-16.31
223.869	-21.31
224.104	3.69
224.338	-23.31
224.573	-20.31
224.808	-15.31
225.042	-13.31
225.277	-2.31
225.511	2.69
225.746	6.69
225.98	8.69
226.215	9.69
226.449	17.69
226.683	23.69
226.918	19.69
227.152	19.69
227.387	37.69
227.621	27.69
227.856	31.69
228.09	51.69
228.324	44.69
228.559	53.69
228.793	53.69
229.027	67.69
229.262	72.69
229.496	86.69
229.73	77.69
229.964	83.69
230.199	70.69
230.433	85.69
230.667	69.69
230.901	80.69
231.136	88.69
231.37	79.69
231.604	74.69
231.838	82.69
232.072	69.69
232.306	83.69
232.541	83.69
232.775	82.69
233.009	74.69
233.243	78.69
233.477	72.69
233.711	80.69
233.945	78.69
234.179	81.69
234.413	78.69
234.647	83.69
234.881	83.69
235.115	86.69
235.349	81.69
235.583	79.69
235.817	73.69
236.051	81.69
236.285	71.69
236.519	82.69
236.753	83.69
236.987	73.69
237.221	88.69
237.455	90.69
237.689	70.69
237.922	82.69
238.156	67.69
238.39	88.69
238.624	85.69
238.858	89.69
239.091	81.69
239.325	62.69
239.559	83.69
239.793	67.69
240.027	83.69
240.26	76.69
240.494	77.69
240.728	96.69
240.961	88.69
241.195	79.69
241.429	65.69
241.662	83.69
241.896	78.69
242.13	85.69
242.363	73.69
242.597	73.69
242.83	77.69
243.064	80.69
243.298	79.69
243.531	89.69
243.765	75.69
243.998	75.69
244.232	90.69
244.465	90.69
244.699	74.69
244.932	80.69
245.166	80.69
245.399	75.69
245.633	86.69
245.866	86.69
246.099	70.69
246.333	85.69
246.566	80.69
246.8	66.69
247.033	80.69
247.266	80.69
247.5	78.69
247.733	74.69
247.966	88.69
248.2	90.69
248.433	82.69
248.666	84.69
248.899	82.69
249.133	82.69
249.366	105.69
249.599	102.69
249.832	85.69
250.066	80.69
250.299	71.69
250.532	86.69
250.765	87.69
250.998	86.69
251.231	89.69
251.465	82.69
251.698	78.69
251.931	77.69
252.164	87.69
252.397	78.69
252.63	82.69
252.863	74.69
253.096	72.69
253.329	81.69
253.562	79.69
253.795	87.69
254.028	83.69
254.261	77.69
254.494	72.69
254.727	74.69
254.96	82.69
255.193	76.69
255.426	92.69
255.659	86.69
255.892	87.69
256.124	68.69
256.357	74.69
256.59	85.69
256.823	83.69
257.056	72.69
257.289	69.69
257.521	82.69
257.754	92.69
257.987	83.69
258.22	94.69
258.452	84.69
258.685	81.69
258.918	84.69
259.151	88.69
259.383	85.69
259.616	64.69
259.849	73.69
260.081	83.69
260.314	75.69
260.547	98.69
260.779	87.69
261.012	89.69
261.244	82.69
261.477	86.69
261.71	89.69
261.942	96.69
262.175	104.69
262.407	97.69
262.64	97.69
262.872	92.69
263.105	87.69
263.337	87.69
263.57	88.69
263.802	76.69
264.035	93.69
264.267	86.69
264.499	82.69
264.732	94.69
264.964	73.69
265.197	85.69
265.429	81.69
265.661	97.69
265.894	82.69
266.126	83.69
266.358	93.69
266.591	83.69
266.823	87.69
267.055	77.69
267.287	82.69
267.52	87.69
267.752	73.69
267.984	93.69
268.216	89.69
268.448	91.69
268.681	70.69
268.913	85.69
269.145	79.69
269.377	90.69
269.609	96.69
269.841	83.69
270.073	80.69
270.306	87.69
270.538	80.69
270.77	96.69
271.002	81.69
271.234	89.69
271.466	86.69
271.698	85.69
271.93	78.69
272.162	98.69
272.394	101.69
272.626	85.69
272.858	74.69
273.09	89.69
273.322	90.69
273.553	77.69
273.785	85.69
274.017	73.69
274.249	83.69
274.481	84.69
274.713	85.69
274.945	82.69
275.176	81.69
275.408	99.69
275.64	96.69
275.872	99.69
276.104	82.69
276.335	92.69
276.567	98.69
276.799	105.69
277.031	98.69
277.262	89.69
277.494	91.69
277.726	92.69
277.957	88.69
278.189	78.69
278.421	92.69
278.652	74.69
278.884	81.69
279.115	80.69
279.347	83.69
279.579	93.69
279.81	76.69
280.042	83.69
280.273	91.69
280.505	85.69
280.736	82.69
280.968	88.69
281.199	83.69
281.431	74.69
281.662	82.69
281.894	84.69
282.125	93.69
282.356	116.69
282.588	135.69
282.819	112.69
283.051	87.69
283.282	83.69
283.513	100.69
283.745	91.69
283.976	94.69
284.207	84.69
284.439	88.69
284.67	100.69
284.901	95.69
285.132	101.69
285.364	77.69
285.595	78.69
285.826	89.69
286.057	83.69
286.288	81.69
286.52	90.69
286.751	92.69
286.982	97.69
287.213	76.69
287.444	83.69
287.675	86.69
287.906	92.69
288.138	82.69
288.369	104.69
288.6	84.69
288.831	75.69
289.062	69.69
289.293	91.69
289.524	88.69
289.755	71.69
289.986	102.69
290.217	77.69
290.448	82.69
290.679	86.69
290.91	90.69
291.141	91.69
291.371	81.69
291.602	88.69
291.833	96.69
292.064	96.69
292.295	97.69
292.526	91.69
292.757	86.69
292.987	77.69
293.218	99.69
293.449	95.69
293.68	93.69
293.91	94.69
294.141	91.69
294.372	97.69
294.603	106.69
294.833	82.69
295.064	100.69
295.295	95.69
295.525	82.69
295.756	83.69
295.987	104.69
296.217	125.69
296.448	126.69
296.679	96.69
296.909	86.69
297.14	79.69
297.37	79.69
297.601	68.69
297.831	97.69
298.062	88.69
298.292	94.69
298.523	88.69
298.753	94.69
298.984	83.69
299.214	81.69
299.445	100.69
299.675	97.69
299.905	72.69
300.136	89.69
300.366	83.69
300.597	91.69
300.827	96.69
301.057	98.69
301.288	97.69
301.518	86.69
301.748	76.69
301.979	98.69
302.209	101.69
302.439	93.69
302.669	89.69
302.9	83.69
303.13	90.69
303.36	88.69
303.59	88.69
303.82	109.69
304.051	88.69
304.281	95.69
304.511	97.69
304.741	104.69
304.971	91.69
305.201	85.69
305.431	96.69
305.661	89.69
305.891	86.69
306.121	107.69
306.352	102.69
306.582	100.69
306.812	104.69
307.042	99.69
307.272	99.69
307.502	96.69
307.731	85.69
307.961	75.69
308.191	78.69
308.421	91.69
308.651	92.69
308.881	109.69
309.111	87.69
309.341	103.69
309.571	94.69
309.8	102.69
310.03	97.69
310.26	101.69
310.49	92.69
310.72	98.69
310.949	99.69
311.179	103.69
311.409	98.69
311.639	90.69
311.868	102.69
312.098	82.69
312.328	95.69
312.557	100.69
312.787	97.69
313.017	88.69
313.246	91.69
313.476	88.69
313.706	92.69
313.935	91.69
314.165	94.69
314.394	104.69
314.624	101.69
314.853	97.69
315.083	89.69
315.312	102.69
315.542	88.69
315.771	90.69
316.001	95.69
316.23	98.69
316.46	90.69
316.689	97.69
316.919	75.69
317.148	92.69
317.377	91.69
317.607	88.69
317.836	88.69
318.065	90.69
318.295	88.69
318.524	86.69
318.753	97.69
318.983	78.69
319.212	91.69
319.441	101.69
319.67	107.69
319.9	111.69
320.129	95.69
320.358	89.69
320.587	101.69
320.816	86.69
321.046	104.69
321.275	97.69
321.504	101.69
321.733	87.69
321.962	109.69
322.191	97.69
322.42	82.69
322.649	93.69
322.878	108.69
323.108	112.69
323.337	112.69
323.566	134.69
323.795	141.69
324.024	191.69
324.253	381.69
324.482	770.69
324.71	1563.69
324.939	2026.69
325.168	745.69
325.397	238.69
325.626	151.69
325.855	135.69
326.084	122.69
326.313	124.69
326.542	157.69
326.77	213.69
326.999	452.69
327.228	913.69
327.457	1589.69
327.686	1253.69
327.914	366.69
328.143	170.69
328.372	140.69
328.6	117.69
328.829	119.69
329.058	116.69
329.287	119.69
329.515	104.69
329.744	103.69
329.972	99.69
330.201	107.69
330.43	97.69
330.658	107.69
330.887	121.69
331.115	126.69
331.344	110.69
331.572	99.69
331.801	97.69
332.03	97.69
332.258	98.69
332.486	91.69
332.715	85.69
332.943	101.69
333.172	110.69
333.4	97.69
333.629	110.69
333.857	91.69
334.085	114.69
334.314	101.69
334.542	111.69
334.771	89.69
334.999	96.69
335.227	97.69
335.455	100.69
335.684	98.69
335.912	95.69
336.14	100.69
336.369	97.69
336.597	91.69
336.825	101.69
337.053	90.69
337.281	90.69
337.51	94.69
337.738	85.69
337.966	88.69
338.194	94.69
338.422	89.69
338.65	81.69
338.878	94.69
339.106	98.69
339.334	95.69
339.562	88.69
339.79	82.69
340.018	86.69
340.246	91.69
340.474	87.69
340.702	100.69
340.93	97.69
341.158	82.69
341.386	86.69
341.614	99.69
341.842	84.69
342.07	89.69
342.298	89.69
342.526	106.69
342.754	78.69
342.981	91.69
343.209	83.69
343.437	102.69
343.665	94.69
343.893	101.69
344.12	98.69
344.348	89.69
344.576	94.69
344.804	85.69
345.031	102.69
345.259	85.69
345.487	90.69
345.714	91.69
345.942	102.69
346.17	85.69
346.397	97.69
346.625	100.69
346.853	102.69
347.08	83.69
347.308	100.69
347.535	90.69
347.763	93.69
347.99	95.69
348.218	101.69
348.445	81.69
348.673	97.69
348.9	78.69
349.128	86.69
349.355	86.69
349.583	100.69
349.81	77.69
350.037	87.69
350.265	84.69
350.492	81.69
350.72	104.69
350.947	113.69
351.174	111.69
351.402	119.69
351.629	83.69
351.856	96.69
352.083	106.69
352.311	98.69
352.538	118.69
352.765	106.69
352.992	128.69
353.22	107.69
353.447	110.69
353.674	105.69
353.901	99.69
354.128	97.69
354.355	99.69
354.583	89.69
354.81	109.69
355.037	109.69
355.264	97.69
355.491	94.69
355.718	89.69
355.945	75.69
356.172	94.69
356.399	84.69
356.626	96.69
356.853	85.69
357.08	83.69
357.307	90.69
357.534	101.69
357.761	90.69
357.988	92.69
358.215	96.69
358.441	95.69
358.668	78.69
358.895	103.69
359.122	87.69
359.349	89.69
359.576	95.69
359.802	105.69
360.029	95.69
360.256	104.69
360.483	101.69
360.709	88.69
360.936	91.69
361.163	91.69
361.39	91.69
361.616	86.69
361.843	91.69
362.07	91.69
362.296	83.69
362.523	98.69
362.749	101.69
362.976	88.69
363.203	86.69
363.429	80.69
363.656	95.69
363.882	93.69
364.109	79.69
364.335	90.69
364.562	86.69
364.788	89.69
365.015	92.69
365.241	93.69
365.468	114.69
365.694	98.69
365.92	79.69
366.147	82.69
366.373	79.69
366.599	80.69
366.826	87.69
367.052	102.69
367.278	91.69
367.505	95.69
367.731	87.69
367.957	102.69
368.184	97.69
368.41	95.69
368.636	110.69
368.862	95.69
369.089	111.69
369.315	82.69
369.541	100.69
369.767	97.69
369.993	96.69
370.219	98.69
370.445	100.69
370.672	87.69
370.898	90.69
371.124	99.69
371.35	87.69
371.576	87.69
371.802	83.69
372.028	96.69
372.254	93.69
372.48	79.69
372.706	89.69
372.932	95.69
373.158	84.69
373.384	97.69
373.61	98.69
373.835	89.69
374.061	99.69
374.287	92.69
374.513	78.69
374.739	88.69
374.965	88.69
375.191	89.69
375.416	88.69
375.642	86.69
375.868	93.69
376.094	94.69
376.319	79.69
376.545	95.69
376.771	102.69
376.997	97.69
377.222	89.69
377.448	100.69
377.674	85.69
377.899	94.69
378.125	89.69
378.35	98.69
378.576	94.69
378.802	110.69
379.027	93.69
379.253	70.69
379.478	86.69
379.704	81.69
379.929	88.69
380.155	102.69
380.38	96.69
380.606	101.69
380.831	91.69
381.057	104.69
381.282	86.69
381.507	107.69
381.733	92.69
381.958	96.69
382.184	99.69
382.409	99.69
382.634	110.69
382.86	100.69
383.085	109.69
383.31	117.69
383.535	113.69
383.761	107.69
383.986	104.69
384.211	84.69
384.436	103.69
384.662	112.69
384.887	107.69
385.112	111.69
385.337	103.69
385.562	110.69
385.787	122.69
386.013	105.69
386.238	117.69
386.463	114.69
386.688	104.69
386.913	93.69
387.138	104.69
387.363	110.69
387.588	101.69
387.813	106.69
388.038	102.69
388.263	114.69
388.488	113.69
388.713	98.69
388.938	98.69
389.163	92.69
389.387	108.69
389.612	98.69
389.837	89.69
390.062	101.69
390.287	110.69
390.512	87.69
390.736	108.69
390.961	98.69
391.186	98.69
391.411	114.69
391.636	88.69
391.86	82.69
392.085	87.69
392.31	91.69
392.534	80.69
392.759	80.69
392.984	87.69
393.208	99.69
393.433	85.69
393.658	96.69
393.882	100.69
394.107	98.69
394.331	79.69
394.556	78.69
394.78	100.69
395.005	89.69
395.229	83.69
395.454	97.69
395.678	95.69
395.903	82.69
396.127	85.69
396.352	83.69
396.576	101.69
396.801	100.69
397.025	87.69
397.249	92.69
397.474	94.69
397.698	75.69
397.922	89.69
398.147	96.69
398.371	92.69
398.595	90.69
398.82	91.69
399.044	93.69
399.268	81.69
399.492	94.69
399.717	94.69
399.941	95.69
400.165	84.69
400.389	101.69
400.613	86.69
400.837	94.69
401.062	87.69
401.286	90.69
401.51	92.69
401.734	89.69
401.958	77.69
402.182	118.69
402.406	145.69
402.63	109.69
402.854	100.69
403.078	91.69
403.302	89.69
403.526	70.69
403.75	87.69
403.974	88.69
404.198	91.69
404.422	93.69
404.645	96.69
404.869	91.69
405.093	111.69
405.317	99.69
405.541	84.69
405.765	99.69
405.988	122.69
406.212	161.69
406.436	217.69
406.66	145.69
406.883	96.69
407.107	96.69
407.331	91.69
407.555	96.69
407.778	89.69
408.002	97.69
408.226	90.69
408.449	81.69
408.673	93.69
408.896	84.69
409.12	86.69
409.344	105.69
409.567	101.69
409.791	87.69
410.014	88.69
410.238	100.69
410.461	104.69
410.685	110.69
410.908	88.69
411.132	106.69
411.355	92.69
411.578	103.69
411.802	90.69
412.025	90.69
412.249	91.69
412.472	91.69
412.695	97.69
412.919	98.69
413.142	97.69
413.365	77.69
413.589	94.69
413.812	85.69
414.035	90.69
414.258	98.69
414.482	89.69
414.705	105.69
414.928	93.69
415.151	83.69
415.374	96.69
415.597	80.69
415.821	85.69
416.044	81.69
416.267	76.69
416.49	94.69
416.713	93.69
416.936	90.69
417.159	83.69
417.382	73.69
417.605	97.69
417.828	95.69
418.051	100.69
418.274	78.69
418.497	91.69
418.72	93.69
418.943	86.69
419.166	93.69
419.389	87.69
419.611	93.69
419.834	91.69
420.057	96.69
420.28	93.69
420.503	96.69
420.726	87.69
420.948	95.69
421.171	109.69
421.394	85.69
421.617	91.69
421.839	83.69
422.062	97.69
422.285	99.69
422.507	97.69
422.73	94.69
422.953	89.69
423.175	98.69
423.398	91.69
423.621	102.69
423.843	91.69
424.066	82.69
424.288	86.69
424.511	88.69
424.733	81.69
424.956	103.69
425.178	92.69
425.401	96.69
425.623	97.69
425.846	82.69
426.068	93.69
426.291	98.69
426.513	88.69
426.735	106.69
426.958	88.69
427.18	98.69
427.402	122.69
427.625	143.69
427.847	117.69
428.069	91.69
428.292	92.69
428.514	94.69
428.736	86.69
428.958	91.69
429.181	86.69
429.403	86.69
429.625	84.69
429.847	101.69
430.069	103.69
430.292	86.69
430.514	81.69
430.736	85.69
430.958	85.69
431.18	98.69
431.402	86.69
431.624	88.69
431.846	80.69
432.068	98.69
432.29	94.69
432.512	87.69
432.734	92.69
432.956	88.69
433.178	98.69
433.4	91.69
433.622	92.69
433.844	96.69
434.066	99.69
434.287	98.69
434.509	75.69
434.731	87.69
434.953	82.69
435.175	99.69
435.397	102.69
435.618	89.69
435.84	122.69
436.062	112.69
436.284	115.69
436.505	104.69
436.727	103.69
436.949	89.69
437.17	90.69
437.392	90.69
437.614	103.69
437.835	116.69
438.057	109.69
438.278	90.69
438.5	111.69
438.721	103.69
438.943	97.69
439.165	78.69
439.386	92.69
439.608	100.69
439.829	102.69
440.05	109.69
440.272	128.69
440.493	109.69
440.715	87.69
440.936	96.69
441.158	98.69
441.379	88.69
441.6	88.69
441.822	87.69
442.043	88.69
442.264	105.69
442.486	106.69
442.707	89.69
442.928	120.69
443.149	115.69
443.371	128.69
443.592	98.69
443.813	99.69
444.034	102.69
444.255	79.69
444.476	95.69
444.698	95.69
444.919	89.69
445.14	129.69
445.361	120.69
445.582	104.69
445.803	135.69
446.024	129.69
446.245	133.69
446.466	111.69
446.687	96.69
446.908	89.69
447.129	91.69
447.35	82.69
447.571	83.69
447.792	83.69
448.013	101.69
448.234	107.69
448.455	100.69
448.675	116.69
448.896	111.69
449.117	101.69
449.338	107.69
449.559	111.69
449.779	127.69
450	100.69
450.221	93.69
450.442	76.69
450.662	85.69
450.883	113.69
451.104	97.69
451.324	80.69
451.545	87.69
451.766	84.69
451.986	95.69
452.207	100.69
452.428	82.69
452.648	96.69
452.869	111.69
453.089	107.69
453.31	114.69
453.53	98.69
453.751	87.69
453.971	101.69
454.192	117.69
454.412	94.69
454.633	82.69
454.853	88.69
455.073	88.69
455.294	86.69
455.514	99.69
455.734	96.69
455.955	94.69
456.175	74.69
456.395	88.69
456.616	101.69
456.836	87.69
457.056	91.69
457.276	89.69
457.497	105.69
457.717	101.69
457.937	90.69
458.157	96.69
458.377	93.69
458.598	100.69
458.818	133.69
459.038	146.69
459.258	116.69
459.478	84.69
459.698	82.69
459.918	82.69
460.138	91.69
460.358	87.69
460.578	83.69
460.798	95.69
461.018	76.69
461.238	83.69
461.458	80.69
461.678	96.69
461.898	89.69
462.118	91.69
462.338	80.69
462.558	77.69
462.777	98.69
462.997	88.69
463.217	90.69
463.437	95.69
463.657	87.69
463.876	88.69
464.096	99.69
464.316	95.69
464.536	98.69
464.755	96.69
464.975	102.69
465.195	145.69
465.414	143.69
465.634	95.69
465.854	87.69
466.073	90.69
466.293	81.69
466.512	74.69
466.732	81.69
466.951	90.69
467.171	93.69
467.391	97.69
467.61	101.69
467.829	94.69
468.049	97.69
468.268	96.69
468.488	85.69
468.707	97.69
468.927	86.69
469.146	93.69
469.365	99.69
469.585	97.69
469.804	112.69
470.023	96.69
470.243	98.69
470.462	104.69
470.681	105.69
470.901	88.69
471.12	94.69
471.339	89.69
471.558	92.69
471.777	86.69
471.997	91.69
472.216	104.69
472.435	103.69
472.654	96.69
472.873	85.69
473.092	88.69
473.311	79.69
473.53	68.69
473.749	86.69
473.968	85.69
474.187	103.69
474.406	91.69
474.625	84.69
474.844	85.69
475.063	76.69
475.282	83.69
475.501	82.69
475.72	88.69
475.939	95.69
476.158	92.69
476.377	81.69
476.596	87.69
476.814	90.69
477.033	89.69
477.252	83.69
477.471	92.69
477.69	78.69
477.908	94.69
478.127	99.69
478.346	86.69
478.564	84.69
478.783	105.69
479.002	93.69
479.22	87.69
479.439	103.69
479.658	116.69
479.876	81.69
480.095	71.69
480.313	101.69
480.532	86.69
480.751	95.69
480.969	87.69
481.188	130.69
481.406	110.69
481.624	89.69
481.843	97.69
482.061	85.69
482.28	95.69
482.498	84.69
482.717	79.69
482.935	91.69
483.153	97.69
483.372	98.69
483.59	84.69
483.808	86.69
484.027	90.69
484.245	90.69
484.463	97.69
484.681	110.69
484.9	102.69
485.118	95.69
485.336	95.69
485.554	107.69
485.772	100.69
485.99	97.69
486.209	110.69
486.427	98.69
486.645	106.69
486.863	113.69
487.081	111.69
487.299	99.69
487.517	78.69
487.735	90.69
487.953	87.69
488.171	98.69
488.389	120.69
488.607	85.69
488.825	96.69
489.043	97.69
489.261	94.69
489.479	98.69
489.696	106.69
489.914	97.69
490.132	83.69
490.35	75.69
490.568	93.69
490.786	82.69
491.003	93.69
491.221	88.69
491.439	103.69
491.657	99.69
491.874	96.69
492.092	91.69
492.31	97.69
492.527	96.69
492.745	87.69
492.963	95.69
493.18	94.69
493.398	87.69
493.615	106.69
493.833	89.69
494.05	92.69
494.268	97.69
494.485	95.69
494.703	89.69
494.92	90.69
495.138	98.69
495.355	91.69
495.573	109.69
495.79	99.69
496.008	88.69
496.225	86.69
496.442	102.69
496.66	87.69
496.877	100.69
497.094	97.69
497.312	92.69
497.529	80.69
497.746	93.69
497.963	86.69
498.181	101.69
498.398	100.69
498.615	106.69
498.832	96.69
499.049	95.69
499.267	105.69
499.484	93.69
499.701	97.69
499.918	102.69
500.135	89.69
500.352	89.69
500.569	97.69
500.786	98.69
501.003	90.69
501.22	101.69
501.437	90.69
501.654	83.69
501.871	101.69
502.088	98.69
502.305	85.69
502.522	96.69
502.739	83.69
502.956	88.69
503.172	110.69
503.389	90.69
503.606	103.69
503.823	91.69
504.04	97.69
504.256	90.69
504.473	88.69
504.69	93.69
504.907	92.69
505.123	89.69
505.34	90.69
505.557	115.69
505.773	98.69
505.99	89.69
506.207	90.69
506.423	99.69
506.64	104.69
506.856	87.69
507.073	84.69
507.289	98.69
507.506	93.69
507.722	102.69
507.939	108.69
508.155	92.69
508.372	98.69
508.588	91.69
508.805	91.69
509.021	87.69
509.238	104.69
509.454	91.69
509.67	104.69
509.887	119.69
510.103	131.69
510.319	200.69
510.536	737.69
510.752	2235.69
510.968	659.69
511.184	165.69
511.401	118.69
511.617	100.69
511.833	90.69
512.049	101.69
512.265	109.69
512.481	97.69
512.698	97.69
512.914	102.69
513.13	94.69
513.346	87.69
513.562	97.69
513.778	109.69
513.994	85.69
514.21	102.69
514.426	121.69
514.642	120.69
514.858	116.69
515.074	155.69
515.29	434.69
515.506	1325.69
515.721	486.69
