Data from Uncirc_2004_H10_HRD10591_00059.txt Node
Date: Wed Jan 03 10:32:24 EST 2024
User: Yrep
Spectrometer: HR+D1059
Trigger mode: 1
Integration Time (sec): 1.000000E-1
Scans to average: 1
Electric dark correction enabled: true
Nonlinearity correction enabled: false
Boxcar width: 0
XAxis mode: Wavelengths
Number of Pixels in Spectrum: 2048
>>>>>Begin Spectral Data<<<<<
223.165	-22.06
223.4	-22.06
223.635	-22.06
223.869	-26.06
224.104	-22.06
224.338	-17.06
224.573	-5.06
224.808	-27.06
225.042	-4.06
225.277	-3.06
225.511	-4.06
225.746	8.94
225.98	10.94
226.215	12.94
226.449	22.94
226.683	13.94
226.918	25.94
227.152	34.94
227.387	34.94
227.621	46.94
227.856	27.94
228.09	46.94
228.324	62.94
228.559	51.94
228.793	63.94
229.027	64.94
229.262	62.94
229.496	68.94
229.73	85.94
229.964	82.94
230.199	70.94
230.433	67.94
230.667	80.94
230.901	86.94
231.136	90.94
231.37	84.94
231.604	85.94
231.838	75.94
232.072	78.94
232.306	92.94
232.541	72.94
232.775	78.94
233.009	84.94
233.243	81.94
233.477	80.94
233.711	84.94
233.945	81.94
234.179	66.94
234.413	80.94
234.647	80.94
234.881	79.94
235.115	78.94
235.349	87.94
235.583	91.94
235.817	81.94
236.051	74.94
236.285	68.94
236.519	75.94
236.753	83.94
236.987	72.94
237.221	84.94
237.455	87.94
237.689	81.94
237.922	83.94
238.156	79.94
238.39	78.94
238.624	79.94
238.858	80.94
239.091	73.94
239.325	83.94
239.559	84.94
239.793	76.94
240.027	85.94
240.26	84.94
240.494	74.94
240.728	78.94
240.961	75.94
241.195	88.94
241.429	84.94
241.662	83.94
241.896	81.94
242.13	98.94
242.363	73.94
242.597	83.94
242.83	90.94
243.064	81.94
243.298	87.94
243.531	84.94
243.765	74.94
243.998	71.94
244.232	85.94
244.465	79.94
244.699	63.94
244.932	83.94
245.166	64.94
245.399	83.94
245.633	76.94
245.866	76.94
246.099	82.94
246.333	83.94
246.566	72.94
246.8	71.94
247.033	77.94
247.266	87.94
247.5	84.94
247.733	69.94
247.966	98.94
248.2	68.94
248.433	86.94
248.666	79.94
248.899	69.94
249.133	82.94
249.366	94.94
249.599	87.94
249.832	86.94
250.066	77.94
250.299	78.94
250.532	79.94
250.765	83.94
250.998	84.94
251.231	69.94
251.465	84.94
251.698	71.94
251.931	84.94
252.164	84.94
252.397	86.94
252.63	83.94
252.863	66.94
253.096	92.94
253.329	91.94
253.562	75.94
253.795	88.94
254.028	79.94
254.261	68.94
254.494	70.94
254.727	81.94
254.96	84.94
255.193	74.94
255.426	75.94
255.659	70.94
255.892	74.94
256.124	82.94
256.357	71.94
256.59	77.94
256.823	80.94
257.056	81.94
257.289	74.94
257.521	93.94
257.754	87.94
257.987	74.94
258.22	82.94
258.452	88.94
258.685	76.94
258.918	89.94
259.151	91.94
259.383	95.94
259.616	81.94
259.849	86.94
260.081	74.94
260.314	86.94
260.547	85.94
260.779	87.94
261.012	98.94
261.244	79.94
261.477	90.94
261.71	86.94
261.942	104.94
262.175	97.94
262.407	86.94
262.64	98.94
262.872	89.94
263.105	96.94
263.337	80.94
263.57	84.94
263.802	76.94
264.035	74.94
264.267	70.94
264.499	88.94
264.732	84.94
264.964	89.94
265.197	96.94
265.429	90.94
265.661	79.94
265.894	90.94
266.126	88.94
266.358	85.94
266.591	69.94
266.823	74.94
267.055	77.94
267.287	82.94
267.52	86.94
267.752	78.94
267.984	83.94
268.216	84.94
268.448	98.94
268.681	82.94
268.913	99.94
269.145	83.94
269.377	87.94
269.609	88.94
269.841	93.94
270.073	68.94
270.306	72.94
270.538	76.94
270.77	66.94
271.002	77.94
271.234	83.94
271.466	75.94
271.698	81.94
271.93	68.94
272.162	72.94
272.394	86.94
272.626	75.94
272.858	91.94
273.09	87.94
273.322	95.94
273.553	93.94
273.785	81.94
274.017	91.94
274.249	73.94
274.481	85.94
274.713	79.94
274.945	73.94
275.176	76.94
275.408	84.94
275.64	86.94
275.872	97.94
276.104	88.94
276.335	90.94
276.567	101.94
276.799	98.94
277.031	86.94
277.262	97.94
277.494	76.94
277.726	92.94
277.957	69.94
278.189	84.94
278.421	82.94
278.652	85.94
278.884	90.94
279.115	90.94
279.347	92.94
279.579	90.94
279.81	88.94
280.042	88.94
280.273	75.94
280.505	76.94
280.736	95.94
280.968	99.94
281.199	70.94
281.431	94.94
281.662	95.94
281.894	80.94
282.125	93.94
282.356	103.94
282.588	131.94
282.819	110.94
283.051	97.94
283.282	96.94
283.513	89.94
283.745	82.94
283.976	84.94
284.207	100.94
284.439	88.94
284.67	87.94
284.901	87.94
285.132	92.94
285.364	87.94
285.595	90.94
285.826	103.94
286.057	103.94
286.288	103.94
286.52	89.94
286.751	82.94
286.982	88.94
287.213	74.94
287.444	78.94
287.675	90.94
287.906	92.94
288.138	91.94
288.369	100.94
288.6	99.94
288.831	87.94
289.062	89.94
289.293	74.94
289.524	87.94
289.755	72.94
289.986	85.94
290.217	88.94
290.448	96.94
290.679	101.94
290.91	90.94
291.141	84.94
291.371	78.94
291.602	92.94
291.833	92.94
292.064	79.94
292.295	87.94
292.526	84.94
292.757	93.94
292.987	89.94
293.218	96.94
293.449	88.94
293.68	92.94
293.91	90.94
294.141	85.94
294.372	96.94
294.603	96.94
294.833	93.94
295.064	99.94
295.295	91.94
295.525	104.94
295.756	108.94
295.987	126.94
296.217	142.94
296.448	128.94
296.679	97.94
296.909	91.94
297.14	83.94
297.37	104.94
297.601	94.94
297.831	97.94
298.062	98.94
298.292	86.94
298.523	97.94
298.753	87.94
298.984	84.94
299.214	90.94
299.445	88.94
299.675	100.94
299.905	78.94
300.136	99.94
300.366	94.94
300.597	87.94
300.827	87.94
301.057	100.94
301.288	117.94
301.518	102.94
301.748	84.94
301.979	99.94
302.209	89.94
302.439	90.94
302.669	90.94
302.9	75.94
303.13	95.94
303.36	101.94
303.59	91.94
303.82	95.94
304.051	84.94
304.281	95.94
304.511	87.94
304.741	92.94
304.971	80.94
305.201	97.94
305.431	86.94
305.661	101.94
305.891	104.94
306.121	99.94
306.352	96.94
306.582	94.94
306.812	84.94
307.042	91.94
307.272	102.94
307.502	99.94
307.731	101.94
307.961	75.94
308.191	86.94
308.421	102.94
308.651	88.94
308.881	94.94
309.111	109.94
309.341	98.94
309.571	98.94
309.8	92.94
310.03	87.94
310.26	96.94
310.49	96.94
310.72	103.94
310.949	91.94
311.179	99.94
311.409	100.94
311.639	108.94
311.868	111.94
312.098	95.94
312.328	93.94
312.557	100.94
312.787	91.94
313.017	112.94
313.246	101.94
313.476	98.94
313.706	88.94
313.935	107.94
314.165	87.94
314.394	106.94
314.624	101.94
314.853	101.94
315.083	98.94
315.312	83.94
315.542	95.94
315.771	94.94
316.001	95.94
316.23	98.94
316.46	83.94
316.689	83.94
316.919	108.94
317.148	107.94
317.377	97.94
317.607	105.94
317.836	93.94
318.065	86.94
318.295	91.94
318.524	88.94
318.753	88.94
318.983	99.94
319.212	104.94
319.441	109.94
319.67	109.94
319.9	95.94
320.129	94.94
320.358	83.94
320.587	97.94
320.816	89.94
321.046	104.94
321.275	98.94
321.504	99.94
321.733	98.94
321.962	106.94
322.191	102.94
322.42	104.94
322.649	103.94
322.878	107.94
323.108	109.94
323.337	114.94
323.566	129.94
323.795	166.94
324.024	198.94
324.253	362.94
324.482	779.94
324.71	1626.94
324.939	2112.94
325.168	771.94
325.397	225.94
325.626	150.94
325.855	123.94
326.084	131.94
326.313	130.94
326.542	151.94
326.77	222.94
326.999	467.94
327.228	918.94
327.457	1640.94
327.686	1296.94
327.914	337.94
328.143	192.94
328.372	149.94
328.6	117.94
328.829	118.94
329.058	115.94
329.287	119.94
329.515	97.94
329.744	94.94
329.972	106.94
330.201	114.94
330.43	123.94
330.658	131.94
330.887	138.94
331.115	129.94
331.344	101.94
331.572	86.94
331.801	107.94
332.03	99.94
332.258	96.94
332.486	92.94
332.715	87.94
332.943	97.94
333.172	99.94
333.4	90.94
333.629	107.94
333.857	112.94
334.085	99.94
334.314	108.94
334.542	94.94
334.771	100.94
334.999	111.94
335.227	92.94
335.455	107.94
335.684	102.94
335.912	98.94
336.14	97.94
336.369	86.94
336.597	82.94
336.825	104.94
337.053	104.94
337.281	93.94
337.51	101.94
337.738	87.94
337.966	99.94
338.194	100.94
338.422	104.94
338.65	95.94
338.878	99.94
339.106	84.94
339.334	96.94
339.562	90.94
339.79	94.94
340.018	85.94
340.246	112.94
340.474	85.94
340.702	82.94
340.93	86.94
341.158	92.94
341.386	96.94
341.614	95.94
341.842	92.94
342.07	104.94
342.298	86.94
342.526	84.94
342.754	84.94
342.981	92.94
343.209	90.94
343.437	100.94
343.665	88.94
343.893	99.94
344.12	93.94
344.348	91.94
344.576	92.94
344.804	98.94
345.031	103.94
345.259	92.94
345.487	105.94
345.714	90.94
345.942	97.94
346.17	88.94
346.397	106.94
346.625	95.94
346.853	84.94
347.08	107.94
347.308	101.94
347.535	104.94
347.763	106.94
347.99	102.94
348.218	91.94
348.445	102.94
348.673	89.94
348.9	98.94
349.128	91.94
349.355	97.94
349.583	85.94
349.81	96.94
350.037	88.94
350.265	96.94
350.492	90.94
350.72	111.94
350.947	100.94
351.174	117.94
351.402	115.94
351.629	107.94
351.856	88.94
352.083	99.94
352.311	91.94
352.538	111.94
352.765	109.94
352.992	109.94
353.22	120.94
353.447	107.94
353.674	112.94
353.901	112.94
354.128	104.94
354.355	94.94
354.583	105.94
354.81	106.94
355.037	101.94
355.264	102.94
355.491	97.94
355.718	89.94
355.945	90.94
356.172	100.94
356.399	91.94
356.626	97.94
356.853	102.94
357.08	99.94
357.307	103.94
357.534	100.94
357.761	101.94
357.988	100.94
358.215	95.94
358.441	89.94
358.668	96.94
358.895	97.94
359.122	92.94
359.349	89.94
359.576	96.94
359.802	88.94
360.029	101.94
360.256	110.94
360.483	107.94
360.709	69.94
360.936	103.94
361.163	87.94
361.39	103.94
361.616	109.94
361.843	73.94
362.07	103.94
362.296	111.94
362.523	100.94
362.749	80.94
362.976	82.94
363.203	97.94
363.429	91.94
363.656	93.94
363.882	73.94
364.109	93.94
364.335	99.94
364.562	88.94
364.788	107.94
365.015	107.94
365.241	109.94
365.468	105.94
365.694	97.94
365.92	105.94
366.147	95.94
366.373	102.94
366.599	96.94
366.826	98.94
367.052	94.94
367.278	105.94
367.505	93.94
367.731	97.94
367.957	90.94
368.184	96.94
368.41	90.94
368.636	101.94
368.862	121.94
369.089	115.94
369.315	86.94
369.541	84.94
369.767	85.94
369.993	84.94
370.219	88.94
370.445	95.94
370.672	85.94
370.898	90.94
371.124	95.94
371.35	96.94
371.576	85.94
371.802	91.94
372.028	81.94
372.254	85.94
372.48	81.94
372.706	107.94
372.932	85.94
373.158	91.94
373.384	94.94
373.61	88.94
373.835	96.94
374.061	91.94
374.287	87.94
374.513	87.94
374.739	94.94
374.965	99.94
375.191	86.94
375.416	79.94
375.642	92.94
375.868	103.94
376.094	87.94
376.319	91.94
376.545	79.94
376.771	82.94
376.997	89.94
377.222	102.94
377.448	92.94
377.674	99.94
377.899	89.94
378.125	91.94
378.35	94.94
378.576	98.94
378.802	95.94
379.027	103.94
379.253	102.94
379.478	99.94
379.704	89.94
379.929	88.94
380.155	93.94
380.38	89.94
380.606	84.94
380.831	105.94
381.057	107.94
381.282	97.94
381.507	95.94
381.733	98.94
381.958	97.94
382.184	102.94
382.409	103.94
382.634	102.94
382.86	97.94
383.085	107.94
383.31	91.94
383.535	109.94
383.761	90.94
383.986	97.94
384.211	99.94
384.436	93.94
384.662	85.94
384.887	119.94
385.112	93.94
385.337	100.94
385.562	111.94
385.787	87.94
386.013	120.94
386.238	120.94
386.463	112.94
386.688	96.94
386.913	95.94
387.138	96.94
387.363	92.94
387.588	93.94
387.813	106.94
388.038	114.94
388.263	115.94
388.488	107.94
388.713	97.94
388.938	102.94
389.163	95.94
389.387	87.94
389.612	90.94
389.837	91.94
390.062	98.94
390.287	87.94
390.512	100.94
390.736	103.94
390.961	98.94
391.186	87.94
391.411	96.94
391.636	92.94
391.86	91.94
392.085	87.94
392.31	72.94
392.534	101.94
392.759	91.94
392.984	96.94
393.208	102.94
393.433	94.94
393.658	86.94
393.882	91.94
394.107	86.94
394.331	87.94
394.556	87.94
394.78	74.94
395.005	100.94
395.229	92.94
395.454	89.94
395.678	82.94
395.903	81.94
396.127	103.94
396.352	86.94
396.576	109.94
396.801	99.94
397.025	92.94
397.249	89.94
397.474	88.94
397.698	102.94
397.922	93.94
398.147	95.94
398.371	74.94
398.595	90.94
398.82	80.94
399.044	82.94
399.268	90.94
399.492	84.94
399.717	104.94
399.941	90.94
400.165	100.94
400.389	88.94
400.613	77.94
400.837	94.94
401.062	93.94
401.286	84.94
401.51	97.94
401.734	95.94
401.958	104.94
402.182	121.94
402.406	160.94
402.63	105.94
402.854	88.94
403.078	87.94
403.302	84.94
403.526	100.94
403.75	78.94
403.974	89.94
404.198	89.94
404.422	88.94
404.645	84.94
404.869	104.94
405.093	93.94
405.317	97.94
405.541	86.94
405.765	102.94
405.988	118.94
406.212	160.94
406.436	223.94
406.66	132.94
406.883	98.94
407.107	102.94
407.331	103.94
407.555	95.94
407.778	91.94
408.002	83.94
408.226	71.94
408.449	96.94
408.673	93.94
408.896	85.94
409.12	90.94
409.344	88.94
409.567	98.94
409.791	86.94
410.014	106.94
410.238	88.94
410.461	89.94
410.685	103.94
410.908	98.94
411.132	106.94
411.355	97.94
411.578	93.94
411.802	97.94
412.025	96.94
412.249	88.94
412.472	92.94
412.695	97.94
412.919	84.94
413.142	87.94
413.365	87.94
413.589	98.94
413.812	91.94
414.035	101.94
414.258	90.94
414.482	90.94
414.705	95.94
414.928	90.94
415.151	108.94
415.374	101.94
415.597	83.94
415.821	96.94
416.044	85.94
416.267	80.94
416.49	86.94
416.713	90.94
416.936	96.94
417.159	86.94
417.382	91.94
417.605	90.94
417.828	90.94
418.051	94.94
418.274	81.94
418.497	93.94
418.72	96.94
418.943	83.94
419.166	81.94
419.389	100.94
419.611	107.94
419.834	87.94
420.057	100.94
420.28	81.94
420.503	90.94
420.726	88.94
420.948	91.94
421.171	94.94
421.394	87.94
421.617	92.94
421.839	104.94
422.062	88.94
422.285	94.94
422.507	88.94
422.73	104.94
422.953	99.94
423.175	91.94
423.398	79.94
423.621	96.94
423.843	91.94
424.066	91.94
424.288	91.94
424.511	91.94
424.733	93.94
424.956	101.94
425.178	94.94
425.401	102.94
425.623	102.94
425.846	91.94
426.068	70.94
426.291	92.94
426.513	86.94
426.735	94.94
426.958	103.94
427.18	104.94
427.402	134.94
427.625	159.94
427.847	111.94
428.069	103.94
428.292	87.94
428.514	82.94
428.736	100.94
428.958	82.94
429.181	91.94
429.403	81.94
429.625	90.94
429.847	87.94
430.069	88.94
430.292	86.94
430.514	102.94
430.736	89.94
430.958	102.94
431.18	78.94
431.402	83.94
431.624	96.94
431.846	82.94
432.068	91.94
432.29	100.94
432.512	91.94
432.734	92.94
432.956	100.94
433.178	101.94
433.4	98.94
433.622	86.94
433.844	83.94
434.066	78.94
434.287	90.94
434.509	87.94
434.731	82.94
434.953	87.94
435.175	83.94
435.397	76.94
435.618	99.94
435.84	92.94
436.062	116.94
436.284	112.94
436.505	92.94
436.727	81.94
436.949	92.94
437.17	92.94
437.392	81.94
437.614	89.94
437.835	121.94
438.057	115.94
438.278	103.94
438.5	97.94
438.721	121.94
438.943	97.94
439.165	91.94
439.386	84.94
439.608	91.94
439.829	98.94
440.05	107.94
440.272	139.94
440.493	97.94
440.715	82.94
440.936	95.94
441.158	97.94
441.379	97.94
441.6	98.94
441.822	97.94
442.043	88.94
442.264	91.94
442.486	95.94
442.707	84.94
442.928	114.94
443.149	119.94
443.371	120.94
443.592	99.94
443.813	105.94
444.034	97.94
444.255	99.94
444.476	97.94
444.698	80.94
444.919	87.94
445.14	128.94
445.361	126.94
445.582	106.94
445.803	131.94
446.024	142.94
446.245	128.94
446.466	118.94
446.687	93.94
446.908	80.94
447.129	79.94
447.35	86.94
447.571	91.94
447.792	102.94
448.013	100.94
448.234	115.94
448.455	91.94
448.675	117.94
448.896	110.94
449.117	111.94
449.338	97.94
449.559	106.94
449.779	115.94
450	93.94
450.221	78.94
450.442	94.94
450.662	87.94
450.883	126.94
451.104	115.94
451.324	86.94
451.545	90.94
451.766	83.94
451.986	95.94
452.207	102.94
452.428	101.94
452.648	113.94
452.869	107.94
453.089	114.94
453.31	100.94
453.53	96.94
453.751	92.94
453.971	110.94
454.192	108.94
454.412	87.94
454.633	88.94
454.853	91.94
455.073	87.94
455.294	78.94
455.514	91.94
455.734	108.94
455.955	97.94
456.175	82.94
456.395	92.94
456.616	96.94
456.836	95.94
457.056	98.94
457.276	87.94
457.497	80.94
457.717	89.94
457.937	104.94
458.157	92.94
458.377	87.94
458.598	110.94
458.818	137.94
459.038	148.94
459.258	101.94
459.478	76.94
459.698	92.94
459.918	89.94
460.138	80.94
460.358	90.94
460.578	77.94
460.798	87.94
461.018	84.94
461.238	82.94
461.458	88.94
461.678	87.94
461.898	103.94
462.118	95.94
462.338	89.94
462.558	98.94
462.777	92.94
462.997	96.94
463.217	89.94
463.437	91.94
463.657	83.94
463.876	106.94
464.096	88.94
464.316	85.94
464.536	80.94
464.755	98.94
464.975	96.94
465.195	151.94
465.414	139.94
465.634	90.94
465.854	74.94
466.073	87.94
466.293	86.94
466.512	91.94
466.732	88.94
466.951	99.94
467.171	100.94
467.391	103.94
467.61	111.94
467.829	81.94
468.049	101.94
468.268	96.94
468.488	82.94
468.707	73.94
468.927	90.94
469.146	87.94
469.365	94.94
469.585	82.94
469.804	83.94
470.023	100.94
470.243	98.94
470.462	93.94
470.681	119.94
470.901	85.94
471.12	92.94
471.339	89.94
471.558	84.94
471.777	88.94
471.997	88.94
472.216	103.94
472.435	99.94
472.654	74.94
472.873	77.94
473.092	82.94
473.311	86.94
473.53	91.94
473.749	80.94
473.968	104.94
474.187	100.94
474.406	92.94
474.625	89.94
474.844	94.94
475.063	84.94
475.282	88.94
475.501	84.94
475.72	84.94
475.939	83.94
476.158	96.94
476.377	82.94
476.596	83.94
476.814	89.94
477.033	85.94
477.252	82.94
477.471	88.94
477.69	92.94
477.908	95.94
478.127	97.94
478.346	89.94
478.564	103.94
478.783	91.94
479.002	94.94
479.22	92.94
479.439	102.94
479.658	92.94
479.876	83.94
480.095	100.94
480.313	88.94
480.532	92.94
480.751	87.94
480.969	96.94
481.188	112.94
481.406	108.94
481.624	93.94
481.843	75.94
482.061	100.94
482.28	83.94
482.498	89.94
482.717	84.94
482.935	92.94
483.153	84.94
483.372	96.94
483.59	81.94
483.808	90.94
484.027	94.94
484.245	91.94
484.463	79.94
484.681	84.94
484.9	96.94
485.118	87.94
485.336	100.94
485.554	116.94
485.772	96.94
485.99	95.94
486.209	95.94
486.427	99.94
486.645	100.94
486.863	96.94
487.081	118.94
487.299	96.94
487.517	96.94
487.735	92.94
487.953	91.94
488.171	90.94
488.389	90.94
488.607	98.94
488.825	99.94
489.043	94.94
489.261	88.94
489.479	103.94
489.696	89.94
489.914	83.94
490.132	104.94
490.35	103.94
490.568	92.94
490.786	91.94
491.003	96.94
491.221	80.94
491.439	100.94
491.657	104.94
491.874	106.94
492.092	95.94
492.31	78.94
492.527	90.94
492.745	96.94
492.963	74.94
493.18	76.94
493.398	98.94
493.615	97.94
493.833	95.94
494.05	93.94
494.268	93.94
494.485	78.94
494.703	92.94
494.92	101.94
495.138	92.94
495.355	110.94
495.573	94.94
495.79	98.94
496.008	101.94
496.225	90.94
496.442	90.94
496.66	101.94
496.877	96.94
497.094	97.94
497.312	78.94
497.529	107.94
497.746	92.94
497.963	82.94
498.181	102.94
498.398	100.94
498.615	111.94
498.832	83.94
499.049	75.94
499.267	97.94
499.484	78.94
499.701	92.94
499.918	98.94
500.135	104.94
500.352	95.94
500.569	94.94
500.786	95.94
501.003	100.94
501.22	80.94
501.437	87.94
501.654	98.94
501.871	98.94
502.088	96.94
502.305	93.94
502.522	95.94
502.739	98.94
502.956	92.94
503.172	92.94
503.389	97.94
503.606	101.94
503.823	106.94
504.04	89.94
504.256	92.94
504.473	98.94
504.69	97.94
504.907	101.94
505.123	83.94
505.34	92.94
505.557	80.94
505.773	84.94
505.99	96.94
506.207	88.94
506.423	92.94
506.64	87.94
506.856	97.94
507.073	91.94
507.289	91.94
507.506	95.94
507.722	90.94
507.939	124.94
508.155	99.94
508.372	82.94
508.588	96.94
508.805	103.94
509.021	85.94
509.238	94.94
509.454	104.94
509.67	94.94
509.887	95.94
510.103	116.94
510.319	214.94
510.536	748.94
510.752	2404.94
510.968	675.94
511.184	159.94
511.401	108.94
511.617	93.94
511.833	83.94
512.049	98.94
512.265	101.94
512.481	101.94
512.698	94.94
512.914	85.94
513.13	88.94
513.346	92.94
513.562	97.94
513.778	94.94
513.994	94.94
514.21	95.94
514.426	114.94
514.642	132.94
514.858	123.94
515.074	160.94
515.29	446.94
