Data from Uncirc_2004_H10_HRD10591_00056.txt Node
Date: Wed Jan 03 10:32:24 EST 2024
User: Yrep
Spectrometer: HR+D1059
Trigger mode: 1
Integration Time (sec): 1.000000E-1
Scans to average: 1
Electric dark correction enabled: true
Nonlinearity correction enabled: false
Boxcar width: 0
XAxis mode: Wavelengths
Number of Pixels in Spectrum: 2048
>>>>>Begin Spectral Data<<<<<
223.165	-21.5
223.4	-21.5
223.635	-21.5
223.869	-22.5
224.104	-8.5
224.338	-15.5
224.573	-13.5
224.808	-8.5
225.042	-13.5
225.277	2.5
225.511	5.5
225.746	-3.5
225.98	8.5
226.215	12.5
226.449	12.5
226.683	22.5
226.918	19.5
227.152	23.5
227.387	26.5
227.621	34.5
227.856	46.5
228.09	38.5
228.324	49.5
228.559	68.5
228.793	62.5
229.027	54.5
229.262	63.5
229.496	76.5
229.73	74.5
229.964	87.5
230.199	80.5
230.433	77.5
230.667	76.5
230.901	82.5
231.136	70.5
231.37	73.5
231.604	80.5
231.838	91.5
232.072	78.5
232.306	80.5
232.541	81.5
232.775	87.5
233.009	71.5
233.243	86.5
233.477	71.5
233.711	76.5
233.945	77.5
234.179	76.5
234.413	86.5
234.647	89.5
234.881	73.5
235.115	73.5
235.349	75.5
235.583	91.5
235.817	96.5
236.051	74.5
236.285	85.5
236.519	90.5
236.753	81.5
236.987	73.5
237.221	81.5
237.455	73.5
237.689	70.5
237.922	75.5
238.156	73.5
238.39	76.5
238.624	65.5
238.858	64.5
239.091	83.5
239.325	78.5
239.559	84.5
239.793	70.5
240.027	90.5
240.26	81.5
240.494	87.5
240.728	63.5
240.961	71.5
241.195	87.5
241.429	68.5
241.662	81.5
241.896	75.5
242.13	78.5
242.363	76.5
242.597	86.5
242.83	71.5
243.064	74.5
243.298	71.5
243.531	79.5
243.765	77.5
243.998	80.5
244.232	92.5
244.465	72.5
244.699	84.5
244.932	78.5
245.166	87.5
245.399	70.5
245.633	62.5
245.866	82.5
246.099	81.5
246.333	83.5
246.566	80.5
246.8	77.5
247.033	76.5
247.266	65.5
247.5	71.5
247.733	73.5
247.966	84.5
248.2	82.5
248.433	85.5
248.666	78.5
248.899	81.5
249.133	88.5
249.366	82.5
249.599	93.5
249.832	72.5
250.066	93.5
250.299	74.5
250.532	90.5
250.765	71.5
250.998	85.5
251.231	68.5
251.465	88.5
251.698	92.5
251.931	89.5
252.164	83.5
252.397	80.5
252.63	81.5
252.863	84.5
253.096	78.5
253.329	86.5
253.562	78.5
253.795	74.5
254.028	101.5
254.261	88.5
254.494	78.5
254.727	68.5
254.96	65.5
255.193	76.5
255.426	77.5
255.659	82.5
255.892	89.5
256.124	88.5
256.357	78.5
256.59	95.5
256.823	86.5
257.056	82.5
257.289	85.5
257.521	78.5
257.754	83.5
257.987	80.5
258.22	89.5
258.452	96.5
258.685	77.5
258.918	81.5
259.151	76.5
259.383	76.5
259.616	83.5
259.849	80.5
260.081	81.5
260.314	78.5
260.547	89.5
260.779	75.5
261.012	81.5
261.244	78.5
261.477	85.5
261.71	92.5
261.942	95.5
262.175	100.5
262.407	90.5
262.64	82.5
262.872	70.5
263.105	71.5
263.337	88.5
263.57	78.5
263.802	79.5
264.035	76.5
264.267	87.5
264.499	82.5
264.732	74.5
264.964	73.5
265.197	71.5
265.429	84.5
265.661	93.5
265.894	97.5
266.126	68.5
266.358	90.5
266.591	85.5
266.823	72.5
267.055	76.5
267.287	89.5
267.52	84.5
267.752	81.5
267.984	90.5
268.216	76.5
268.448	85.5
268.681	92.5
268.913	85.5
269.145	70.5
269.377	83.5
269.609	73.5
269.841	88.5
270.073	73.5
270.306	78.5
270.538	87.5
270.77	96.5
271.002	95.5
271.234	78.5
271.466	90.5
271.698	97.5
271.93	94.5
272.162	89.5
272.394	104.5
272.626	73.5
272.858	85.5
273.09	91.5
273.322	82.5
273.553	81.5
273.785	87.5
274.017	92.5
274.249	82.5
274.481	76.5
274.713	83.5
274.945	87.5
275.176	93.5
275.408	84.5
275.64	78.5
275.872	94.5
276.104	79.5
276.335	87.5
276.567	91.5
276.799	109.5
277.031	95.5
277.262	85.5
277.494	102.5
277.726	58.5
277.957	90.5
278.189	85.5
278.421	89.5
278.652	83.5
278.884	87.5
279.115	90.5
279.347	85.5
279.579	77.5
279.81	94.5
280.042	83.5
280.273	74.5
280.505	93.5
280.736	97.5
280.968	90.5
281.199	88.5
281.431	76.5
281.662	86.5
281.894	85.5
282.125	99.5
282.356	121.5
282.588	133.5
282.819	108.5
283.051	90.5
283.282	88.5
283.513	90.5
283.745	84.5
283.976	83.5
284.207	88.5
284.439	73.5
284.67	76.5
284.901	89.5
285.132	80.5
285.364	72.5
285.595	95.5
285.826	70.5
286.057	89.5
286.288	72.5
286.52	98.5
286.751	80.5
286.982	87.5
287.213	70.5
287.444	90.5
287.675	95.5
287.906	83.5
288.138	94.5
288.369	100.5
288.6	86.5
288.831	91.5
289.062	85.5
289.293	94.5
289.524	71.5
289.755	67.5
289.986	75.5
290.217	102.5
290.448	82.5
290.679	84.5
290.91	93.5
291.141	80.5
291.371	68.5
291.602	82.5
291.833	93.5
292.064	85.5
292.295	91.5
292.526	103.5
292.757	94.5
292.987	100.5
293.218	92.5
293.449	78.5
293.68	86.5
293.91	90.5
294.141	88.5
294.372	74.5
294.603	98.5
294.833	94.5
295.064	73.5
295.295	84.5
295.525	96.5
295.756	106.5
295.987	101.5
296.217	145.5
296.448	120.5
296.679	102.5
296.909	100.5
297.14	75.5
297.37	88.5
297.601	83.5
297.831	100.5
298.062	92.5
298.292	89.5
298.523	90.5
298.753	102.5
298.984	91.5
299.214	85.5
299.445	97.5
299.675	98.5
299.905	98.5
300.136	90.5
300.366	99.5
300.597	94.5
300.827	95.5
301.057	101.5
301.288	99.5
301.518	93.5
301.748	88.5
301.979	100.5
302.209	95.5
302.439	86.5
302.669	82.5
302.9	78.5
303.13	86.5
303.36	91.5
303.59	102.5
303.82	99.5
304.051	93.5
304.281	89.5
304.511	93.5
304.741	92.5
304.971	80.5
305.201	91.5
305.431	79.5
305.661	93.5
305.891	84.5
306.121	104.5
306.352	118.5
306.582	101.5
306.812	97.5
307.042	95.5
307.272	90.5
307.502	92.5
307.731	96.5
307.961	87.5
308.191	102.5
308.421	89.5
308.651	96.5
308.881	97.5
309.111	87.5
309.341	96.5
309.571	104.5
309.8	89.5
310.03	100.5
310.26	86.5
310.49	103.5
310.72	91.5
310.949	87.5
311.179	96.5
311.409	99.5
311.639	78.5
311.868	100.5
312.098	88.5
312.328	80.5
312.557	99.5
312.787	103.5
313.017	98.5
313.246	90.5
313.476	85.5
313.706	104.5
313.935	86.5
314.165	95.5
314.394	114.5
314.624	96.5
314.853	85.5
315.083	101.5
315.312	84.5
315.542	86.5
315.771	87.5
316.001	92.5
316.23	96.5
316.46	104.5
316.689	84.5
316.919	104.5
317.148	88.5
317.377	87.5
317.607	102.5
317.836	110.5
318.065	97.5
318.295	82.5
318.524	84.5
318.753	87.5
318.983	97.5
319.212	101.5
319.441	98.5
319.67	95.5
319.9	102.5
320.129	92.5
320.358	107.5
320.587	110.5
320.816	101.5
321.046	115.5
321.275	97.5
321.504	97.5
321.733	90.5
321.962	102.5
322.191	93.5
322.42	94.5
322.649	108.5
322.878	110.5
323.108	124.5
323.337	126.5
323.566	136.5
323.795	160.5
324.024	212.5
324.253	440.5
324.482	907.5
324.71	1874.5
324.939	2430.5
325.168	888.5
325.397	254.5
325.626	160.5
325.855	152.5
326.084	143.5
326.313	126.5
326.542	165.5
326.77	247.5
326.999	513.5
327.228	1043.5
327.457	1893.5
327.686	1493.5
327.914	392.5
328.143	198.5
328.372	160.5
328.6	131.5
328.829	108.5
329.058	108.5
329.287	117.5
329.515	102.5
329.744	87.5
329.972	101.5
330.201	110.5
330.43	98.5
330.658	122.5
330.887	134.5
331.115	119.5
331.344	93.5
331.572	104.5
331.801	104.5
332.03	106.5
332.258	88.5
332.486	92.5
332.715	92.5
332.943	84.5
333.172	96.5
333.4	102.5
333.629	99.5
333.857	104.5
334.085	111.5
334.314	94.5
334.542	110.5
334.771	103.5
334.999	97.5
335.227	83.5
335.455	102.5
335.684	98.5
335.912	99.5
336.14	108.5
336.369	92.5
336.597	99.5
336.825	91.5
337.053	93.5
337.281	108.5
337.51	86.5
337.738	102.5
337.966	100.5
338.194	111.5
338.422	81.5
338.65	96.5
338.878	91.5
339.106	98.5
339.334	92.5
339.562	85.5
339.79	95.5
340.018	84.5
340.246	97.5
340.474	95.5
340.702	81.5
340.93	92.5
341.158	99.5
341.386	95.5
341.614	85.5
341.842	100.5
342.07	95.5
342.298	105.5
342.526	99.5
342.754	80.5
342.981	96.5
343.209	98.5
343.437	112.5
343.665	94.5
343.893	87.5
344.12	102.5
344.348	104.5
344.576	90.5
344.804	96.5
345.031	95.5
345.259	87.5
345.487	92.5
345.714	91.5
345.942	113.5
346.17	99.5
346.397	89.5
346.625	94.5
346.853	86.5
347.08	73.5
347.308	97.5
347.535	96.5
347.763	103.5
347.99	106.5
348.218	107.5
348.445	97.5
348.673	105.5
348.9	87.5
349.128	102.5
349.355	99.5
349.583	105.5
349.81	97.5
350.037	95.5
350.265	96.5
350.492	89.5
350.72	93.5
350.947	101.5
351.174	120.5
351.402	106.5
351.629	101.5
351.856	94.5
352.083	104.5
352.311	108.5
352.538	111.5
352.765	112.5
352.992	111.5
353.22	104.5
353.447	111.5
353.674	98.5
353.901	107.5
354.128	98.5
354.355	89.5
354.583	98.5
354.81	97.5
355.037	108.5
355.264	84.5
355.491	93.5
355.718	86.5
355.945	100.5
356.172	116.5
356.399	102.5
356.626	85.5
356.853	81.5
357.08	85.5
357.307	88.5
357.534	99.5
357.761	90.5
357.988	93.5
358.215	94.5
358.441	96.5
358.668	82.5
358.895	93.5
359.122	87.5
359.349	82.5
359.576	90.5
359.802	88.5
360.029	111.5
360.256	95.5
360.483	102.5
360.709	81.5
360.936	102.5
361.163	100.5
361.39	108.5
361.616	104.5
361.843	76.5
362.07	92.5
362.296	103.5
362.523	98.5
362.749	83.5
362.976	90.5
363.203	78.5
363.429	77.5
363.656	82.5
363.882	88.5
364.109	82.5
364.335	94.5
364.562	95.5
364.788	86.5
365.015	85.5
365.241	93.5
365.468	114.5
365.694	102.5
365.92	83.5
366.147	96.5
366.373	101.5
366.599	102.5
366.826	94.5
367.052	101.5
367.278	93.5
367.505	96.5
367.731	90.5
367.957	111.5
368.184	101.5
368.41	101.5
368.636	111.5
368.862	122.5
369.089	111.5
369.315	82.5
369.541	85.5
369.767	88.5
369.993	89.5
370.219	98.5
370.445	90.5
370.672	90.5
370.898	94.5
371.124	97.5
371.35	99.5
371.576	81.5
371.802	82.5
372.028	88.5
372.254	94.5
372.48	79.5
372.706	84.5
372.932	89.5
373.158	95.5
373.384	89.5
373.61	94.5
373.835	93.5
374.061	98.5
374.287	105.5
374.513	98.5
374.739	87.5
374.965	85.5
375.191	90.5
375.416	92.5
375.642	94.5
375.868	102.5
376.094	98.5
376.319	95.5
376.545	74.5
376.771	82.5
376.997	88.5
377.222	80.5
377.448	101.5
377.674	95.5
377.899	88.5
378.125	96.5
378.35	94.5
378.576	96.5
378.802	84.5
379.027	82.5
379.253	94.5
379.478	98.5
379.704	89.5
379.929	91.5
380.155	98.5
380.38	98.5
380.606	71.5
380.831	91.5
381.057	92.5
381.282	91.5
381.507	96.5
381.733	105.5
381.958	105.5
382.184	99.5
382.409	92.5
382.634	89.5
382.86	101.5
383.085	105.5
383.31	115.5
383.535	101.5
383.761	112.5
383.986	101.5
384.211	104.5
384.436	98.5
384.662	111.5
384.887	110.5
385.112	113.5
385.337	104.5
385.562	114.5
385.787	114.5
386.013	115.5
386.238	105.5
386.463	113.5
386.688	99.5
386.913	112.5
387.138	111.5
387.363	109.5
387.588	103.5
387.813	99.5
388.038	100.5
388.263	106.5
388.488	118.5
388.713	104.5
388.938	94.5
389.163	96.5
389.387	101.5
389.612	102.5
389.837	104.5
390.062	98.5
390.287	93.5
390.512	87.5
390.736	97.5
390.961	95.5
391.186	94.5
391.411	106.5
391.636	94.5
391.86	93.5
392.085	91.5
392.31	81.5
392.534	94.5
392.759	90.5
392.984	84.5
393.208	82.5
393.433	80.5
393.658	85.5
393.882	84.5
394.107	96.5
394.331	96.5
394.556	79.5
394.78	104.5
395.005	88.5
395.229	87.5
395.454	84.5
395.678	78.5
395.903	94.5
396.127	83.5
396.352	84.5
396.576	93.5
396.801	93.5
397.025	100.5
397.249	77.5
397.474	69.5
397.698	79.5
397.922	90.5
398.147	79.5
398.371	74.5
398.595	76.5
398.82	80.5
399.044	70.5
399.268	86.5
399.492	80.5
399.717	86.5
399.941	101.5
400.165	92.5
400.389	91.5
400.613	102.5
400.837	102.5
401.062	82.5
401.286	87.5
401.51	111.5
401.734	90.5
401.958	93.5
402.182	116.5
402.406	161.5
402.63	115.5
402.854	100.5
403.078	99.5
403.302	101.5
403.526	84.5
403.75	88.5
403.974	84.5
404.198	95.5
404.422	95.5
404.645	84.5
404.869	90.5
405.093	101.5
405.317	88.5
405.541	99.5
405.765	108.5
405.988	133.5
406.212	158.5
406.436	227.5
406.66	126.5
406.883	109.5
407.107	115.5
407.331	86.5
407.555	94.5
407.778	81.5
408.002	89.5
408.226	80.5
408.449	87.5
408.673	93.5
408.896	97.5
409.12	99.5
409.344	97.5
409.567	79.5
409.791	94.5
410.014	116.5
410.238	90.5
410.461	100.5
410.685	100.5
410.908	98.5
411.132	95.5
411.355	87.5
411.578	83.5
411.802	70.5
412.025	99.5
412.249	100.5
412.472	88.5
412.695	85.5
412.919	98.5
413.142	78.5
413.365	82.5
413.589	81.5
413.812	92.5
414.035	99.5
414.258	87.5
414.482	93.5
414.705	96.5
414.928	104.5
415.151	76.5
415.374	96.5
415.597	95.5
415.821	84.5
416.044	80.5
416.267	89.5
416.49	94.5
416.713	95.5
416.936	92.5
417.159	92.5
417.382	87.5
417.605	89.5
417.828	103.5
418.051	95.5
418.274	99.5
418.497	90.5
418.72	83.5
418.943	101.5
419.166	72.5
419.389	88.5
419.611	89.5
419.834	96.5
420.057	89.5
420.28	79.5
420.503	92.5
420.726	99.5
420.948	97.5
421.171	107.5
421.394	99.5
421.617	96.5
421.839	80.5
422.062	81.5
422.285	103.5
422.507	109.5
422.73	101.5
422.953	88.5
423.175	90.5
423.398	103.5
423.621	93.5
423.843	90.5
424.066	97.5
424.288	88.5
424.511	81.5
424.733	90.5
424.956	102.5
425.178	97.5
425.401	100.5
425.623	94.5
425.846	87.5
426.068	80.5
426.291	84.5
426.513	90.5
426.735	88.5
426.958	92.5
427.18	93.5
427.402	116.5
427.625	155.5
427.847	116.5
428.069	103.5
428.292	110.5
428.514	107.5
428.736	87.5
428.958	93.5
429.181	82.5
429.403	75.5
429.625	83.5
429.847	83.5
430.069	74.5
430.292	88.5
430.514	91.5
430.736	92.5
430.958	93.5
431.18	87.5
431.402	79.5
431.624	93.5
431.846	90.5
432.068	85.5
432.29	83.5
432.512	80.5
432.734	87.5
432.956	94.5
433.178	109.5
433.4	110.5
433.622	96.5
433.844	103.5
434.066	87.5
434.287	89.5
434.509	98.5
434.731	93.5
434.953	96.5
435.175	92.5
435.397	87.5
435.618	96.5
435.84	104.5
436.062	115.5
436.284	121.5
436.505	105.5
436.727	110.5
436.949	92.5
437.17	96.5
437.392	111.5
437.614	79.5
437.835	102.5
438.057	104.5
438.278	110.5
438.5	109.5
438.721	107.5
438.943	102.5
439.165	98.5
439.386	83.5
439.608	85.5
439.829	87.5
440.05	117.5
440.272	142.5
440.493	104.5
440.715	94.5
440.936	86.5
441.158	93.5
441.379	99.5
441.6	74.5
441.822	83.5
442.043	94.5
442.264	100.5
442.486	87.5
442.707	83.5
442.928	90.5
443.149	126.5
443.371	115.5
443.592	110.5
443.813	112.5
444.034	109.5
444.255	87.5
444.476	90.5
444.698	74.5
444.919	95.5
445.14	123.5
445.361	136.5
445.582	108.5
445.803	128.5
446.024	140.5
446.245	127.5
446.466	103.5
446.687	98.5
446.908	78.5
447.129	76.5
447.35	89.5
447.571	95.5
447.792	93.5
448.013	106.5
448.234	101.5
448.455	87.5
448.675	113.5
448.896	121.5
449.117	104.5
449.338	102.5
449.559	148.5
449.779	128.5
450	90.5
450.221	88.5
450.442	82.5
450.662	101.5
450.883	95.5
451.104	96.5
451.324	91.5
451.545	79.5
451.766	72.5
451.986	95.5
452.207	90.5
452.428	92.5
452.648	87.5
452.869	100.5
453.089	115.5
453.31	107.5
453.53	93.5
453.751	90.5
453.971	116.5
454.192	117.5
454.412	97.5
454.633	81.5
454.853	96.5
455.073	92.5
455.294	97.5
455.514	92.5
455.734	99.5
455.955	89.5
456.175	72.5
456.395	92.5
456.616	76.5
456.836	83.5
457.056	100.5
457.276	98.5
457.497	76.5
457.717	100.5
457.937	90.5
458.157	89.5
458.377	82.5
458.598	104.5
458.818	149.5
459.038	138.5
459.258	108.5
459.478	98.5
459.698	95.5
459.918	95.5
460.138	91.5
460.358	84.5
460.578	97.5
460.798	104.5
461.018	86.5
461.238	80.5
461.458	83.5
461.678	90.5
461.898	86.5
462.118	90.5
462.338	99.5
462.558	90.5
462.777	92.5
462.997	83.5
463.217	78.5
463.437	81.5
463.657	85.5
463.876	90.5
464.096	80.5
464.316	86.5
464.536	110.5
464.755	87.5
464.975	111.5
465.195	170.5
465.414	146.5
465.634	99.5
465.854	91.5
466.073	84.5
466.293	93.5
466.512	75.5
466.732	94.5
466.951	87.5
467.171	91.5
467.391	101.5
467.61	111.5
467.829	101.5
468.049	104.5
468.268	95.5
468.488	91.5
468.707	85.5
468.927	83.5
469.146	83.5
469.365	69.5
469.585	90.5
469.804	98.5
470.023	99.5
470.243	90.5
470.462	99.5
470.681	114.5
470.901	93.5
471.12	95.5
471.339	97.5
471.558	96.5
471.777	88.5
471.997	90.5
472.216	102.5
472.435	106.5
472.654	89.5
472.873	93.5
473.092	88.5
473.311	76.5
473.53	88.5
473.749	78.5
473.968	78.5
474.187	89.5
474.406	85.5
474.625	90.5
474.844	86.5
475.063	89.5
475.282	77.5
475.501	92.5
475.72	79.5
475.939	78.5
476.158	88.5
476.377	95.5
476.596	93.5
476.814	79.5
477.033	86.5
477.252	93.5
477.471	97.5
477.69	97.5
477.908	97.5
478.127	84.5
478.346	85.5
478.564	93.5
478.783	95.5
479.002	95.5
479.22	86.5
479.439	90.5
479.658	100.5
479.876	111.5
480.095	70.5
480.313	86.5
480.532	89.5
480.751	88.5
480.969	100.5
481.188	119.5
481.406	108.5
481.624	92.5
481.843	93.5
482.061	78.5
482.28	87.5
482.498	89.5
482.717	87.5
482.935	87.5
483.153	93.5
483.372	88.5
483.59	86.5
483.808	90.5
484.027	89.5
484.245	102.5
484.463	88.5
484.681	95.5
484.9	88.5
485.118	95.5
485.336	93.5
485.554	92.5
485.772	95.5
485.99	93.5
486.209	91.5
486.427	93.5
486.645	116.5
486.863	114.5
487.081	110.5
487.299	92.5
487.517	102.5
487.735	97.5
487.953	95.5
488.171	95.5
488.389	86.5
488.607	108.5
488.825	105.5
489.043	104.5
489.261	85.5
489.479	89.5
489.696	90.5
489.914	90.5
490.132	104.5
490.35	93.5
490.568	87.5
490.786	80.5
491.003	97.5
491.221	100.5
491.439	97.5
491.657	89.5
491.874	83.5
492.092	101.5
492.31	95.5
492.527	94.5
492.745	84.5
492.963	97.5
493.18	96.5
493.398	100.5
493.615	109.5
493.833	94.5
494.05	95.5
494.268	99.5
494.485	98.5
494.703	96.5
494.92	84.5
495.138	86.5
495.355	95.5
495.573	94.5
495.79	93.5
496.008	97.5
496.225	83.5
496.442	77.5
496.66	85.5
496.877	106.5
497.094	87.5
497.312	82.5
497.529	85.5
497.746	97.5
497.963	86.5
498.181	100.5
498.398	101.5
498.615	104.5
498.832	101.5
499.049	97.5
499.267	89.5
499.484	93.5
499.701	80.5
499.918	94.5
500.135	88.5
500.352	90.5
500.569	89.5
500.786	94.5
501.003	91.5
501.22	92.5
501.437	86.5
501.654	103.5
501.871	98.5
502.088	87.5
502.305	97.5
502.522	72.5
502.739	88.5
502.956	86.5
503.172	88.5
503.389	80.5
503.606	106.5
503.823	99.5
504.04	87.5
504.256	105.5
504.473	84.5
504.69	103.5
504.907	87.5
505.123	94.5
505.34	92.5
505.557	87.5
505.773	101.5
505.99	89.5
506.207	76.5
506.423	101.5
506.64	85.5
506.856	99.5
507.073	108.5
507.289	96.5
507.506	98.5
507.722	123.5
507.939	107.5
508.155	99.5
508.372	90.5
508.588	105.5
508.805	89.5
509.021	104.5
509.238	86.5
509.454	104.5
509.67	106.5
509.887	120.5
510.103	136.5
510.319	227.5
510.536	874.5
510.752	2717.5
510.968	738.5
511.184	165.5
511.401	113.5
511.617	109.5
511.833	90.5
512.049	95.5
512.265	85.5
512.481	77.5
512.698	90.5
512.914	87.5
513.13	99.5
513.346	88.5
513.562	100.5
513.778	112.5
513.994	96.5
514.21	91.5
514.426	110.5
514.642	119.5
514.858	149.5
515.074	181.5
515.29	513.5
515.506	1614.5
515.721	583.5
515.937	156.5
516.153	116.5
516.369	92.5
516.585	96.5
516.801	95.5
517.016	76.5
517.232	97.5
517.448	89.5
517.664	93.5
517.879	90.5
518.095	90.5
518.311	104.5
518.527	95.5
518.742	93.5
518.958	95.5
519.173	85.5
519.389	90.5
519.605	94.5
519.82	89.5
520.036	99.5
520.251	112.5
520.467	112.5
520.682	90.5
520.898	102.5
521.113	112.5
521.329	142.5
521.544	213.5
521.76	609.5
521.975	2681.5
522.19	1597.5
522.406	346.5
522.621	128.5
522.836	103.5
523.052	106.5
523.267	97.5
523.482	97.5
523.698	111.5
523.913	114.5
524.128	96.5
524.343	96.5
524.559	105.5
524.774	96.5
524.989	94.5
525.204	96.5
525.419	98.5
525.634	91.5
525.849	89.5
526.064	91.5
526.28	82.5
526.495	97.5
526.71	86.5
526.925	94.5
527.14	85.5
527.355	79.5
527.57	98.5
527.785	97.5
527.999	88.5
528.214	87.5
528.429	101.5
528.644	105.5
528.859	86.5
529.074	105.5
529.289	121.5
529.503	177.5
529.718	114.5
529.933	106.5
530.148	98.5
530.363	86.5
530.577	82.5
530.792	94.5
531.007	90.5
531.221	101.5
531.436	103.5
531.651	97.5
531.865	80.5
532.08	96.5
532.295	99.5
532.509	96.5
532.724	98.5
532.938	89.5
533.153	94.5
533.367	100.5
533.582	104.5
533.796	99.5
534.011	100.5
534.225	82.5
534.44	89.5
534.654	85.5
534.868	93.5
