Data from Uncirc_2004_H10_HRD10591_00037.txt Node
Date: Wed Jan 03 10:32:20 EST 2024
User: Yrep
Spectrometer: HR+D1059
Trigger mode: 1
Integration Time (sec): 1.000000E-1
Scans to average: 1
Electric dark correction enabled: true
Nonlinearity correction enabled: false
Boxcar width: 0
XAxis mode: Wavelengths
Number of Pixels in Spectrum: 2048
>>>>>Begin Spectral Data<<<<<
223.165	-18.12
223.4	-18.12
223.635	-18.12
223.869	-13.12
224.104	-21.12
224.338	-11.12
224.573	-14.12
224.808	-23.12
225.042	-16.12
225.277	-4.12
225.511	4.88
225.746	3.88
225.98	10.88
226.215	18.88
226.449	20.88
226.683	14.88
226.918	24.88
227.152	21.88
227.387	38.88
227.621	33.88
227.856	60.88
228.09	35.88
228.324	59.88
228.559	56.88
228.793	74.88
229.027	74.88
229.262	76.88
229.496	79.88
229.73	81.88
229.964	79.88
230.199	73.88
230.433	72.88
230.667	77.88
230.901	81.88
231.136	89.88
231.37	76.88
231.604	87.88
231.838	82.88
232.072	84.88
232.306	74.88
232.541	79.88
232.775	88.88
233.009	88.88
233.243	96.88
233.477	88.88
233.711	91.88
233.945	79.88
234.179	98.88
234.413	77.88
234.647	75.88
234.881	83.88
235.115	81.88
235.349	76.88
235.583	98.88
235.817	79.88
236.051	87.88
236.285	78.88
236.519	80.88
236.753	75.88
236.987	71.88
237.221	90.88
237.455	89.88
237.689	79.88
237.922	89.88
238.156	83.88
238.39	71.88
238.624	70.88
238.858	80.88
239.091	76.88
239.325	85.88
239.559	80.88
239.793	79.88
240.027	74.88
240.26	81.88
240.494	84.88
240.728	80.88
240.961	88.88
241.195	73.88
241.429	83.88
241.662	82.88
241.896	81.88
242.13	75.88
242.363	81.88
242.597	80.88
242.83	84.88
243.064	80.88
243.298	76.88
243.531	89.88
243.765	74.88
243.998	91.88
244.232	68.88
244.465	80.88
244.699	80.88
244.932	84.88
245.166	80.88
245.399	79.88
245.633	83.88
245.866	90.88
246.099	87.88
246.333	89.88
246.566	88.88
246.8	82.88
247.033	86.88
247.266	70.88
247.5	84.88
247.733	90.88
247.966	82.88
248.2	75.88
248.433	82.88
248.666	91.88
248.899	107.88
249.133	104.88
249.366	90.88
249.599	104.88
249.832	90.88
250.066	85.88
250.299	83.88
250.532	75.88
250.765	84.88
250.998	73.88
251.231	69.88
251.465	64.88
251.698	93.88
251.931	87.88
252.164	79.88
252.397	82.88
252.63	73.88
252.863	88.88
253.096	75.88
253.329	96.88
253.562	80.88
253.795	74.88
254.028	85.88
254.261	79.88
254.494	78.88
254.727	85.88
254.96	87.88
255.193	99.88
255.426	74.88
255.659	80.88
255.892	94.88
256.124	85.88
256.357	82.88
256.59	87.88
256.823	95.88
257.056	90.88
257.289	80.88
257.521	86.88
257.754	81.88
257.987	92.88
258.22	75.88
258.452	90.88
258.685	81.88
258.918	81.88
259.151	82.88
259.383	98.88
259.616	90.88
259.849	80.88
260.081	86.88
260.314	87.88
260.547	82.88
260.779	82.88
261.012	92.88
261.244	98.88
261.477	91.88
261.71	93.88
261.942	107.88
262.175	115.88
262.407	86.88
262.64	93.88
262.872	82.88
263.105	108.88
263.337	102.88
263.57	71.88
263.802	74.88
264.035	91.88
264.267	76.88
264.499	93.88
264.732	86.88
264.964	82.88
265.197	85.88
265.429	89.88
265.661	86.88
265.894	99.88
266.126	79.88
266.358	79.88
266.591	76.88
266.823	95.88
267.055	75.88
267.287	99.88
267.52	67.88
267.752	87.88
267.984	87.88
268.216	84.88
268.448	87.88
268.681	74.88
268.913	75.88
269.145	82.88
269.377	78.88
269.609	77.88
269.841	79.88
270.073	89.88
270.306	99.88
270.538	72.88
270.77	91.88
271.002	82.88
271.234	95.88
271.466	92.88
271.698	91.88
271.93	91.88
272.162	99.88
272.394	83.88
272.626	84.88
272.858	81.88
273.09	80.88
273.322	92.88
273.553	91.88
273.785	92.88
274.017	90.88
274.249	84.88
274.481	84.88
274.713	85.88
274.945	87.88
275.176	106.88
275.408	91.88
275.64	83.88
275.872	97.88
276.104	89.88
276.335	83.88
276.567	109.88
276.799	116.88
277.031	102.88
277.262	103.88
277.494	100.88
277.726	96.88
277.957	84.88
278.189	92.88
278.421	105.88
278.652	80.88
278.884	79.88
279.115	84.88
279.347	75.88
279.579	90.88
279.81	79.88
280.042	85.88
280.273	93.88
280.505	86.88
280.736	86.88
280.968	104.88
281.199	77.88
281.431	87.88
281.662	81.88
281.894	78.88
282.125	100.88
282.356	108.88
282.588	137.88
282.819	116.88
283.051	90.88
283.282	86.88
283.513	90.88
283.745	102.88
283.976	89.88
284.207	75.88
284.439	97.88
284.67	87.88
284.901	94.88
285.132	98.88
285.364	94.88
285.595	85.88
285.826	94.88
286.057	101.88
286.288	87.88
286.52	79.88
286.751	101.88
286.982	83.88
287.213	95.88
287.444	96.88
287.675	84.88
287.906	98.88
288.138	98.88
288.369	106.88
288.6	80.88
288.831	84.88
289.062	91.88
289.293	86.88
289.524	93.88
289.755	97.88
289.986	90.88
290.217	82.88
290.448	94.88
290.679	95.88
290.91	98.88
291.141	96.88
291.371	83.88
291.602	91.88
291.833	78.88
292.064	96.88
292.295	92.88
292.526	90.88
292.757	83.88
292.987	94.88
293.218	80.88
293.449	90.88
293.68	98.88
293.91	82.88
294.141	73.88
294.372	96.88
294.603	94.88
294.833	87.88
295.064	93.88
295.295	91.88
295.525	87.88
295.756	103.88
295.987	103.88
296.217	131.88
296.448	152.88
296.679	104.88
296.909	98.88
297.14	102.88
297.37	87.88
297.601	86.88
297.831	87.88
298.062	99.88
298.292	96.88
298.523	75.88
298.753	73.88
298.984	89.88
299.214	87.88
299.445	109.88
299.675	78.88
299.905	104.88
300.136	108.88
300.366	99.88
300.597	87.88
300.827	84.88
301.057	102.88
301.288	101.88
301.518	104.88
301.748	98.88
301.979	92.88
302.209	104.88
302.439	92.88
302.669	85.88
302.9	88.88
303.13	97.88
303.36	86.88
303.59	102.88
303.82	109.88
304.051	94.88
304.281	91.88
304.511	89.88
304.741	91.88
304.971	93.88
305.201	100.88
305.431	91.88
305.661	90.88
305.891	86.88
306.121	87.88
306.352	108.88
306.582	96.88
306.812	100.88
307.042	106.88
307.272	97.88
307.502	89.88
307.731	97.88
307.961	85.88
308.191	88.88
308.421	103.88
308.651	89.88
308.881	104.88
309.111	84.88
309.341	101.88
309.571	92.88
309.8	102.88
310.03	93.88
310.26	116.88
310.49	98.88
310.72	103.88
310.949	112.88
311.179	116.88
311.409	100.88
311.639	96.88
311.868	95.88
312.098	102.88
312.328	91.88
312.557	94.88
312.787	110.88
313.017	98.88
313.246	92.88
313.476	87.88
313.706	101.88
313.935	89.88
314.165	101.88
314.394	113.88
314.624	103.88
314.853	109.88
315.083	90.88
315.312	87.88
315.542	91.88
315.771	97.88
316.001	88.88
316.23	84.88
316.46	81.88
316.689	95.88
316.919	92.88
317.148	99.88
317.377	91.88
317.607	88.88
317.836	102.88
318.065	103.88
318.295	78.88
318.524	90.88
318.753	101.88
318.983	98.88
319.212	92.88
319.441	108.88
319.67	101.88
319.9	82.88
320.129	101.88
320.358	96.88
320.587	98.88
320.816	105.88
321.046	106.88
321.275	98.88
321.504	112.88
321.733	103.88
321.962	94.88
322.191	100.88
322.42	111.88
322.649	107.88
322.878	107.88
323.108	113.88
323.337	122.88
323.566	126.88
323.795	161.88
324.024	210.88
324.253	394.88
324.482	796.88
324.71	1659.88
324.939	2128.88
325.168	786.88
325.397	227.88
325.626	165.88
325.855	126.88
326.084	134.88
326.313	139.88
326.542	153.88
326.77	249.88
326.999	437.88
327.228	910.88
327.457	1665.88
327.686	1329.88
327.914	368.88
328.143	195.88
328.372	140.88
328.6	122.88
328.829	118.88
329.058	91.88
329.287	137.88
329.515	112.88
329.744	94.88
329.972	112.88
330.201	112.88
330.43	112.88
330.658	111.88
330.887	129.88
331.115	120.88
331.344	105.88
331.572	102.88
331.801	105.88
332.03	100.88
332.258	98.88
332.486	98.88
332.715	82.88
332.943	98.88
333.172	102.88
333.4	101.88
333.629	126.88
333.857	102.88
334.085	104.88
334.314	97.88
334.542	102.88
334.771	102.88
334.999	112.88
335.227	107.88
335.455	94.88
335.684	110.88
335.912	114.88
336.14	108.88
336.369	95.88
336.597	96.88
336.825	100.88
337.053	104.88
337.281	99.88
337.51	89.88
337.738	89.88
337.966	97.88
338.194	88.88
338.422	98.88
338.65	107.88
338.878	92.88
339.106	99.88
339.334	90.88
339.562	78.88
339.79	94.88
340.018	99.88
340.246	103.88
340.474	99.88
340.702	105.88
340.93	92.88
341.158	93.88
341.386	95.88
341.614	83.88
341.842	82.88
342.07	99.88
342.298	100.88
342.526	97.88
342.754	106.88
342.981	97.88
343.209	86.88
343.437	105.88
343.665	97.88
343.893	75.88
344.12	102.88
344.348	86.88
344.576	92.88
344.804	102.88
345.031	84.88
345.259	91.88
345.487	91.88
345.714	99.88
345.942	103.88
346.17	96.88
346.397	92.88
346.625	100.88
346.853	95.88
347.08	100.88
347.308	81.88
347.535	87.88
347.763	108.88
347.99	102.88
348.218	104.88
348.445	112.88
348.673	83.88
348.9	97.88
349.128	89.88
349.355	85.88
349.583	84.88
349.81	90.88
350.037	102.88
350.265	90.88
350.492	100.88
350.72	92.88
350.947	105.88
351.174	92.88
351.402	87.88
351.629	95.88
351.856	97.88
352.083	115.88
352.311	108.88
352.538	101.88
352.765	118.88
352.992	108.88
353.22	133.88
353.447	95.88
353.674	92.88
353.901	118.88
354.128	101.88
354.355	95.88
354.583	88.88
354.81	99.88
355.037	98.88
355.264	95.88
355.491	91.88
355.718	96.88
355.945	98.88
356.172	99.88
356.399	92.88
356.626	111.88
356.853	102.88
357.08	99.88
357.307	107.88
357.534	84.88
357.761	97.88
357.988	102.88
358.215	94.88
358.441	100.88
358.668	104.88
358.895	96.88
359.122	97.88
359.349	103.88
359.576	84.88
359.802	91.88
360.029	107.88
360.256	114.88
360.483	104.88
360.709	95.88
360.936	104.88
361.163	85.88
361.39	100.88
361.616	102.88
361.843	88.88
362.07	105.88
362.296	102.88
362.523	81.88
362.749	98.88
362.976	90.88
363.203	75.88
363.429	92.88
363.656	94.88
363.882	96.88
364.109	94.88
364.335	95.88
364.562	87.88
364.788	101.88
365.015	93.88
365.241	98.88
365.468	107.88
365.694	110.88
365.92	103.88
366.147	99.88
366.373	107.88
366.599	91.88
366.826	90.88
367.052	100.88
367.278	96.88
367.505	89.88
367.731	89.88
367.957	104.88
368.184	95.88
368.41	111.88
368.636	113.88
368.862	125.88
369.089	113.88
369.315	96.88
369.541	90.88
369.767	97.88
369.993	110.88
370.219	94.88
370.445	94.88
370.672	84.88
370.898	85.88
371.124	80.88
371.35	79.88
371.576	94.88
371.802	95.88
372.028	97.88
372.254	91.88
372.48	90.88
372.706	98.88
372.932	86.88
373.158	93.88
373.384	89.88
373.61	78.88
373.835	83.88
374.061	100.88
374.287	99.88
374.513	87.88
374.739	95.88
374.965	95.88
375.191	89.88
375.416	90.88
375.642	104.88
375.868	89.88
376.094	88.88
376.319	89.88
376.545	89.88
376.771	84.88
376.997	74.88
377.222	74.88
377.448	95.88
377.674	95.88
377.899	96.88
378.125	97.88
378.35	94.88
378.576	112.88
378.802	94.88
379.027	83.88
379.253	98.88
379.478	87.88
379.704	96.88
379.929	78.88
380.155	110.88
380.38	107.88
380.606	88.88
380.831	91.88
381.057	90.88
381.282	86.88
381.507	95.88
381.733	103.88
381.958	99.88
382.184	100.88
382.409	88.88
382.634	101.88
382.86	114.88
383.085	96.88
383.31	103.88
383.535	93.88
383.761	107.88
383.986	88.88
384.211	108.88
384.436	106.88
384.662	97.88
384.887	113.88
385.112	92.88
385.337	107.88
385.562	111.88
385.787	104.88
386.013	119.88
386.238	115.88
386.463	110.88
386.688	101.88
386.913	110.88
387.138	107.88
387.363	115.88
387.588	101.88
387.813	94.88
388.038	116.88
388.263	124.88
388.488	114.88
388.713	115.88
388.938	98.88
389.163	105.88
389.387	105.88
389.612	85.88
389.837	95.88
390.062	96.88
390.287	86.88
390.512	83.88
390.736	87.88
390.961	87.88
391.186	90.88
391.411	88.88
391.636	85.88
391.86	86.88
392.085	84.88
392.31	76.88
392.534	92.88
392.759	89.88
392.984	89.88
393.208	94.88
393.433	104.88
393.658	81.88
393.882	97.88
394.107	93.88
394.331	89.88
394.556	85.88
394.78	99.88
395.005	83.88
395.229	87.88
395.454	94.88
395.678	76.88
395.903	89.88
396.127	99.88
396.352	90.88
396.576	88.88
396.801	92.88
397.025	89.88
397.249	87.88
397.474	79.88
397.698	87.88
397.922	75.88
398.147	86.88
398.371	86.88
398.595	98.88
398.82	90.88
399.044	82.88
399.268	88.88
399.492	91.88
399.717	93.88
399.941	83.88
400.165	94.88
400.389	85.88
400.613	98.88
400.837	83.88
401.062	85.88
401.286	85.88
401.51	97.88
401.734	111.88
401.958	107.88
402.182	109.88
402.406	164.88
402.63	113.88
402.854	80.88
403.078	78.88
403.302	79.88
403.526	93.88
403.75	96.88
403.974	83.88
404.198	78.88
404.422	86.88
404.645	101.88
404.869	87.88
405.093	102.88
405.317	96.88
405.541	105.88
405.765	98.88
405.988	121.88
406.212	168.88
406.436	232.88
406.66	138.88
406.883	100.88
407.107	93.88
407.331	98.88
407.555	94.88
407.778	91.88
408.002	94.88
408.226	85.88
408.449	85.88
408.673	108.88
408.896	101.88
409.12	88.88
409.344	91.88
409.567	84.88
409.791	104.88
410.014	99.88
410.238	87.88
410.461	115.88
410.685	94.88
410.908	107.88
411.132	114.88
411.355	91.88
411.578	88.88
411.802	82.88
412.025	99.88
412.249	88.88
412.472	93.88
412.695	85.88
412.919	89.88
413.142	88.88
413.365	87.88
413.589	95.88
413.812	112.88
414.035	92.88
414.258	86.88
414.482	82.88
414.705	97.88
414.928	101.88
415.151	100.88
415.374	104.88
415.597	89.88
415.821	95.88
416.044	95.88
416.267	88.88
416.49	89.88
416.713	83.88
416.936	95.88
417.159	86.88
417.382	90.88
417.605	96.88
417.828	101.88
418.051	109.88
418.274	99.88
418.497	95.88
418.72	97.88
418.943	89.88
419.166	97.88
419.389	94.88
419.611	79.88
419.834	76.88
420.057	91.88
420.28	92.88
420.503	93.88
420.726	82.88
420.948	73.88
421.171	89.88
421.394	92.88
421.617	84.88
421.839	96.88
422.062	89.88
422.285	87.88
422.507	95.88
422.73	115.88
422.953	91.88
423.175	86.88
423.398	86.88
423.621	76.88
423.843	100.88
424.066	91.88
424.288	96.88
424.511	94.88
424.733	100.88
424.956	114.88
425.178	95.88
425.401	98.88
425.623	96.88
425.846	99.88
426.068	99.88
426.291	86.88
426.513	101.88
426.735	88.88
426.958	97.88
427.18	94.88
427.402	142.88
427.625	157.88
427.847	137.88
428.069	102.88
428.292	96.88
428.514	79.88
428.736	75.88
428.958	100.88
429.181	91.88
429.403	82.88
429.625	87.88
429.847	94.88
430.069	84.88
430.292	91.88
430.514	74.88
430.736	76.88
430.958	83.88
431.18	86.88
431.402	93.88
431.624	96.88
431.846	97.88
432.068	96.88
432.29	87.88
432.512	102.88
432.734	84.88
432.956	88.88
433.178	104.88
433.4	78.88
433.622	102.88
433.844	89.88
434.066	97.88
434.287	81.88
434.509	98.88
434.731	95.88
434.953	89.88
435.175	100.88
435.397	89.88
435.618	89.88
435.84	101.88
436.062	114.88
436.284	110.88
436.505	97.88
436.727	92.88
436.949	83.88
437.17	78.88
437.392	82.88
437.614	103.88
437.835	103.88
438.057	130.88
438.278	99.88
438.5	116.88
438.721	111.88
438.943	97.88
439.165	80.88
439.386	85.88
439.608	82.88
439.829	100.88
440.05	123.88
440.272	129.88
440.493	90.88
440.715	97.88
440.936	89.88
441.158	90.88
441.379	96.88
441.6	92.88
441.822	92.88
442.043	108.88
442.264	99.88
442.486	90.88
442.707	87.88
442.928	94.88
443.149	120.88
443.371	128.88
443.592	113.88
443.813	106.88
444.034	98.88
444.255	90.88
444.476	88.88
444.698	97.88
444.919	92.88
445.14	151.88
445.361	132.88
445.582	104.88
445.803	121.88
446.024	135.88
446.245	123.88
446.466	110.88
446.687	83.88
446.908	97.88
447.129	107.88
447.35	87.88
447.571	93.88
447.792	84.88
448.013	97.88
448.234	100.88
448.455	102.88
448.675	93.88
448.896	108.88
449.117	98.88
449.338	111.88
449.559	119.88
449.779	118.88
450	98.88
450.221	85.88
450.442	87.88
450.662	97.88
450.883	100.88
451.104	120.88
451.324	85.88
451.545	79.88
451.766	78.88
451.986	90.88
452.207	88.88
452.428	104.88
452.648	98.88
452.869	115.88
453.089	111.88
453.31	112.88
453.53	95.88
453.751	99.88
453.971	104.88
454.192	114.88
454.412	98.88
454.633	89.88
454.853	89.88
455.073	94.88
455.294	91.88
455.514	90.88
455.734	90.88
455.955	103.88
456.175	97.88
456.395	92.88
456.616	104.88
456.836	96.88
457.056	88.88
457.276	75.88
457.497	87.88
457.717	95.88
457.937	88.88
458.157	85.88
458.377	90.88
458.598	102.88
458.818	143.88
459.038	150.88
459.258	103.88
459.478	86.88
459.698	87.88
459.918	86.88
460.138	103.88
460.358	98.88
460.578	93.88
460.798	94.88
461.018	103.88
461.238	94.88
461.458	92.88
461.678	87.88
461.898	76.88
462.118	92.88
462.338	87.88
462.558	87.88
462.777	97.88
462.997	97.88
463.217	83.88
463.437	94.88
463.657	94.88
463.876	95.88
464.096	89.88
464.316	102.88
464.536	102.88
464.755	103.88
464.975	116.88
465.195	158.88
465.414	162.88
465.634	92.88
465.854	92.88
466.073	87.88
466.293	97.88
466.512	90.88
466.732	94.88
466.951	100.88
467.171	81.88
467.391	96.88
467.61	100.88
467.829	98.88
468.049	110.88
468.268	97.88
468.488	106.88
468.707	101.88
468.927	101.88
469.146	86.88
469.365	96.88
469.585	81.88
469.804	94.88
470.023	97.88
470.243	96.88
470.462	90.88
470.681	112.88
470.901	88.88
471.12	99.88
471.339	99.88
471.558	91.88
471.777	83.88
471.997	84.88
472.216	99.88
472.435	117.88
472.654	94.88
472.873	93.88
473.092	95.88
473.311	89.88
473.53	95.88
473.749	99.88
473.968	88.88
474.187	99.88
474.406	90.88
474.625	78.88
474.844	88.88
475.063	88.88
475.282	85.88
475.501	85.88
475.72	88.88
475.939	83.88
476.158	98.88
476.377	81.88
476.596	89.88
476.814	103.88
477.033	98.88
477.252	96.88
477.471	79.88
477.69	90.88
477.908	100.88
478.127	104.88
478.346	95.88
478.564	86.88
478.783	105.88
479.002	88.88
479.22	98.88
479.439	95.88
479.658	100.88
479.876	98.88
480.095	89.88
480.313	100.88
480.532	91.88
480.751	92.88
480.969	114.88
481.188	128.88
481.406	116.88
481.624	90.88
481.843	103.88
482.061	91.88
482.28	94.88
482.498	83.88
482.717	86.88
482.935	84.88
483.153	89.88
483.372	88.88
483.59	88.88
483.808	98.88
484.027	104.88
484.245	89.88
484.463	96.88
484.681	103.88
484.9	96.88
485.118	97.88
485.336	96.88
485.554	91.88
485.772	100.88
485.99	102.88
486.209	86.88
486.427	104.88
486.645	110.88
486.863	123.88
487.081	90.88
487.299	99.88
487.517	106.88
487.735	98.88
487.953	97.88
488.171	92.88
488.389	109.88
488.607	95.88
488.825	88.88
489.043	85.88
489.261	91.88
489.479	103.88
489.696	104.88
489.914	90.88
490.132	97.88
490.35	83.88
490.568	100.88
490.786	106.88
491.003	101.88
491.221	97.88
491.439	98.88
491.657	92.88
491.874	80.88
492.092	80.88
492.31	91.88
492.527	83.88
492.745	88.88
492.963	95.88
493.18	94.88
493.398	101.88
493.615	84.88
493.833	91.88
494.05	87.88
494.268	99.88
494.485	88.88
494.703	85.88
494.92	97.88
495.138	90.88
495.355	89.88
495.573	98.88
495.79	87.88
496.008	90.88
496.225	87.88
496.442	90.88
496.66	99.88
496.877	95.88
497.094	102.88
497.312	98.88
497.529	91.88
497.746	94.88
497.963	82.88
498.181	83.88
498.398	88.88
498.615	106.88
498.832	109.88
499.049	91.88
499.267	102.88
499.484	88.88
499.701	90.88
499.918	89.88
500.135	89.88
500.352	96.88
500.569	84.88
500.786	88.88
501.003	90.88
501.22	93.88
501.437	91.88
501.654	105.88
501.871	116.88
502.088	99.88
502.305	86.88
502.522	94.88
502.739	82.88
502.956	109.88
503.172	90.88
503.389	86.88
503.606	108.88
503.823	90.88
504.04	94.88
504.256	100.88
504.473	109.88
504.69	90.88
504.907	97.88
505.123	77.88
505.34	91.88
505.557	107.88
505.773	83.88
505.99	107.88
506.207	104.88
506.423	88.88
506.64	98.88
506.856	95.88
507.073	96.88
507.289	98.88
507.506	90.88
507.722	104.88
507.939	106.88
508.155	105.88
508.372	96.88
508.588	82.88
508.805	109.88
509.021	98.88
509.238	93.88
509.454	121.88
509.67	106.88
509.887	117.88
510.103	126.88
510.319	233.88
510.536	841.88
510.752	2564.88
510.968	702.88
511.184	146.88
511.401	112.88
511.617	95.88
511.833	101.88
512.049	91.88
512.265	88.88
512.481	89.88
512.698	87.88
512.914	96.88
513.13	90.88
513.346	97.88
513.562	96.88
513.778	98.88
513.994	91.88
514.21	96.88
514.426	112.88
514.642	123.88
514.858	137.88
