Data from Uncirc_2004_H10_HRD10591_00044.txt Node
Date: Wed Jan 03 10:32:21 EST 2024
User: Yrep
Spectrometer: HR+D1059
Trigger mode: 1
Integration Time (sec): 1.000000E-1
Scans to average: 1
Electric dark correction enabled: true
Nonlinearity correction enabled: false
Boxcar width: 0
XAxis mode: Wavelengths
Number of Pixels in Spectrum: 2048
>>>>>Begin Spectral Data<<<<<
223.165	-9.94
223.4	-9.94
223.635	-9.94
223.869	-24.94
224.104	-11.94
224.338	-15.94
224.573	-9.94
224.808	-15.94
225.042	-3.94
225.277	1.06
225.511	5.06
225.746	11.06
225.98	-4.94
226.215	12.06
226.449	5.06
226.683	11.06
226.918	25.06
227.152	27.06
227.387	19.06
227.621	43.06
227.856	32.06
228.09	56.06
228.324	51.06
228.559	57.06
228.793	68.06
229.027	66.06
229.262	64.06
229.496	66.06
229.73	70.06
229.964	78.06
230.199	73.06
230.433	65.06
230.667	70.06
230.901	87.06
231.136	82.06
231.37	78.06
231.604	73.06
231.838	75.06
232.072	93.06
232.306	75.06
232.541	87.06
232.775	82.06
233.009	86.06
233.243	79.06
233.477	70.06
233.711	90.06
233.945	86.06
234.179	80.06
234.413	76.06
234.647	69.06
234.881	81.06
235.115	80.06
235.349	75.06
235.583	73.06
235.817	79.06
236.051	79.06
236.285	69.06
236.519	85.06
236.753	76.06
236.987	79.06
237.221	81.06
237.455	84.06
237.689	71.06
237.922	76.06
238.156	78.06
238.39	73.06
238.624	76.06
238.858	79.06
239.091	67.06
239.325	69.06
239.559	83.06
239.793	78.06
240.027	68.06
240.26	79.06
240.494	71.06
240.728	67.06
240.961	74.06
241.195	71.06
241.429	84.06
241.662	70.06
241.896	79.06
242.13	71.06
242.363	75.06
242.597	87.06
242.83	68.06
243.064	76.06
243.298	77.06
243.531	70.06
243.765	79.06
243.998	70.06
244.232	79.06
244.465	81.06
244.699	71.06
244.932	80.06
245.166	73.06
245.399	80.06
245.633	97.06
245.866	85.06
246.099	64.06
246.333	75.06
246.566	84.06
246.8	77.06
247.033	67.06
247.266	80.06
247.5	70.06
247.733	71.06
247.966	67.06
248.2	81.06
248.433	83.06
248.666	73.06
248.899	82.06
249.133	82.06
249.366	101.06
249.599	91.06
249.832	89.06
250.066	96.06
250.299	77.06
250.532	83.06
250.765	89.06
250.998	85.06
251.231	86.06
251.465	85.06
251.698	84.06
251.931	89.06
252.164	75.06
252.397	76.06
252.63	70.06
252.863	76.06
253.096	71.06
253.329	85.06
253.562	71.06
253.795	88.06
254.028	77.06
254.261	65.06
254.494	73.06
254.727	77.06
254.96	76.06
255.193	86.06
255.426	88.06
255.659	79.06
255.892	76.06
256.124	85.06
256.357	85.06
256.59	75.06
256.823	90.06
257.056	84.06
257.289	86.06
257.521	84.06
257.754	84.06
257.987	83.06
258.22	91.06
258.452	89.06
258.685	83.06
258.918	90.06
259.151	96.06
259.383	85.06
259.616	85.06
259.849	69.06
260.081	78.06
260.314	83.06
260.547	68.06
260.779	69.06
261.012	60.06
261.244	78.06
261.477	80.06
261.71	76.06
261.942	104.06
262.175	102.06
262.407	84.06
262.64	96.06
262.872	83.06
263.105	78.06
263.337	84.06
263.57	75.06
263.802	79.06
264.035	77.06
264.267	79.06
264.499	85.06
264.732	93.06
264.964	87.06
265.197	84.06
265.429	87.06
265.661	97.06
265.894	83.06
266.126	94.06
266.358	75.06
266.591	83.06
266.823	81.06
267.055	79.06
267.287	76.06
267.52	84.06
267.752	85.06
267.984	89.06
268.216	87.06
268.448	101.06
268.681	73.06
268.913	76.06
269.145	80.06
269.377	75.06
269.609	81.06
269.841	88.06
270.073	83.06
270.306	69.06
270.538	72.06
270.77	94.06
271.002	91.06
271.234	84.06
271.466	93.06
271.698	79.06
271.93	94.06
272.162	86.06
272.394	88.06
272.626	87.06
272.858	89.06
273.09	76.06
273.322	85.06
273.553	84.06
273.785	84.06
274.017	89.06
274.249	87.06
274.481	75.06
274.713	81.06
274.945	93.06
275.176	82.06
275.408	78.06
275.64	82.06
275.872	83.06
276.104	101.06
276.335	86.06
276.567	97.06
276.799	95.06
277.031	96.06
277.262	75.06
277.494	76.06
277.726	83.06
277.957	83.06
278.189	83.06
278.421	82.06
278.652	77.06
278.884	93.06
279.115	92.06
279.347	85.06
279.579	82.06
279.81	84.06
280.042	81.06
280.273	74.06
280.505	71.06
280.736	72.06
280.968	98.06
281.199	90.06
281.431	94.06
281.662	87.06
281.894	88.06
282.125	100.06
282.356	105.06
282.588	130.06
282.819	127.06
283.051	85.06
283.282	88.06
283.513	97.06
283.745	76.06
283.976	83.06
284.207	77.06
284.439	78.06
284.67	88.06
284.901	94.06
285.132	93.06
285.364	90.06
285.595	95.06
285.826	82.06
286.057	84.06
286.288	89.06
286.52	100.06
286.751	83.06
286.982	66.06
287.213	83.06
287.444	86.06
287.675	87.06
287.906	70.06
288.138	82.06
288.369	94.06
288.6	84.06
288.831	91.06
289.062	84.06
289.293	84.06
289.524	81.06
289.755	75.06
289.986	89.06
290.217	79.06
290.448	69.06
290.679	79.06
290.91	86.06
291.141	88.06
291.371	87.06
291.602	89.06
291.833	85.06
292.064	84.06
292.295	91.06
292.526	96.06
292.757	88.06
292.987	89.06
293.218	77.06
293.449	93.06
293.68	78.06
293.91	99.06
294.141	90.06
294.372	68.06
294.603	89.06
294.833	77.06
295.064	79.06
295.295	88.06
295.525	107.06
295.756	95.06
295.987	90.06
296.217	127.06
296.448	111.06
296.679	93.06
296.909	87.06
297.14	93.06
297.37	81.06
297.601	76.06
297.831	89.06
298.062	80.06
298.292	85.06
298.523	91.06
298.753	92.06
298.984	94.06
299.214	85.06
299.445	111.06
299.675	88.06
299.905	94.06
300.136	99.06
300.366	86.06
300.597	88.06
300.827	98.06
301.057	103.06
301.288	87.06
301.518	89.06
301.748	85.06
301.979	100.06
302.209	86.06
302.439	96.06
302.669	84.06
302.9	78.06
303.13	84.06
303.36	90.06
303.59	115.06
303.82	105.06
304.051	102.06
304.281	109.06
304.511	84.06
304.741	85.06
304.971	97.06
305.201	92.06
305.431	81.06
305.661	80.06
305.891	88.06
306.121	79.06
306.352	100.06
306.582	93.06
306.812	91.06
307.042	91.06
307.272	92.06
307.502	80.06
307.731	90.06
307.961	89.06
308.191	89.06
308.421	92.06
308.651	87.06
308.881	91.06
309.111	83.06
309.341	96.06
309.571	99.06
309.8	97.06
310.03	87.06
310.26	90.06
310.49	93.06
310.72	97.06
310.949	89.06
311.179	90.06
311.409	87.06
311.639	96.06
311.868	82.06
312.098	98.06
312.328	104.06
312.557	99.06
312.787	97.06
313.017	112.06
313.246	92.06
313.476	80.06
313.706	97.06
313.935	96.06
314.165	105.06
314.394	88.06
314.624	103.06
314.853	90.06
315.083	93.06
315.312	94.06
315.542	88.06
315.771	102.06
316.001	88.06
316.23	86.06
316.46	80.06
316.689	98.06
316.919	91.06
317.148	93.06
317.377	97.06
317.607	78.06
317.836	92.06
318.065	93.06
318.295	103.06
318.524	100.06
318.753	100.06
318.983	91.06
319.212	95.06
319.441	105.06
319.67	84.06
319.9	98.06
320.129	90.06
320.358	102.06
320.587	86.06
320.816	95.06
321.046	97.06
321.275	88.06
321.504	99.06
321.733	100.06
321.962	95.06
322.191	109.06
322.42	110.06
322.649	120.06
322.878	122.06
323.108	110.06
323.337	103.06
323.566	134.06
323.795	144.06
324.024	204.06
324.253	371.06
324.482	781.06
324.71	1557.06
324.939	2067.06
325.168	749.06
325.397	228.06
325.626	141.06
325.855	118.06
326.084	120.06
326.313	147.06
326.542	137.06
326.77	218.06
326.999	436.06
327.228	927.06
327.457	1641.06
327.686	1246.06
327.914	348.06
328.143	190.06
328.372	142.06
328.6	130.06
328.829	111.06
329.058	113.06
329.287	121.06
329.515	100.06
329.744	101.06
329.972	103.06
330.201	100.06
330.43	108.06
330.658	105.06
330.887	114.06
331.115	107.06
331.344	107.06
331.572	108.06
331.801	83.06
332.03	100.06
332.258	100.06
332.486	105.06
332.715	94.06
332.943	101.06
333.172	99.06
333.4	96.06
333.629	99.06
333.857	101.06
334.085	100.06
334.314	104.06
334.542	96.06
334.771	104.06
334.999	86.06
335.227	79.06
335.455	99.06
335.684	110.06
335.912	99.06
336.14	101.06
336.369	84.06
336.597	96.06
336.825	97.06
337.053	78.06
337.281	85.06
337.51	82.06
337.738	88.06
337.966	86.06
338.194	92.06
338.422	99.06
338.65	79.06
338.878	90.06
339.106	87.06
339.334	85.06
339.562	78.06
339.79	95.06
340.018	96.06
340.246	97.06
340.474	95.06
340.702	100.06
340.93	101.06
341.158	85.06
341.386	91.06
341.614	95.06
341.842	99.06
342.07	95.06
342.298	81.06
342.526	89.06
342.754	80.06
342.981	84.06
343.209	75.06
343.437	87.06
343.665	89.06
343.893	95.06
344.12	94.06
344.348	92.06
344.576	89.06
344.804	85.06
345.031	92.06
345.259	89.06
345.487	85.06
345.714	88.06
345.942	92.06
346.17	87.06
346.397	99.06
346.625	94.06
346.853	101.06
347.08	81.06
347.308	87.06
347.535	102.06
347.763	107.06
347.99	111.06
348.218	99.06
348.445	97.06
348.673	89.06
348.9	92.06
349.128	101.06
349.355	99.06
349.583	91.06
349.81	97.06
350.037	89.06
350.265	70.06
350.492	94.06
350.72	98.06
350.947	111.06
351.174	107.06
351.402	97.06
351.629	91.06
351.856	83.06
352.083	105.06
352.311	103.06
352.538	96.06
352.765	100.06
352.992	108.06
353.22	111.06
353.447	89.06
353.674	86.06
353.901	98.06
354.128	100.06
354.355	89.06
354.583	92.06
354.81	118.06
355.037	104.06
355.264	98.06
355.491	102.06
355.718	84.06
355.945	96.06
356.172	92.06
356.399	90.06
356.626	94.06
356.853	94.06
357.08	75.06
357.307	85.06
357.534	89.06
357.761	104.06
357.988	101.06
358.215	95.06
358.441	113.06
358.668	91.06
358.895	104.06
359.122	108.06
359.349	86.06
359.576	102.06
359.802	94.06
360.029	107.06
360.256	97.06
360.483	89.06
360.709	86.06
360.936	99.06
361.163	109.06
361.39	100.06
361.616	83.06
361.843	97.06
362.07	94.06
362.296	104.06
362.523	91.06
362.749	97.06
362.976	86.06
363.203	97.06
363.429	85.06
363.656	88.06
363.882	80.06
364.109	95.06
364.335	84.06
364.562	88.06
364.788	82.06
365.015	68.06
365.241	105.06
365.468	101.06
365.694	109.06
365.92	79.06
366.147	87.06
366.373	77.06
366.599	84.06
366.826	83.06
367.052	89.06
367.278	87.06
367.505	102.06
367.731	92.06
367.957	85.06
368.184	88.06
368.41	89.06
368.636	95.06
368.862	102.06
369.089	100.06
369.315	80.06
369.541	87.06
369.767	107.06
369.993	81.06
370.219	83.06
370.445	75.06
370.672	106.06
370.898	92.06
371.124	84.06
371.35	94.06
371.576	71.06
371.802	101.06
372.028	94.06
372.254	109.06
372.48	89.06
372.706	66.06
372.932	96.06
373.158	86.06
373.384	90.06
373.61	92.06
373.835	86.06
374.061	89.06
374.287	78.06
374.513	88.06
374.739	85.06
374.965	81.06
375.191	83.06
375.416	83.06
375.642	88.06
375.868	89.06
376.094	92.06
376.319	86.06
376.545	93.06
376.771	69.06
376.997	89.06
377.222	98.06
377.448	97.06
377.674	91.06
377.899	91.06
378.125	94.06
378.35	89.06
378.576	80.06
378.802	91.06
379.027	91.06
379.253	89.06
379.478	86.06
379.704	88.06
379.929	97.06
380.155	96.06
380.38	100.06
380.606	95.06
380.831	87.06
381.057	91.06
381.282	83.06
381.507	94.06
381.733	101.06
381.958	101.06
382.184	84.06
382.409	80.06
382.634	76.06
382.86	92.06
383.085	96.06
383.31	86.06
383.535	96.06
383.761	96.06
383.986	100.06
384.211	98.06
384.436	87.06
384.662	93.06
384.887	97.06
385.112	116.06
385.337	101.06
385.562	102.06
385.787	109.06
386.013	111.06
386.238	107.06
386.463	97.06
386.688	108.06
386.913	104.06
387.138	94.06
387.363	93.06
387.588	101.06
387.813	88.06
388.038	109.06
388.263	101.06
388.488	113.06
388.713	100.06
388.938	96.06
389.163	81.06
389.387	102.06
389.612	91.06
389.837	93.06
390.062	89.06
390.287	95.06
390.512	85.06
390.736	84.06
390.961	95.06
391.186	93.06
391.411	104.06
391.636	105.06
391.86	76.06
392.085	89.06
392.31	77.06
392.534	78.06
392.759	86.06
392.984	100.06
393.208	81.06
393.433	87.06
393.658	89.06
393.882	79.06
394.107	87.06
394.331	89.06
394.556	96.06
394.78	87.06
395.005	86.06
395.229	97.06
395.454	82.06
395.678	81.06
395.903	79.06
396.127	86.06
396.352	86.06
396.576	93.06
396.801	96.06
397.025	88.06
397.249	87.06
397.474	86.06
397.698	87.06
397.922	90.06
398.147	67.06
398.371	81.06
398.595	87.06
398.82	89.06
399.044	69.06
399.268	85.06
399.492	89.06
399.717	93.06
399.941	92.06
400.165	90.06
400.389	93.06
400.613	100.06
400.837	86.06
401.062	73.06
401.286	85.06
401.51	89.06
401.734	95.06
401.958	89.06
402.182	134.06
402.406	157.06
402.63	119.06
402.854	92.06
403.078	96.06
403.302	84.06
403.526	88.06
403.75	78.06
403.974	75.06
404.198	100.06
404.422	87.06
404.645	76.06
404.869	75.06
405.093	93.06
405.317	78.06
405.541	99.06
405.765	90.06
405.988	120.06
406.212	167.06
406.436	212.06
406.66	135.06
406.883	99.06
407.107	79.06
407.331	95.06
407.555	96.06
407.778	84.06
408.002	88.06
408.226	89.06
408.449	95.06
408.673	99.06
408.896	90.06
409.12	89.06
409.344	100.06
409.567	103.06
409.791	89.06
410.014	106.06
410.238	102.06
410.461	95.06
410.685	94.06
410.908	93.06
411.132	107.06
411.355	84.06
411.578	93.06
411.802	83.06
412.025	85.06
412.249	83.06
412.472	84.06
412.695	92.06
412.919	82.06
413.142	88.06
413.365	83.06
413.589	87.06
413.812	95.06
414.035	87.06
414.258	80.06
414.482	93.06
414.705	83.06
414.928	79.06
415.151	89.06
415.374	96.06
415.597	88.06
415.821	82.06
416.044	87.06
416.267	78.06
416.49	83.06
416.713	84.06
416.936	87.06
417.159	79.06
417.382	89.06
417.605	92.06
417.828	81.06
418.051	88.06
418.274	97.06
418.497	86.06
418.72	86.06
418.943	87.06
419.166	87.06
419.389	78.06
419.611	88.06
419.834	72.06
420.057	100.06
420.28	107.06
420.503	83.06
420.726	85.06
420.948	86.06
421.171	101.06
421.394	86.06
421.617	89.06
421.839	99.06
422.062	99.06
422.285	87.06
422.507	98.06
422.73	84.06
422.953	93.06
423.175	75.06
423.398	86.06
423.621	101.06
423.843	88.06
424.066	75.06
424.288	77.06
424.511	107.06
424.733	105.06
424.956	101.06
425.178	102.06
425.401	89.06
425.623	85.06
425.846	103.06
426.068	93.06
426.291	91.06
426.513	93.06
426.735	102.06
426.958	97.06
427.18	112.06
427.402	115.06
427.625	157.06
427.847	120.06
428.069	97.06
428.292	95.06
428.514	84.06
428.736	71.06
428.958	81.06
429.181	88.06
429.403	80.06
429.625	72.06
429.847	88.06
430.069	81.06
430.292	90.06
430.514	93.06
430.736	76.06
430.958	83.06
431.18	85.06
431.402	74.06
431.624	87.06
431.846	94.06
432.068	80.06
432.29	79.06
432.512	95.06
432.734	80.06
432.956	67.06
433.178	95.06
433.4	98.06
433.622	86.06
433.844	100.06
434.066	91.06
434.287	85.06
434.509	92.06
434.731	88.06
434.953	85.06
435.175	97.06
435.397	88.06
435.618	92.06
435.84	89.06
436.062	124.06
436.284	113.06
436.505	82.06
436.727	89.06
436.949	91.06
437.17	93.06
437.392	83.06
437.614	88.06
437.835	115.06
438.057	117.06
438.278	105.06
438.5	108.06
438.721	108.06
438.943	99.06
439.165	81.06
439.386	83.06
439.608	99.06
439.829	100.06
440.05	113.06
440.272	133.06
440.493	91.06
440.715	104.06
440.936	83.06
441.158	81.06
441.379	74.06
441.6	96.06
441.822	110.06
442.043	88.06
442.264	94.06
442.486	79.06
442.707	96.06
442.928	116.06
443.149	107.06
443.371	126.06
443.592	94.06
443.813	93.06
444.034	104.06
444.255	92.06
444.476	75.06
444.698	79.06
444.919	85.06
445.14	118.06
445.361	122.06
445.582	98.06
445.803	134.06
446.024	130.06
446.245	132.06
446.466	95.06
446.687	89.06
446.908	104.06
447.129	84.06
447.35	94.06
447.571	86.06
447.792	95.06
448.013	102.06
448.234	93.06
448.455	86.06
448.675	110.06
448.896	107.06
449.117	92.06
449.338	106.06
449.559	123.06
449.779	111.06
450	87.06
450.221	81.06
450.442	90.06
450.662	95.06
450.883	109.06
451.104	110.06
451.324	103.06
451.545	85.06
451.766	62.06
451.986	85.06
452.207	89.06
452.428	83.06
452.648	86.06
452.869	92.06
453.089	87.06
453.31	100.06
453.53	89.06
453.751	103.06
453.971	100.06
454.192	113.06
454.412	83.06
454.633	96.06
454.853	93.06
455.073	93.06
455.294	87.06
455.514	98.06
455.734	87.06
455.955	83.06
456.175	86.06
456.395	100.06
456.616	85.06
456.836	98.06
457.056	80.06
457.276	86.06
457.497	92.06
457.717	81.06
457.937	85.06
458.157	85.06
458.377	108.06
458.598	98.06
458.818	142.06
459.038	158.06
459.258	117.06
459.478	73.06
459.698	95.06
459.918	83.06
460.138	101.06
460.358	92.06
460.578	88.06
460.798	89.06
461.018	97.06
461.238	97.06
461.458	86.06
461.678	90.06
461.898	78.06
462.118	80.06
462.338	87.06
462.558	76.06
462.777	73.06
462.997	78.06
463.217	85.06
463.437	81.06
463.657	87.06
463.876	88.06
464.096	89.06
464.316	89.06
464.536	92.06
464.755	95.06
464.975	107.06
465.195	155.06
465.414	151.06
465.634	94.06
465.854	85.06
466.073	76.06
466.293	88.06
466.512	93.06
466.732	82.06
466.951	93.06
467.171	84.06
467.391	97.06
467.61	100.06
467.829	97.06
468.049	86.06
468.268	91.06
468.488	80.06
468.707	81.06
468.927	86.06
469.146	87.06
469.365	64.06
469.585	82.06
469.804	93.06
470.023	72.06
470.243	83.06
470.462	97.06
470.681	111.06
470.901	67.06
471.12	86.06
471.339	69.06
471.558	87.06
471.777	102.06
471.997	78.06
472.216	87.06
472.435	105.06
472.654	76.06
472.873	83.06
473.092	95.06
473.311	91.06
473.53	82.06
473.749	95.06
473.968	96.06
474.187	100.06
474.406	82.06
474.625	83.06
474.844	79.06
475.063	86.06
475.282	84.06
475.501	88.06
475.72	79.06
475.939	82.06
476.158	80.06
476.377	87.06
476.596	86.06
476.814	96.06
477.033	99.06
477.252	92.06
477.471	92.06
477.69	94.06
477.908	83.06
478.127	89.06
478.346	87.06
478.564	88.06
478.783	100.06
479.002	75.06
479.22	93.06
479.439	115.06
479.658	101.06
479.876	79.06
480.095	93.06
480.313	95.06
480.532	89.06
480.751	97.06
480.969	106.06
481.188	118.06
481.406	97.06
481.624	88.06
481.843	100.06
482.061	87.06
482.28	93.06
482.498	88.06
482.717	92.06
482.935	85.06
483.153	97.06
483.372	84.06
483.59	84.06
483.808	87.06
484.027	88.06
484.245	96.06
484.463	82.06
484.681	105.06
484.9	90.06
485.118	90.06
485.336	97.06
485.554	93.06
485.772	82.06
485.99	115.06
486.209	114.06
486.427	96.06
486.645	108.06
486.863	116.06
487.081	93.06
487.299	103.06
487.517	96.06
487.735	108.06
487.953	88.06
488.171	87.06
488.389	88.06
488.607	93.06
488.825	80.06
489.043	80.06
489.261	95.06
489.479	94.06
489.696	94.06
489.914	90.06
490.132	81.06
490.35	99.06
490.568	84.06
490.786	89.06
491.003	80.06
491.221	96.06
491.439	95.06
491.657	95.06
491.874	91.06
492.092	86.06
492.31	76.06
492.527	97.06
492.745	107.06
492.963	92.06
493.18	101.06
493.398	95.06
493.615	84.06
493.833	84.06
494.05	89.06
494.268	87.06
494.485	65.06
494.703	81.06
494.92	84.06
495.138	78.06
495.355	97.06
495.573	88.06
495.79	87.06
496.008	85.06
496.225	93.06
496.442	90.06
496.66	82.06
496.877	98.06
497.094	80.06
497.312	87.06
497.529	79.06
497.746	103.06
497.963	97.06
498.181	80.06
498.398	96.06
498.615	119.06
498.832	104.06
499.049	93.06
499.267	79.06
499.484	94.06
499.701	73.06
499.918	82.06
500.135	83.06
500.352	101.06
500.569	88.06
500.786	84.06
501.003	88.06
501.22	86.06
501.437	71.06
501.654	88.06
501.871	98.06
502.088	104.06
502.305	84.06
502.522	93.06
502.739	105.06
502.956	95.06
503.172	96.06
503.389	98.06
503.606	97.06
503.823	94.06
504.04	99.06
504.256	91.06
504.473	104.06
504.69	87.06
504.907	92.06
505.123	88.06
505.34	91.06
505.557	91.06
505.773	96.06
505.99	86.06
506.207	88.06
506.423	77.06
506.64	84.06
506.856	92.06
507.073	94.06
507.289	77.06
507.506	97.06
507.722	99.06
507.939	117.06
508.155	94.06
508.372	88.06
508.588	86.06
508.805	82.06
509.021	92.06
509.238	102.06
509.454	91.06
509.67	109.06
509.887	106.06
510.103	129.06
510.319	227.06
510.536	817.06
510.752	2403.06
510.968	687.06
511.184	165.06
511.401	109.06
511.617	98.06
511.833	115.06
512.049	85.06
512.265	78.06
512.481	88.06
512.698	103.06
512.914	93.06
513.13	90.06
513.346	90.06
513.562	93.06
513.778	99.06
513.994	97.06
514.21	89.06
514.426	118.06
514.642	134.06
514.858	115.06
515.074	155.06
515.29	461.06
515.506	1467.06
515.721	531.06
515.937	148.06
516.153	100.06
516.369	99.06
