Data from Uncirc_2004_H10_HRD10591_00046.txt Node
Date: Wed Jan 03 10:32:22 EST 2024
User: Yrep
Spectrometer: HR+D1059
Trigger mode: 1
Integration Time (sec): 1.000000E-1
Scans to average: 1
Electric dark correction enabled: true
Nonlinearity correction enabled: false
Boxcar width: 0
XAxis mode: Wavelengths
Number of Pixels in Spectrum: 2048
>>>>>Begin Spectral Data<<<<<
223.165	-7.81
223.4	-7.81
223.635	-7.81
223.869	-15.81
224.104	-17.81
224.338	-20.81
224.573	-15.81
224.808	-22.81
225.042	-18.81
225.277	-5.81
225.511	4.19
225.746	5.19
225.98	11.19
226.215	19.19
226.449	19.19
226.683	25.19
226.918	21.19
227.152	20.19
227.387	38.19
227.621	32.19
227.856	48.19
228.09	41.19
228.324	53.19
228.559	68.19
228.793	56.19
229.027	56.19
229.262	63.19
229.496	82.19
229.73	82.19
229.964	83.19
230.199	87.19
230.433	80.19
230.667	73.19
230.901	73.19
231.136	76.19
231.37	90.19
231.604	85.19
231.838	87.19
232.072	86.19
232.306	78.19
232.541	87.19
232.775	88.19
233.009	82.19
233.243	79.19
233.477	87.19
233.711	78.19
233.945	97.19
234.179	85.19
234.413	70.19
234.647	83.19
234.881	81.19
235.115	92.19
235.349	73.19
235.583	68.19
235.817	75.19
236.051	84.19
236.285	68.19
236.519	81.19
236.753	72.19
236.987	71.19
237.221	93.19
237.455	86.19
237.689	84.19
237.922	93.19
238.156	79.19
238.39	78.19
238.624	90.19
238.858	77.19
239.091	86.19
239.325	73.19
239.559	78.19
239.793	97.19
240.027	69.19
240.26	68.19
240.494	95.19
240.728	81.19
240.961	94.19
241.195	82.19
241.429	78.19
241.662	71.19
241.896	99.19
242.13	76.19
242.363	92.19
242.597	70.19
242.83	75.19
243.064	77.19
243.298	82.19
243.531	91.19
243.765	77.19
243.998	83.19
244.232	101.19
244.465	102.19
244.699	78.19
244.932	82.19
245.166	94.19
245.399	86.19
245.633	85.19
245.866	86.19
246.099	80.19
246.333	87.19
246.566	73.19
246.8	81.19
247.033	67.19
247.266	76.19
247.5	82.19
247.733	82.19
247.966	93.19
248.2	81.19
248.433	85.19
248.666	90.19
248.899	85.19
249.133	105.19
249.366	99.19
249.599	102.19
249.832	79.19
250.066	84.19
250.299	81.19
250.532	92.19
250.765	94.19
250.998	99.19
251.231	87.19
251.465	79.19
251.698	70.19
251.931	84.19
252.164	105.19
252.397	82.19
252.63	83.19
252.863	83.19
253.096	86.19
253.329	87.19
253.562	93.19
253.795	89.19
254.028	94.19
254.261	105.19
254.494	86.19
254.727	89.19
254.96	88.19
255.193	92.19
255.426	77.19
255.659	88.19
255.892	93.19
256.124	97.19
256.357	84.19
256.59	80.19
256.823	94.19
257.056	101.19
257.289	89.19
257.521	97.19
257.754	89.19
257.987	84.19
258.22	91.19
258.452	97.19
258.685	85.19
258.918	85.19
259.151	69.19
259.383	94.19
259.616	76.19
259.849	82.19
260.081	70.19
260.314	86.19
260.547	79.19
260.779	90.19
261.012	92.19
261.244	93.19
261.477	107.19
261.71	89.19
261.942	111.19
262.175	113.19
262.407	93.19
262.64	89.19
262.872	87.19
263.105	97.19
263.337	78.19
263.57	96.19
263.802	98.19
264.035	85.19
264.267	87.19
264.499	85.19
264.732	93.19
264.964	92.19
265.197	108.19
265.429	89.19
265.661	95.19
265.894	89.19
266.126	98.19
266.358	83.19
266.591	85.19
266.823	82.19
267.055	83.19
267.287	102.19
267.52	83.19
267.752	94.19
267.984	83.19
268.216	89.19
268.448	77.19
268.681	86.19
268.913	86.19
269.145	89.19
269.377	93.19
269.609	77.19
269.841	88.19
270.073	82.19
270.306	92.19
270.538	97.19
270.77	89.19
271.002	87.19
271.234	98.19
271.466	101.19
271.698	91.19
271.93	78.19
272.162	95.19
272.394	91.19
272.626	99.19
272.858	90.19
273.09	98.19
273.322	75.19
273.553	87.19
273.785	92.19
274.017	102.19
274.249	84.19
274.481	93.19
274.713	94.19
274.945	101.19
275.176	79.19
275.408	92.19
275.64	81.19
275.872	77.19
276.104	80.19
276.335	83.19
276.567	93.19
276.799	102.19
277.031	105.19
277.262	96.19
277.494	80.19
277.726	89.19
277.957	81.19
278.189	87.19
278.421	99.19
278.652	82.19
278.884	93.19
279.115	82.19
279.347	96.19
279.579	89.19
279.81	88.19
280.042	85.19
280.273	98.19
280.505	95.19
280.736	90.19
280.968	94.19
281.199	81.19
281.431	69.19
281.662	90.19
281.894	93.19
282.125	91.19
282.356	126.19
282.588	145.19
282.819	107.19
283.051	89.19
283.282	87.19
283.513	102.19
283.745	93.19
283.976	103.19
284.207	89.19
284.439	101.19
284.67	91.19
284.901	97.19
285.132	88.19
285.364	82.19
285.595	85.19
285.826	79.19
286.057	89.19
286.288	91.19
286.52	74.19
286.751	84.19
286.982	75.19
287.213	86.19
287.444	97.19
287.675	114.19
287.906	94.19
288.138	80.19
288.369	86.19
288.6	92.19
288.831	99.19
289.062	85.19
289.293	94.19
289.524	85.19
289.755	82.19
289.986	90.19
290.217	89.19
290.448	98.19
290.679	90.19
290.91	85.19
291.141	100.19
291.371	109.19
291.602	104.19
291.833	92.19
292.064	103.19
292.295	101.19
292.526	88.19
292.757	93.19
292.987	83.19
293.218	78.19
293.449	92.19
293.68	88.19
293.91	83.19
294.141	89.19
294.372	101.19
294.603	104.19
294.833	86.19
295.064	89.19
295.295	97.19
295.525	92.19
295.756	86.19
295.987	101.19
296.217	154.19
296.448	116.19
296.679	99.19
296.909	94.19
297.14	101.19
297.37	99.19
297.601	83.19
297.831	95.19
298.062	99.19
298.292	101.19
298.523	97.19
298.753	84.19
298.984	105.19
299.214	92.19
299.445	103.19
299.675	101.19
299.905	95.19
300.136	96.19
300.366	89.19
300.597	93.19
300.827	105.19
301.057	113.19
301.288	103.19
301.518	89.19
301.748	107.19
301.979	96.19
302.209	103.19
302.439	99.19
302.669	94.19
302.9	85.19
303.13	93.19
303.36	94.19
303.59	107.19
303.82	110.19
304.051	93.19
304.281	84.19
304.511	104.19
304.741	96.19
304.971	106.19
305.201	97.19
305.431	88.19
305.661	89.19
305.891	95.19
306.121	100.19
306.352	110.19
306.582	111.19
306.812	104.19
307.042	112.19
307.272	99.19
307.502	112.19
307.731	84.19
307.961	94.19
308.191	95.19
308.421	92.19
308.651	97.19
308.881	98.19
309.111	84.19
309.341	94.19
309.571	98.19
309.8	97.19
310.03	92.19
310.26	95.19
310.49	106.19
310.72	99.19
310.949	105.19
311.179	84.19
311.409	84.19
311.639	90.19
311.868	97.19
312.098	102.19
312.328	110.19
312.557	117.19
312.787	108.19
313.017	103.19
313.246	109.19
313.476	88.19
313.706	99.19
313.935	108.19
314.165	108.19
314.394	93.19
314.624	95.19
314.853	93.19
315.083	102.19
315.312	103.19
315.542	102.19
315.771	94.19
316.001	91.19
316.23	107.19
316.46	92.19
316.689	101.19
316.919	99.19
317.148	94.19
317.377	108.19
317.607	90.19
317.836	90.19
318.065	103.19
318.295	89.19
318.524	103.19
318.753	110.19
318.983	100.19
319.212	112.19
319.441	95.19
319.67	97.19
319.9	98.19
320.129	106.19
320.358	98.19
320.587	98.19
320.816	115.19
321.046	110.19
321.275	110.19
321.504	90.19
321.733	111.19
321.962	114.19
322.191	114.19
322.42	123.19
322.649	108.19
322.878	110.19
323.108	116.19
323.337	135.19
323.566	136.19
323.795	158.19
324.024	207.19
324.253	412.19
324.482	859.19
324.71	1800.19
324.939	2309.19
325.168	823.19
325.397	253.19
325.626	140.19
325.855	151.19
326.084	127.19
326.313	140.19
326.542	148.19
326.77	237.19
326.999	479.19
327.228	988.19
327.457	1779.19
327.686	1387.19
327.914	380.19
328.143	183.19
328.372	149.19
328.6	135.19
328.829	109.19
329.058	115.19
329.287	135.19
329.515	111.19
329.744	101.19
329.972	99.19
330.201	114.19
330.43	125.19
330.658	117.19
330.887	132.19
331.115	123.19
331.344	113.19
331.572	100.19
331.801	105.19
332.03	105.19
332.258	108.19
332.486	95.19
332.715	91.19
332.943	111.19
333.172	94.19
333.4	103.19
333.629	106.19
333.857	124.19
334.085	111.19
334.314	105.19
334.542	106.19
334.771	119.19
334.999	109.19
335.227	94.19
335.455	127.19
335.684	100.19
335.912	90.19
336.14	107.19
336.369	114.19
336.597	91.19
336.825	103.19
337.053	105.19
337.281	104.19
337.51	80.19
337.738	96.19
337.966	112.19
338.194	110.19
338.422	105.19
338.65	85.19
338.878	110.19
339.106	86.19
339.334	85.19
339.562	96.19
339.79	90.19
340.018	94.19
340.246	95.19
340.474	92.19
340.702	97.19
340.93	92.19
341.158	86.19
341.386	88.19
341.614	92.19
341.842	97.19
342.07	91.19
342.298	96.19
342.526	98.19
342.754	95.19
342.981	95.19
343.209	85.19
343.437	100.19
343.665	92.19
343.893	83.19
344.12	97.19
344.348	89.19
344.576	92.19
344.804	106.19
345.031	101.19
345.259	96.19
345.487	107.19
345.714	110.19
345.942	105.19
346.17	97.19
346.397	97.19
346.625	93.19
346.853	98.19
347.08	98.19
347.308	105.19
347.535	103.19
347.763	91.19
347.99	100.19
348.218	109.19
348.445	115.19
348.673	109.19
348.9	105.19
349.128	102.19
349.355	96.19
349.583	86.19
349.81	98.19
350.037	105.19
350.265	98.19
350.492	98.19
350.72	90.19
350.947	101.19
351.174	102.19
351.402	99.19
351.629	102.19
351.856	96.19
352.083	97.19
352.311	89.19
352.538	104.19
352.765	124.19
352.992	122.19
353.22	113.19
353.447	114.19
353.674	116.19
353.901	94.19
354.128	112.19
354.355	91.19
354.583	94.19
354.81	101.19
355.037	94.19
355.264	90.19
355.491	95.19
355.718	87.19
355.945	101.19
356.172	99.19
356.399	100.19
356.626	97.19
356.853	91.19
357.08	105.19
357.307	80.19
357.534	99.19
357.761	117.19
357.988	110.19
358.215	92.19
358.441	109.19
358.668	100.19
358.895	99.19
359.122	103.19
359.349	102.19
359.576	119.19
359.802	117.19
360.029	104.19
360.256	131.19
360.483	103.19
360.709	90.19
360.936	89.19
361.163	93.19
361.39	86.19
361.616	95.19
361.843	92.19
362.07	95.19
362.296	100.19
362.523	100.19
362.749	97.19
362.976	96.19
363.203	99.19
363.429	109.19
363.656	86.19
363.882	93.19
364.109	103.19
364.335	89.19
364.562	99.19
364.788	90.19
365.015	95.19
365.241	108.19
365.468	105.19
365.694	102.19
365.92	111.19
366.147	75.19
366.373	96.19
366.599	95.19
366.826	92.19
367.052	93.19
367.278	105.19
367.505	93.19
367.731	98.19
367.957	108.19
368.184	117.19
368.41	116.19
368.636	123.19
368.862	129.19
369.089	111.19
369.315	92.19
369.541	109.19
369.767	95.19
369.993	95.19
370.219	99.19
370.445	81.19
370.672	94.19
370.898	91.19
371.124	86.19
371.35	91.19
371.576	87.19
371.802	93.19
372.028	101.19
372.254	99.19
372.48	88.19
372.706	93.19
372.932	90.19
373.158	98.19
373.384	85.19
373.61	99.19
373.835	86.19
374.061	92.19
374.287	91.19
374.513	106.19
374.739	88.19
374.965	103.19
375.191	93.19
375.416	94.19
375.642	89.19
375.868	91.19
376.094	85.19
376.319	95.19
376.545	89.19
376.771	92.19
376.997	92.19
377.222	107.19
377.448	90.19
377.674	94.19
377.899	104.19
378.125	90.19
378.35	103.19
378.576	88.19
378.802	89.19
379.027	94.19
379.253	106.19
379.478	118.19
379.704	105.19
379.929	99.19
380.155	95.19
380.38	93.19
380.606	97.19
380.831	87.19
381.057	98.19
381.282	98.19
381.507	110.19
381.733	93.19
381.958	105.19
382.184	95.19
382.409	98.19
382.634	116.19
382.86	101.19
383.085	110.19
383.31	115.19
383.535	114.19
383.761	113.19
383.986	113.19
384.211	121.19
384.436	108.19
384.662	103.19
384.887	101.19
385.112	102.19
385.337	116.19
385.562	115.19
385.787	109.19
386.013	116.19
386.238	129.19
386.463	119.19
386.688	122.19
386.913	111.19
387.138	119.19
387.363	117.19
387.588	106.19
387.813	117.19
388.038	105.19
388.263	114.19
388.488	110.19
388.713	100.19
388.938	102.19
389.163	87.19
389.387	93.19
389.612	101.19
389.837	107.19
390.062	105.19
390.287	105.19
390.512	91.19
390.736	91.19
390.961	106.19
391.186	92.19
391.411	93.19
391.636	107.19
391.86	101.19
392.085	82.19
392.31	84.19
392.534	79.19
392.759	95.19
392.984	117.19
393.208	95.19
393.433	99.19
393.658	98.19
393.882	87.19
394.107	89.19
394.331	114.19
394.556	105.19
394.78	99.19
395.005	108.19
395.229	92.19
395.454	91.19
395.678	92.19
395.903	100.19
396.127	91.19
396.352	92.19
396.576	101.19
396.801	97.19
397.025	93.19
397.249	106.19
397.474	107.19
397.698	71.19
397.922	83.19
398.147	85.19
398.371	91.19
398.595	86.19
398.82	85.19
399.044	95.19
399.268	84.19
399.492	93.19
399.717	88.19
399.941	101.19
400.165	97.19
400.389	93.19
400.613	87.19
400.837	99.19
401.062	94.19
401.286	95.19
401.51	81.19
401.734	100.19
401.958	105.19
402.182	130.19
402.406	167.19
402.63	117.19
402.854	92.19
403.078	101.19
403.302	86.19
403.526	105.19
403.75	106.19
403.974	94.19
404.198	90.19
404.422	90.19
404.645	78.19
404.869	95.19
405.093	102.19
405.317	92.19
405.541	101.19
405.765	105.19
405.988	118.19
406.212	184.19
406.436	212.19
406.66	139.19
406.883	106.19
407.107	99.19
407.331	105.19
407.555	99.19
407.778	99.19
408.002	98.19
408.226	85.19
408.449	94.19
408.673	101.19
408.896	101.19
409.12	91.19
409.344	91.19
409.567	76.19
409.791	94.19
410.014	106.19
410.238	101.19
410.461	94.19
410.685	100.19
410.908	107.19
411.132	107.19
411.355	109.19
411.578	97.19
411.802	94.19
412.025	95.19
412.249	106.19
412.472	92.19
412.695	99.19
412.919	85.19
413.142	86.19
413.365	95.19
413.589	97.19
413.812	94.19
414.035	86.19
414.258	98.19
414.482	96.19
414.705	98.19
414.928	107.19
415.151	95.19
415.374	88.19
415.597	93.19
415.821	95.19
416.044	99.19
416.267	100.19
416.49	106.19
416.713	82.19
416.936	94.19
417.159	89.19
417.382	80.19
417.605	109.19
417.828	105.19
418.051	98.19
418.274	95.19
418.497	101.19
418.72	78.19
418.943	81.19
419.166	96.19
419.389	89.19
419.611	85.19
419.834	104.19
420.057	98.19
420.28	98.19
420.503	89.19
420.726	103.19
420.948	98.19
421.171	98.19
421.394	100.19
421.617	93.19
421.839	84.19
422.062	85.19
422.285	106.19
422.507	87.19
422.73	110.19
422.953	107.19
423.175	96.19
423.398	101.19
423.621	98.19
423.843	94.19
424.066	74.19
424.288	87.19
424.511	105.19
424.733	111.19
424.956	106.19
425.178	100.19
425.401	100.19
425.623	100.19
425.846	99.19
426.068	104.19
426.291	93.19
426.513	92.19
426.735	91.19
426.958	78.19
427.18	101.19
427.402	129.19
427.625	155.19
427.847	115.19
428.069	96.19
428.292	98.19
428.514	100.19
428.736	80.19
428.958	95.19
429.181	103.19
429.403	88.19
429.625	98.19
429.847	100.19
430.069	100.19
430.292	98.19
430.514	98.19
430.736	85.19
430.958	68.19
431.18	89.19
431.402	80.19
431.624	101.19
431.846	94.19
432.068	99.19
432.29	92.19
432.512	81.19
432.734	83.19
432.956	94.19
433.178	95.19
433.4	101.19
433.622	107.19
433.844	88.19
434.066	103.19
434.287	71.19
434.509	77.19
434.731	103.19
434.953	94.19
435.175	94.19
435.397	95.19
435.618	94.19
435.84	96.19
436.062	109.19
436.284	112.19
436.505	88.19
436.727	95.19
436.949	93.19
437.17	92.19
437.392	91.19
437.614	82.19
437.835	104.19
438.057	113.19
438.278	109.19
438.5	113.19
438.721	116.19
438.943	107.19
439.165	98.19
439.386	90.19
439.608	84.19
439.829	102.19
440.05	121.19
440.272	135.19
440.493	90.19
440.715	106.19
440.936	95.19
441.158	104.19
441.379	97.19
441.6	115.19
441.822	100.19
442.043	89.19
442.264	105.19
442.486	113.19
442.707	98.19
442.928	105.19
443.149	114.19
443.371	120.19
443.592	112.19
443.813	123.19
444.034	115.19
444.255	99.19
444.476	102.19
444.698	81.19
444.919	102.19
445.14	123.19
445.361	121.19
445.582	113.19
445.803	129.19
446.024	132.19
446.245	131.19
446.466	102.19
446.687	96.19
446.908	99.19
447.129	93.19
447.35	84.19
447.571	99.19
447.792	86.19
448.013	103.19
448.234	116.19
448.455	107.19
448.675	110.19
448.896	119.19
449.117	110.19
449.338	122.19
449.559	120.19
449.779	123.19
450	92.19
450.221	93.19
450.442	97.19
450.662	94.19
450.883	120.19
451.104	108.19
451.324	87.19
451.545	106.19
451.766	100.19
451.986	98.19
452.207	95.19
452.428	99.19
452.648	92.19
452.869	128.19
453.089	105.19
453.31	108.19
453.53	105.19
453.751	102.19
453.971	92.19
454.192	100.19
454.412	96.19
454.633	98.19
454.853	83.19
455.073	87.19
455.294	94.19
455.514	94.19
455.734	99.19
455.955	97.19
456.175	93.19
456.395	90.19
456.616	84.19
456.836	92.19
457.056	92.19
457.276	78.19
457.497	91.19
457.717	99.19
457.937	95.19
458.157	95.19
458.377	98.19
458.598	122.19
458.818	151.19
459.038	149.19
459.258	110.19
459.478	84.19
459.698	82.19
459.918	79.19
460.138	94.19
460.358	98.19
460.578	72.19
460.798	108.19
461.018	93.19
461.238	77.19
461.458	106.19
461.678	89.19
461.898	85.19
462.118	90.19
462.338	79.19
462.558	92.19
462.777	86.19
462.997	92.19
463.217	102.19
463.437	79.19
463.657	95.19
463.876	88.19
464.096	84.19
464.316	84.19
464.536	112.19
464.755	95.19
464.975	128.19
465.195	154.19
465.414	151.19
465.634	103.19
465.854	93.19
466.073	95.19
466.293	103.19
466.512	85.19
466.732	93.19
466.951	83.19
467.171	105.19
467.391	93.19
467.61	99.19
467.829	85.19
468.049	86.19
468.268	100.19
468.488	94.19
468.707	98.19
468.927	90.19
469.146	81.19
469.365	78.19
469.585	94.19
469.804	109.19
470.023	92.19
470.243	90.19
470.462	98.19
470.681	101.19
470.901	91.19
471.12	86.19
471.339	87.19
471.558	94.19
471.777	98.19
471.997	91.19
472.216	95.19
472.435	105.19
472.654	86.19
472.873	84.19
473.092	101.19
473.311	92.19
473.53	98.19
473.749	89.19
473.968	87.19
474.187	102.19
474.406	98.19
474.625	85.19
474.844	88.19
475.063	86.19
475.282	91.19
475.501	101.19
475.72	108.19
475.939	93.19
476.158	111.19
476.377	99.19
476.596	90.19
476.814	101.19
477.033	78.19
477.252	95.19
477.471	105.19
477.69	107.19
477.908	100.19
478.127	98.19
478.346	104.19
478.564	105.19
478.783	105.19
479.002	98.19
479.22	101.19
479.439	93.19
479.658	98.19
479.876	87.19
480.095	95.19
480.313	91.19
480.532	101.19
480.751	100.19
480.969	94.19
481.188	133.19
481.406	105.19
481.624	91.19
481.843	82.19
482.061	92.19
482.28	95.19
482.498	91.19
482.717	103.19
482.935	95.19
483.153	99.19
483.372	103.19
483.59	99.19
483.808	100.19
484.027	102.19
484.245	91.19
484.463	99.19
484.681	85.19
484.9	99.19
485.118	89.19
485.336	84.19
485.554	102.19
485.772	102.19
485.99	110.19
486.209	107.19
486.427	109.19
486.645	108.19
486.863	110.19
487.081	111.19
487.299	118.19
487.517	103.19
487.735	86.19
487.953	106.19
488.171	93.19
488.389	83.19
488.607	94.19
488.825	98.19
489.043	88.19
489.261	74.19
489.479	102.19
489.696	100.19
489.914	88.19
490.132	87.19
490.35	110.19
490.568	95.19
490.786	100.19
491.003	97.19
491.221	93.19
491.439	92.19
491.657	94.19
491.874	95.19
492.092	94.19
492.31	101.19
492.527	90.19
492.745	86.19
492.963	93.19
493.18	106.19
493.398	93.19
493.615	117.19
493.833	106.19
494.05	97.19
494.268	81.19
494.485	110.19
494.703	94.19
494.92	94.19
495.138	95.19
495.355	98.19
495.573	85.19
495.79	85.19
496.008	86.19
496.225	100.19
496.442	106.19
496.66	94.19
496.877	90.19
497.094	88.19
497.312	87.19
497.529	81.19
497.746	99.19
497.963	100.19
498.181	102.19
498.398	91.19
498.615	107.19
498.832	102.19
499.049	106.19
499.267	106.19
499.484	96.19
499.701	87.19
499.918	108.19
500.135	99.19
500.352	96.19
500.569	90.19
500.786	95.19
501.003	98.19
501.22	93.19
501.437	95.19
501.654	90.19
501.871	106.19
502.088	84.19
502.305	87.19
502.522	93.19
502.739	105.19
502.956	77.19
503.172	103.19
503.389	100.19
503.606	102.19
503.823	102.19
504.04	92.19
504.256	99.19
504.473	91.19
504.69	89.19
504.907	98.19
505.123	88.19
505.34	92.19
505.557	95.19
505.773	107.19
505.99	95.19
506.207	85.19
506.423	99.19
506.64	86.19
506.856	98.19
507.073	93.19
507.289	100.19
507.506	103.19
507.722	104.19
507.939	113.19
508.155	94.19
508.372	92.19
508.588	109.19
508.805	105.19
509.021	103.19
509.238	108.19
509.454	95.19
509.67	110.19
509.887	115.19
510.103	138.19
510.319	238.19
510.536	813.19
510.752	2510.19
510.968	693.19
511.184	161.19
511.401	105.19
511.617	104.19
511.833	100.19
512.049	94.19
512.265	90.19
512.481	97.19
512.698	102.19
512.914	104.19
513.13	107.19
513.346	89.19
