Data from Uncirc_2004_H10_HRD10591_00087.txt Node
Date: Wed Jan 03 10:32:30 EST 2024
User: Yrep
Spectrometer: HR+D1059
Trigger mode: 1
Integration Time (sec): 1.000000E-1
Scans to average: 1
Electric dark correction enabled: true
Nonlinearity correction enabled: false
Boxcar width: 0
XAxis mode: Wavelengths
Number of Pixels in Spectrum: 2048
>>>>>Begin Spectral Data<<<<<
223.165	-22.88
223.4	-22.88
223.635	-22.88
223.869	-5.88
224.104	-19.88
224.338	-23.88
224.573	-21.88
224.808	0.12
225.042	-5.88
225.277	-5.88
225.511	-5.88
225.746	-9.88
225.98	-2.88
226.215	16.12
226.449	21.12
226.683	33.12
226.918	23.12
227.152	31.12
227.387	34.12
227.621	42.12
227.856	49.12
228.09	42.12
228.324	39.12
228.559	45.12
228.793	58.12
229.027	72.12
229.262	65.12
229.496	78.12
229.73	67.12
229.964	93.12
230.199	68.12
230.433	80.12
230.667	88.12
230.901	70.12
231.136	74.12
231.37	63.12
231.604	86.12
231.838	87.12
232.072	88.12
232.306	74.12
232.541	81.12
232.775	82.12
233.009	78.12
233.243	83.12
233.477	84.12
233.711	77.12
233.945	80.12
234.179	84.12
234.413	71.12
234.647	77.12
234.881	81.12
235.115	81.12
235.349	68.12
235.583	86.12
235.817	80.12
236.051	77.12
236.285	79.12
236.519	82.12
236.753	81.12
236.987	91.12
237.221	91.12
237.455	79.12
237.689	85.12
237.922	82.12
238.156	78.12
238.39	67.12
238.624	81.12
238.858	81.12
239.091	63.12
239.325	83.12
239.559	80.12
239.793	81.12
240.027	92.12
240.26	68.12
240.494	70.12
240.728	74.12
240.961	68.12
241.195	73.12
241.429	86.12
241.662	80.12
241.896	76.12
242.13	79.12
242.363	79.12
242.597	81.12
242.83	58.12
243.064	72.12
243.298	85.12
243.531	79.12
243.765	80.12
243.998	91.12
244.232	96.12
244.465	93.12
244.699	89.12
244.932	89.12
245.166	82.12
245.399	82.12
245.633	85.12
245.866	81.12
246.099	73.12
246.333	80.12
246.566	83.12
246.8	72.12
247.033	69.12
247.266	92.12
247.5	77.12
247.733	74.12
247.966	77.12
248.2	94.12
248.433	84.12
248.666	76.12
248.899	73.12
249.133	78.12
249.366	101.12
249.599	96.12
249.832	94.12
250.066	83.12
250.299	79.12
250.532	78.12
250.765	76.12
250.998	89.12
251.231	83.12
251.465	87.12
251.698	86.12
251.931	84.12
252.164	78.12
252.397	76.12
252.63	72.12
252.863	82.12
253.096	80.12
253.329	84.12
253.562	96.12
253.795	84.12
254.028	89.12
254.261	72.12
254.494	80.12
254.727	64.12
254.96	79.12
255.193	86.12
255.426	89.12
255.659	83.12
255.892	76.12
256.124	77.12
256.357	74.12
256.59	70.12
256.823	73.12
257.056	72.12
257.289	84.12
257.521	71.12
257.754	82.12
257.987	87.12
258.22	57.12
258.452	69.12
258.685	75.12
258.918	84.12
259.151	87.12
259.383	89.12
259.616	88.12
259.849	85.12
260.081	77.12
260.314	71.12
260.547	78.12
260.779	92.12
261.012	77.12
261.244	90.12
261.477	93.12
261.71	85.12
261.942	112.12
262.175	104.12
262.407	81.12
262.64	82.12
262.872	86.12
263.105	70.12
263.337	68.12
263.57	70.12
263.802	78.12
264.035	79.12
264.267	95.12
264.499	91.12
264.732	80.12
264.964	79.12
265.197	65.12
265.429	73.12
265.661	93.12
265.894	63.12
266.126	79.12
266.358	96.12
266.591	79.12
266.823	81.12
267.055	78.12
267.287	86.12
267.52	71.12
267.752	80.12
267.984	86.12
268.216	86.12
268.448	75.12
268.681	77.12
268.913	94.12
269.145	86.12
269.377	82.12
269.609	88.12
269.841	81.12
270.073	84.12
270.306	86.12
270.538	79.12
270.77	82.12
271.002	78.12
271.234	88.12
271.466	89.12
271.698	96.12
271.93	92.12
272.162	98.12
272.394	82.12
272.626	90.12
272.858	86.12
273.09	92.12
273.322	87.12
273.553	89.12
273.785	73.12
274.017	85.12
274.249	73.12
274.481	84.12
274.713	85.12
274.945	86.12
275.176	90.12
275.408	86.12
275.64	91.12
275.872	77.12
276.104	100.12
276.335	95.12
276.567	91.12
276.799	111.12
277.031	102.12
277.262	86.12
277.494	86.12
277.726	87.12
277.957	81.12
278.189	83.12
278.421	85.12
278.652	92.12
278.884	91.12
279.115	94.12
279.347	82.12
279.579	89.12
279.81	88.12
280.042	90.12
280.273	72.12
280.505	82.12
280.736	83.12
280.968	97.12
281.199	78.12
281.431	90.12
281.662	90.12
281.894	94.12
282.125	101.12
282.356	110.12
282.588	141.12
282.819	113.12
283.051	85.12
283.282	74.12
283.513	87.12
283.745	94.12
283.976	104.12
284.207	88.12
284.439	74.12
284.67	80.12
284.901	80.12
285.132	100.12
285.364	84.12
285.595	85.12
285.826	76.12
286.057	95.12
286.288	91.12
286.52	85.12
286.751	90.12
286.982	95.12
287.213	80.12
287.444	84.12
287.675	89.12
287.906	98.12
288.138	84.12
288.369	99.12
288.6	80.12
288.831	72.12
289.062	83.12
289.293	93.12
289.524	91.12
289.755	99.12
289.986	76.12
290.217	92.12
290.448	72.12
290.679	96.12
290.91	94.12
291.141	74.12
291.371	72.12
291.602	71.12
291.833	95.12
292.064	93.12
292.295	81.12
292.526	96.12
292.757	93.12
292.987	76.12
293.218	86.12
293.449	89.12
293.68	84.12
293.91	88.12
294.141	74.12
294.372	77.12
294.603	94.12
294.833	82.12
295.064	89.12
295.295	84.12
295.525	87.12
295.756	109.12
295.987	107.12
296.217	132.12
296.448	124.12
296.679	95.12
296.909	97.12
297.14	101.12
297.37	100.12
297.601	88.12
297.831	85.12
298.062	84.12
298.292	75.12
298.523	92.12
298.753	98.12
298.984	90.12
299.214	95.12
299.445	87.12
299.675	92.12
299.905	97.12
300.136	97.12
300.366	91.12
300.597	94.12
300.827	89.12
301.057	100.12
301.288	106.12
301.518	95.12
301.748	97.12
301.979	104.12
302.209	88.12
302.439	100.12
302.669	83.12
302.9	84.12
303.13	85.12
303.36	106.12
303.59	104.12
303.82	127.12
304.051	98.12
304.281	94.12
304.511	74.12
304.741	96.12
304.971	96.12
305.201	87.12
305.431	90.12
305.661	78.12
305.891	112.12
306.121	90.12
306.352	102.12
306.582	106.12
306.812	87.12
307.042	88.12
307.272	89.12
307.502	90.12
307.731	89.12
307.961	93.12
308.191	81.12
308.421	83.12
308.651	78.12
308.881	90.12
309.111	92.12
309.341	85.12
309.571	98.12
309.8	94.12
310.03	96.12
310.26	94.12
310.49	97.12
310.72	99.12
310.949	108.12
311.179	106.12
311.409	96.12
311.639	104.12
311.868	103.12
312.098	89.12
312.328	102.12
312.557	90.12
312.787	92.12
313.017	96.12
313.246	93.12
313.476	82.12
313.706	97.12
313.935	86.12
314.165	84.12
314.394	89.12
314.624	77.12
314.853	90.12
315.083	95.12
315.312	84.12
315.542	89.12
315.771	93.12
316.001	90.12
316.23	80.12
316.46	84.12
316.689	90.12
316.919	83.12
317.148	89.12
317.377	94.12
317.607	89.12
317.836	80.12
318.065	87.12
318.295	84.12
318.524	82.12
318.753	90.12
318.983	84.12
319.212	99.12
319.441	112.12
319.67	107.12
319.9	86.12
320.129	97.12
320.358	91.12
320.587	96.12
320.816	106.12
321.046	90.12
321.275	105.12
321.504	93.12
321.733	94.12
321.962	91.12
322.191	101.12
322.42	93.12
322.649	105.12
322.878	116.12
323.108	119.12
323.337	127.12
323.566	130.12
323.795	136.12
324.024	193.12
324.253	388.12
324.482	785.12
324.71	1629.12
324.939	2085.12
325.168	782.12
325.397	247.12
325.626	150.12
325.855	132.12
326.084	121.12
326.313	122.12
326.542	154.12
326.77	232.12
326.999	458.12
327.228	936.12
327.457	1658.12
327.686	1311.12
327.914	357.12
328.143	178.12
328.372	144.12
328.6	119.12
328.829	114.12
329.058	149.12
329.287	132.12
329.515	100.12
329.744	116.12
329.972	100.12
330.201	104.12
330.43	108.12
330.658	115.12
330.887	129.12
331.115	119.12
331.344	98.12
331.572	91.12
331.801	96.12
332.03	95.12
332.258	84.12
332.486	87.12
332.715	90.12
332.943	93.12
333.172	95.12
333.4	101.12
333.629	107.12
333.857	112.12
334.085	94.12
334.314	103.12
334.542	109.12
334.771	80.12
334.999	85.12
335.227	96.12
335.455	94.12
335.684	101.12
335.912	105.12
336.14	98.12
336.369	95.12
336.597	103.12
336.825	89.12
337.053	97.12
337.281	84.12
337.51	87.12
337.738	90.12
337.966	93.12
338.194	108.12
338.422	86.12
338.65	93.12
338.878	89.12
339.106	95.12
339.334	79.12
339.562	105.12
339.79	82.12
340.018	81.12
340.246	101.12
340.474	85.12
340.702	86.12
340.93	93.12
341.158	100.12
341.386	85.12
341.614	80.12
341.842	102.12
342.07	86.12
342.298	104.12
342.526	81.12
342.754	87.12
342.981	100.12
343.209	90.12
343.437	96.12
343.665	99.12
343.893	95.12
344.12	101.12
344.348	103.12
344.576	96.12
344.804	94.12
345.031	97.12
345.259	114.12
345.487	106.12
345.714	96.12
345.942	90.12
346.17	102.12
346.397	84.12
346.625	93.12
346.853	85.12
347.08	92.12
347.308	98.12
347.535	101.12
347.763	105.12
347.99	86.12
348.218	97.12
348.445	97.12
348.673	95.12
348.9	97.12
349.128	90.12
349.355	90.12
349.583	101.12
349.81	94.12
350.037	80.12
350.265	88.12
350.492	99.12
350.72	105.12
350.947	106.12
351.174	125.12
351.402	105.12
351.629	97.12
351.856	101.12
352.083	96.12
352.311	95.12
352.538	125.12
352.765	116.12
352.992	101.12
353.22	111.12
353.447	97.12
353.674	108.12
353.901	94.12
354.128	102.12
354.355	95.12
354.583	83.12
354.81	92.12
355.037	100.12
355.264	99.12
355.491	94.12
355.718	95.12
355.945	97.12
356.172	96.12
356.399	88.12
356.626	97.12
356.853	91.12
357.08	86.12
357.307	81.12
357.534	86.12
357.761	93.12
357.988	92.12
358.215	90.12
358.441	91.12
358.668	87.12
358.895	98.12
359.122	88.12
359.349	93.12
359.576	98.12
359.802	98.12
360.029	115.12
360.256	100.12
360.483	103.12
360.709	81.12
360.936	80.12
361.163	77.12
361.39	101.12
361.616	105.12
361.843	99.12
362.07	96.12
362.296	97.12
362.523	87.12
362.749	86.12
362.976	80.12
363.203	97.12
363.429	85.12
363.656	82.12
363.882	87.12
364.109	89.12
364.335	79.12
364.562	98.12
364.788	85.12
365.015	96.12
365.241	92.12
365.468	99.12
365.694	85.12
365.92	99.12
366.147	107.12
366.373	94.12
366.599	97.12
366.826	93.12
367.052	86.12
367.278	94.12
367.505	90.12
367.731	88.12
367.957	90.12
368.184	98.12
368.41	102.12
368.636	98.12
368.862	121.12
369.089	104.12
369.315	93.12
369.541	96.12
369.767	88.12
369.993	100.12
370.219	80.12
370.445	68.12
370.672	98.12
370.898	82.12
371.124	86.12
371.35	85.12
371.576	81.12
371.802	88.12
372.028	91.12
372.254	98.12
372.48	81.12
372.706	94.12
372.932	70.12
373.158	92.12
373.384	80.12
373.61	85.12
373.835	96.12
374.061	93.12
374.287	89.12
374.513	95.12
374.739	92.12
374.965	90.12
375.191	83.12
375.416	82.12
375.642	84.12
375.868	89.12
376.094	95.12
376.319	90.12
376.545	81.12
376.771	94.12
376.997	81.12
377.222	91.12
377.448	90.12
377.674	92.12
377.899	95.12
378.125	86.12
378.35	96.12
378.576	93.12
378.802	85.12
379.027	83.12
379.253	93.12
379.478	91.12
379.704	99.12
379.929	68.12
380.155	97.12
380.38	101.12
380.606	105.12
380.831	89.12
381.057	100.12
381.282	98.12
381.507	96.12
381.733	108.12
381.958	97.12
382.184	97.12
382.409	99.12
382.634	99.12
382.86	105.12
383.085	98.12
383.31	103.12
383.535	98.12
383.761	98.12
383.986	95.12
384.211	105.12
384.436	82.12
384.662	103.12
384.887	108.12
385.112	85.12
385.337	120.12
385.562	103.12
385.787	115.12
386.013	103.12
386.238	95.12
386.463	92.12
386.688	114.12
386.913	100.12
387.138	102.12
387.363	86.12
387.588	118.12
387.813	97.12
388.038	90.12
388.263	113.12
388.488	109.12
388.713	104.12
388.938	87.12
389.163	79.12
389.387	83.12
389.612	103.12
389.837	98.12
390.062	97.12
390.287	100.12
390.512	88.12
390.736	89.12
390.961	82.12
391.186	97.12
391.411	105.12
391.636	89.12
391.86	93.12
392.085	110.12
392.31	79.12
392.534	92.12
392.759	78.12
392.984	83.12
393.208	99.12
393.433	86.12
393.658	97.12
393.882	96.12
394.107	96.12
394.331	95.12
394.556	86.12
394.78	103.12
395.005	89.12
395.229	89.12
395.454	82.12
395.678	90.12
395.903	100.12
396.127	88.12
396.352	105.12
396.576	80.12
396.801	78.12
397.025	89.12
397.249	81.12
397.474	90.12
397.698	103.12
397.922	94.12
398.147	92.12
398.371	83.12
398.595	88.12
398.82	90.12
399.044	91.12
399.268	91.12
399.492	87.12
399.717	84.12
399.941	97.12
400.165	82.12
400.389	82.12
400.613	71.12
400.837	94.12
401.062	96.12
401.286	86.12
401.51	97.12
401.734	74.12
401.958	113.12
402.182	125.12
402.406	164.12
402.63	120.12
402.854	102.12
403.078	92.12
403.302	107.12
403.526	113.12
403.75	82.12
403.974	83.12
404.198	100.12
404.422	88.12
404.645	90.12
404.869	83.12
405.093	83.12
405.317	103.12
405.541	101.12
405.765	94.12
405.988	109.12
406.212	174.12
406.436	228.12
406.66	150.12
406.883	80.12
407.107	92.12
407.331	89.12
407.555	94.12
407.778	94.12
408.002	95.12
408.226	89.12
408.449	93.12
408.673	94.12
408.896	81.12
409.12	105.12
409.344	90.12
409.567	98.12
409.791	103.12
410.014	81.12
410.238	85.12
410.461	98.12
410.685	97.12
410.908	106.12
411.132	95.12
411.355	95.12
411.578	109.12
411.802	93.12
412.025	87.12
412.249	98.12
412.472	82.12
412.695	92.12
412.919	86.12
413.142	93.12
413.365	85.12
413.589	100.12
413.812	89.12
414.035	98.12
414.258	72.12
414.482	70.12
414.705	97.12
414.928	95.12
415.151	101.12
415.374	97.12
415.597	98.12
415.821	80.12
416.044	86.12
416.267	93.12
416.49	96.12
416.713	90.12
416.936	99.12
417.159	79.12
417.382	94.12
417.605	96.12
417.828	92.12
418.051	84.12
418.274	91.12
418.497	94.12
418.72	90.12
418.943	101.12
419.166	88.12
419.389	89.12
419.611	87.12
419.834	94.12
420.057	98.12
420.28	94.12
420.503	88.12
420.726	80.12
420.948	80.12
421.171	98.12
421.394	92.12
421.617	89.12
421.839	85.12
422.062	77.12
422.285	102.12
422.507	95.12
422.73	96.12
422.953	97.12
423.175	86.12
423.398	94.12
423.621	92.12
423.843	85.12
424.066	86.12
424.288	92.12
424.511	83.12
424.733	103.12
424.956	110.12
425.178	108.12
425.401	92.12
425.623	111.12
425.846	94.12
426.068	84.12
426.291	93.12
426.513	68.12
426.735	85.12
426.958	89.12
427.18	102.12
427.402	128.12
427.625	156.12
427.847	113.12
428.069	95.12
428.292	91.12
428.514	79.12
428.736	70.12
428.958	81.12
429.181	97.12
429.403	76.12
429.625	72.12
429.847	85.12
430.069	101.12
430.292	85.12
430.514	102.12
430.736	89.12
430.958	92.12
431.18	74.12
431.402	79.12
431.624	75.12
431.846	81.12
432.068	105.12
432.29	96.12
432.512	90.12
432.734	92.12
432.956	90.12
433.178	100.12
433.4	83.12
433.622	75.12
433.844	83.12
434.066	105.12
434.287	94.12
434.509	96.12
434.731	97.12
434.953	90.12
435.175	85.12
435.397	76.12
435.618	87.12
435.84	103.12
436.062	111.12
436.284	110.12
436.505	95.12
436.727	106.12
436.949	90.12
437.17	88.12
437.392	80.12
437.614	88.12
437.835	109.12
438.057	110.12
438.278	97.12
438.5	105.12
438.721	122.12
438.943	88.12
439.165	83.12
439.386	86.12
439.608	85.12
439.829	92.12
440.05	119.12
440.272	132.12
440.493	91.12
440.715	88.12
440.936	97.12
441.158	101.12
441.379	87.12
441.6	88.12
441.822	99.12
442.043	104.12
442.264	93.12
442.486	100.12
442.707	94.12
442.928	81.12
443.149	138.12
443.371	120.12
443.592	102.12
443.813	126.12
444.034	101.12
444.255	75.12
444.476	110.12
444.698	95.12
444.919	86.12
445.14	110.12
445.361	101.12
445.582	106.12
445.803	122.12
446.024	123.12
446.245	127.12
446.466	97.12
446.687	89.12
446.908	86.12
447.129	90.12
447.35	93.12
447.571	100.12
447.792	78.12
448.013	81.12
448.234	120.12
448.455	92.12
448.675	113.12
448.896	122.12
449.117	100.12
449.338	101.12
449.559	113.12
449.779	131.12
450	78.12
450.221	102.12
450.442	88.12
450.662	74.12
450.883	116.12
451.104	116.12
451.324	96.12
451.545	82.12
451.766	89.12
451.986	82.12
452.207	76.12
452.428	94.12
452.648	78.12
452.869	116.12
453.089	107.12
453.31	117.12
453.53	100.12
453.751	98.12
453.971	93.12
454.192	103.12
454.412	82.12
454.633	92.12
454.853	79.12
455.073	82.12
455.294	106.12
455.514	95.12
455.734	90.12
455.955	80.12
456.175	76.12
456.395	76.12
456.616	80.12
456.836	108.12
457.056	96.12
457.276	79.12
457.497	84.12
457.717	103.12
457.937	96.12
458.157	87.12
458.377	92.12
458.598	98.12
458.818	153.12
459.038	146.12
459.258	91.12
459.478	92.12
459.698	108.12
459.918	76.12
460.138	90.12
460.358	92.12
460.578	89.12
460.798	94.12
461.018	80.12
461.238	68.12
461.458	85.12
461.678	85.12
461.898	89.12
462.118	77.12
462.338	82.12
462.558	90.12
462.777	90.12
462.997	84.12
463.217	85.12
463.437	81.12
463.657	94.12
463.876	91.12
464.096	86.12
464.316	84.12
464.536	109.12
464.755	91.12
464.975	100.12
465.195	150.12
465.414	156.12
465.634	87.12
465.854	94.12
466.073	90.12
466.293	80.12
466.512	90.12
466.732	87.12
466.951	84.12
467.171	95.12
467.391	94.12
467.61	101.12
467.829	89.12
468.049	82.12
468.268	83.12
468.488	90.12
468.707	84.12
468.927	85.12
469.146	86.12
469.365	79.12
469.585	85.12
469.804	100.12
470.023	93.12
470.243	95.12
470.462	95.12
470.681	108.12
470.901	81.12
471.12	84.12
471.339	81.12
471.558	89.12
471.777	96.12
471.997	88.12
472.216	98.12
472.435	93.12
472.654	80.12
472.873	92.12
473.092	85.12
473.311	83.12
473.53	86.12
473.749	85.12
473.968	90.12
474.187	96.12
474.406	89.12
474.625	82.12
474.844	87.12
475.063	83.12
475.282	97.12
475.501	88.12
475.72	93.12
475.939	77.12
476.158	85.12
476.377	87.12
476.596	76.12
476.814	88.12
477.033	83.12
477.252	79.12
477.471	95.12
477.69	85.12
477.908	74.12
478.127	98.12
478.346	82.12
478.564	98.12
478.783	92.12
479.002	78.12
479.22	87.12
479.439	76.12
479.658	100.12
479.876	99.12
480.095	75.12
480.313	87.12
480.532	83.12
480.751	78.12
480.969	98.12
481.188	123.12
481.406	104.12
481.624	98.12
481.843	98.12
482.061	90.12
482.28	100.12
482.498	93.12
482.717	86.12
482.935	83.12
483.153	90.12
483.372	90.12
483.59	85.12
483.808	95.12
484.027	75.12
484.245	90.12
484.463	85.12
484.681	102.12
484.9	102.12
485.118	85.12
485.336	111.12
485.554	92.12
485.772	98.12
485.99	90.12
486.209	97.12
486.427	115.12
486.645	90.12
486.863	98.12
487.081	109.12
487.299	116.12
487.517	90.12
487.735	91.12
487.953	98.12
488.171	89.12
488.389	89.12
488.607	102.12
488.825	87.12
489.043	89.12
489.261	99.12
489.479	96.12
489.696	90.12
489.914	94.12
490.132	92.12
490.35	88.12
490.568	89.12
490.786	86.12
491.003	89.12
491.221	66.12
491.439	86.12
491.657	101.12
491.874	102.12
492.092	84.12
492.31	84.12
492.527	100.12
492.745	88.12
492.963	92.12
493.18	93.12
493.398	92.12
493.615	85.12
493.833	90.12
494.05	80.12
494.268	85.12
494.485	93.12
494.703	92.12
494.92	87.12
495.138	90.12
495.355	98.12
495.573	78.12
495.79	86.12
496.008	90.12
496.225	84.12
496.442	97.12
496.66	81.12
496.877	99.12
497.094	88.12
497.312	71.12
497.529	84.12
497.746	86.12
497.963	90.12
498.181	102.12
498.398	94.12
498.615	110.12
498.832	95.12
499.049	81.12
499.267	93.12
499.484	83.12
499.701	88.12
499.918	96.12
500.135	79.12
500.352	86.12
500.569	92.12
500.786	100.12
501.003	85.12
501.22	99.12
501.437	97.12
501.654	102.12
501.871	105.12
502.088	82.12
502.305	98.12
502.522	92.12
502.739	94.12
502.956	97.12
503.172	97.12
503.389	90.12
503.606	102.12
503.823	93.12
504.04	97.12
504.256	104.12
504.473	99.12
504.69	92.12
504.907	104.12
505.123	102.12
505.34	84.12
505.557	91.12
505.773	87.12
505.99	87.12
506.207	98.12
506.423	99.12
506.64	94.12
506.856	83.12
507.073	90.12
507.289	94.12
507.506	100.12
507.722	114.12
507.939	110.12
508.155	109.12
508.372	104.12
508.588	90.12
508.805	86.12
509.021	101.12
509.238	93.12
509.454	98.12
509.67	102.12
509.887	111.12
510.103	135.12
510.319	226.12
510.536	789.12
510.752	2473.12
510.968	694.12
511.184	160.12
511.401	111.12
511.617	99.12
511.833	100.12
512.049	99.12
512.265	97.12
512.481	102.12
512.698	97.12
512.914	86.12
513.13	99.12
513.346	91.12
513.562	84.12
513.778	98.12
513.994	100.12
514.21	111.12
514.426	125.12
514.642	140.12
514.858	120.12
515.074	165.12
515.29	442.12
515.506	1487.12
515.721	583.12
515.937	160.12
