Data from Uncirc_2004_H10_HRD10591_00055.txt Node
Date: Wed Jan 03 10:32:23 EST 2024
User: Yrep
Spectrometer: HR+D1059
Trigger mode: 1
Integration Time (sec): 1.000000E-1
Scans to average: 1
Electric dark correction enabled: true
Nonlinearity correction enabled: false
Boxcar width: 0
XAxis mode: Wavelengths
Number of Pixels in Spectrum: 2048
>>>>>Begin Spectral Data<<<<<
223.165	-13.56
223.4	-13.56
223.635	-13.56
223.869	-20.56
224.104	-32.56
224.338	-22.56
224.573	-9.56
224.808	3.44
225.042	1.44
225.277	13.44
225.511	-4.56
225.746	-7.56
225.98	-1.56
226.215	17.44
226.449	20.44
226.683	15.44
226.918	11.44
227.152	29.44
227.387	23.44
227.621	34.44
227.856	40.44
228.09	45.44
228.324	53.44
228.559	57.44
228.793	68.44
229.027	67.44
229.262	76.44
229.496	68.44
229.73	67.44
229.964	71.44
230.199	74.44
230.433	68.44
230.667	83.44
230.901	79.44
231.136	64.44
231.37	79.44
231.604	77.44
231.838	65.44
232.072	76.44
232.306	59.44
232.541	73.44
232.775	87.44
233.009	77.44
233.243	80.44
233.477	81.44
233.711	77.44
233.945	85.44
234.179	85.44
234.413	65.44
234.647	74.44
234.881	83.44
235.115	87.44
235.349	73.44
235.583	76.44
235.817	62.44
236.051	67.44
236.285	76.44
236.519	78.44
236.753	71.44
236.987	74.44
237.221	89.44
237.455	85.44
237.689	72.44
237.922	77.44
238.156	72.44
238.39	71.44
238.624	80.44
238.858	74.44
239.091	84.44
239.325	66.44
239.559	92.44
239.793	69.44
240.027	91.44
240.26	80.44
240.494	64.44
240.728	83.44
240.961	80.44
241.195	78.44
241.429	79.44
241.662	74.44
241.896	71.44
242.13	77.44
242.363	66.44
242.597	82.44
242.83	79.44
243.064	85.44
243.298	86.44
243.531	84.44
243.765	80.44
243.998	79.44
244.232	81.44
244.465	72.44
244.699	76.44
244.932	71.44
245.166	72.44
245.399	71.44
245.633	70.44
245.866	71.44
246.099	67.44
246.333	71.44
246.566	67.44
246.8	88.44
247.033	74.44
247.266	85.44
247.5	78.44
247.733	74.44
247.966	81.44
248.2	89.44
248.433	71.44
248.666	85.44
248.899	90.44
249.133	95.44
249.366	104.44
249.599	79.44
249.832	85.44
250.066	87.44
250.299	88.44
250.532	80.44
250.765	84.44
250.998	95.44
251.231	76.44
251.465	81.44
251.698	73.44
251.931	71.44
252.164	85.44
252.397	66.44
252.63	75.44
252.863	72.44
253.096	81.44
253.329	90.44
253.562	87.44
253.795	75.44
254.028	78.44
254.261	73.44
254.494	75.44
254.727	64.44
254.96	73.44
255.193	68.44
255.426	76.44
255.659	66.44
255.892	79.44
256.124	67.44
256.357	74.44
256.59	73.44
256.823	70.44
257.056	93.44
257.289	92.44
257.521	71.44
257.754	85.44
257.987	71.44
258.22	77.44
258.452	88.44
258.685	70.44
258.918	73.44
259.151	76.44
259.383	65.44
259.616	78.44
259.849	70.44
260.081	73.44
260.314	76.44
260.547	92.44
260.779	68.44
261.012	72.44
261.244	79.44
261.477	75.44
261.71	99.44
261.942	102.44
262.175	106.44
262.407	92.44
262.64	83.44
262.872	85.44
263.105	73.44
263.337	83.44
263.57	72.44
263.802	81.44
264.035	76.44
264.267	76.44
264.499	70.44
264.732	78.44
264.964	72.44
265.197	69.44
265.429	92.44
265.661	79.44
265.894	71.44
266.126	77.44
266.358	88.44
266.591	82.44
266.823	79.44
267.055	81.44
267.287	82.44
267.52	78.44
267.752	77.44
267.984	86.44
268.216	74.44
268.448	72.44
268.681	70.44
268.913	67.44
269.145	84.44
269.377	82.44
269.609	87.44
269.841	92.44
270.073	72.44
270.306	80.44
270.538	76.44
270.77	85.44
271.002	70.44
271.234	78.44
271.466	85.44
271.698	87.44
271.93	77.44
272.162	70.44
272.394	91.44
272.626	94.44
272.858	78.44
273.09	82.44
273.322	85.44
273.553	74.44
273.785	82.44
274.017	96.44
274.249	75.44
274.481	76.44
274.713	82.44
274.945	91.44
275.176	82.44
275.408	78.44
275.64	89.44
275.872	92.44
276.104	91.44
276.335	92.44
276.567	95.44
276.799	108.44
277.031	97.44
277.262	87.44
277.494	97.44
277.726	81.44
277.957	85.44
278.189	79.44
278.421	85.44
278.652	68.44
278.884	92.44
279.115	94.44
279.347	87.44
279.579	82.44
279.81	78.44
280.042	90.44
280.273	97.44
280.505	77.44
280.736	85.44
280.968	90.44
281.199	71.44
281.431	87.44
281.662	79.44
281.894	93.44
282.125	89.44
282.356	110.44
282.588	124.44
282.819	103.44
283.051	85.44
283.282	89.44
283.513	88.44
283.745	90.44
283.976	81.44
284.207	84.44
284.439	91.44
284.67	93.44
284.901	81.44
285.132	92.44
285.364	69.44
285.595	90.44
285.826	86.44
286.057	76.44
286.288	84.44
286.52	76.44
286.751	80.44
286.982	97.44
287.213	95.44
287.444	95.44
287.675	92.44
287.906	98.44
288.138	88.44
288.369	89.44
288.6	76.44
288.831	73.44
289.062	96.44
289.293	76.44
289.524	75.44
289.755	76.44
289.986	81.44
290.217	76.44
290.448	87.44
290.679	75.44
290.91	94.44
291.141	92.44
291.371	87.44
291.602	97.44
291.833	85.44
292.064	82.44
292.295	89.44
292.526	85.44
292.757	87.44
292.987	87.44
293.218	97.44
293.449	83.44
293.68	93.44
293.91	89.44
294.141	81.44
294.372	82.44
294.603	87.44
294.833	73.44
295.064	87.44
295.295	71.44
295.525	84.44
295.756	99.44
295.987	109.44
296.217	133.44
296.448	108.44
296.679	89.44
296.909	83.44
297.14	95.44
297.37	89.44
297.601	82.44
297.831	82.44
298.062	87.44
298.292	86.44
298.523	93.44
298.753	116.44
298.984	86.44
299.214	76.44
299.445	99.44
299.675	97.44
299.905	91.44
300.136	89.44
300.366	80.44
300.597	94.44
300.827	95.44
301.057	104.44
301.288	96.44
301.518	94.44
301.748	108.44
301.979	99.44
302.209	98.44
302.439	76.44
302.669	79.44
302.9	94.44
303.13	85.44
303.36	75.44
303.59	101.44
303.82	97.44
304.051	104.44
304.281	86.44
304.511	99.44
304.741	77.44
304.971	79.44
305.201	89.44
305.431	86.44
305.661	76.44
305.891	86.44
306.121	90.44
306.352	70.44
306.582	99.44
306.812	100.44
307.042	99.44
307.272	86.44
307.502	81.44
307.731	86.44
307.961	95.44
308.191	90.44
308.421	81.44
308.651	84.44
308.881	95.44
309.111	93.44
309.341	84.44
309.571	98.44
309.8	99.44
310.03	82.44
310.26	89.44
310.49	101.44
310.72	97.44
310.949	93.44
311.179	106.44
311.409	96.44
311.639	95.44
311.868	99.44
312.098	94.44
312.328	88.44
312.557	93.44
312.787	114.44
313.017	102.44
313.246	90.44
313.476	95.44
313.706	75.44
313.935	87.44
314.165	101.44
314.394	87.44
314.624	91.44
314.853	99.44
315.083	94.44
315.312	89.44
315.542	86.44
315.771	93.44
316.001	103.44
316.23	71.44
316.46	89.44
316.689	97.44
316.919	86.44
317.148	87.44
317.377	92.44
317.607	79.44
317.836	84.44
318.065	81.44
318.295	82.44
318.524	80.44
318.753	85.44
318.983	95.44
319.212	89.44
319.441	86.44
319.67	102.44
319.9	82.44
320.129	92.44
320.358	96.44
320.587	99.44
320.816	91.44
321.046	104.44
321.275	114.44
321.504	89.44
321.733	93.44
321.962	92.44
322.191	102.44
322.42	88.44
322.649	94.44
322.878	116.44
323.108	118.44
323.337	102.44
323.566	143.44
323.795	151.44
324.024	190.44
324.253	374.44
324.482	774.44
324.71	1571.44
324.939	2015.44
325.168	743.44
325.397	243.44
325.626	164.44
325.855	124.44
326.084	126.44
326.313	120.44
326.542	158.44
326.77	212.44
326.999	438.44
327.228	881.44
327.457	1608.44
327.686	1242.44
327.914	357.44
328.143	192.44
328.372	137.44
328.6	104.44
328.829	125.44
329.058	109.44
329.287	114.44
329.515	108.44
329.744	101.44
329.972	109.44
330.201	95.44
330.43	114.44
330.658	120.44
330.887	115.44
331.115	113.44
331.344	96.44
331.572	87.44
331.801	100.44
332.03	107.44
332.258	85.44
332.486	80.44
332.715	98.44
332.943	102.44
333.172	99.44
333.4	105.44
333.629	100.44
333.857	108.44
334.085	105.44
334.314	90.44
334.542	104.44
334.771	105.44
334.999	97.44
335.227	97.44
335.455	88.44
335.684	88.44
335.912	87.44
336.14	96.44
336.369	91.44
336.597	97.44
336.825	108.44
337.053	91.44
337.281	83.44
337.51	86.44
337.738	84.44
337.966	79.44
338.194	78.44
338.422	86.44
338.65	93.44
338.878	98.44
339.106	107.44
339.334	98.44
339.562	86.44
339.79	85.44
340.018	80.44
340.246	91.44
340.474	90.44
340.702	95.44
340.93	100.44
341.158	86.44
341.386	82.44
341.614	89.44
341.842	90.44
342.07	89.44
342.298	91.44
342.526	94.44
342.754	101.44
342.981	100.44
343.209	87.44
343.437	102.44
343.665	106.44
343.893	89.44
344.12	103.44
344.348	82.44
344.576	83.44
344.804	89.44
345.031	77.44
345.259	103.44
345.487	95.44
345.714	86.44
345.942	96.44
346.17	88.44
346.397	76.44
346.625	95.44
346.853	97.44
347.08	89.44
347.308	103.44
347.535	88.44
347.763	100.44
347.99	107.44
348.218	100.44
348.445	93.44
348.673	93.44
348.9	107.44
349.128	97.44
349.355	100.44
349.583	88.44
349.81	94.44
350.037	112.44
350.265	99.44
350.492	99.44
350.72	95.44
350.947	99.44
351.174	107.44
351.402	120.44
351.629	105.44
351.856	97.44
352.083	103.44
352.311	114.44
352.538	110.44
352.765	105.44
352.992	116.44
353.22	120.44
353.447	102.44
353.674	94.44
353.901	101.44
354.128	97.44
354.355	92.44
354.583	99.44
354.81	93.44
355.037	105.44
355.264	105.44
355.491	92.44
355.718	81.44
355.945	93.44
356.172	99.44
356.399	96.44
356.626	91.44
356.853	71.44
357.08	104.44
357.307	95.44
357.534	86.44
357.761	92.44
357.988	88.44
358.215	95.44
358.441	119.44
358.668	84.44
358.895	97.44
359.122	85.44
359.349	100.44
359.576	84.44
359.802	100.44
360.029	109.44
360.256	107.44
360.483	101.44
360.709	78.44
360.936	85.44
361.163	104.44
361.39	95.44
361.616	88.44
361.843	84.44
362.07	83.44
362.296	88.44
362.523	94.44
362.749	89.44
362.976	91.44
363.203	95.44
363.429	88.44
363.656	89.44
363.882	77.44
364.109	95.44
364.335	97.44
364.562	90.44
364.788	79.44
365.015	99.44
365.241	82.44
365.468	103.44
365.694	106.44
365.92	94.44
366.147	92.44
366.373	85.44
366.599	83.44
366.826	95.44
367.052	86.44
367.278	86.44
367.505	94.44
367.731	91.44
367.957	93.44
368.184	89.44
368.41	101.44
368.636	112.44
368.862	103.44
369.089	107.44
369.315	82.44
369.541	100.44
369.767	98.44
369.993	74.44
370.219	99.44
370.445	88.44
370.672	91.44
370.898	93.44
371.124	88.44
371.35	84.44
371.576	88.44
371.802	95.44
372.028	82.44
372.254	82.44
372.48	85.44
372.706	88.44
372.932	91.44
373.158	80.44
373.384	83.44
373.61	95.44
373.835	93.44
374.061	94.44
374.287	81.44
374.513	93.44
374.739	76.44
374.965	73.44
375.191	84.44
375.416	99.44
375.642	77.44
375.868	94.44
376.094	96.44
376.319	87.44
376.545	88.44
376.771	85.44
376.997	93.44
377.222	98.44
377.448	77.44
377.674	87.44
377.899	88.44
378.125	75.44
378.35	103.44
378.576	88.44
378.802	92.44
379.027	100.44
379.253	91.44
379.478	96.44
379.704	89.44
379.929	109.44
380.155	92.44
380.38	88.44
380.606	95.44
380.831	97.44
381.057	96.44
381.282	84.44
381.507	89.44
381.733	89.44
381.958	93.44
382.184	109.44
382.409	97.44
382.634	108.44
382.86	100.44
383.085	91.44
383.31	85.44
383.535	92.44
383.761	106.44
383.986	102.44
384.211	92.44
384.436	96.44
384.662	93.44
384.887	118.44
385.112	108.44
385.337	112.44
385.562	97.44
385.787	95.44
386.013	109.44
386.238	119.44
386.463	94.44
386.688	119.44
386.913	110.44
387.138	98.44
387.363	79.44
387.588	92.44
387.813	89.44
388.038	109.44
388.263	100.44
388.488	105.44
388.713	89.44
388.938	90.44
389.163	93.44
389.387	103.44
389.612	86.44
389.837	92.44
390.062	95.44
390.287	97.44
390.512	108.44
390.736	100.44
390.961	95.44
391.186	82.44
391.411	96.44
391.636	97.44
391.86	70.44
392.085	93.44
392.31	80.44
392.534	80.44
392.759	87.44
392.984	72.44
393.208	82.44
393.433	87.44
393.658	84.44
393.882	80.44
394.107	74.44
394.331	97.44
394.556	102.44
394.78	89.44
395.005	99.44
395.229	74.44
395.454	92.44
395.678	93.44
395.903	89.44
396.127	87.44
396.352	96.44
396.576	90.44
396.801	79.44
397.025	82.44
397.249	82.44
397.474	86.44
397.698	86.44
397.922	96.44
398.147	98.44
398.371	81.44
398.595	83.44
398.82	79.44
399.044	93.44
399.268	86.44
399.492	83.44
399.717	85.44
399.941	94.44
400.165	93.44
400.389	94.44
400.613	83.44
400.837	103.44
401.062	100.44
401.286	92.44
401.51	93.44
401.734	87.44
401.958	80.44
402.182	112.44
402.406	162.44
402.63	111.44
402.854	89.44
403.078	91.44
403.302	79.44
403.526	83.44
403.75	93.44
403.974	87.44
404.198	88.44
404.422	71.44
404.645	84.44
404.869	93.44
405.093	85.44
405.317	100.44
405.541	85.44
405.765	93.44
405.988	105.44
406.212	161.44
406.436	180.44
406.66	144.44
406.883	107.44
407.107	105.44
407.331	104.44
407.555	96.44
407.778	88.44
408.002	95.44
408.226	79.44
408.449	87.44
408.673	94.44
408.896	95.44
409.12	83.44
409.344	89.44
409.567	88.44
409.791	98.44
410.014	92.44
410.238	94.44
410.461	87.44
410.685	86.44
410.908	83.44
411.132	112.44
411.355	107.44
411.578	97.44
411.802	92.44
412.025	85.44
412.249	89.44
412.472	97.44
412.695	109.44
412.919	89.44
413.142	85.44
413.365	78.44
413.589	82.44
413.812	82.44
414.035	93.44
414.258	97.44
414.482	80.44
414.705	82.44
414.928	90.44
415.151	93.44
415.374	98.44
415.597	89.44
415.821	92.44
416.044	77.44
416.267	96.44
416.49	94.44
416.713	90.44
416.936	94.44
417.159	92.44
417.382	88.44
417.605	88.44
417.828	99.44
418.051	83.44
418.274	82.44
418.497	81.44
418.72	81.44
418.943	96.44
419.166	82.44
419.389	90.44
419.611	84.44
419.834	93.44
420.057	94.44
420.28	82.44
420.503	88.44
420.726	92.44
420.948	98.44
421.171	77.44
421.394	96.44
421.617	95.44
421.839	84.44
422.062	81.44
422.285	81.44
422.507	91.44
422.73	104.44
422.953	79.44
423.175	93.44
423.398	99.44
423.621	87.44
423.843	88.44
424.066	87.44
424.288	75.44
424.511	76.44
424.733	92.44
424.956	104.44
425.178	116.44
425.401	85.44
425.623	95.44
425.846	91.44
426.068	89.44
426.291	91.44
426.513	82.44
426.735	95.44
426.958	75.44
427.18	91.44
427.402	115.44
427.625	145.44
427.847	115.44
428.069	104.44
428.292	84.44
428.514	79.44
428.736	78.44
428.958	89.44
429.181	86.44
429.403	80.44
429.625	65.44
429.847	82.44
430.069	98.44
430.292	89.44
430.514	82.44
430.736	88.44
430.958	73.44
431.18	81.44
431.402	94.44
431.624	96.44
431.846	86.44
432.068	79.44
432.29	79.44
432.512	83.44
432.734	77.44
432.956	75.44
433.178	87.44
433.4	95.44
433.622	95.44
433.844	88.44
434.066	93.44
434.287	78.44
434.509	81.44
434.731	80.44
434.953	87.44
435.175	75.44
435.397	95.44
435.618	92.44
435.84	87.44
436.062	111.44
436.284	110.44
436.505	86.44
436.727	104.44
436.949	102.44
437.17	94.44
437.392	79.44
437.614	82.44
437.835	81.44
438.057	104.44
438.278	103.44
438.5	93.44
438.721	101.44
438.943	98.44
439.165	95.44
439.386	94.44
439.608	80.44
439.829	85.44
440.05	122.44
440.272	145.44
440.493	89.44
440.715	95.44
440.936	77.44
441.158	86.44
441.379	85.44
441.6	81.44
441.822	106.44
442.043	89.44
442.264	114.44
442.486	86.44
442.707	89.44
442.928	89.44
443.149	99.44
443.371	120.44
443.592	104.44
443.813	112.44
444.034	103.44
444.255	94.44
444.476	82.44
444.698	94.44
444.919	94.44
445.14	113.44
445.361	93.44
445.582	100.44
445.803	124.44
446.024	116.44
446.245	109.44
446.466	110.44
446.687	86.44
446.908	93.44
447.129	87.44
447.35	88.44
447.571	88.44
447.792	85.44
448.013	106.44
448.234	104.44
448.455	91.44
448.675	109.44
448.896	113.44
449.117	81.44
449.338	81.44
449.559	119.44
449.779	128.44
450	86.44
450.221	95.44
450.442	85.44
450.662	102.44
450.883	106.44
451.104	108.44
451.324	97.44
451.545	91.44
451.766	91.44
451.986	84.44
452.207	94.44
452.428	83.44
452.648	87.44
452.869	110.44
453.089	108.44
453.31	101.44
453.53	99.44
453.751	93.44
453.971	86.44
454.192	102.44
454.412	95.44
454.633	87.44
454.853	82.44
455.073	80.44
455.294	81.44
455.514	83.44
455.734	75.44
455.955	83.44
456.175	74.44
456.395	97.44
456.616	94.44
456.836	91.44
457.056	89.44
457.276	83.44
457.497	80.44
457.717	94.44
457.937	94.44
458.157	82.44
458.377	89.44
458.598	103.44
458.818	130.44
459.038	144.44
459.258	100.44
459.478	79.44
459.698	83.44
459.918	85.44
460.138	67.44
460.358	91.44
460.578	73.44
460.798	78.44
461.018	79.44
461.238	72.44
461.458	83.44
461.678	94.44
461.898	78.44
462.118	85.44
462.338	79.44
462.558	99.44
462.777	78.44
462.997	86.44
463.217	81.44
463.437	78.44
463.657	90.44
463.876	91.44
464.096	79.44
464.316	91.44
464.536	94.44
464.755	86.44
464.975	110.44
465.195	147.44
465.414	147.44
465.634	94.44
465.854	87.44
466.073	86.44
466.293	82.44
466.512	89.44
466.732	94.44
466.951	88.44
467.171	89.44
467.391	97.44
467.61	107.44
467.829	97.44
468.049	90.44
468.268	84.44
468.488	78.44
468.707	85.44
468.927	87.44
469.146	83.44
469.365	78.44
469.585	84.44
469.804	100.44
470.023	87.44
470.243	83.44
470.462	90.44
470.681	100.44
470.901	89.44
471.12	82.44
471.339	95.44
471.558	101.44
471.777	82.44
471.997	77.44
472.216	88.44
472.435	98.44
472.654	96.44
472.873	80.44
473.092	78.44
473.311	100.44
473.53	80.44
473.749	78.44
473.968	92.44
474.187	108.44
474.406	84.44
474.625	84.44
474.844	82.44
475.063	80.44
475.282	88.44
475.501	69.44
475.72	84.44
475.939	87.44
476.158	94.44
476.377	87.44
476.596	89.44
476.814	83.44
477.033	88.44
477.252	97.44
477.471	80.44
477.69	88.44
477.908	89.44
478.127	94.44
478.346	79.44
478.564	82.44
478.783	91.44
479.002	86.44
479.22	102.44
479.439	103.44
479.658	90.44
479.876	81.44
480.095	102.44
480.313	79.44
480.532	88.44
480.751	81.44
480.969	88.44
481.188	122.44
481.406	107.44
481.624	105.44
481.843	96.44
482.061	78.44
482.28	85.44
482.498	98.44
482.717	82.44
482.935	80.44
483.153	89.44
483.372	86.44
483.59	95.44
483.808	96.44
484.027	97.44
484.245	107.44
484.463	81.44
484.681	101.44
484.9	91.44
485.118	80.44
485.336	97.44
485.554	90.44
485.772	95.44
485.99	101.44
486.209	97.44
486.427	98.44
486.645	99.44
486.863	98.44
487.081	101.44
487.299	89.44
487.517	89.44
487.735	89.44
487.953	74.44
488.171	77.44
488.389	89.44
488.607	94.44
488.825	96.44
489.043	73.44
489.261	93.44
489.479	98.44
489.696	72.44
489.914	80.44
490.132	91.44
490.35	87.44
490.568	84.44
490.786	81.44
491.003	90.44
491.221	95.44
491.439	97.44
491.657	92.44
491.874	90.44
492.092	86.44
492.31	80.44
492.527	90.44
492.745	83.44
492.963	82.44
493.18	79.44
493.398	88.44
493.615	86.44
493.833	104.44
494.05	83.44
494.268	92.44
494.485	92.44
494.703	99.44
494.92	89.44
495.138	83.44
495.355	95.44
495.573	99.44
495.79	100.44
496.008	81.44
496.225	75.44
496.442	86.44
496.66	96.44
496.877	78.44
497.094	89.44
497.312	79.44
497.529	84.44
497.746	79.44
497.963	91.44
498.181	93.44
498.398	102.44
498.615	84.44
498.832	96.44
499.049	100.44
499.267	94.44
499.484	84.44
499.701	89.44
499.918	92.44
500.135	71.44
500.352	92.44
500.569	87.44
500.786	81.44
501.003	88.44
501.22	101.44
501.437	80.44
501.654	96.44
501.871	98.44
502.088	84.44
502.305	82.44
502.522	76.44
502.739	97.44
502.956	107.44
503.172	94.44
503.389	83.44
503.606	83.44
503.823	88.44
504.04	85.44
504.256	86.44
504.473	88.44
504.69	77.44
504.907	96.44
505.123	94.44
505.34	70.44
505.557	91.44
505.773	95.44
505.99	85.44
506.207	77.44
506.423	87.44
506.64	96.44
506.856	100.44
507.073	91.44
507.289	94.44
507.506	77.44
507.722	111.44
507.939	91.44
508.155	95.44
508.372	83.44
508.588	72.44
508.805	100.44
509.021	90.44
509.238	86.44
509.454	81.44
509.67	98.44
509.887	113.44
510.103	129.44
510.319	222.44
510.536	754.44
510.752	2325.44
510.968	641.44
511.184	157.44
511.401	100.44
511.617	90.44
511.833	91.44
512.049	89.44
512.265	101.44
512.481	90.44
512.698	90.44
512.914	97.44
513.13	92.44
513.346	102.44
513.562	89.44
513.778	104.44
513.994	83.44
514.21	96.44
514.426	112.44
514.642	112.44
514.858	113.44
515.074	141.44
515.29	426.44
515.506	1387.44
515.721	503.44
515.937	149.44
516.153	112.44
516.369	107.44
516.585	96.44
