Data from Uncirc_2004_H10_HRD10591_00039.txt Node
Date: Wed Jan 03 10:32:20 EST 2024
User: Yrep
Spectrometer: HR+D1059
Trigger mode: 1
Integration Time (sec): 1.000000E-1
Scans to average: 1
Electric dark correction enabled: true
Nonlinearity correction enabled: false
Boxcar width: 0
XAxis mode: Wavelengths
Number of Pixels in Spectrum: 2048
>>>>>Begin Spectral Data<<<<<
223.165	-20.5
223.4	-20.5
223.635	-20.5
223.869	-19.5
224.104	-17.5
224.338	-5.5
224.573	-18.5
224.808	-8.5
225.042	-10.5
225.277	-14.5
225.511	8.5
225.746	-8.5
225.98	14.5
226.215	8.5
226.449	8.5
226.683	18.5
226.918	27.5
227.152	37.5
227.387	37.5
227.621	40.5
227.856	47.5
228.09	29.5
228.324	53.5
228.559	58.5
228.793	65.5
229.027	70.5
229.262	63.5
229.496	66.5
229.73	75.5
229.964	76.5
230.199	77.5
230.433	72.5
230.667	71.5
230.901	87.5
231.136	82.5
231.37	83.5
231.604	89.5
231.838	80.5
232.072	80.5
232.306	84.5
232.541	73.5
232.775	84.5
233.009	95.5
233.243	78.5
233.477	95.5
233.711	80.5
233.945	77.5
234.179	68.5
234.413	89.5
234.647	78.5
234.881	88.5
235.115	73.5
235.349	71.5
235.583	82.5
235.817	84.5
236.051	83.5
236.285	78.5
236.519	68.5
236.753	73.5
236.987	68.5
237.221	87.5
237.455	88.5
237.689	83.5
237.922	55.5
238.156	78.5
238.39	72.5
238.624	67.5
238.858	82.5
239.091	84.5
239.325	68.5
239.559	82.5
239.793	79.5
240.027	69.5
240.26	69.5
240.494	76.5
240.728	75.5
240.961	70.5
241.195	86.5
241.429	70.5
241.662	73.5
241.896	73.5
242.13	88.5
242.363	72.5
242.597	69.5
242.83	73.5
243.064	76.5
243.298	65.5
243.531	78.5
243.765	81.5
243.998	79.5
244.232	79.5
244.465	82.5
244.699	81.5
244.932	86.5
245.166	62.5
245.399	90.5
245.633	93.5
245.866	79.5
246.099	71.5
246.333	73.5
246.566	84.5
246.8	72.5
247.033	70.5
247.266	68.5
247.5	77.5
247.733	87.5
247.966	65.5
248.2	85.5
248.433	60.5
248.666	77.5
248.899	78.5
249.133	81.5
249.366	87.5
249.599	93.5
249.832	96.5
250.066	76.5
250.299	68.5
250.532	78.5
250.765	83.5
250.998	77.5
251.231	75.5
251.465	84.5
251.698	82.5
251.931	83.5
252.164	74.5
252.397	79.5
252.63	88.5
252.863	60.5
253.096	66.5
253.329	90.5
253.562	87.5
253.795	72.5
254.028	74.5
254.261	86.5
254.494	84.5
254.727	78.5
254.96	82.5
255.193	85.5
255.426	87.5
255.659	88.5
255.892	82.5
256.124	85.5
256.357	94.5
256.59	83.5
256.823	79.5
257.056	76.5
257.289	74.5
257.521	66.5
257.754	74.5
257.987	64.5
258.22	76.5
258.452	76.5
258.685	86.5
258.918	90.5
259.151	101.5
259.383	78.5
259.616	79.5
259.849	96.5
260.081	85.5
260.314	79.5
260.547	88.5
260.779	87.5
261.012	82.5
261.244	95.5
261.477	83.5
261.71	103.5
261.942	108.5
262.175	116.5
262.407	81.5
262.64	84.5
262.872	84.5
263.105	82.5
263.337	84.5
263.57	84.5
263.802	82.5
264.035	89.5
264.267	80.5
264.499	81.5
264.732	86.5
264.964	98.5
265.197	79.5
265.429	96.5
265.661	96.5
265.894	85.5
266.126	86.5
266.358	79.5
266.591	100.5
266.823	70.5
267.055	91.5
267.287	89.5
267.52	69.5
267.752	79.5
267.984	86.5
268.216	78.5
268.448	89.5
268.681	93.5
268.913	79.5
269.145	69.5
269.377	85.5
269.609	72.5
269.841	83.5
270.073	80.5
270.306	81.5
270.538	87.5
270.77	76.5
271.002	84.5
271.234	86.5
271.466	92.5
271.698	87.5
271.93	96.5
272.162	93.5
272.394	82.5
272.626	84.5
272.858	86.5
273.09	83.5
273.322	82.5
273.553	80.5
273.785	79.5
274.017	82.5
274.249	91.5
274.481	91.5
274.713	86.5
274.945	83.5
275.176	87.5
275.408	81.5
275.64	96.5
275.872	94.5
276.104	89.5
276.335	104.5
276.567	93.5
276.799	92.5
277.031	76.5
277.262	87.5
277.494	95.5
277.726	82.5
277.957	73.5
278.189	88.5
278.421	87.5
278.652	73.5
278.884	86.5
279.115	84.5
279.347	65.5
279.579	84.5
279.81	95.5
280.042	92.5
280.273	79.5
280.505	78.5
280.736	93.5
280.968	93.5
281.199	87.5
281.431	85.5
281.662	88.5
281.894	89.5
282.125	104.5
282.356	89.5
282.588	120.5
282.819	115.5
283.051	93.5
283.282	78.5
283.513	87.5
283.745	86.5
283.976	82.5
284.207	88.5
284.439	81.5
284.67	90.5
284.901	87.5
285.132	72.5
285.364	73.5
285.595	101.5
285.826	81.5
286.057	101.5
286.288	85.5
286.52	85.5
286.751	87.5
286.982	97.5
287.213	88.5
287.444	96.5
287.675	85.5
287.906	67.5
288.138	86.5
288.369	83.5
288.6	86.5
288.831	89.5
289.062	79.5
289.293	85.5
289.524	96.5
289.755	98.5
289.986	90.5
290.217	80.5
290.448	87.5
290.679	88.5
290.91	83.5
291.141	94.5
291.371	97.5
291.602	87.5
291.833	80.5
292.064	89.5
292.295	82.5
292.526	76.5
292.757	97.5
292.987	96.5
293.218	70.5
293.449	84.5
293.68	95.5
293.91	96.5
294.141	80.5
294.372	97.5
294.603	98.5
294.833	93.5
295.064	101.5
295.295	90.5
295.525	78.5
295.756	112.5
295.987	108.5
296.217	119.5
296.448	108.5
296.679	86.5
296.909	101.5
297.14	77.5
297.37	87.5
297.601	82.5
297.831	85.5
298.062	90.5
298.292	81.5
298.523	88.5
298.753	85.5
298.984	94.5
299.214	88.5
299.445	99.5
299.675	115.5
299.905	103.5
300.136	92.5
300.366	84.5
300.597	80.5
300.827	95.5
301.057	88.5
301.288	95.5
301.518	96.5
301.748	78.5
301.979	75.5
302.209	99.5
302.439	88.5
302.669	94.5
302.9	85.5
303.13	101.5
303.36	81.5
303.59	96.5
303.82	98.5
304.051	98.5
304.281	85.5
304.511	80.5
304.741	96.5
304.971	80.5
305.201	100.5
305.431	74.5
305.661	83.5
305.891	89.5
306.121	98.5
306.352	105.5
306.582	89.5
306.812	94.5
307.042	100.5
307.272	95.5
307.502	80.5
307.731	92.5
307.961	80.5
308.191	98.5
308.421	98.5
308.651	106.5
308.881	87.5
309.111	89.5
309.341	100.5
309.571	97.5
309.8	93.5
310.03	93.5
310.26	82.5
310.49	83.5
310.72	96.5
310.949	85.5
311.179	97.5
311.409	87.5
311.639	90.5
311.868	82.5
312.098	81.5
312.328	93.5
312.557	106.5
312.787	114.5
313.017	107.5
313.246	103.5
313.476	93.5
313.706	88.5
313.935	86.5
314.165	86.5
314.394	115.5
314.624	86.5
314.853	96.5
315.083	85.5
315.312	88.5
315.542	95.5
315.771	94.5
316.001	93.5
316.23	95.5
316.46	89.5
316.689	95.5
316.919	80.5
317.148	89.5
317.377	98.5
317.607	103.5
317.836	94.5
318.065	85.5
318.295	86.5
318.524	84.5
318.753	96.5
318.983	81.5
319.212	88.5
319.441	112.5
319.67	98.5
319.9	104.5
320.129	101.5
320.358	88.5
320.587	90.5
320.816	98.5
321.046	110.5
321.275	96.5
321.504	88.5
321.733	104.5
321.962	85.5
322.191	98.5
322.42	92.5
322.649	115.5
322.878	115.5
323.108	106.5
323.337	114.5
323.566	121.5
323.795	132.5
324.024	172.5
324.253	366.5
324.482	744.5
324.71	1528.5
324.939	1957.5
325.168	732.5
325.397	211.5
325.626	142.5
325.855	104.5
326.084	115.5
326.313	119.5
326.542	131.5
326.77	208.5
326.999	419.5
327.228	839.5
327.457	1554.5
327.686	1193.5
327.914	332.5
328.143	168.5
328.372	122.5
328.6	119.5
328.829	105.5
329.058	121.5
329.287	119.5
329.515	108.5
329.744	95.5
329.972	94.5
330.201	93.5
330.43	107.5
330.658	101.5
330.887	122.5
331.115	99.5
331.344	96.5
331.572	97.5
331.801	93.5
332.03	106.5
332.258	113.5
332.486	94.5
332.715	90.5
332.943	92.5
333.172	106.5
333.4	95.5
333.629	104.5
333.857	97.5
334.085	102.5
334.314	105.5
334.542	116.5
334.771	105.5
334.999	102.5
335.227	93.5
335.455	96.5
335.684	86.5
335.912	94.5
336.14	100.5
336.369	111.5
336.597	93.5
336.825	106.5
337.053	85.5
337.281	83.5
337.51	95.5
337.738	94.5
337.966	71.5
338.194	89.5
338.422	88.5
338.65	84.5
338.878	93.5
339.106	87.5
339.334	100.5
339.562	93.5
339.79	91.5
340.018	77.5
340.246	87.5
340.474	85.5
340.702	86.5
340.93	101.5
341.158	90.5
341.386	109.5
341.614	92.5
341.842	85.5
342.07	86.5
342.298	90.5
342.526	94.5
342.754	92.5
342.981	97.5
343.209	87.5
343.437	104.5
343.665	97.5
343.893	95.5
344.12	81.5
344.348	80.5
344.576	94.5
344.804	90.5
345.031	84.5
345.259	80.5
345.487	84.5
345.714	90.5
345.942	86.5
346.17	91.5
346.397	84.5
346.625	90.5
346.853	94.5
347.08	97.5
347.308	99.5
347.535	97.5
347.763	103.5
347.99	86.5
348.218	106.5
348.445	100.5
348.673	95.5
348.9	97.5
349.128	90.5
349.355	93.5
349.583	64.5
349.81	82.5
350.037	89.5
350.265	85.5
350.492	104.5
350.72	99.5
350.947	100.5
351.174	89.5
351.402	111.5
351.629	101.5
351.856	98.5
352.083	99.5
352.311	107.5
352.538	99.5
352.765	99.5
352.992	110.5
353.22	105.5
353.447	91.5
353.674	89.5
353.901	92.5
354.128	96.5
354.355	96.5
354.583	98.5
354.81	97.5
355.037	96.5
355.264	89.5
355.491	91.5
355.718	84.5
355.945	86.5
356.172	100.5
356.399	103.5
356.626	102.5
356.853	103.5
357.08	90.5
357.307	95.5
357.534	90.5
357.761	93.5
357.988	95.5
358.215	101.5
358.441	99.5
358.668	97.5
358.895	94.5
359.122	83.5
359.349	101.5
359.576	74.5
359.802	77.5
360.029	104.5
360.256	96.5
360.483	96.5
360.709	95.5
360.936	98.5
361.163	97.5
361.39	93.5
361.616	104.5
361.843	96.5
362.07	85.5
362.296	99.5
362.523	92.5
362.749	90.5
362.976	89.5
363.203	108.5
363.429	80.5
363.656	88.5
363.882	89.5
364.109	108.5
364.335	106.5
364.562	97.5
364.788	86.5
365.015	96.5
365.241	101.5
365.468	99.5
365.694	103.5
365.92	97.5
366.147	82.5
366.373	78.5
366.599	87.5
366.826	86.5
367.052	93.5
367.278	104.5
367.505	85.5
367.731	87.5
367.957	100.5
368.184	89.5
368.41	96.5
368.636	102.5
368.862	118.5
369.089	93.5
369.315	112.5
369.541	96.5
369.767	92.5
369.993	96.5
370.219	92.5
370.445	95.5
370.672	96.5
370.898	86.5
371.124	76.5
371.35	86.5
371.576	74.5
371.802	92.5
372.028	80.5
372.254	81.5
372.48	97.5
372.706	82.5
372.932	80.5
373.158	87.5
373.384	79.5
373.61	76.5
373.835	84.5
374.061	92.5
374.287	79.5
374.513	85.5
374.739	106.5
374.965	76.5
375.191	82.5
375.416	90.5
375.642	90.5
375.868	92.5
376.094	89.5
376.319	106.5
376.545	91.5
376.771	88.5
376.997	87.5
377.222	83.5
377.448	82.5
377.674	90.5
377.899	75.5
378.125	106.5
378.35	95.5
378.576	79.5
378.802	104.5
379.027	98.5
379.253	82.5
379.478	97.5
379.704	92.5
379.929	90.5
380.155	90.5
380.38	84.5
380.606	103.5
380.831	105.5
381.057	100.5
381.282	89.5
381.507	100.5
381.733	112.5
381.958	97.5
382.184	86.5
382.409	112.5
382.634	111.5
382.86	89.5
383.085	90.5
383.31	113.5
383.535	81.5
383.761	103.5
383.986	107.5
384.211	85.5
384.436	102.5
384.662	88.5
384.887	104.5
385.112	104.5
385.337	117.5
385.562	101.5
385.787	128.5
386.013	113.5
386.238	98.5
386.463	109.5
386.688	117.5
386.913	101.5
387.138	87.5
387.363	102.5
387.588	94.5
387.813	119.5
388.038	118.5
388.263	121.5
388.488	121.5
388.713	98.5
388.938	93.5
389.163	97.5
389.387	90.5
389.612	100.5
389.837	80.5
390.062	93.5
390.287	100.5
390.512	91.5
390.736	109.5
390.961	95.5
391.186	96.5
391.411	97.5
391.636	84.5
391.86	88.5
392.085	89.5
392.31	96.5
392.534	73.5
392.759	83.5
392.984	73.5
393.208	92.5
393.433	105.5
393.658	82.5
393.882	89.5
394.107	82.5
394.331	87.5
394.556	92.5
394.78	83.5
395.005	82.5
395.229	86.5
395.454	85.5
395.678	88.5
395.903	84.5
396.127	82.5
396.352	85.5
396.576	93.5
396.801	81.5
397.025	92.5
397.249	86.5
397.474	84.5
397.698	84.5
397.922	92.5
398.147	82.5
398.371	74.5
398.595	87.5
398.82	90.5
399.044	78.5
399.268	80.5
399.492	78.5
399.717	88.5
399.941	81.5
400.165	92.5
400.389	78.5
400.613	95.5
400.837	84.5
401.062	81.5
401.286	97.5
401.51	90.5
401.734	98.5
401.958	97.5
402.182	107.5
402.406	144.5
402.63	101.5
402.854	94.5
403.078	95.5
403.302	81.5
403.526	84.5
403.75	85.5
403.974	91.5
404.198	78.5
404.422	97.5
404.645	99.5
404.869	82.5
405.093	99.5
405.317	84.5
405.541	96.5
405.765	86.5
405.988	111.5
406.212	157.5
406.436	195.5
406.66	125.5
406.883	97.5
407.107	90.5
407.331	92.5
407.555	78.5
407.778	101.5
408.002	90.5
408.226	70.5
408.449	90.5
408.673	96.5
408.896	81.5
409.12	89.5
409.344	85.5
409.567	79.5
409.791	91.5
410.014	87.5
410.238	96.5
410.461	84.5
410.685	95.5
410.908	98.5
411.132	95.5
411.355	95.5
411.578	94.5
411.802	86.5
412.025	78.5
412.249	78.5
412.472	96.5
412.695	87.5
412.919	100.5
413.142	91.5
413.365	86.5
413.589	91.5
413.812	73.5
414.035	84.5
414.258	88.5
414.482	98.5
414.705	93.5
414.928	96.5
415.151	100.5
415.374	90.5
415.597	100.5
415.821	83.5
416.044	80.5
416.267	90.5
416.49	97.5
416.713	90.5
416.936	83.5
417.159	93.5
417.382	96.5
417.605	90.5
417.828	99.5
418.051	83.5
418.274	92.5
418.497	91.5
418.72	90.5
418.943	99.5
419.166	84.5
419.389	87.5
419.611	92.5
419.834	81.5
420.057	86.5
420.28	96.5
420.503	81.5
420.726	99.5
420.948	98.5
421.171	91.5
421.394	103.5
421.617	90.5
421.839	97.5
422.062	94.5
422.285	85.5
422.507	104.5
422.73	106.5
422.953	84.5
423.175	81.5
423.398	91.5
423.621	81.5
423.843	95.5
424.066	89.5
424.288	90.5
424.511	101.5
424.733	102.5
424.956	109.5
425.178	94.5
425.401	98.5
425.623	101.5
425.846	97.5
426.068	100.5
426.291	90.5
426.513	80.5
426.735	92.5
426.958	84.5
427.18	105.5
427.402	129.5
427.625	153.5
427.847	116.5
428.069	102.5
428.292	96.5
428.514	80.5
428.736	83.5
428.958	84.5
429.181	87.5
429.403	74.5
429.625	84.5
429.847	91.5
430.069	83.5
430.292	94.5
430.514	93.5
430.736	112.5
430.958	87.5
431.18	78.5
431.402	82.5
431.624	75.5
431.846	86.5
432.068	80.5
432.29	93.5
432.512	82.5
432.734	78.5
432.956	97.5
433.178	99.5
433.4	92.5
433.622	85.5
433.844	76.5
434.066	104.5
434.287	97.5
434.509	90.5
434.731	87.5
434.953	81.5
435.175	86.5
435.397	103.5
435.618	94.5
435.84	98.5
436.062	101.5
436.284	101.5
436.505	89.5
436.727	96.5
436.949	97.5
437.17	92.5
437.392	85.5
437.614	94.5
437.835	109.5
438.057	105.5
438.278	101.5
438.5	93.5
438.721	114.5
438.943	102.5
439.165	78.5
439.386	92.5
439.608	84.5
439.829	92.5
440.05	108.5
440.272	124.5
440.493	98.5
440.715	94.5
440.936	86.5
441.158	89.5
441.379	80.5
441.6	94.5
441.822	91.5
442.043	92.5
442.264	103.5
442.486	96.5
442.707	86.5
442.928	87.5
443.149	120.5
443.371	125.5
443.592	92.5
443.813	113.5
444.034	126.5
444.255	104.5
444.476	96.5
444.698	95.5
444.919	85.5
445.14	119.5
445.361	120.5
445.582	94.5
445.803	101.5
446.024	107.5
446.245	116.5
446.466	109.5
446.687	90.5
446.908	96.5
447.129	73.5
447.35	101.5
447.571	90.5
447.792	88.5
448.013	100.5
448.234	115.5
448.455	97.5
448.675	117.5
448.896	111.5
449.117	93.5
449.338	89.5
449.559	123.5
449.779	128.5
450	91.5
450.221	94.5
450.442	78.5
450.662	105.5
450.883	114.5
451.104	109.5
451.324	101.5
451.545	90.5
451.766	68.5
451.986	89.5
452.207	93.5
452.428	80.5
452.648	109.5
452.869	106.5
453.089	103.5
453.31	114.5
453.53	87.5
453.751	93.5
453.971	103.5
454.192	97.5
454.412	102.5
454.633	80.5
454.853	89.5
455.073	88.5
455.294	88.5
455.514	90.5
455.734	102.5
455.955	77.5
456.175	81.5
456.395	65.5
456.616	82.5
456.836	95.5
457.056	91.5
457.276	87.5
457.497	86.5
457.717	87.5
457.937	87.5
458.157	72.5
458.377	92.5
458.598	94.5
458.818	151.5
459.038	154.5
459.258	104.5
459.478	98.5
459.698	104.5
459.918	82.5
460.138	85.5
460.358	92.5
460.578	86.5
460.798	96.5
461.018	97.5
461.238	90.5
461.458	83.5
461.678	86.5
461.898	100.5
462.118	87.5
462.338	80.5
462.558	90.5
462.777	86.5
462.997	93.5
463.217	96.5
463.437	92.5
463.657	84.5
463.876	92.5
464.096	91.5
464.316	82.5
464.536	100.5
464.755	99.5
464.975	105.5
465.195	149.5
465.414	163.5
465.634	92.5
465.854	89.5
466.073	78.5
466.293	91.5
466.512	92.5
466.732	90.5
466.951	84.5
467.171	95.5
467.391	86.5
467.61	89.5
467.829	80.5
468.049	95.5
468.268	93.5
468.488	76.5
468.707	90.5
468.927	95.5
469.146	84.5
469.365	89.5
469.585	72.5
469.804	96.5
470.023	86.5
470.243	98.5
470.462	94.5
470.681	116.5
470.901	87.5
471.12	79.5
471.339	80.5
471.558	82.5
471.777	92.5
471.997	103.5
472.216	88.5
472.435	107.5
472.654	87.5
472.873	83.5
473.092	101.5
473.311	87.5
473.53	80.5
473.749	94.5
473.968	94.5
474.187	90.5
474.406	93.5
474.625	94.5
474.844	100.5
475.063	95.5
475.282	87.5
475.501	87.5
475.72	99.5
475.939	87.5
476.158	95.5
476.377	90.5
476.596	88.5
476.814	83.5
477.033	83.5
477.252	71.5
477.471	96.5
477.69	74.5
477.908	78.5
478.127	88.5
478.346	79.5
478.564	85.5
478.783	92.5
479.002	79.5
479.22	82.5
479.439	93.5
479.658	100.5
479.876	74.5
480.095	95.5
480.313	96.5
480.532	79.5
480.751	88.5
480.969	97.5
481.188	126.5
481.406	105.5
481.624	101.5
481.843	87.5
482.061	100.5
482.28	82.5
482.498	101.5
482.717	80.5
482.935	88.5
483.153	94.5
483.372	92.5
483.59	89.5
483.808	94.5
484.027	92.5
484.245	85.5
484.463	90.5
484.681	99.5
484.9	90.5
485.118	89.5
485.336	97.5
485.554	90.5
485.772	94.5
485.99	102.5
486.209	104.5
486.427	102.5
486.645	99.5
486.863	107.5
487.081	101.5
487.299	102.5
487.517	88.5
487.735	84.5
487.953	87.5
488.171	98.5
488.389	91.5
488.607	98.5
488.825	77.5
489.043	101.5
489.261	88.5
489.479	92.5
489.696	100.5
489.914	93.5
490.132	108.5
490.35	84.5
490.568	78.5
490.786	100.5
491.003	90.5
491.221	94.5
491.439	95.5
491.657	90.5
491.874	91.5
492.092	87.5
492.31	89.5
492.527	98.5
492.745	82.5
492.963	89.5
493.18	93.5
493.398	85.5
493.615	97.5
493.833	98.5
494.05	88.5
494.268	85.5
494.485	92.5
494.703	100.5
494.92	96.5
495.138	104.5
495.355	85.5
495.573	82.5
495.79	84.5
496.008	93.5
496.225	85.5
496.442	102.5
496.66	94.5
496.877	88.5
497.094	92.5
497.312	83.5
497.529	92.5
497.746	98.5
497.963	83.5
498.181	98.5
498.398	102.5
498.615	111.5
498.832	105.5
499.049	87.5
499.267	101.5
499.484	96.5
499.701	90.5
499.918	95.5
500.135	92.5
500.352	89.5
500.569	93.5
500.786	80.5
501.003	104.5
501.22	89.5
501.437	97.5
501.654	93.5
501.871	98.5
502.088	89.5
502.305	97.5
502.522	94.5
502.739	96.5
502.956	96.5
503.172	93.5
503.389	94.5
503.606	102.5
503.823	100.5
504.04	97.5
504.256	81.5
504.473	79.5
504.69	93.5
504.907	109.5
505.123	88.5
505.34	78.5
505.557	98.5
505.773	88.5
505.99	80.5
506.207	95.5
506.423	86.5
506.64	86.5
506.856	103.5
507.073	98.5
507.289	87.5
507.506	98.5
507.722	113.5
507.939	119.5
508.155	106.5
508.372	100.5
508.588	97.5
508.805	99.5
509.021	99.5
509.238	104.5
509.454	99.5
509.67	98.5
509.887	110.5
510.103	121.5
510.319	192.5
510.536	705.5
510.752	2117.5
510.968	606.5
511.184	146.5
511.401	103.5
511.617	89.5
511.833	88.5
512.049	104.5
512.265	95.5
512.481	86.5
512.698	89.5
512.914	78.5
513.13	81.5
513.346	94.5
513.562	100.5
513.778	93.5
513.994	75.5
514.21	102.5
514.426	118.5
514.642	126.5
514.858	101.5
515.074	156.5
515.29	407.5
515.506	1298.5
515.721	486.5
515.937	142.5
516.153	104.5
516.369	92.5
516.585	98.5
516.801	88.5
517.016	86.5
517.232	90.5
517.448	85.5
517.664	87.5
517.879	87.5
518.095	81.5
518.311	87.5
518.527	89.5
518.742	94.5
518.958	88.5
519.173	85.5
519.389	88.5
519.605	98.5
519.82	107.5
520.036	87.5
520.251	126.5
520.467	82.5
520.682	104.5
520.898	97.5
521.113	103.5
521.329	138.5
521.544	184.5
521.76	491.5
521.975	2108.5
522.19	1255.5
522.406	274.5
522.621	112.5
522.836	95.5
523.052	110.5
523.267	98.5
523.482	109.5
523.698	96.5
523.913	116.5
524.128	89.5
524.343	103.5
524.559	82.5
524.774	103.5
524.989	99.5
525.204	104.5
525.419	96.5
525.634	93.5
525.849	100.5
526.064	97.5
526.28	97.5
526.495	94.5
526.71	91.5
526.925	95.5
527.14	72.5
527.355	89.5
527.57	90.5
527.785	97.5
527.999	91.5
528.214	102.5
528.429	85.5
528.644	99.5
528.859	84.5
529.074	92.5
529.289	119.5
529.503	149.5
529.718	98.5
529.933	96.5
530.148	78.5
530.363	82.5
530.577	89.5
530.792	97.5
531.007	85.5
531.221	90.5
531.436	93.5
531.651	92.5
531.865	90.5
532.08	97.5
532.295	100.5
532.509	96.5
532.724	93.5
532.938	104.5
533.153	117.5
533.367	93.5
533.582	93.5
533.796	87.5
534.011	95.5
534.225	84.5
534.44	96.5
534.654	82.5
534.868	92.5
535.083	81.5
535.297	96.5
535.511	107.5
535.726	91.5
