Data from Uncirc_2004_H10_HRD10591_00011.txt Node
Date: Wed Jan 03 10:32:15 EST 2024
User: Yrep
Spectrometer: HR+D1059
Trigger mode: 1
Integration Time (sec): 1.000000E-1
Scans to average: 1
Electric dark correction enabled: true
Nonlinearity correction enabled: false
Boxcar width: 0
XAxis mode: Wavelengths
Number of Pixels in Spectrum: 2048
>>>>>Begin Spectral Data<<<<<
223.165	-15.56
223.4	-15.56
223.635	-15.56
223.869	-24.56
224.104	-16.56
224.338	-17.56
224.573	-10.56
224.808	-1.56
225.042	0.44
225.277	-2.56
225.511	-0.56
225.746	-2.56
225.98	1.44
226.215	3.44
226.449	16.44
226.683	13.44
226.918	28.44
227.152	28.44
227.387	38.44
227.621	36.44
227.856	34.44
228.09	38.44
228.324	61.44
228.559	58.44
228.793	61.44
229.027	53.44
229.262	66.44
229.496	45.44
229.73	69.44
229.964	78.44
230.199	70.44
230.433	66.44
230.667	77.44
230.901	86.44
231.136	87.44
231.37	76.44
231.604	73.44
231.838	78.44
232.072	77.44
232.306	84.44
232.541	83.44
232.775	84.44
233.009	78.44
233.243	78.44
233.477	80.44
233.711	70.44
233.945	74.44
234.179	69.44
234.413	87.44
234.647	76.44
234.881	81.44
235.115	82.44
235.349	86.44
235.583	71.44
235.817	79.44
236.051	72.44
236.285	66.44
236.519	59.44
236.753	90.44
236.987	66.44
237.221	68.44
237.455	69.44
237.689	80.44
237.922	74.44
238.156	79.44
238.39	81.44
238.624	69.44
238.858	79.44
239.091	85.44
239.325	81.44
239.559	86.44
239.793	73.44
240.027	77.44
240.26	73.44
240.494	79.44
240.728	71.44
240.961	75.44
241.195	78.44
241.429	73.44
241.662	77.44
241.896	79.44
242.13	68.44
242.363	70.44
242.597	77.44
242.83	88.44
243.064	67.44
243.298	70.44
243.531	76.44
243.765	65.44
243.998	66.44
244.232	74.44
244.465	76.44
244.699	74.44
244.932	67.44
245.166	75.44
245.399	71.44
245.633	87.44
245.866	77.44
246.099	63.44
246.333	68.44
246.566	86.44
246.8	84.44
247.033	70.44
247.266	77.44
247.5	62.44
247.733	73.44
247.966	71.44
248.2	68.44
248.433	86.44
248.666	89.44
248.899	84.44
249.133	81.44
249.366	84.44
249.599	104.44
249.832	73.44
250.066	81.44
250.299	76.44
250.532	66.44
250.765	76.44
250.998	77.44
251.231	84.44
251.465	82.44
251.698	73.44
251.931	86.44
252.164	76.44
252.397	82.44
252.63	91.44
252.863	84.44
253.096	77.44
253.329	87.44
253.562	95.44
253.795	89.44
254.028	79.44
254.261	65.44
254.494	74.44
254.727	81.44
254.96	69.44
255.193	74.44
255.426	70.44
255.659	89.44
255.892	75.44
256.124	82.44
256.357	86.44
256.59	76.44
256.823	78.44
257.056	69.44
257.289	67.44
257.521	84.44
257.754	70.44
257.987	92.44
258.22	79.44
258.452	86.44
258.685	79.44
258.918	82.44
259.151	77.44
259.383	65.44
259.616	86.44
259.849	81.44
260.081	81.44
260.314	85.44
260.547	83.44
260.779	74.44
261.012	86.44
261.244	99.44
261.477	91.44
261.71	84.44
261.942	103.44
262.175	94.44
262.407	86.44
262.64	96.44
262.872	92.44
263.105	88.44
263.337	86.44
263.57	74.44
263.802	78.44
264.035	90.44
264.267	82.44
264.499	79.44
264.732	78.44
264.964	78.44
265.197	81.44
265.429	61.44
265.661	78.44
265.894	88.44
266.126	84.44
266.358	85.44
266.591	87.44
266.823	76.44
267.055	87.44
267.287	87.44
267.52	77.44
267.752	85.44
267.984	92.44
268.216	73.44
268.448	86.44
268.681	82.44
268.913	91.44
269.145	87.44
269.377	84.44
269.609	85.44
269.841	84.44
270.073	68.44
270.306	80.44
270.538	82.44
270.77	73.44
271.002	76.44
271.234	90.44
271.466	85.44
271.698	72.44
271.93	78.44
272.162	93.44
272.394	92.44
272.626	86.44
272.858	86.44
273.09	86.44
273.322	94.44
273.553	81.44
273.785	86.44
274.017	83.44
274.249	91.44
274.481	79.44
274.713	87.44
274.945	80.44
275.176	89.44
275.408	102.44
275.64	78.44
275.872	73.44
276.104	87.44
276.335	87.44
276.567	84.44
276.799	78.44
277.031	97.44
277.262	86.44
277.494	79.44
277.726	78.44
277.957	84.44
278.189	87.44
278.421	84.44
278.652	83.44
278.884	82.44
279.115	71.44
279.347	84.44
279.579	86.44
279.81	81.44
280.042	65.44
280.273	82.44
280.505	81.44
280.736	88.44
280.968	86.44
281.199	97.44
281.431	83.44
281.662	87.44
281.894	73.44
282.125	92.44
282.356	102.44
282.588	111.44
282.819	94.44
283.051	87.44
283.282	77.44
283.513	86.44
283.745	76.44
283.976	79.44
284.207	85.44
284.439	73.44
284.67	91.44
284.901	89.44
285.132	73.44
285.364	93.44
285.595	82.44
285.826	84.44
286.057	89.44
286.288	86.44
286.52	87.44
286.751	83.44
286.982	90.44
287.213	93.44
287.444	83.44
287.675	88.44
287.906	82.44
288.138	82.44
288.369	82.44
288.6	101.44
288.831	84.44
289.062	86.44
289.293	91.44
289.524	83.44
289.755	91.44
289.986	85.44
290.217	87.44
290.448	80.44
290.679	91.44
290.91	77.44
291.141	88.44
291.371	107.44
291.602	80.44
291.833	75.44
292.064	85.44
292.295	83.44
292.526	90.44
292.757	90.44
292.987	92.44
293.218	82.44
293.449	87.44
293.68	89.44
293.91	84.44
294.141	84.44
294.372	91.44
294.603	97.44
294.833	103.44
295.064	98.44
295.295	89.44
295.525	92.44
295.756	95.44
295.987	91.44
296.217	114.44
296.448	105.44
296.679	103.44
296.909	67.44
297.14	87.44
297.37	86.44
297.601	79.44
297.831	84.44
298.062	88.44
298.292	78.44
298.523	84.44
298.753	73.44
298.984	87.44
299.214	92.44
299.445	89.44
299.675	91.44
299.905	83.44
300.136	91.44
300.366	77.44
300.597	81.44
300.827	78.44
301.057	90.44
301.288	92.44
301.518	106.44
301.748	97.44
301.979	97.44
302.209	85.44
302.439	71.44
302.669	88.44
302.9	83.44
303.13	93.44
303.36	88.44
303.59	86.44
303.82	96.44
304.051	84.44
304.281	74.44
304.511	99.44
304.741	76.44
304.971	87.44
305.201	82.44
305.431	87.44
305.661	91.44
305.891	81.44
306.121	83.44
306.352	88.44
306.582	78.44
306.812	87.44
307.042	99.44
307.272	89.44
307.502	85.44
307.731	89.44
307.961	86.44
308.191	93.44
308.421	81.44
308.651	94.44
308.881	84.44
309.111	87.44
309.341	100.44
309.571	97.44
309.8	90.44
310.03	95.44
310.26	101.44
310.49	81.44
310.72	79.44
310.949	90.44
311.179	83.44
311.409	92.44
311.639	70.44
311.868	100.44
312.098	100.44
312.328	89.44
312.557	98.44
312.787	78.44
313.017	98.44
313.246	89.44
313.476	80.44
313.706	89.44
313.935	100.44
314.165	92.44
314.394	93.44
314.624	95.44
314.853	85.44
315.083	91.44
315.312	98.44
315.542	86.44
315.771	82.44
316.001	94.44
316.23	102.44
316.46	77.44
316.689	85.44
316.919	95.44
317.148	83.44
317.377	89.44
317.607	95.44
317.836	89.44
318.065	95.44
318.295	86.44
318.524	94.44
318.753	82.44
318.983	91.44
319.212	93.44
319.441	109.44
319.67	97.44
319.9	96.44
320.129	81.44
320.358	100.44
320.587	99.44
320.816	108.44
321.046	101.44
321.275	98.44
321.504	81.44
321.733	69.44
321.962	92.44
322.191	105.44
322.42	105.44
322.649	103.44
322.878	90.44
323.108	108.44
323.337	110.44
323.566	125.44
323.795	134.44
324.024	169.44
324.253	324.44
324.482	670.44
324.71	1413.44
324.939	1735.44
325.168	667.44
325.397	203.44
325.626	140.44
325.855	115.44
326.084	116.44
326.313	135.44
326.542	158.44
326.77	221.44
326.999	395.44
327.228	821.44
327.457	1402.44
327.686	1083.44
327.914	301.44
328.143	164.44
328.372	127.44
328.6	100.44
328.829	105.44
329.058	118.44
329.287	113.44
329.515	102.44
329.744	93.44
329.972	108.44
330.201	103.44
330.43	104.44
330.658	118.44
330.887	124.44
331.115	107.44
331.344	102.44
331.572	96.44
331.801	104.44
332.03	88.44
332.258	99.44
332.486	88.44
332.715	96.44
332.943	92.44
333.172	96.44
333.4	93.44
333.629	110.44
333.857	114.44
334.085	100.44
334.314	114.44
334.542	96.44
334.771	96.44
334.999	102.44
335.227	86.44
335.455	90.44
335.684	93.44
335.912	97.44
336.14	95.44
336.369	91.44
336.597	89.44
336.825	94.44
337.053	87.44
337.281	86.44
337.51	95.44
337.738	86.44
337.966	81.44
338.194	96.44
338.422	95.44
338.65	93.44
338.878	93.44
339.106	84.44
339.334	80.44
339.562	82.44
339.79	80.44
340.018	79.44
340.246	87.44
340.474	84.44
340.702	84.44
340.93	93.44
341.158	100.44
341.386	86.44
341.614	85.44
341.842	87.44
342.07	78.44
342.298	76.44
342.526	90.44
342.754	85.44
342.981	92.44
343.209	85.44
343.437	111.44
343.665	71.44
343.893	82.44
344.12	68.44
344.348	79.44
344.576	93.44
344.804	100.44
345.031	85.44
345.259	87.44
345.487	67.44
345.714	90.44
345.942	95.44
346.17	99.44
346.397	95.44
346.625	87.44
346.853	89.44
347.08	89.44
347.308	92.44
347.535	80.44
347.763	94.44
347.99	85.44
348.218	98.44
348.445	95.44
348.673	84.44
348.9	90.44
349.128	93.44
349.355	99.44
349.583	92.44
349.81	95.44
350.037	91.44
350.265	84.44
350.492	88.44
350.72	105.44
350.947	95.44
351.174	95.44
351.402	105.44
351.629	105.44
351.856	99.44
352.083	103.44
352.311	109.44
352.538	110.44
352.765	96.44
352.992	108.44
353.22	95.44
353.447	102.44
353.674	108.44
353.901	92.44
354.128	89.44
354.355	93.44
354.583	94.44
354.81	97.44
355.037	98.44
355.264	84.44
355.491	93.44
355.718	79.44
355.945	98.44
356.172	98.44
356.399	98.44
356.626	96.44
356.853	104.44
357.08	93.44
357.307	93.44
357.534	78.44
357.761	93.44
357.988	86.44
358.215	105.44
358.441	95.44
358.668	109.44
358.895	89.44
359.122	86.44
359.349	100.44
359.576	80.44
359.802	97.44
360.029	96.44
360.256	92.44
360.483	96.44
360.709	85.44
360.936	87.44
361.163	97.44
361.39	70.44
361.616	86.44
361.843	90.44
362.07	87.44
362.296	106.44
362.523	91.44
362.749	87.44
362.976	90.44
363.203	76.44
363.429	96.44
363.656	85.44
363.882	87.44
364.109	90.44
364.335	102.44
364.562	90.44
364.788	103.44
365.015	93.44
365.241	99.44
365.468	118.44
365.694	95.44
365.92	101.44
366.147	91.44
366.373	71.44
366.599	87.44
366.826	91.44
367.052	89.44
367.278	78.44
367.505	88.44
367.731	86.44
367.957	89.44
368.184	91.44
368.41	82.44
368.636	97.44
368.862	91.44
369.089	83.44
369.315	88.44
369.541	87.44
369.767	89.44
369.993	89.44
370.219	79.44
370.445	78.44
370.672	82.44
370.898	85.44
371.124	91.44
371.35	98.44
371.576	85.44
371.802	94.44
372.028	87.44
372.254	96.44
372.48	79.44
372.706	73.44
372.932	72.44
373.158	91.44
373.384	92.44
373.61	75.44
373.835	90.44
374.061	90.44
374.287	82.44
374.513	84.44
374.739	90.44
374.965	91.44
375.191	89.44
375.416	96.44
375.642	79.44
375.868	97.44
376.094	85.44
376.319	85.44
376.545	74.44
376.771	100.44
376.997	92.44
377.222	85.44
377.448	93.44
377.674	91.44
377.899	92.44
378.125	105.44
378.35	87.44
378.576	98.44
378.802	98.44
379.027	95.44
379.253	100.44
379.478	95.44
379.704	85.44
379.929	91.44
380.155	97.44
380.38	88.44
380.606	102.44
380.831	84.44
381.057	87.44
381.282	92.44
381.507	80.44
381.733	96.44
381.958	96.44
382.184	99.44
382.409	93.44
382.634	102.44
382.86	89.44
383.085	103.44
383.31	98.44
383.535	89.44
383.761	97.44
383.986	102.44
384.211	106.44
384.436	98.44
384.662	99.44
384.887	107.44
385.112	107.44
385.337	127.44
385.562	125.44
385.787	110.44
386.013	114.44
386.238	121.44
386.463	112.44
386.688	109.44
386.913	103.44
387.138	110.44
387.363	114.44
387.588	99.44
387.813	115.44
388.038	113.44
388.263	126.44
388.488	118.44
388.713	83.44
388.938	87.44
389.163	91.44
389.387	96.44
389.612	96.44
389.837	100.44
390.062	90.44
390.287	95.44
390.512	92.44
390.736	101.44
390.961	100.44
391.186	90.44
391.411	90.44
391.636	91.44
391.86	96.44
392.085	76.44
392.31	83.44
392.534	90.44
392.759	83.44
392.984	77.44
393.208	94.44
393.433	101.44
393.658	92.44
393.882	95.44
394.107	82.44
394.331	65.44
394.556	92.44
394.78	74.44
395.005	91.44
395.229	90.44
395.454	91.44
395.678	97.44
395.903	92.44
396.127	96.44
396.352	82.44
396.576	75.44
396.801	86.44
397.025	81.44
397.249	89.44
397.474	87.44
397.698	91.44
397.922	90.44
398.147	83.44
398.371	87.44
398.595	88.44
398.82	75.44
399.044	78.44
399.268	86.44
399.492	102.44
399.717	76.44
399.941	83.44
400.165	90.44
400.389	71.44
400.613	84.44
400.837	79.44
401.062	89.44
401.286	92.44
401.51	80.44
401.734	91.44
401.958	90.44
402.182	101.44
402.406	130.44
402.63	102.44
402.854	95.44
403.078	83.44
403.302	82.44
403.526	93.44
403.75	99.44
403.974	95.44
404.198	102.44
404.422	85.44
404.645	83.44
404.869	82.44
405.093	86.44
405.317	99.44
405.541	106.44
405.765	87.44
405.988	90.44
406.212	145.44
406.436	191.44
406.66	117.44
406.883	100.44
407.107	82.44
407.331	103.44
407.555	87.44
407.778	101.44
408.002	74.44
408.226	98.44
408.449	85.44
408.673	93.44
408.896	82.44
409.12	99.44
409.344	79.44
409.567	76.44
409.791	89.44
410.014	71.44
410.238	77.44
410.461	89.44
410.685	86.44
410.908	93.44
411.132	108.44
411.355	102.44
411.578	85.44
411.802	85.44
412.025	84.44
412.249	90.44
412.472	81.44
412.695	93.44
412.919	84.44
413.142	86.44
413.365	93.44
413.589	76.44
413.812	86.44
414.035	86.44
414.258	80.44
414.482	66.44
414.705	75.44
414.928	82.44
415.151	93.44
415.374	87.44
415.597	72.44
415.821	79.44
416.044	77.44
416.267	78.44
416.49	75.44
416.713	94.44
416.936	84.44
417.159	96.44
417.382	79.44
417.605	88.44
417.828	88.44
418.051	94.44
418.274	102.44
418.497	84.44
418.72	98.44
418.943	77.44
419.166	92.44
419.389	98.44
419.611	85.44
419.834	89.44
420.057	96.44
420.28	71.44
420.503	79.44
420.726	82.44
420.948	80.44
421.171	84.44
421.394	93.44
421.617	91.44
421.839	89.44
422.062	95.44
422.285	81.44
422.507	83.44
422.73	102.44
422.953	80.44
423.175	101.44
423.398	77.44
423.621	83.44
423.843	90.44
424.066	97.44
424.288	96.44
424.511	88.44
424.733	106.44
424.956	98.44
425.178	87.44
425.401	102.44
425.623	89.44
425.846	85.44
426.068	90.44
426.291	77.44
426.513	78.44
426.735	87.44
426.958	83.44
427.18	90.44
427.402	95.44
427.625	124.44
427.847	105.44
428.069	103.44
428.292	99.44
428.514	101.44
428.736	83.44
428.958	88.44
429.181	73.44
429.403	69.44
429.625	75.44
429.847	90.44
430.069	91.44
430.292	92.44
430.514	96.44
430.736	95.44
430.958	79.44
431.18	90.44
431.402	89.44
431.624	83.44
431.846	86.44
432.068	86.44
432.29	88.44
432.512	91.44
432.734	74.44
432.956	91.44
433.178	73.44
433.4	86.44
433.622	81.44
433.844	85.44
434.066	80.44
434.287	95.44
434.509	79.44
434.731	99.44
434.953	77.44
435.175	96.44
435.397	92.44
435.618	83.44
435.84	95.44
436.062	104.44
436.284	105.44
436.505	89.44
436.727	82.44
436.949	81.44
437.17	81.44
437.392	82.44
437.614	96.44
437.835	92.44
438.057	97.44
438.278	101.44
438.5	87.44
438.721	98.44
438.943	87.44
439.165	73.44
439.386	83.44
439.608	92.44
439.829	112.44
440.05	102.44
440.272	113.44
440.493	93.44
440.715	75.44
440.936	97.44
441.158	84.44
441.379	83.44
441.6	87.44
441.822	85.44
442.043	85.44
442.264	97.44
442.486	89.44
442.707	75.44
442.928	102.44
443.149	109.44
443.371	113.44
443.592	99.44
443.813	98.44
444.034	100.44
444.255	60.44
444.476	77.44
444.698	87.44
444.919	83.44
445.14	110.44
445.361	105.44
445.582	97.44
445.803	139.44
446.024	123.44
446.245	109.44
446.466	93.44
446.687	77.44
446.908	86.44
447.129	81.44
447.35	93.44
447.571	84.44
447.792	89.44
448.013	115.44
448.234	91.44
448.455	85.44
448.675	100.44
448.896	106.44
449.117	88.44
449.338	94.44
449.559	97.44
449.779	104.44
450	73.44
450.221	93.44
450.442	91.44
450.662	86.44
450.883	96.44
451.104	106.44
451.324	78.44
451.545	103.44
451.766	107.44
451.986	82.44
452.207	84.44
452.428	83.44
452.648	78.44
452.869	103.44
453.089	102.44
453.31	95.44
453.53	89.44
453.751	87.44
453.971	99.44
454.192	96.44
454.412	92.44
454.633	91.44
454.853	98.44
455.073	82.44
455.294	97.44
455.514	89.44
455.734	75.44
455.955	84.44
456.175	92.44
456.395	85.44
456.616	85.44
456.836	80.44
457.056	82.44
457.276	95.44
457.497	81.44
457.717	74.44
457.937	82.44
458.157	78.44
458.377	86.44
458.598	99.44
458.818	137.44
459.038	130.44
459.258	87.44
459.478	91.44
459.698	96.44
459.918	77.44
460.138	88.44
460.358	79.44
460.578	92.44
460.798	83.44
461.018	87.44
461.238	79.44
461.458	94.44
461.678	87.44
461.898	82.44
462.118	100.44
462.338	99.44
462.558	74.44
462.777	96.44
462.997	84.44
463.217	76.44
463.437	90.44
463.657	77.44
463.876	68.44
464.096	86.44
464.316	92.44
464.536	89.44
464.755	102.44
464.975	99.44
465.195	129.44
465.414	129.44
465.634	88.44
465.854	80.44
466.073	90.44
466.293	84.44
466.512	71.44
466.732	90.44
466.951	98.44
467.171	89.44
467.391	95.44
467.61	94.44
467.829	86.44
468.049	86.44
468.268	84.44
468.488	70.44
468.707	90.44
468.927	89.44
469.146	68.44
469.365	80.44
469.585	78.44
469.804	87.44
470.023	84.44
470.243	86.44
470.462	85.44
470.681	94.44
470.901	87.44
471.12	80.44
471.339	98.44
471.558	80.44
471.777	88.44
471.997	77.44
472.216	98.44
472.435	105.44
472.654	98.44
472.873	95.44
473.092	86.44
473.311	93.44
473.53	75.44
473.749	98.44
473.968	93.44
474.187	102.44
474.406	85.44
474.625	73.44
474.844	81.44
475.063	75.44
475.282	88.44
475.501	83.44
475.72	82.44
475.939	74.44
476.158	88.44
476.377	78.44
476.596	74.44
476.814	94.44
477.033	86.44
477.252	80.44
477.471	81.44
477.69	92.44
477.908	88.44
478.127	84.44
478.346	85.44
478.564	86.44
478.783	104.44
479.002	95.44
479.22	86.44
479.439	92.44
479.658	97.44
479.876	98.44
480.095	91.44
480.313	82.44
480.532	77.44
480.751	77.44
480.969	90.44
481.188	116.44
481.406	109.44
481.624	82.44
481.843	82.44
482.061	90.44
482.28	83.44
482.498	81.44
482.717	101.44
482.935	89.44
483.153	73.44
483.372	89.44
483.59	93.44
483.808	95.44
484.027	84.44
484.245	93.44
484.463	83.44
484.681	83.44
484.9	87.44
485.118	93.44
485.336	87.44
485.554	93.44
485.772	78.44
485.99	103.44
486.209	93.44
486.427	98.44
486.645	105.44
486.863	106.44
487.081	97.44
487.299	99.44
487.517	103.44
487.735	75.44
487.953	85.44
488.171	79.44
488.389	73.44
488.607	81.44
488.825	87.44
489.043	84.44
489.261	92.44
489.479	101.44
489.696	81.44
489.914	72.44
490.132	92.44
490.35	93.44
490.568	96.44
490.786	76.44
491.003	66.44
491.221	73.44
491.439	89.44
491.657	74.44
491.874	90.44
492.092	81.44
492.31	67.44
492.527	73.44
492.745	93.44
492.963	86.44
493.18	73.44
493.398	86.44
493.615	80.44
493.833	85.44
494.05	90.44
494.268	101.44
494.485	89.44
494.703	84.44
494.92	81.44
495.138	79.44
495.355	97.44
495.573	100.44
495.79	87.44
496.008	94.44
496.225	89.44
496.442	82.44
496.66	93.44
496.877	83.44
497.094	89.44
497.312	96.44
497.529	100.44
497.746	86.44
497.963	84.44
498.181	76.44
498.398	89.44
498.615	113.44
498.832	97.44
499.049	83.44
499.267	83.44
499.484	73.44
499.701	84.44
499.918	110.44
500.135	85.44
500.352	108.44
500.569	75.44
500.786	94.44
501.003	71.44
501.22	93.44
501.437	97.44
501.654	72.44
501.871	101.44
502.088	96.44
502.305	85.44
502.522	89.44
502.739	81.44
502.956	82.44
503.172	70.44
503.389	79.44
503.606	94.44
503.823	99.44
504.04	87.44
504.256	90.44
504.473	83.44
504.69	91.44
504.907	86.44
505.123	78.44
505.34	81.44
505.557	87.44
505.773	90.44
505.99	89.44
506.207	79.44
506.423	91.44
506.64	101.44
506.856	87.44
507.073	83.44
507.289	92.44
507.506	82.44
507.722	111.44
507.939	106.44
508.155	79.44
508.372	91.44
508.588	89.44
508.805	101.44
509.021	78.44
509.238	86.44
509.454	104.44
509.67	96.44
509.887	109.44
510.103	117.44
510.319	198.44
510.536	662.44
510.752	1950.44
510.968	550.44
511.184	143.44
511.401	106.44
511.617	91.44
511.833	94.44
512.049	93.44
512.265	76.44
512.481	98.44
512.698	95.44
512.914	100.44
513.13	80.44
513.346	93.44
513.562	87.44
513.778	95.44
513.994	97.44
514.21	92.44
514.426	104.44
514.642	117.44
514.858	91.44
515.074	137.44
515.29	399.44
515.506	1176.44
515.721	435.44
515.937	141.44
516.153	109.44
516.369	96.44
516.585	93.44
516.801	85.44
517.016	103.44
