Data from Uncirc_2004_H10_HRD10591_00053.txt Node
Date: Wed Jan 03 10:32:23 EST 2024
User: Yrep
Spectrometer: HR+D1059
Trigger mode: 1
Integration Time (sec): 1.000000E-1
Scans to average: 1
Electric dark correction enabled: true
Nonlinearity correction enabled: false
Boxcar width: 0
XAxis mode: Wavelengths
Number of Pixels in Spectrum: 2048
>>>>>Begin Spectral Data<<<<<
223.165	-20.19
223.4	-20.19
223.635	-20.19
223.869	-15.19
224.104	-20.19
224.338	-6.19
224.573	-29.19
224.808	-9.19
225.042	-9.19
225.277	-18.19
225.511	9.81
225.746	-0.19
225.98	11.81
226.215	14.81
226.449	15.81
226.683	23.81
226.918	27.81
227.152	23.81
227.387	27.81
227.621	33.81
227.856	28.81
228.09	55.81
228.324	53.81
228.559	72.81
228.793	70.81
229.027	71.81
229.262	58.81
229.496	64.81
229.73	86.81
229.964	82.81
230.199	70.81
230.433	71.81
230.667	72.81
230.901	73.81
231.136	61.81
231.37	88.81
231.604	88.81
231.838	78.81
232.072	83.81
232.306	66.81
232.541	89.81
232.775	89.81
233.009	85.81
233.243	85.81
233.477	84.81
233.711	68.81
233.945	75.81
234.179	85.81
234.413	87.81
234.647	82.81
234.881	83.81
235.115	85.81
235.349	67.81
235.583	74.81
235.817	77.81
236.051	71.81
236.285	81.81
236.519	62.81
236.753	73.81
236.987	81.81
237.221	95.81
237.455	89.81
237.689	87.81
237.922	80.81
238.156	87.81
238.39	83.81
238.624	75.81
238.858	92.81
239.091	97.81
239.325	82.81
239.559	75.81
239.793	80.81
240.027	77.81
240.26	67.81
240.494	74.81
240.728	84.81
240.961	75.81
241.195	80.81
241.429	89.81
241.662	85.81
241.896	73.81
242.13	81.81
242.363	88.81
242.597	94.81
242.83	79.81
243.064	79.81
243.298	80.81
243.531	85.81
243.765	68.81
243.998	75.81
244.232	87.81
244.465	73.81
244.699	76.81
244.932	76.81
245.166	88.81
245.399	89.81
245.633	82.81
245.866	86.81
246.099	69.81
246.333	80.81
246.566	88.81
246.8	87.81
247.033	71.81
247.266	78.81
247.5	63.81
247.733	95.81
247.966	89.81
248.2	87.81
248.433	81.81
248.666	81.81
248.899	84.81
249.133	82.81
249.366	96.81
249.599	88.81
249.832	80.81
250.066	72.81
250.299	70.81
250.532	95.81
250.765	79.81
250.998	77.81
251.231	83.81
251.465	82.81
251.698	75.81
251.931	85.81
252.164	84.81
252.397	77.81
252.63	85.81
252.863	78.81
253.096	74.81
253.329	88.81
253.562	79.81
253.795	73.81
254.028	87.81
254.261	84.81
254.494	87.81
254.727	74.81
254.96	76.81
255.193	85.81
255.426	80.81
255.659	75.81
255.892	78.81
256.124	82.81
256.357	69.81
256.59	84.81
256.823	85.81
257.056	77.81
257.289	71.81
257.521	74.81
257.754	87.81
257.987	70.81
258.22	79.81
258.452	74.81
258.685	79.81
258.918	96.81
259.151	86.81
259.383	71.81
259.616	88.81
259.849	86.81
260.081	63.81
260.314	92.81
260.547	79.81
260.779	82.81
261.012	92.81
261.244	79.81
261.477	99.81
261.71	82.81
261.942	100.81
262.175	92.81
262.407	89.81
262.64	98.81
262.872	80.81
263.105	74.81
263.337	94.81
263.57	83.81
263.802	82.81
264.035	87.81
264.267	92.81
264.499	79.81
264.732	87.81
264.964	88.81
265.197	70.81
265.429	86.81
265.661	75.81
265.894	83.81
266.126	77.81
266.358	97.81
266.591	86.81
266.823	86.81
267.055	81.81
267.287	100.81
267.52	93.81
267.752	78.81
267.984	73.81
268.216	80.81
268.448	81.81
268.681	86.81
268.913	90.81
269.145	75.81
269.377	83.81
269.609	78.81
269.841	82.81
270.073	88.81
270.306	87.81
270.538	92.81
270.77	85.81
271.002	83.81
271.234	88.81
271.466	90.81
271.698	82.81
271.93	75.81
272.162	65.81
272.394	92.81
272.626	81.81
272.858	99.81
273.09	76.81
273.322	91.81
273.553	85.81
273.785	66.81
274.017	82.81
274.249	94.81
274.481	87.81
274.713	71.81
274.945	99.81
275.176	85.81
275.408	81.81
275.64	79.81
275.872	73.81
276.104	104.81
276.335	96.81
276.567	88.81
276.799	103.81
277.031	91.81
277.262	89.81
277.494	92.81
277.726	89.81
277.957	94.81
278.189	81.81
278.421	88.81
278.652	82.81
278.884	86.81
279.115	84.81
279.347	84.81
279.579	89.81
279.81	88.81
280.042	89.81
280.273	82.81
280.505	81.81
280.736	90.81
280.968	82.81
281.199	89.81
281.431	83.81
281.662	88.81
281.894	87.81
282.125	80.81
282.356	113.81
282.588	129.81
282.819	123.81
283.051	83.81
283.282	77.81
283.513	83.81
283.745	85.81
283.976	82.81
284.207	101.81
284.439	93.81
284.67	89.81
284.901	90.81
285.132	88.81
285.364	88.81
285.595	84.81
285.826	89.81
286.057	77.81
286.288	89.81
286.52	96.81
286.751	87.81
286.982	97.81
287.213	83.81
287.444	90.81
287.675	85.81
287.906	87.81
288.138	82.81
288.369	96.81
288.6	97.81
288.831	94.81
289.062	81.81
289.293	82.81
289.524	99.81
289.755	95.81
289.986	100.81
290.217	91.81
290.448	99.81
290.679	93.81
290.91	78.81
291.141	90.81
291.371	89.81
291.602	96.81
291.833	82.81
292.064	75.81
292.295	79.81
292.526	105.81
292.757	93.81
292.987	97.81
293.218	79.81
293.449	90.81
293.68	83.81
293.91	86.81
294.141	74.81
294.372	96.81
294.603	86.81
294.833	94.81
295.064	90.81
295.295	85.81
295.525	85.81
295.756	104.81
295.987	109.81
296.217	118.81
296.448	124.81
296.679	83.81
296.909	97.81
297.14	99.81
297.37	85.81
297.601	89.81
297.831	85.81
298.062	94.81
298.292	100.81
298.523	103.81
298.753	100.81
298.984	100.81
299.214	97.81
299.445	87.81
299.675	97.81
299.905	86.81
300.136	113.81
300.366	93.81
300.597	83.81
300.827	94.81
301.057	99.81
301.288	106.81
301.518	103.81
301.748	86.81
301.979	79.81
302.209	89.81
302.439	91.81
302.669	95.81
302.9	73.81
303.13	90.81
303.36	101.81
303.59	86.81
303.82	95.81
304.051	88.81
304.281	90.81
304.511	83.81
304.741	86.81
304.971	96.81
305.201	93.81
305.431	87.81
305.661	82.81
305.891	92.81
306.121	88.81
306.352	103.81
306.582	101.81
306.812	89.81
307.042	82.81
307.272	85.81
307.502	109.81
307.731	98.81
307.961	95.81
308.191	96.81
308.421	101.81
308.651	98.81
308.881	100.81
309.111	94.81
309.341	111.81
309.571	90.81
309.8	100.81
310.03	103.81
310.26	103.81
310.49	104.81
310.72	89.81
310.949	94.81
311.179	106.81
311.409	107.81
311.639	93.81
311.868	90.81
312.098	96.81
312.328	91.81
312.557	99.81
312.787	113.81
313.017	91.81
313.246	87.81
313.476	92.81
313.706	104.81
313.935	89.81
314.165	97.81
314.394	87.81
314.624	107.81
314.853	94.81
315.083	106.81
315.312	85.81
315.542	93.81
315.771	102.81
316.001	83.81
316.23	100.81
316.46	76.81
316.689	96.81
316.919	97.81
317.148	106.81
317.377	91.81
317.607	88.81
317.836	90.81
318.065	79.81
318.295	99.81
318.524	96.81
318.753	97.81
318.983	87.81
319.212	108.81
319.441	98.81
319.67	113.81
319.9	102.81
320.129	95.81
320.358	94.81
320.587	104.81
320.816	90.81
321.046	94.81
321.275	94.81
321.504	87.81
321.733	98.81
321.962	97.81
322.191	101.81
322.42	100.81
322.649	98.81
322.878	118.81
323.108	111.81
323.337	130.81
323.566	133.81
323.795	151.81
324.024	199.81
324.253	386.81
324.482	827.81
324.71	1680.81
324.939	2242.81
325.168	796.81
325.397	242.81
325.626	162.81
325.855	128.81
326.084	125.81
326.313	133.81
326.542	144.81
326.77	214.81
326.999	456.81
327.228	969.81
327.457	1682.81
327.686	1328.81
327.914	359.81
328.143	199.81
328.372	154.81
328.6	133.81
328.829	115.81
329.058	132.81
329.287	113.81
329.515	112.81
329.744	105.81
329.972	100.81
330.201	83.81
330.43	120.81
330.658	121.81
330.887	144.81
331.115	125.81
331.344	95.81
331.572	112.81
331.801	107.81
332.03	93.81
332.258	95.81
332.486	87.81
332.715	98.81
332.943	94.81
333.172	95.81
333.4	99.81
333.629	115.81
333.857	113.81
334.085	93.81
334.314	112.81
334.542	116.81
334.771	109.81
334.999	108.81
335.227	101.81
335.455	94.81
335.684	98.81
335.912	105.81
336.14	95.81
336.369	101.81
336.597	104.81
336.825	96.81
337.053	89.81
337.281	98.81
337.51	95.81
337.738	82.81
337.966	96.81
338.194	89.81
338.422	88.81
338.65	87.81
338.878	96.81
339.106	94.81
339.334	94.81
339.562	99.81
339.79	71.81
340.018	83.81
340.246	99.81
340.474	80.81
340.702	92.81
340.93	94.81
341.158	83.81
341.386	86.81
341.614	90.81
341.842	81.81
342.07	89.81
342.298	101.81
342.526	89.81
342.754	99.81
342.981	87.81
343.209	76.81
343.437	110.81
343.665	95.81
343.893	87.81
344.12	106.81
344.348	110.81
344.576	84.81
344.804	87.81
345.031	94.81
345.259	91.81
345.487	102.81
345.714	101.81
345.942	101.81
346.17	85.81
346.397	92.81
346.625	95.81
346.853	82.81
347.08	92.81
347.308	97.81
347.535	97.81
347.763	87.81
347.99	100.81
348.218	98.81
348.445	98.81
348.673	106.81
348.9	97.81
349.128	103.81
349.355	94.81
349.583	72.81
349.81	102.81
350.037	93.81
350.265	90.81
350.492	102.81
350.72	93.81
350.947	106.81
351.174	97.81
351.402	100.81
351.629	106.81
351.856	109.81
352.083	96.81
352.311	118.81
352.538	104.81
352.765	116.81
352.992	121.81
353.22	120.81
353.447	104.81
353.674	91.81
353.901	95.81
354.128	93.81
354.355	105.81
354.583	103.81
354.81	111.81
355.037	97.81
355.264	74.81
355.491	91.81
355.718	94.81
355.945	86.81
356.172	99.81
356.399	102.81
356.626	96.81
356.853	89.81
357.08	83.81
357.307	94.81
357.534	99.81
357.761	89.81
357.988	102.81
358.215	98.81
358.441	91.81
358.668	90.81
358.895	95.81
359.122	96.81
359.349	78.81
359.576	89.81
359.802	80.81
360.029	109.81
360.256	102.81
360.483	98.81
360.709	80.81
360.936	96.81
361.163	101.81
361.39	85.81
361.616	83.81
361.843	91.81
362.07	86.81
362.296	92.81
362.523	89.81
362.749	89.81
362.976	95.81
363.203	99.81
363.429	84.81
363.656	88.81
363.882	99.81
364.109	89.81
364.335	89.81
364.562	90.81
364.788	89.81
365.015	93.81
365.241	107.81
365.468	100.81
365.694	85.81
365.92	95.81
366.147	86.81
366.373	98.81
366.599	90.81
366.826	99.81
367.052	97.81
367.278	86.81
367.505	101.81
367.731	89.81
367.957	105.81
368.184	88.81
368.41	89.81
368.636	111.81
368.862	107.81
369.089	100.81
369.315	99.81
369.541	79.81
369.767	94.81
369.993	97.81
370.219	89.81
370.445	89.81
370.672	92.81
370.898	91.81
371.124	83.81
371.35	94.81
371.576	94.81
371.802	93.81
372.028	102.81
372.254	97.81
372.48	87.81
372.706	105.81
372.932	87.81
373.158	72.81
373.384	88.81
373.61	78.81
373.835	88.81
374.061	78.81
374.287	106.81
374.513	89.81
374.739	81.81
374.965	88.81
375.191	80.81
375.416	94.81
375.642	96.81
375.868	88.81
376.094	86.81
376.319	72.81
376.545	102.81
376.771	82.81
376.997	87.81
377.222	79.81
377.448	88.81
377.674	83.81
377.899	88.81
378.125	82.81
378.35	89.81
378.576	88.81
378.802	96.81
379.027	88.81
379.253	86.81
379.478	96.81
379.704	104.81
379.929	101.81
380.155	94.81
380.38	111.81
380.606	94.81
380.831	92.81
381.057	101.81
381.282	101.81
381.507	99.81
381.733	111.81
381.958	99.81
382.184	91.81
382.409	91.81
382.634	91.81
382.86	90.81
383.085	108.81
383.31	106.81
383.535	95.81
383.761	98.81
383.986	90.81
384.211	89.81
384.436	97.81
384.662	102.81
384.887	91.81
385.112	109.81
385.337	105.81
385.562	110.81
385.787	119.81
386.013	112.81
386.238	124.81
386.463	102.81
386.688	97.81
386.913	88.81
387.138	105.81
387.363	103.81
387.588	108.81
387.813	101.81
388.038	119.81
388.263	111.81
388.488	116.81
388.713	106.81
388.938	101.81
389.163	87.81
389.387	104.81
389.612	94.81
389.837	83.81
390.062	104.81
390.287	103.81
390.512	93.81
390.736	89.81
390.961	98.81
391.186	107.81
391.411	94.81
391.636	91.81
391.86	78.81
392.085	83.81
392.31	83.81
392.534	78.81
392.759	88.81
392.984	90.81
393.208	93.81
393.433	88.81
393.658	81.81
393.882	94.81
394.107	81.81
394.331	88.81
394.556	95.81
394.78	97.81
395.005	85.81
395.229	90.81
395.454	90.81
395.678	93.81
395.903	91.81
396.127	93.81
396.352	87.81
396.576	65.81
396.801	81.81
397.025	83.81
397.249	82.81
397.474	82.81
397.698	89.81
397.922	83.81
398.147	99.81
398.371	90.81
398.595	87.81
398.82	88.81
399.044	93.81
399.268	97.81
399.492	93.81
399.717	83.81
399.941	86.81
400.165	105.81
400.389	86.81
400.613	85.81
400.837	81.81
401.062	95.81
401.286	91.81
401.51	93.81
401.734	82.81
401.958	96.81
402.182	126.81
402.406	138.81
402.63	107.81
402.854	91.81
403.078	76.81
403.302	79.81
403.526	68.81
403.75	87.81
403.974	96.81
404.198	81.81
404.422	90.81
404.645	102.81
404.869	97.81
405.093	87.81
405.317	94.81
405.541	101.81
405.765	94.81
405.988	119.81
406.212	174.81
406.436	209.81
406.66	130.81
406.883	106.81
407.107	108.81
407.331	86.81
407.555	91.81
407.778	102.81
408.002	98.81
408.226	98.81
408.449	100.81
408.673	95.81
408.896	87.81
409.12	93.81
409.344	101.81
409.567	96.81
409.791	85.81
410.014	85.81
410.238	112.81
410.461	79.81
410.685	93.81
410.908	99.81
411.132	110.81
411.355	93.81
411.578	99.81
411.802	91.81
412.025	94.81
412.249	88.81
412.472	91.81
412.695	103.81
412.919	99.81
413.142	88.81
413.365	89.81
413.589	90.81
413.812	86.81
414.035	105.81
414.258	89.81
414.482	82.81
414.705	102.81
414.928	88.81
415.151	97.81
415.374	91.81
415.597	96.81
415.821	81.81
416.044	79.81
416.267	96.81
416.49	90.81
416.713	93.81
416.936	80.81
417.159	91.81
417.382	103.81
417.605	94.81
417.828	82.81
418.051	99.81
418.274	98.81
418.497	86.81
418.72	94.81
418.943	94.81
419.166	86.81
419.389	95.81
419.611	89.81
419.834	82.81
420.057	88.81
420.28	87.81
420.503	85.81
420.726	71.81
420.948	86.81
421.171	88.81
421.394	92.81
421.617	82.81
421.839	104.81
422.062	80.81
422.285	85.81
422.507	91.81
422.73	97.81
422.953	103.81
423.175	83.81
423.398	96.81
423.621	90.81
423.843	93.81
424.066	71.81
424.288	92.81
424.511	94.81
424.733	95.81
424.956	112.81
425.178	89.81
425.401	96.81
425.623	88.81
425.846	85.81
426.068	81.81
426.291	92.81
426.513	79.81
426.735	85.81
426.958	96.81
427.18	102.81
427.402	128.81
427.625	160.81
427.847	118.81
428.069	99.81
428.292	85.81
428.514	79.81
428.736	80.81
428.958	91.81
429.181	73.81
429.403	69.81
429.625	100.81
429.847	94.81
430.069	90.81
430.292	107.81
430.514	84.81
430.736	63.81
430.958	77.81
431.18	87.81
431.402	87.81
431.624	88.81
431.846	91.81
432.068	85.81
432.29	87.81
432.512	98.81
432.734	93.81
432.956	98.81
433.178	89.81
433.4	94.81
433.622	88.81
433.844	74.81
434.066	85.81
434.287	91.81
434.509	95.81
434.731	99.81
434.953	82.81
435.175	97.81
435.397	88.81
435.618	90.81
435.84	96.81
436.062	103.81
436.284	99.81
436.505	96.81
436.727	96.81
436.949	97.81
437.17	86.81
437.392	81.81
437.614	86.81
437.835	109.81
438.057	118.81
438.278	118.81
438.5	101.81
438.721	107.81
438.943	104.81
439.165	106.81
439.386	80.81
439.608	103.81
439.829	89.81
440.05	121.81
440.272	146.81
440.493	99.81
440.715	91.81
440.936	92.81
441.158	75.81
441.379	92.81
441.6	96.81
441.822	90.81
442.043	95.81
442.264	106.81
442.486	100.81
442.707	94.81
442.928	101.81
443.149	113.81
443.371	116.81
443.592	105.81
443.813	103.81
444.034	100.81
444.255	81.81
444.476	74.81
444.698	88.81
444.919	102.81
445.14	123.81
445.361	96.81
445.582	104.81
445.803	135.81
446.024	142.81
446.245	141.81
446.466	108.81
446.687	84.81
446.908	85.81
447.129	98.81
447.35	85.81
447.571	88.81
447.792	94.81
448.013	115.81
448.234	113.81
448.455	95.81
448.675	103.81
448.896	107.81
449.117	86.81
449.338	95.81
449.559	124.81
449.779	124.81
450	94.81
450.221	94.81
450.442	91.81
450.662	95.81
450.883	100.81
451.104	117.81
451.324	99.81
451.545	75.81
451.766	98.81
451.986	93.81
452.207	83.81
452.428	102.81
452.648	97.81
452.869	106.81
453.089	111.81
453.31	97.81
453.53	97.81
453.751	101.81
453.971	102.81
454.192	117.81
454.412	87.81
454.633	91.81
454.853	93.81
455.073	89.81
455.294	83.81
455.514	90.81
455.734	90.81
455.955	80.81
456.175	80.81
456.395	88.81
456.616	96.81
456.836	81.81
457.056	81.81
457.276	78.81
457.497	101.81
457.717	79.81
457.937	87.81
458.157	93.81
458.377	89.81
458.598	107.81
458.818	139.81
459.038	145.81
459.258	102.81
459.478	109.81
459.698	93.81
459.918	89.81
460.138	83.81
460.358	79.81
460.578	90.81
460.798	95.81
461.018	101.81
461.238	90.81
461.458	89.81
461.678	80.81
461.898	97.81
462.118	91.81
462.338	82.81
462.558	78.81
462.777	87.81
462.997	101.81
463.217	89.81
463.437	91.81
463.657	78.81
463.876	74.81
464.096	88.81
464.316	91.81
464.536	89.81
464.755	90.81
464.975	94.81
465.195	145.81
465.414	151.81
465.634	91.81
465.854	78.81
466.073	100.81
466.293	89.81
466.512	87.81
466.732	86.81
466.951	100.81
467.171	98.81
467.391	88.81
467.61	104.81
467.829	95.81
468.049	91.81
468.268	95.81
468.488	97.81
468.707	83.81
468.927	97.81
469.146	77.81
469.365	82.81
469.585	105.81
469.804	98.81
470.023	78.81
470.243	93.81
470.462	102.81
470.681	102.81
470.901	85.81
471.12	80.81
471.339	100.81
471.558	89.81
471.777	90.81
471.997	82.81
472.216	88.81
472.435	104.81
472.654	87.81
472.873	87.81
473.092	87.81
473.311	89.81
473.53	91.81
473.749	88.81
473.968	101.81
474.187	99.81
474.406	87.81
474.625	89.81
474.844	101.81
475.063	87.81
475.282	78.81
475.501	73.81
475.72	87.81
475.939	89.81
476.158	99.81
476.377	82.81
476.596	89.81
476.814	97.81
477.033	91.81
477.252	84.81
477.471	90.81
477.69	104.81
477.908	88.81
478.127	95.81
478.346	89.81
478.564	98.81
478.783	94.81
479.002	99.81
479.22	91.81
479.439	98.81
479.658	110.81
479.876	95.81
480.095	83.81
480.313	89.81
480.532	87.81
480.751	90.81
480.969	93.81
481.188	127.81
481.406	120.81
481.624	97.81
481.843	84.81
482.061	82.81
482.28	91.81
482.498	98.81
482.717	94.81
482.935	89.81
483.153	99.81
483.372	81.81
483.59	93.81
483.808	112.81
484.027	91.81
484.245	90.81
484.463	97.81
484.681	88.81
484.9	93.81
485.118	99.81
485.336	102.81
485.554	89.81
485.772	93.81
485.99	107.81
486.209	112.81
486.427	109.81
486.645	110.81
486.863	99.81
487.081	106.81
487.299	85.81
487.517	99.81
487.735	88.81
487.953	88.81
488.171	90.81
488.389	94.81
488.607	92.81
488.825	97.81
489.043	94.81
489.261	98.81
489.479	102.81
489.696	94.81
489.914	79.81
490.132	83.81
490.35	82.81
490.568	83.81
490.786	89.81
491.003	96.81
491.221	77.81
491.439	91.81
491.657	88.81
491.874	90.81
492.092	89.81
492.31	99.81
492.527	105.81
492.745	107.81
492.963	89.81
493.18	89.81
493.398	87.81
493.615	94.81
493.833	89.81
494.05	81.81
494.268	90.81
494.485	83.81
494.703	88.81
494.92	91.81
495.138	98.81
495.355	86.81
495.573	90.81
495.79	86.81
496.008	93.81
496.225	103.81
496.442	92.81
496.66	91.81
496.877	78.81
497.094	88.81
497.312	97.81
497.529	91.81
497.746	90.81
497.963	75.81
498.181	91.81
498.398	84.81
498.615	113.81
498.832	113.81
499.049	93.81
499.267	82.81
499.484	85.81
499.701	91.81
499.918	97.81
500.135	90.81
500.352	91.81
500.569	87.81
500.786	103.81
501.003	100.81
501.22	90.81
501.437	85.81
501.654	86.81
501.871	100.81
502.088	93.81
502.305	92.81
502.522	87.81
502.739	96.81
502.956	96.81
503.172	91.81
503.389	78.81
503.606	106.81
503.823	94.81
504.04	102.81
504.256	86.81
504.473	88.81
504.69	102.81
504.907	107.81
505.123	81.81
505.34	85.81
505.557	93.81
505.773	95.81
505.99	89.81
506.207	90.81
506.423	97.81
506.64	96.81
506.856	80.81
507.073	93.81
507.289	80.81
507.506	106.81
507.722	109.81
507.939	113.81
508.155	101.81
508.372	82.81
508.588	83.81
508.805	90.81
509.021	99.81
509.238	95.81
509.454	102.81
509.67	105.81
509.887	115.81
510.103	123.81
510.319	206.81
510.536	771.81
510.752	2362.81
510.968	643.81
511.184	163.81
511.401	114.81
511.617	102.81
511.833	83.81
512.049	104.81
512.265	70.81
512.481	90.81
512.698	91.81
512.914	78.81
513.13	81.81
513.346	80.81
513.562	98.81
513.778	101.81
513.994	95.81
514.21	111.81
514.426	102.81
514.642	121.81
514.858	122.81
515.074	166.81
515.29	469.81
515.506	1429.81
515.721	539.81
