Data from Uncirc_2004_H10_HRD10591_00086.txt Node
Date: Wed Jan 03 10:32:30 EST 2024
User: Yrep
Spectrometer: HR+D1059
Trigger mode: 1
Integration Time (sec): 1.000000E-1
Scans to average: 1
Electric dark correction enabled: true
Nonlinearity correction enabled: false
Boxcar width: 0
XAxis mode: Wavelengths
Number of Pixels in Spectrum: 2048
>>>>>Begin Spectral Data<<<<<
223.165	-30.75
223.4	-30.75
223.635	-30.75
223.869	-10.75
224.104	-16.75
224.338	-24.75
224.573	-15.75
224.808	-2.75
225.042	3.25
225.277	-6.75
225.511	4.25
225.746	0.25
225.98	8.25
226.215	10.25
226.449	9.25
226.683	17.25
226.918	26.25
227.152	29.25
227.387	26.25
227.621	24.25
227.856	43.25
228.09	46.25
228.324	56.25
228.559	65.25
228.793	64.25
229.027	51.25
229.262	58.25
229.496	62.25
229.73	92.25
229.964	84.25
230.199	82.25
230.433	67.25
230.667	77.25
230.901	70.25
231.136	76.25
231.37	68.25
231.604	91.25
231.838	79.25
232.072	71.25
232.306	70.25
232.541	77.25
232.775	75.25
233.009	87.25
233.243	80.25
233.477	83.25
233.711	79.25
233.945	92.25
234.179	81.25
234.413	91.25
234.647	70.25
234.881	73.25
235.115	78.25
235.349	71.25
235.583	78.25
235.817	73.25
236.051	84.25
236.285	87.25
236.519	75.25
236.753	82.25
236.987	84.25
237.221	84.25
237.455	84.25
237.689	78.25
237.922	71.25
238.156	72.25
238.39	64.25
238.624	81.25
238.858	89.25
239.091	77.25
239.325	69.25
239.559	71.25
239.793	86.25
240.027	91.25
240.26	85.25
240.494	56.25
240.728	75.25
240.961	76.25
241.195	70.25
241.429	70.25
241.662	65.25
241.896	81.25
242.13	69.25
242.363	74.25
242.597	72.25
242.83	87.25
243.064	67.25
243.298	77.25
243.531	79.25
243.765	72.25
243.998	77.25
244.232	84.25
244.465	84.25
244.699	86.25
244.932	74.25
245.166	75.25
245.399	71.25
245.633	75.25
245.866	79.25
246.099	73.25
246.333	75.25
246.566	63.25
246.8	80.25
247.033	81.25
247.266	81.25
247.5	82.25
247.733	83.25
247.966	75.25
248.2	78.25
248.433	81.25
248.666	75.25
248.899	80.25
249.133	73.25
249.366	113.25
249.599	96.25
249.832	93.25
250.066	76.25
250.299	89.25
250.532	79.25
250.765	85.25
250.998	68.25
251.231	78.25
251.465	87.25
251.698	76.25
251.931	83.25
252.164	73.25
252.397	70.25
252.63	74.25
252.863	86.25
253.096	73.25
253.329	65.25
253.562	71.25
253.795	76.25
254.028	74.25
254.261	87.25
254.494	70.25
254.727	84.25
254.96	83.25
255.193	84.25
255.426	74.25
255.659	84.25
255.892	77.25
256.124	89.25
256.357	87.25
256.59	89.25
256.823	79.25
257.056	77.25
257.289	91.25
257.521	86.25
257.754	78.25
257.987	67.25
258.22	98.25
258.452	79.25
258.685	65.25
258.918	79.25
259.151	78.25
259.383	83.25
259.616	85.25
259.849	84.25
260.081	79.25
260.314	78.25
260.547	86.25
260.779	95.25
261.012	94.25
261.244	83.25
261.477	103.25
261.71	92.25
261.942	87.25
262.175	119.25
262.407	96.25
262.64	80.25
262.872	81.25
263.105	80.25
263.337	85.25
263.57	79.25
263.802	83.25
264.035	85.25
264.267	75.25
264.499	72.25
264.732	80.25
264.964	79.25
265.197	83.25
265.429	83.25
265.661	77.25
265.894	72.25
266.126	78.25
266.358	88.25
266.591	81.25
266.823	72.25
267.055	85.25
267.287	75.25
267.52	94.25
267.752	84.25
267.984	73.25
268.216	86.25
268.448	76.25
268.681	85.25
268.913	81.25
269.145	78.25
269.377	87.25
269.609	98.25
269.841	97.25
270.073	81.25
270.306	83.25
270.538	84.25
270.77	92.25
271.002	88.25
271.234	85.25
271.466	98.25
271.698	83.25
271.93	87.25
272.162	76.25
272.394	74.25
272.626	82.25
272.858	67.25
273.09	85.25
273.322	85.25
273.553	89.25
273.785	88.25
274.017	89.25
274.249	80.25
274.481	101.25
274.713	67.25
274.945	80.25
275.176	84.25
275.408	100.25
275.64	84.25
275.872	86.25
276.104	95.25
276.335	93.25
276.567	101.25
276.799	113.25
277.031	95.25
277.262	89.25
277.494	84.25
277.726	79.25
277.957	79.25
278.189	83.25
278.421	81.25
278.652	80.25
278.884	99.25
279.115	84.25
279.347	89.25
279.579	77.25
279.81	81.25
280.042	87.25
280.273	81.25
280.505	85.25
280.736	73.25
280.968	94.25
281.199	103.25
281.431	83.25
281.662	96.25
281.894	91.25
282.125	108.25
282.356	103.25
282.588	139.25
282.819	82.25
283.051	86.25
283.282	75.25
283.513	82.25
283.745	73.25
283.976	87.25
284.207	88.25
284.439	96.25
284.67	82.25
284.901	78.25
285.132	84.25
285.364	100.25
285.595	87.25
285.826	84.25
286.057	83.25
286.288	78.25
286.52	83.25
286.751	72.25
286.982	73.25
287.213	80.25
287.444	96.25
287.675	79.25
287.906	72.25
288.138	82.25
288.369	86.25
288.6	84.25
288.831	71.25
289.062	79.25
289.293	87.25
289.524	79.25
289.755	83.25
289.986	81.25
290.217	76.25
290.448	74.25
290.679	83.25
290.91	91.25
291.141	84.25
291.371	91.25
291.602	101.25
291.833	89.25
292.064	88.25
292.295	77.25
292.526	100.25
292.757	84.25
292.987	94.25
293.218	84.25
293.449	92.25
293.68	91.25
293.91	84.25
294.141	97.25
294.372	88.25
294.603	90.25
294.833	92.25
295.064	95.25
295.295	75.25
295.525	90.25
295.756	93.25
295.987	113.25
296.217	136.25
296.448	127.25
296.679	93.25
296.909	71.25
297.14	84.25
297.37	74.25
297.601	91.25
297.831	83.25
298.062	87.25
298.292	84.25
298.523	97.25
298.753	86.25
298.984	87.25
299.214	80.25
299.445	73.25
299.675	86.25
299.905	103.25
300.136	79.25
300.366	98.25
300.597	92.25
300.827	103.25
301.057	100.25
301.288	94.25
301.518	96.25
301.748	94.25
301.979	87.25
302.209	89.25
302.439	89.25
302.669	82.25
302.9	93.25
303.13	94.25
303.36	92.25
303.59	83.25
303.82	99.25
304.051	92.25
304.281	90.25
304.511	99.25
304.741	92.25
304.971	79.25
305.201	85.25
305.431	88.25
305.661	94.25
305.891	80.25
306.121	95.25
306.352	110.25
306.582	105.25
306.812	95.25
307.042	80.25
307.272	86.25
307.502	81.25
307.731	99.25
307.961	95.25
308.191	83.25
308.421	89.25
308.651	102.25
308.881	88.25
309.111	95.25
309.341	90.25
309.571	100.25
309.8	92.25
310.03	94.25
310.26	94.25
310.49	93.25
310.72	102.25
310.949	96.25
311.179	91.25
311.409	93.25
311.639	100.25
311.868	101.25
312.098	99.25
312.328	84.25
312.557	98.25
312.787	90.25
313.017	93.25
313.246	91.25
313.476	98.25
313.706	88.25
313.935	89.25
314.165	101.25
314.394	96.25
314.624	89.25
314.853	89.25
315.083	91.25
315.312	104.25
315.542	102.25
315.771	88.25
316.001	102.25
316.23	88.25
316.46	91.25
316.689	94.25
316.919	98.25
317.148	88.25
317.377	100.25
317.607	98.25
317.836	79.25
318.065	73.25
318.295	92.25
318.524	93.25
318.753	70.25
318.983	80.25
319.212	99.25
319.441	102.25
319.67	105.25
319.9	80.25
320.129	85.25
320.358	77.25
320.587	89.25
320.816	93.25
321.046	91.25
321.275	87.25
321.504	103.25
321.733	99.25
321.962	99.25
322.191	102.25
322.42	100.25
322.649	105.25
322.878	96.25
323.108	110.25
323.337	115.25
323.566	118.25
323.795	148.25
324.024	203.25
324.253	395.25
324.482	820.25
324.71	1660.25
324.939	2127.25
325.168	785.25
325.397	220.25
325.626	124.25
325.855	117.25
326.084	136.25
326.313	136.25
326.542	127.25
326.77	222.25
326.999	432.25
327.228	921.25
327.457	1631.25
327.686	1291.25
327.914	350.25
328.143	169.25
328.372	134.25
328.6	126.25
328.829	116.25
329.058	114.25
329.287	120.25
329.515	110.25
329.744	97.25
329.972	98.25
330.201	94.25
330.43	113.25
330.658	114.25
330.887	140.25
331.115	118.25
331.344	82.25
331.572	118.25
331.801	109.25
332.03	105.25
332.258	93.25
332.486	102.25
332.715	85.25
332.943	79.25
333.172	108.25
333.4	92.25
333.629	110.25
333.857	118.25
334.085	97.25
334.314	102.25
334.542	101.25
334.771	108.25
334.999	98.25
335.227	88.25
335.455	95.25
335.684	91.25
335.912	88.25
336.14	84.25
336.369	101.25
336.597	95.25
336.825	99.25
337.053	90.25
337.281	82.25
337.51	78.25
337.738	92.25
337.966	91.25
338.194	89.25
338.422	95.25
338.65	100.25
338.878	91.25
339.106	95.25
339.334	87.25
339.562	87.25
339.79	88.25
340.018	96.25
340.246	97.25
340.474	81.25
340.702	83.25
340.93	86.25
341.158	96.25
341.386	98.25
341.614	95.25
341.842	96.25
342.07	94.25
342.298	95.25
342.526	74.25
342.754	96.25
342.981	98.25
343.209	85.25
343.437	83.25
343.665	93.25
343.893	86.25
344.12	91.25
344.348	92.25
344.576	91.25
344.804	87.25
345.031	93.25
345.259	99.25
345.487	84.25
345.714	93.25
345.942	83.25
346.17	82.25
346.397	94.25
346.625	93.25
346.853	101.25
347.08	94.25
347.308	94.25
347.535	88.25
347.763	96.25
347.99	99.25
348.218	92.25
348.445	108.25
348.673	103.25
348.9	96.25
349.128	88.25
349.355	88.25
349.583	97.25
349.81	94.25
350.037	89.25
350.265	98.25
350.492	97.25
350.72	98.25
350.947	93.25
351.174	110.25
351.402	109.25
351.629	98.25
351.856	120.25
352.083	96.25
352.311	96.25
352.538	108.25
352.765	112.25
352.992	97.25
353.22	114.25
353.447	115.25
353.674	92.25
353.901	91.25
354.128	96.25
354.355	95.25
354.583	93.25
354.81	108.25
355.037	96.25
355.264	110.25
355.491	91.25
355.718	102.25
355.945	104.25
356.172	93.25
356.399	89.25
356.626	89.25
356.853	97.25
357.08	92.25
357.307	80.25
357.534	100.25
357.761	88.25
357.988	89.25
358.215	93.25
358.441	99.25
358.668	97.25
358.895	87.25
359.122	90.25
359.349	98.25
359.576	81.25
359.802	99.25
360.029	112.25
360.256	100.25
360.483	104.25
360.709	87.25
360.936	88.25
361.163	91.25
361.39	91.25
361.616	87.25
361.843	95.25
362.07	93.25
362.296	107.25
362.523	80.25
362.749	96.25
362.976	96.25
363.203	96.25
363.429	93.25
363.656	75.25
363.882	78.25
364.109	85.25
364.335	82.25
364.562	85.25
364.788	80.25
365.015	82.25
365.241	85.25
365.468	98.25
365.694	99.25
365.92	109.25
366.147	94.25
366.373	96.25
366.599	117.25
366.826	91.25
367.052	97.25
367.278	95.25
367.505	95.25
367.731	89.25
367.957	85.25
368.184	84.25
368.41	88.25
368.636	101.25
368.862	116.25
369.089	117.25
369.315	89.25
369.541	101.25
369.767	94.25
369.993	90.25
370.219	97.25
370.445	82.25
370.672	91.25
370.898	92.25
371.124	71.25
371.35	75.25
371.576	100.25
371.802	89.25
372.028	89.25
372.254	92.25
372.48	100.25
372.706	77.25
372.932	98.25
373.158	96.25
373.384	86.25
373.61	80.25
373.835	93.25
374.061	87.25
374.287	77.25
374.513	84.25
374.739	97.25
374.965	93.25
375.191	82.25
375.416	102.25
375.642	82.25
375.868	96.25
376.094	97.25
376.319	83.25
376.545	85.25
376.771	94.25
376.997	89.25
377.222	82.25
377.448	83.25
377.674	92.25
377.899	79.25
378.125	84.25
378.35	82.25
378.576	82.25
378.802	91.25
379.027	87.25
379.253	88.25
379.478	94.25
379.704	95.25
379.929	75.25
380.155	94.25
380.38	103.25
380.606	103.25
380.831	93.25
381.057	94.25
381.282	89.25
381.507	101.25
381.733	97.25
381.958	97.25
382.184	109.25
382.409	101.25
382.634	98.25
382.86	104.25
383.085	106.25
383.31	102.25
383.535	98.25
383.761	92.25
383.986	94.25
384.211	101.25
384.436	109.25
384.662	95.25
384.887	101.25
385.112	100.25
385.337	99.25
385.562	100.25
385.787	96.25
386.013	111.25
386.238	107.25
386.463	105.25
386.688	128.25
386.913	96.25
387.138	100.25
387.363	97.25
387.588	78.25
387.813	107.25
388.038	109.25
388.263	108.25
388.488	110.25
388.713	97.25
388.938	99.25
389.163	96.25
389.387	87.25
389.612	95.25
389.837	88.25
390.062	98.25
390.287	96.25
390.512	92.25
390.736	105.25
390.961	94.25
391.186	78.25
391.411	102.25
391.636	92.25
391.86	94.25
392.085	82.25
392.31	88.25
392.534	79.25
392.759	89.25
392.984	87.25
393.208	88.25
393.433	95.25
393.658	88.25
393.882	83.25
394.107	78.25
394.331	82.25
394.556	85.25
394.78	86.25
395.005	89.25
395.229	87.25
395.454	91.25
395.678	79.25
395.903	79.25
396.127	88.25
396.352	96.25
396.576	99.25
396.801	101.25
397.025	91.25
397.249	92.25
397.474	77.25
397.698	101.25
397.922	87.25
398.147	95.25
398.371	91.25
398.595	83.25
398.82	86.25
399.044	79.25
399.268	83.25
399.492	82.25
399.717	97.25
399.941	93.25
400.165	99.25
400.389	98.25
400.613	93.25
400.837	93.25
401.062	88.25
401.286	77.25
401.51	95.25
401.734	89.25
401.958	103.25
402.182	115.25
402.406	146.25
402.63	109.25
402.854	93.25
403.078	90.25
403.302	95.25
403.526	101.25
403.75	94.25
403.974	80.25
404.198	94.25
404.422	83.25
404.645	86.25
404.869	89.25
405.093	92.25
405.317	87.25
405.541	85.25
405.765	85.25
405.988	102.25
406.212	174.25
406.436	224.25
406.66	134.25
406.883	108.25
407.107	87.25
407.331	96.25
407.555	96.25
407.778	102.25
408.002	85.25
408.226	85.25
408.449	84.25
408.673	84.25
408.896	80.25
409.12	71.25
409.344	75.25
409.567	91.25
409.791	91.25
410.014	103.25
410.238	100.25
410.461	102.25
410.685	87.25
410.908	85.25
411.132	102.25
411.355	101.25
411.578	78.25
411.802	91.25
412.025	84.25
412.249	98.25
412.472	87.25
412.695	93.25
412.919	78.25
413.142	84.25
413.365	92.25
413.589	93.25
413.812	79.25
414.035	100.25
414.258	88.25
414.482	82.25
414.705	80.25
414.928	98.25
415.151	107.25
415.374	80.25
415.597	77.25
415.821	87.25
416.044	86.25
416.267	98.25
416.49	75.25
416.713	87.25
416.936	98.25
417.159	91.25
417.382	93.25
417.605	91.25
417.828	84.25
418.051	94.25
418.274	84.25
418.497	83.25
418.72	84.25
418.943	80.25
419.166	96.25
419.389	93.25
419.611	86.25
419.834	85.25
420.057	89.25
420.28	97.25
420.503	83.25
420.726	94.25
420.948	96.25
421.171	81.25
421.394	88.25
421.617	90.25
421.839	93.25
422.062	85.25
422.285	96.25
422.507	95.25
422.73	90.25
422.953	93.25
423.175	83.25
423.398	91.25
423.621	84.25
423.843	86.25
424.066	79.25
424.288	94.25
424.511	82.25
424.733	86.25
424.956	91.25
425.178	99.25
425.401	92.25
425.623	105.25
425.846	86.25
426.068	93.25
426.291	74.25
426.513	85.25
426.735	93.25
426.958	90.25
427.18	80.25
427.402	128.25
427.625	153.25
427.847	132.25
428.069	99.25
428.292	76.25
428.514	85.25
428.736	94.25
428.958	87.25
429.181	87.25
429.403	79.25
429.625	81.25
429.847	85.25
430.069	108.25
430.292	90.25
430.514	87.25
430.736	77.25
430.958	86.25
431.18	80.25
431.402	71.25
431.624	85.25
431.846	79.25
432.068	110.25
432.29	98.25
432.512	104.25
432.734	76.25
432.956	101.25
433.178	88.25
433.4	97.25
433.622	93.25
433.844	100.25
434.066	91.25
434.287	88.25
434.509	92.25
434.731	87.25
434.953	88.25
435.175	111.25
435.397	83.25
435.618	92.25
435.84	101.25
436.062	112.25
436.284	110.25
436.505	96.25
436.727	95.25
436.949	93.25
437.17	97.25
437.392	79.25
437.614	87.25
437.835	104.25
438.057	118.25
438.278	112.25
438.5	102.25
438.721	104.25
438.943	100.25
439.165	84.25
439.386	82.25
439.608	96.25
439.829	107.25
440.05	110.25
440.272	138.25
440.493	108.25
440.715	87.25
440.936	91.25
441.158	79.25
441.379	97.25
441.6	91.25
441.822	89.25
442.043	88.25
442.264	103.25
442.486	112.25
442.707	98.25
442.928	110.25
443.149	120.25
443.371	125.25
443.592	90.25
443.813	105.25
444.034	89.25
444.255	89.25
444.476	97.25
444.698	91.25
444.919	90.25
445.14	128.25
445.361	114.25
445.582	121.25
445.803	143.25
446.024	131.25
446.245	135.25
446.466	107.25
446.687	97.25
446.908	74.25
447.129	80.25
447.35	93.25
447.571	92.25
447.792	92.25
448.013	90.25
448.234	111.25
448.455	111.25
448.675	101.25
448.896	113.25
449.117	103.25
449.338	96.25
449.559	115.25
449.779	129.25
450	89.25
450.221	87.25
450.442	81.25
450.662	90.25
450.883	95.25
451.104	114.25
451.324	110.25
451.545	89.25
451.766	97.25
451.986	106.25
452.207	102.25
452.428	96.25
452.648	93.25
452.869	110.25
453.089	99.25
453.31	108.25
453.53	79.25
453.751	102.25
453.971	103.25
454.192	105.25
454.412	88.25
454.633	81.25
454.853	90.25
455.073	94.25
455.294	89.25
455.514	97.25
455.734	81.25
455.955	81.25
456.175	79.25
456.395	82.25
456.616	81.25
456.836	93.25
457.056	81.25
457.276	86.25
457.497	71.25
457.717	81.25
457.937	80.25
458.157	76.25
458.377	86.25
458.598	99.25
458.818	143.25
459.038	137.25
459.258	110.25
459.478	93.25
459.698	89.25
459.918	86.25
460.138	91.25
460.358	81.25
460.578	96.25
460.798	89.25
461.018	80.25
461.238	100.25
461.458	94.25
461.678	95.25
461.898	64.25
462.118	96.25
462.338	90.25
462.558	79.25
462.777	85.25
462.997	87.25
463.217	87.25
463.437	84.25
463.657	94.25
463.876	92.25
464.096	88.25
464.316	83.25
464.536	75.25
464.755	93.25
464.975	114.25
465.195	155.25
465.414	152.25
465.634	95.25
465.854	92.25
466.073	91.25
466.293	92.25
466.512	59.25
466.732	96.25
466.951	88.25
467.171	106.25
467.391	85.25
467.61	93.25
467.829	88.25
468.049	93.25
468.268	95.25
468.488	89.25
468.707	85.25
468.927	86.25
469.146	81.25
469.365	89.25
469.585	92.25
469.804	103.25
470.023	103.25
470.243	89.25
470.462	96.25
470.681	103.25
470.901	78.25
471.12	96.25
471.339	76.25
471.558	85.25
471.777	86.25
471.997	87.25
472.216	99.25
472.435	82.25
472.654	102.25
472.873	79.25
473.092	77.25
473.311	93.25
473.53	88.25
473.749	82.25
473.968	89.25
474.187	97.25
474.406	92.25
474.625	86.25
474.844	95.25
475.063	108.25
475.282	82.25
475.501	80.25
475.72	92.25
475.939	80.25
476.158	102.25
476.377	83.25
476.596	84.25
476.814	86.25
477.033	89.25
477.252	85.25
477.471	88.25
477.69	84.25
477.908	74.25
478.127	88.25
478.346	81.25
478.564	94.25
478.783	88.25
479.002	91.25
479.22	99.25
479.439	109.25
479.658	101.25
479.876	80.25
480.095	91.25
480.313	76.25
480.532	95.25
480.751	83.25
480.969	94.25
481.188	129.25
481.406	103.25
481.624	108.25
481.843	82.25
482.061	94.25
482.28	80.25
482.498	90.25
482.717	89.25
482.935	73.25
483.153	92.25
483.372	88.25
483.59	78.25
483.808	89.25
484.027	92.25
484.245	91.25
484.463	83.25
484.681	78.25
484.9	87.25
485.118	85.25
485.336	96.25
485.554	87.25
485.772	101.25
485.99	99.25
486.209	100.25
486.427	113.25
486.645	97.25
486.863	122.25
487.081	101.25
487.299	91.25
487.517	84.25
487.735	88.25
487.953	92.25
488.171	94.25
488.389	83.25
488.607	95.25
488.825	97.25
489.043	81.25
489.261	71.25
489.479	85.25
489.696	77.25
489.914	88.25
490.132	94.25
490.35	89.25
490.568	92.25
490.786	86.25
491.003	88.25
491.221	80.25
491.439	96.25
491.657	97.25
491.874	89.25
492.092	84.25
492.31	98.25
492.527	108.25
492.745	85.25
492.963	84.25
493.18	95.25
493.398	94.25
493.615	87.25
493.833	77.25
494.05	89.25
494.268	97.25
494.485	82.25
494.703	83.25
494.92	77.25
495.138	84.25
495.355	94.25
495.573	80.25
495.79	91.25
496.008	97.25
496.225	96.25
496.442	94.25
496.66	86.25
496.877	92.25
497.094	76.25
497.312	78.25
497.529	98.25
497.746	89.25
497.963	90.25
498.181	70.25
498.398	86.25
498.615	100.25
498.832	105.25
499.049	81.25
499.267	73.25
499.484	99.25
499.701	90.25
499.918	78.25
500.135	88.25
500.352	84.25
500.569	93.25
500.786	80.25
501.003	86.25
501.22	78.25
501.437	80.25
501.654	89.25
501.871	114.25
502.088	98.25
502.305	103.25
502.522	95.25
502.739	96.25
502.956	99.25
503.172	91.25
503.389	89.25
503.606	98.25
503.823	109.25
504.04	98.25
504.256	83.25
504.473	90.25
504.69	88.25
504.907	93.25
505.123	80.25
505.34	97.25
505.557	78.25
505.773	80.25
505.99	103.25
506.207	93.25
506.423	92.25
506.64	107.25
506.856	99.25
507.073	90.25
507.289	88.25
507.506	93.25
507.722	103.25
507.939	114.25
508.155	92.25
508.372	87.25
508.588	97.25
508.805	92.25
509.021	85.25
509.238	104.25
509.454	85.25
509.67	105.25
509.887	107.25
510.103	133.25
510.319	228.25
510.536	780.25
510.752	2489.25
510.968	685.25
511.184	167.25
511.401	112.25
511.617	99.25
511.833	56.25
512.049	93.25
512.265	79.25
512.481	92.25
512.698	91.25
512.914	95.25
513.13	101.25
513.346	99.25
513.562	98.25
513.778	96.25
513.994	104.25
514.21	100.25
514.426	114.25
514.642	127.25
514.858	140.25
515.074	172.25
515.29	438.25
515.506	1465.25
515.721	554.25
515.937	150.25
516.153	110.25
516.369	108.25
