Data from Uncirc_2004_H10_HRD10591_00066.txt Node
Date: Wed Jan 03 10:32:26 EST 2024
User: Yrep
Spectrometer: HR+D1059
Trigger mode: 1
Integration Time (sec): 1.000000E-1
Scans to average: 1
Electric dark correction enabled: true
Nonlinearity correction enabled: false
Boxcar width: 0
XAxis mode: Wavelengths
Number of Pixels in Spectrum: 2048
>>>>>Begin Spectral Data<<<<<
223.165	-18.31
223.4	-18.31
223.635	-18.31
223.869	-14.31
224.104	-15.31
224.338	-16.31
224.573	-12.31
224.808	-2.31
225.042	-19.31
225.277	-13.31
225.511	-10.31
225.746	9.69
225.98	16.69
226.215	21.69
226.449	11.69
226.683	17.69
226.918	19.69
227.152	24.69
227.387	32.69
227.621	38.69
227.856	47.69
228.09	43.69
228.324	44.69
228.559	62.69
228.793	55.69
229.027	57.69
229.262	64.69
229.496	76.69
229.73	76.69
229.964	76.69
230.199	90.69
230.433	72.69
230.667	87.69
230.901	68.69
231.136	86.69
231.37	82.69
231.604	68.69
231.838	89.69
232.072	74.69
232.306	68.69
232.541	91.69
232.775	100.69
233.009	76.69
233.243	82.69
233.477	77.69
233.711	77.69
233.945	89.69
234.179	71.69
234.413	79.69
234.647	80.69
234.881	76.69
235.115	72.69
235.349	68.69
235.583	78.69
235.817	84.69
236.051	80.69
236.285	67.69
236.519	70.69
236.753	87.69
236.987	95.69
237.221	89.69
237.455	93.69
237.689	74.69
237.922	81.69
238.156	82.69
238.39	71.69
238.624	80.69
238.858	71.69
239.091	73.69
239.325	66.69
239.559	68.69
239.793	70.69
240.027	77.69
240.26	97.69
240.494	77.69
240.728	77.69
240.961	78.69
241.195	78.69
241.429	76.69
241.662	72.69
241.896	69.69
242.13	50.69
242.363	76.69
242.597	60.69
242.83	77.69
243.064	70.69
243.298	78.69
243.531	61.69
243.765	73.69
243.998	86.69
244.232	70.69
244.465	78.69
244.699	90.69
244.932	91.69
245.166	74.69
245.399	80.69
245.633	89.69
245.866	71.69
246.099	76.69
246.333	85.69
246.566	69.69
246.8	89.69
247.033	82.69
247.266	98.69
247.5	81.69
247.733	79.69
247.966	79.69
248.2	81.69
248.433	73.69
248.666	77.69
248.899	86.69
249.133	72.69
249.366	88.69
249.599	92.69
249.832	78.69
250.066	77.69
250.299	72.69
250.532	88.69
250.765	64.69
250.998	80.69
251.231	63.69
251.465	64.69
251.698	80.69
251.931	77.69
252.164	83.69
252.397	80.69
252.63	84.69
252.863	84.69
253.096	81.69
253.329	75.69
253.562	70.69
253.795	82.69
254.028	81.69
254.261	74.69
254.494	84.69
254.727	80.69
254.96	86.69
255.193	82.69
255.426	78.69
255.659	82.69
255.892	90.69
256.124	87.69
256.357	89.69
256.59	78.69
256.823	86.69
257.056	89.69
257.289	91.69
257.521	93.69
257.754	89.69
257.987	86.69
258.22	100.69
258.452	79.69
258.685	87.69
258.918	82.69
259.151	88.69
259.383	81.69
259.616	77.69
259.849	95.69
260.081	76.69
260.314	77.69
260.547	89.69
260.779	75.69
261.012	90.69
261.244	82.69
261.477	95.69
261.71	89.69
261.942	102.69
262.175	101.69
262.407	80.69
262.64	97.69
262.872	89.69
263.105	83.69
263.337	80.69
263.57	86.69
263.802	85.69
264.035	78.69
264.267	76.69
264.499	86.69
264.732	83.69
264.964	83.69
265.197	92.69
265.429	78.69
265.661	77.69
265.894	81.69
266.126	79.69
266.358	92.69
266.591	74.69
266.823	89.69
267.055	82.69
267.287	90.69
267.52	80.69
267.752	80.69
267.984	78.69
268.216	86.69
268.448	97.69
268.681	86.69
268.913	86.69
269.145	61.69
269.377	79.69
269.609	72.69
269.841	74.69
270.073	82.69
270.306	89.69
270.538	82.69
270.77	98.69
271.002	93.69
271.234	90.69
271.466	79.69
271.698	90.69
271.93	86.69
272.162	81.69
272.394	92.69
272.626	94.69
272.858	85.69
273.09	83.69
273.322	87.69
273.553	73.69
273.785	84.69
274.017	82.69
274.249	87.69
274.481	87.69
274.713	89.69
274.945	86.69
275.176	87.69
275.408	89.69
275.64	92.69
275.872	79.69
276.104	97.69
276.335	83.69
276.567	94.69
276.799	91.69
277.031	99.69
277.262	93.69
277.494	88.69
277.726	80.69
277.957	86.69
278.189	77.69
278.421	87.69
278.652	87.69
278.884	93.69
279.115	91.69
279.347	72.69
279.579	73.69
279.81	95.69
280.042	87.69
280.273	99.69
280.505	87.69
280.736	85.69
280.968	94.69
281.199	81.69
281.431	83.69
281.662	103.69
281.894	109.69
282.125	80.69
282.356	114.69
282.588	131.69
282.819	109.69
283.051	96.69
283.282	72.69
283.513	76.69
283.745	83.69
283.976	82.69
284.207	79.69
284.439	98.69
284.67	88.69
284.901	86.69
285.132	68.69
285.364	72.69
285.595	80.69
285.826	94.69
286.057	89.69
286.288	80.69
286.52	96.69
286.751	93.69
286.982	86.69
287.213	77.69
287.444	94.69
287.675	90.69
287.906	90.69
288.138	100.69
288.369	88.69
288.6	87.69
288.831	97.69
289.062	97.69
289.293	93.69
289.524	84.69
289.755	77.69
289.986	89.69
290.217	91.69
290.448	98.69
290.679	82.69
290.91	98.69
291.141	79.69
291.371	85.69
291.602	88.69
291.833	89.69
292.064	104.69
292.295	91.69
292.526	91.69
292.757	89.69
292.987	97.69
293.218	84.69
293.449	95.69
293.68	78.69
293.91	99.69
294.141	79.69
294.372	104.69
294.603	95.69
294.833	90.69
295.064	88.69
295.295	98.69
295.525	87.69
295.756	93.69
295.987	119.69
296.217	138.69
296.448	121.69
296.679	94.69
296.909	90.69
297.14	90.69
297.37	78.69
297.601	68.69
297.831	91.69
298.062	85.69
298.292	76.69
298.523	97.69
298.753	89.69
298.984	97.69
299.214	81.69
299.445	82.69
299.675	89.69
299.905	89.69
300.136	94.69
300.366	90.69
300.597	90.69
300.827	101.69
301.057	101.69
301.288	111.69
301.518	91.69
301.748	94.69
301.979	97.69
302.209	82.69
302.439	92.69
302.669	86.69
302.9	89.69
303.13	95.69
303.36	77.69
303.59	85.69
303.82	112.69
304.051	93.69
304.281	90.69
304.511	85.69
304.741	83.69
304.971	88.69
305.201	77.69
305.431	95.69
305.661	89.69
305.891	82.69
306.121	86.69
306.352	100.69
306.582	92.69
306.812	94.69
307.042	86.69
307.272	92.69
307.502	94.69
307.731	98.69
307.961	81.69
308.191	100.69
308.421	90.69
308.651	98.69
308.881	88.69
309.111	90.69
309.341	74.69
309.571	93.69
309.8	95.69
310.03	87.69
310.26	89.69
310.49	80.69
310.72	101.69
310.949	100.69
311.179	94.69
311.409	86.69
311.639	84.69
311.868	100.69
312.098	87.69
312.328	108.69
312.557	106.69
312.787	102.69
313.017	92.69
313.246	89.69
313.476	82.69
313.706	83.69
313.935	96.69
314.165	96.69
314.394	100.69
314.624	85.69
314.853	107.69
315.083	97.69
315.312	94.69
315.542	101.69
315.771	85.69
316.001	84.69
316.23	83.69
316.46	91.69
316.689	90.69
316.919	103.69
317.148	87.69
317.377	87.69
317.607	84.69
317.836	89.69
318.065	96.69
318.295	90.69
318.524	103.69
318.753	86.69
318.983	97.69
319.212	84.69
319.441	100.69
319.67	92.69
319.9	88.69
320.129	98.69
320.358	90.69
320.587	95.69
320.816	93.69
321.046	93.69
321.275	102.69
321.504	86.69
321.733	100.69
321.962	97.69
322.191	103.69
322.42	101.69
322.649	99.69
322.878	116.69
323.108	101.69
323.337	130.69
323.566	121.69
323.795	153.69
324.024	217.69
324.253	398.69
324.482	821.69
324.71	1630.69
324.939	2118.69
325.168	792.69
325.397	236.69
325.626	148.69
325.855	119.69
326.084	114.69
326.313	114.69
326.542	146.69
326.77	217.69
326.999	442.69
327.228	914.69
327.457	1696.69
327.686	1306.69
327.914	352.69
328.143	188.69
328.372	158.69
328.6	119.69
328.829	115.69
329.058	129.69
329.287	127.69
329.515	114.69
329.744	99.69
329.972	94.69
330.201	97.69
330.43	116.69
330.658	126.69
330.887	129.69
331.115	114.69
331.344	102.69
331.572	105.69
331.801	102.69
332.03	110.69
332.258	89.69
332.486	111.69
332.715	88.69
332.943	79.69
333.172	85.69
333.4	101.69
333.629	102.69
333.857	101.69
334.085	101.69
334.314	100.69
334.542	99.69
334.771	94.69
334.999	84.69
335.227	96.69
335.455	91.69
335.684	96.69
335.912	97.69
336.14	83.69
336.369	82.69
336.597	94.69
336.825	88.69
337.053	84.69
337.281	92.69
337.51	102.69
337.738	90.69
337.966	92.69
338.194	90.69
338.422	92.69
338.65	106.69
338.878	87.69
339.106	96.69
339.334	85.69
339.562	75.69
339.79	94.69
340.018	100.69
340.246	97.69
340.474	82.69
340.702	98.69
340.93	88.69
341.158	87.69
341.386	97.69
341.614	103.69
341.842	76.69
342.07	86.69
342.298	87.69
342.526	89.69
342.754	77.69
342.981	89.69
343.209	85.69
343.437	99.69
343.665	86.69
343.893	98.69
344.12	108.69
344.348	83.69
344.576	89.69
344.804	80.69
345.031	103.69
345.259	94.69
345.487	97.69
345.714	97.69
345.942	101.69
346.17	84.69
346.397	110.69
346.625	90.69
346.853	87.69
347.08	95.69
347.308	96.69
347.535	97.69
347.763	74.69
347.99	105.69
348.218	100.69
348.445	92.69
348.673	97.69
348.9	104.69
349.128	103.69
349.355	93.69
349.583	83.69
349.81	89.69
350.037	80.69
350.265	94.69
350.492	94.69
350.72	93.69
350.947	92.69
351.174	100.69
351.402	113.69
351.629	91.69
351.856	97.69
352.083	91.69
352.311	109.69
352.538	103.69
352.765	110.69
352.992	113.69
353.22	99.69
353.447	98.69
353.674	83.69
353.901	96.69
354.128	102.69
354.355	103.69
354.583	91.69
354.81	107.69
355.037	87.69
355.264	87.69
355.491	74.69
355.718	94.69
355.945	94.69
356.172	90.69
356.399	76.69
356.626	105.69
356.853	94.69
357.08	89.69
357.307	102.69
357.534	78.69
357.761	91.69
357.988	101.69
358.215	90.69
358.441	72.69
358.668	90.69
358.895	88.69
359.122	84.69
359.349	92.69
359.576	71.69
359.802	97.69
360.029	105.69
360.256	94.69
360.483	105.69
360.709	90.69
360.936	101.69
361.163	86.69
361.39	88.69
361.616	102.69
361.843	89.69
362.07	85.69
362.296	84.69
362.523	93.69
362.749	82.69
362.976	93.69
363.203	96.69
363.429	96.69
363.656	89.69
363.882	85.69
364.109	90.69
364.335	84.69
364.562	89.69
364.788	101.69
365.015	89.69
365.241	102.69
365.468	113.69
365.694	99.69
365.92	85.69
366.147	87.69
366.373	87.69
366.599	89.69
366.826	94.69
367.052	102.69
367.278	87.69
367.505	72.69
367.731	93.69
367.957	80.69
368.184	102.69
368.41	97.69
368.636	102.69
368.862	105.69
369.089	93.69
369.315	100.69
369.541	87.69
369.767	87.69
369.993	103.69
370.219	89.69
370.445	77.69
370.672	103.69
370.898	95.69
371.124	87.69
371.35	89.69
371.576	96.69
371.802	81.69
372.028	95.69
372.254	76.69
372.48	94.69
372.706	93.69
372.932	83.69
373.158	89.69
373.384	82.69
373.61	87.69
373.835	82.69
374.061	107.69
374.287	87.69
374.513	91.69
374.739	94.69
374.965	82.69
375.191	92.69
375.416	89.69
375.642	92.69
375.868	96.69
376.094	99.69
376.319	102.69
376.545	91.69
376.771	85.69
376.997	93.69
377.222	88.69
377.448	82.69
377.674	93.69
377.899	97.69
378.125	93.69
378.35	90.69
378.576	77.69
378.802	89.69
379.027	84.69
379.253	94.69
379.478	83.69
379.704	84.69
379.929	93.69
380.155	86.69
380.38	85.69
380.606	104.69
380.831	94.69
381.057	84.69
381.282	104.69
381.507	92.69
381.733	87.69
381.958	85.69
382.184	83.69
382.409	106.69
382.634	103.69
382.86	92.69
383.085	89.69
383.31	95.69
383.535	99.69
383.761	100.69
383.986	105.69
384.211	103.69
384.436	94.69
384.662	89.69
384.887	102.69
385.112	101.69
385.337	106.69
385.562	95.69
385.787	97.69
386.013	114.69
386.238	119.69
386.463	110.69
386.688	99.69
386.913	119.69
387.138	107.69
387.363	92.69
387.588	95.69
387.813	102.69
388.038	94.69
388.263	118.69
388.488	109.69
388.713	87.69
388.938	93.69
389.163	98.69
389.387	90.69
389.612	88.69
389.837	98.69
390.062	94.69
390.287	88.69
390.512	104.69
390.736	90.69
390.961	101.69
391.186	89.69
391.411	108.69
391.636	99.69
391.86	85.69
392.085	86.69
392.31	99.69
392.534	91.69
392.759	88.69
392.984	91.69
393.208	80.69
393.433	85.69
393.658	88.69
393.882	83.69
394.107	93.69
394.331	86.69
394.556	77.69
394.78	93.69
395.005	84.69
395.229	74.69
395.454	78.69
395.678	89.69
395.903	79.69
396.127	84.69
396.352	88.69
396.576	80.69
396.801	104.69
397.025	93.69
397.249	95.69
397.474	93.69
397.698	83.69
397.922	80.69
398.147	85.69
398.371	91.69
398.595	86.69
398.82	87.69
399.044	102.69
399.268	88.69
399.492	101.69
399.717	92.69
399.941	77.69
400.165	92.69
400.389	98.69
400.613	100.69
400.837	77.69
401.062	90.69
401.286	100.69
401.51	80.69
401.734	81.69
401.958	89.69
402.182	111.69
402.406	154.69
402.63	116.69
402.854	97.69
403.078	94.69
403.302	86.69
403.526	94.69
403.75	96.69
403.974	88.69
404.198	89.69
404.422	79.69
404.645	103.69
404.869	94.69
405.093	94.69
405.317	108.69
405.541	104.69
405.765	81.69
405.988	125.69
406.212	174.69
406.436	215.69
406.66	142.69
406.883	91.69
407.107	94.69
407.331	94.69
407.555	90.69
407.778	102.69
408.002	97.69
408.226	95.69
408.449	99.69
408.673	79.69
408.896	92.69
409.12	101.69
409.344	91.69
409.567	78.69
409.791	94.69
410.014	92.69
410.238	90.69
410.461	87.69
410.685	84.69
410.908	96.69
411.132	105.69
411.355	108.69
411.578	84.69
411.802	79.69
412.025	89.69
412.249	103.69
412.472	104.69
412.695	89.69
412.919	102.69
413.142	93.69
413.365	85.69
413.589	89.69
413.812	90.69
414.035	94.69
414.258	81.69
414.482	94.69
414.705	94.69
414.928	99.69
415.151	111.69
415.374	103.69
415.597	88.69
415.821	81.69
416.044	81.69
416.267	89.69
416.49	81.69
416.713	101.69
416.936	83.69
417.159	82.69
417.382	86.69
417.605	94.69
417.828	101.69
418.051	99.69
418.274	93.69
418.497	100.69
418.72	73.69
418.943	82.69
419.166	83.69
419.389	79.69
419.611	100.69
419.834	92.69
420.057	92.69
420.28	84.69
420.503	89.69
420.726	105.69
420.948	85.69
421.171	103.69
421.394	93.69
421.617	97.69
421.839	93.69
422.062	83.69
422.285	97.69
422.507	94.69
422.73	96.69
422.953	90.69
423.175	89.69
423.398	86.69
423.621	87.69
423.843	84.69
424.066	90.69
424.288	84.69
424.511	88.69
424.733	101.69
424.956	94.69
425.178	100.69
425.401	98.69
425.623	90.69
425.846	85.69
426.068	96.69
426.291	84.69
426.513	83.69
426.735	95.69
426.958	99.69
427.18	107.69
427.402	128.69
427.625	144.69
427.847	130.69
428.069	86.69
428.292	84.69
428.514	85.69
428.736	98.69
428.958	90.69
429.181	97.69
429.403	90.69
429.625	110.69
429.847	84.69
430.069	104.69
430.292	100.69
430.514	88.69
430.736	87.69
430.958	85.69
431.18	94.69
431.402	87.69
431.624	89.69
431.846	93.69
432.068	98.69
432.29	73.69
432.512	99.69
432.734	89.69
432.956	92.69
433.178	90.69
433.4	86.69
433.622	83.69
433.844	103.69
434.066	98.69
434.287	81.69
434.509	90.69
434.731	101.69
434.953	92.69
435.175	99.69
435.397	79.69
435.618	101.69
435.84	93.69
436.062	109.69
436.284	94.69
436.505	98.69
436.727	107.69
436.949	101.69
437.17	95.69
437.392	94.69
437.614	90.69
437.835	109.69
438.057	125.69
438.278	104.69
438.5	110.69
438.721	115.69
438.943	103.69
439.165	96.69
439.386	88.69
439.608	94.69
439.829	97.69
440.05	120.69
440.272	127.69
440.493	98.69
440.715	74.69
440.936	92.69
441.158	91.69
441.379	103.69
441.6	90.69
441.822	101.69
442.043	91.69
442.264	109.69
442.486	119.69
442.707	87.69
442.928	112.69
443.149	120.69
443.371	100.69
443.592	93.69
443.813	94.69
444.034	102.69
444.255	74.69
444.476	85.69
444.698	102.69
444.919	90.69
445.14	130.69
445.361	124.69
445.582	116.69
445.803	129.69
446.024	125.69
446.245	141.69
446.466	117.69
446.687	97.69
446.908	92.69
447.129	92.69
447.35	93.69
447.571	88.69
447.792	82.69
448.013	98.69
448.234	117.69
448.455	104.69
448.675	107.69
448.896	112.69
449.117	110.69
449.338	109.69
449.559	127.69
449.779	126.69
450	84.69
450.221	97.69
450.442	107.69
450.662	106.69
450.883	113.69
451.104	113.69
451.324	101.69
451.545	94.69
451.766	75.69
451.986	92.69
452.207	86.69
452.428	93.69
452.648	106.69
452.869	118.69
453.089	99.69
453.31	112.69
453.53	89.69
453.751	89.69
453.971	108.69
454.192	108.69
454.412	100.69
454.633	97.69
454.853	82.69
455.073	79.69
455.294	82.69
455.514	98.69
455.734	97.69
455.955	88.69
456.175	79.69
456.395	94.69
456.616	105.69
456.836	99.69
457.056	81.69
457.276	85.69
457.497	84.69
457.717	78.69
457.937	74.69
458.157	103.69
458.377	93.69
458.598	116.69
458.818	152.69
459.038	143.69
459.258	109.69
459.478	102.69
459.698	85.69
459.918	96.69
460.138	94.69
460.358	79.69
460.578	82.69
460.798	87.69
461.018	82.69
461.238	87.69
461.458	89.69
461.678	92.69
461.898	89.69
462.118	77.69
462.338	82.69
462.558	81.69
462.777	93.69
462.997	95.69
463.217	76.69
463.437	94.69
463.657	97.69
463.876	81.69
464.096	95.69
464.316	100.69
464.536	80.69
464.755	85.69
464.975	107.69
465.195	172.69
465.414	153.69
465.634	93.69
465.854	90.69
466.073	85.69
466.293	80.69
466.512	87.69
466.732	89.69
466.951	75.69
467.171	89.69
467.391	94.69
467.61	101.69
467.829	110.69
468.049	89.69
468.268	102.69
468.488	88.69
468.707	87.69
468.927	87.69
469.146	98.69
469.365	89.69
469.585	77.69
469.804	84.69
470.023	94.69
470.243	96.69
470.462	107.69
470.681	101.69
470.901	96.69
471.12	86.69
471.339	82.69
471.558	80.69
471.777	88.69
471.997	97.69
472.216	88.69
472.435	95.69
472.654	86.69
472.873	67.69
473.092	91.69
473.311	89.69
473.53	93.69
473.749	79.69
473.968	94.69
474.187	90.69
474.406	108.69
474.625	70.69
474.844	94.69
475.063	80.69
475.282	81.69
475.501	86.69
475.72	90.69
475.939	91.69
476.158	94.69
476.377	89.69
476.596	90.69
476.814	87.69
477.033	82.69
477.252	89.69
477.471	93.69
477.69	112.69
477.908	84.69
478.127	78.69
478.346	85.69
478.564	84.69
478.783	99.69
479.002	94.69
479.22	97.69
479.439	92.69
479.658	104.69
479.876	84.69
480.095	86.69
480.313	96.69
480.532	83.69
480.751	96.69
480.969	110.69
481.188	125.69
481.406	126.69
481.624	93.69
481.843	108.69
482.061	81.69
482.28	90.69
482.498	87.69
482.717	77.69
482.935	85.69
483.153	80.69
483.372	87.69
483.59	104.69
483.808	101.69
484.027	97.69
484.245	93.69
484.463	92.69
484.681	93.69
484.9	88.69
485.118	98.69
485.336	90.69
485.554	105.69
485.772	100.69
485.99	90.69
486.209	108.69
486.427	112.69
486.645	112.69
486.863	113.69
487.081	100.69
487.299	94.69
487.517	105.69
487.735	100.69
487.953	93.69
488.171	98.69
488.389	99.69
488.607	94.69
488.825	95.69
489.043	89.69
489.261	94.69
489.479	100.69
489.696	92.69
489.914	76.69
490.132	90.69
490.35	98.69
490.568	89.69
490.786	85.69
491.003	97.69
491.221	81.69
491.439	97.69
491.657	102.69
491.874	95.69
492.092	89.69
492.31	87.69
492.527	86.69
492.745	97.69
492.963	96.69
493.18	87.69
493.398	90.69
493.615	110.69
493.833	101.69
494.05	84.69
494.268	100.69
494.485	101.69
494.703	88.69
494.92	87.69
495.138	98.69
495.355	92.69
495.573	94.69
495.79	82.69
496.008	87.69
496.225	92.69
496.442	98.69
496.66	105.69
496.877	109.69
497.094	85.69
497.312	97.69
497.529	90.69
497.746	83.69
497.963	77.69
498.181	103.69
498.398	93.69
498.615	103.69
498.832	109.69
499.049	105.69
499.267	75.69
499.484	78.69
499.701	95.69
499.918	84.69
500.135	93.69
500.352	88.69
500.569	90.69
500.786	101.69
501.003	101.69
501.22	99.69
501.437	95.69
501.654	87.69
501.871	102.69
502.088	97.69
502.305	97.69
502.522	80.69
502.739	78.69
502.956	95.69
503.172	92.69
503.389	107.69
503.606	117.69
503.823	89.69
504.04	92.69
504.256	88.69
504.473	82.69
504.69	94.69
504.907	92.69
505.123	90.69
505.34	100.69
505.557	88.69
505.773	93.69
505.99	82.69
506.207	109.69
506.423	91.69
506.64	89.69
506.856	82.69
507.073	89.69
507.289	89.69
507.506	112.69
507.722	108.69
507.939	103.69
508.155	97.69
508.372	95.69
508.588	94.69
508.805	97.69
509.021	98.69
509.238	106.69
509.454	89.69
509.67	101.69
509.887	101.69
510.103	141.69
510.319	228.69
510.536	800.69
510.752	2480.69
510.968	677.69
511.184	158.69
511.401	114.69
511.617	102.69
511.833	89.69
512.049	93.69
512.265	84.69
512.481	89.69
512.698	84.69
512.914	99.69
513.13	96.69
513.346	105.69
513.562	97.69
513.778	89.69
513.994	120.69
514.21	104.69
514.426	101.69
514.642	130.69
514.858	140.69
515.074	160.69
515.29	440.69
515.506	1474.69
515.721	535.69
