Data from Uncirc_2004_H10_HRD10591_00017.txt Node
Date: Wed Jan 03 10:32:16 EST 2024
User: Yrep
Spectrometer: HR+D1059
Trigger mode: 1
Integration Time (sec): 1.000000E-1
Scans to average: 1
Electric dark correction enabled: true
Nonlinearity correction enabled: false
Boxcar width: 0
XAxis mode: Wavelengths
Number of Pixels in Spectrum: 2048
>>>>>Begin Spectral Data<<<<<
223.165	-16.31
223.4	-16.31
223.635	-16.31
223.869	-25.31
224.104	-21.31
224.338	-20.31
224.573	-14.31
224.808	-14.31
225.042	-13.31
225.277	-4.31
225.511	6.69
225.746	7.69
225.98	9.69
226.215	15.69
226.449	11.69
226.683	13.69
226.918	38.69
227.152	25.69
227.387	29.69
227.621	43.69
227.856	55.69
228.09	41.69
228.324	57.69
228.559	61.69
228.793	71.69
229.027	66.69
229.262	77.69
229.496	73.69
229.73	82.69
229.964	89.69
230.199	83.69
230.433	96.69
230.667	85.69
230.901	82.69
231.136	81.69
231.37	69.69
231.604	72.69
231.838	83.69
232.072	83.69
232.306	86.69
232.541	79.69
232.775	72.69
233.009	83.69
233.243	83.69
233.477	99.69
233.711	78.69
233.945	73.69
234.179	83.69
234.413	88.69
234.647	90.69
234.881	79.69
235.115	88.69
235.349	81.69
235.583	82.69
235.817	93.69
236.051	89.69
236.285	76.69
236.519	72.69
236.753	84.69
236.987	79.69
237.221	73.69
237.455	85.69
237.689	76.69
237.922	83.69
238.156	83.69
238.39	75.69
238.624	76.69
238.858	75.69
239.091	56.69
239.325	79.69
239.559	88.69
239.793	96.69
240.027	84.69
240.26	75.69
240.494	91.69
240.728	84.69
240.961	86.69
241.195	97.69
241.429	81.69
241.662	80.69
241.896	81.69
242.13	91.69
242.363	85.69
242.597	79.69
242.83	88.69
243.064	81.69
243.298	90.69
243.531	83.69
243.765	85.69
243.998	74.69
244.232	78.69
244.465	81.69
244.699	78.69
244.932	95.69
245.166	99.69
245.399	79.69
245.633	87.69
245.866	63.69
246.099	81.69
246.333	71.69
246.566	77.69
246.8	84.69
247.033	72.69
247.266	76.69
247.5	88.69
247.733	84.69
247.966	83.69
248.2	96.69
248.433	80.69
248.666	72.69
248.899	66.69
249.133	87.69
249.366	92.69
249.599	112.69
249.832	83.69
250.066	86.69
250.299	80.69
250.532	88.69
250.765	70.69
250.998	90.69
251.231	90.69
251.465	84.69
251.698	87.69
251.931	79.69
252.164	81.69
252.397	88.69
252.63	91.69
252.863	90.69
253.096	91.69
253.329	88.69
253.562	87.69
253.795	79.69
254.028	85.69
254.261	84.69
254.494	85.69
254.727	83.69
254.96	75.69
255.193	76.69
255.426	76.69
255.659	85.69
255.892	81.69
256.124	76.69
256.357	76.69
256.59	75.69
256.823	93.69
257.056	82.69
257.289	83.69
257.521	88.69
257.754	79.69
257.987	74.69
258.22	100.69
258.452	92.69
258.685	87.69
258.918	83.69
259.151	72.69
259.383	89.69
259.616	86.69
259.849	82.69
260.081	102.69
260.314	74.69
260.547	76.69
260.779	76.69
261.012	96.69
261.244	90.69
261.477	92.69
261.71	95.69
261.942	107.69
262.175	108.69
262.407	81.69
262.64	87.69
262.872	89.69
263.105	80.69
263.337	96.69
263.57	80.69
263.802	88.69
264.035	83.69
264.267	74.69
264.499	66.69
264.732	86.69
264.964	79.69
265.197	89.69
265.429	85.69
265.661	85.69
265.894	86.69
266.126	82.69
266.358	92.69
266.591	75.69
266.823	94.69
267.055	97.69
267.287	72.69
267.52	86.69
267.752	92.69
267.984	90.69
268.216	81.69
268.448	93.69
268.681	88.69
268.913	94.69
269.145	92.69
269.377	89.69
269.609	84.69
269.841	90.69
270.073	93.69
270.306	100.69
270.538	74.69
270.77	85.69
271.002	83.69
271.234	96.69
271.466	80.69
271.698	78.69
271.93	94.69
272.162	93.69
272.394	90.69
272.626	86.69
272.858	80.69
273.09	89.69
273.322	91.69
273.553	86.69
273.785	98.69
274.017	98.69
274.249	95.69
274.481	88.69
274.713	91.69
274.945	81.69
275.176	91.69
275.408	85.69
275.64	88.69
275.872	80.69
276.104	98.69
276.335	100.69
276.567	92.69
276.799	97.69
277.031	89.69
277.262	104.69
277.494	99.69
277.726	82.69
277.957	89.69
278.189	88.69
278.421	83.69
278.652	88.69
278.884	80.69
279.115	87.69
279.347	96.69
279.579	84.69
279.81	91.69
280.042	87.69
280.273	102.69
280.505	81.69
280.736	87.69
280.968	74.69
281.199	85.69
281.431	95.69
281.662	89.69
281.894	101.69
282.125	106.69
282.356	99.69
282.588	116.69
282.819	111.69
283.051	76.69
283.282	93.69
283.513	105.69
283.745	94.69
283.976	87.69
284.207	88.69
284.439	103.69
284.67	88.69
284.901	82.69
285.132	90.69
285.364	98.69
285.595	79.69
285.826	92.69
286.057	79.69
286.288	85.69
286.52	90.69
286.751	88.69
286.982	87.69
287.213	74.69
287.444	98.69
287.675	99.69
287.906	90.69
288.138	96.69
288.369	91.69
288.6	79.69
288.831	95.69
289.062	76.69
289.293	97.69
289.524	88.69
289.755	98.69
289.986	96.69
290.217	94.69
290.448	103.69
290.679	105.69
290.91	77.69
291.141	87.69
291.371	89.69
291.602	83.69
291.833	101.69
292.064	80.69
292.295	82.69
292.526	83.69
292.757	91.69
292.987	84.69
293.218	81.69
293.449	91.69
293.68	89.69
293.91	89.69
294.141	100.69
294.372	89.69
294.603	91.69
294.833	96.69
295.064	76.69
295.295	95.69
295.525	101.69
295.756	102.69
295.987	98.69
296.217	123.69
296.448	124.69
296.679	81.69
296.909	88.69
297.14	89.69
297.37	85.69
297.601	98.69
297.831	91.69
298.062	93.69
298.292	101.69
298.523	84.69
298.753	90.69
298.984	86.69
299.214	102.69
299.445	103.69
299.675	94.69
299.905	101.69
300.136	87.69
300.366	88.69
300.597	89.69
300.827	104.69
301.057	108.69
301.288	99.69
301.518	88.69
301.748	89.69
301.979	103.69
302.209	89.69
302.439	108.69
302.669	81.69
302.9	91.69
303.13	91.69
303.36	89.69
303.59	92.69
303.82	92.69
304.051	82.69
304.281	92.69
304.511	97.69
304.741	86.69
304.971	88.69
305.201	93.69
305.431	90.69
305.661	90.69
305.891	96.69
306.121	93.69
306.352	105.69
306.582	97.69
306.812	87.69
307.042	101.69
307.272	84.69
307.502	95.69
307.731	94.69
307.961	92.69
308.191	94.69
308.421	87.69
308.651	97.69
308.881	98.69
309.111	84.69
309.341	88.69
309.571	85.69
309.8	89.69
310.03	88.69
310.26	87.69
310.49	98.69
310.72	101.69
310.949	102.69
311.179	101.69
311.409	99.69
311.639	84.69
311.868	97.69
312.098	107.69
312.328	94.69
312.557	94.69
312.787	109.69
313.017	96.69
313.246	99.69
313.476	85.69
313.706	91.69
313.935	80.69
314.165	104.69
314.394	104.69
314.624	93.69
314.853	92.69
315.083	101.69
315.312	81.69
315.542	91.69
315.771	100.69
316.001	96.69
316.23	101.69
316.46	108.69
316.689	96.69
316.919	84.69
317.148	92.69
317.377	109.69
317.607	98.69
317.836	106.69
318.065	92.69
318.295	96.69
318.524	91.69
318.753	93.69
318.983	102.69
319.212	114.69
319.441	109.69
319.67	103.69
319.9	96.69
320.129	89.69
320.358	114.69
320.587	99.69
320.816	103.69
321.046	96.69
321.275	104.69
321.504	99.69
321.733	106.69
321.962	108.69
322.191	86.69
322.42	104.69
322.649	117.69
322.878	112.69
323.108	109.69
323.337	124.69
323.566	125.69
323.795	153.69
324.024	199.69
324.253	387.69
324.482	776.69
324.71	1605.69
324.939	2068.69
325.168	766.69
325.397	232.69
325.626	150.69
325.855	119.69
326.084	125.69
326.313	127.69
326.542	155.69
326.77	231.69
326.999	460.69
327.228	935.69
327.457	1627.69
327.686	1263.69
327.914	355.69
328.143	176.69
328.372	163.69
328.6	133.69
328.829	124.69
329.058	118.69
329.287	109.69
329.515	104.69
329.744	111.69
329.972	108.69
330.201	97.69
330.43	104.69
330.658	122.69
330.887	131.69
331.115	124.69
331.344	108.69
331.572	112.69
331.801	99.69
332.03	104.69
332.258	96.69
332.486	100.69
332.715	88.69
332.943	95.69
333.172	109.69
333.4	98.69
333.629	113.69
333.857	107.69
334.085	122.69
334.314	108.69
334.542	100.69
334.771	122.69
334.999	109.69
335.227	97.69
335.455	85.69
335.684	105.69
335.912	90.69
336.14	96.69
336.369	101.69
336.597	102.69
336.825	100.69
337.053	80.69
337.281	83.69
337.51	100.69
337.738	93.69
337.966	98.69
338.194	101.69
338.422	83.69
338.65	96.69
338.878	104.69
339.106	91.69
339.334	91.69
339.562	93.69
339.79	93.69
340.018	104.69
340.246	92.69
340.474	89.69
340.702	86.69
340.93	89.69
341.158	101.69
341.386	101.69
341.614	108.69
341.842	93.69
342.07	88.69
342.298	84.69
342.526	93.69
342.754	98.69
342.981	95.69
343.209	87.69
343.437	100.69
343.665	104.69
343.893	95.69
344.12	100.69
344.348	100.69
344.576	97.69
344.804	87.69
345.031	86.69
345.259	98.69
345.487	106.69
345.714	103.69
345.942	97.69
346.17	90.69
346.397	95.69
346.625	97.69
346.853	82.69
347.08	86.69
347.308	87.69
347.535	88.69
347.763	112.69
347.99	96.69
348.218	107.69
348.445	93.69
348.673	100.69
348.9	89.69
349.128	92.69
349.355	88.69
349.583	106.69
349.81	100.69
350.037	96.69
350.265	86.69
350.492	98.69
350.72	97.69
350.947	96.69
351.174	111.69
351.402	116.69
351.629	94.69
351.856	113.69
352.083	102.69
352.311	103.69
352.538	97.69
352.765	106.69
352.992	105.69
353.22	120.69
353.447	91.69
353.674	110.69
353.901	114.69
354.128	98.69
354.355	99.69
354.583	115.69
354.81	108.69
355.037	106.69
355.264	90.69
355.491	113.69
355.718	85.69
355.945	87.69
356.172	105.69
356.399	110.69
356.626	96.69
356.853	91.69
357.08	96.69
357.307	77.69
357.534	108.69
357.761	82.69
357.988	92.69
358.215	106.69
358.441	89.69
358.668	91.69
358.895	90.69
359.122	101.69
359.349	98.69
359.576	85.69
359.802	91.69
360.029	109.69
360.256	103.69
360.483	108.69
360.709	91.69
360.936	95.69
361.163	103.69
361.39	102.69
361.616	96.69
361.843	99.69
362.07	93.69
362.296	94.69
362.523	98.69
362.749	99.69
362.976	100.69
363.203	106.69
363.429	82.69
363.656	93.69
363.882	95.69
364.109	97.69
364.335	85.69
364.562	87.69
364.788	97.69
365.015	115.69
365.241	108.69
365.468	117.69
365.694	98.69
365.92	87.69
366.147	95.69
366.373	84.69
366.599	98.69
366.826	90.69
367.052	88.69
367.278	96.69
367.505	110.69
367.731	84.69
367.957	82.69
368.184	103.69
368.41	108.69
368.636	114.69
368.862	123.69
369.089	108.69
369.315	99.69
369.541	96.69
369.767	92.69
369.993	101.69
370.219	96.69
370.445	87.69
370.672	98.69
370.898	90.69
371.124	87.69
371.35	93.69
371.576	90.69
371.802	85.69
372.028	87.69
372.254	90.69
372.48	85.69
372.706	91.69
372.932	95.69
373.158	87.69
373.384	92.69
373.61	98.69
373.835	82.69
374.061	99.69
374.287	86.69
374.513	101.69
374.739	99.69
374.965	103.69
375.191	77.69
375.416	92.69
375.642	103.69
375.868	95.69
376.094	91.69
376.319	90.69
376.545	95.69
376.771	88.69
376.997	99.69
377.222	88.69
377.448	97.69
377.674	102.69
377.899	95.69
378.125	111.69
378.35	110.69
378.576	102.69
378.802	103.69
379.027	101.69
379.253	84.69
379.478	111.69
379.704	104.69
379.929	93.69
380.155	102.69
380.38	105.69
380.606	99.69
380.831	99.69
381.057	107.69
381.282	93.69
381.507	103.69
381.733	111.69
381.958	113.69
382.184	132.69
382.409	100.69
382.634	113.69
382.86	113.69
383.085	100.69
383.31	127.69
383.535	102.69
383.761	110.69
383.986	106.69
384.211	105.69
384.436	96.69
384.662	114.69
384.887	105.69
385.112	123.69
385.337	115.69
385.562	119.69
385.787	100.69
386.013	107.69
386.238	128.69
386.463	114.69
386.688	114.69
386.913	116.69
387.138	124.69
387.363	128.69
387.588	122.69
387.813	97.69
388.038	109.69
388.263	116.69
388.488	121.69
388.713	104.69
388.938	96.69
389.163	91.69
389.387	104.69
389.612	93.69
389.837	101.69
390.062	74.69
390.287	98.69
390.512	91.69
390.736	74.69
390.961	98.69
391.186	93.69
391.411	111.69
391.636	83.69
391.86	82.69
392.085	88.69
392.31	91.69
392.534	91.69
392.759	92.69
392.984	81.69
393.208	105.69
393.433	99.69
393.658	84.69
393.882	85.69
394.107	97.69
394.331	88.69
394.556	94.69
394.78	93.69
395.005	96.69
395.229	104.69
395.454	108.69
395.678	90.69
395.903	96.69
396.127	97.69
396.352	85.69
396.576	98.69
396.801	93.69
397.025	91.69
397.249	67.69
397.474	92.69
397.698	85.69
397.922	96.69
398.147	88.69
398.371	83.69
398.595	93.69
398.82	93.69
399.044	88.69
399.268	89.69
399.492	98.69
399.717	90.69
399.941	88.69
400.165	104.69
400.389	89.69
400.613	93.69
400.837	84.69
401.062	86.69
401.286	94.69
401.51	86.69
401.734	85.69
401.958	104.69
402.182	133.69
402.406	159.69
402.63	108.69
402.854	98.69
403.078	95.69
403.302	88.69
403.526	102.69
403.75	87.69
403.974	106.69
404.198	75.69
404.422	91.69
404.645	101.69
404.869	94.69
405.093	107.69
405.317	96.69
405.541	99.69
405.765	97.69
405.988	111.69
406.212	180.69
406.436	209.69
406.66	156.69
406.883	100.69
407.107	77.69
407.331	96.69
407.555	102.69
407.778	100.69
408.002	96.69
408.226	89.69
408.449	95.69
408.673	92.69
408.896	87.69
409.12	99.69
409.344	96.69
409.567	84.69
409.791	101.69
410.014	98.69
410.238	91.69
410.461	94.69
410.685	85.69
410.908	80.69
411.132	94.69
411.355	88.69
411.578	97.69
411.802	81.69
412.025	96.69
412.249	94.69
412.472	87.69
412.695	92.69
412.919	83.69
413.142	103.69
413.365	96.69
413.589	94.69
413.812	88.69
414.035	107.69
414.258	91.69
414.482	87.69
414.705	92.69
414.928	103.69
415.151	88.69
415.374	100.69
415.597	102.69
415.821	100.69
416.044	107.69
416.267	108.69
416.49	100.69
416.713	100.69
416.936	83.69
417.159	92.69
417.382	85.69
417.605	92.69
417.828	102.69
418.051	104.69
418.274	95.69
418.497	86.69
418.72	83.69
418.943	96.69
419.166	98.69
419.389	104.69
419.611	100.69
419.834	98.69
420.057	89.69
420.28	80.69
420.503	80.69
420.726	91.69
420.948	96.69
421.171	114.69
421.394	101.69
421.617	95.69
421.839	95.69
422.062	86.69
422.285	89.69
422.507	95.69
422.73	116.69
422.953	100.69
423.175	86.69
423.398	84.69
423.621	93.69
423.843	79.69
424.066	79.69
424.288	97.69
424.511	102.69
424.733	117.69
424.956	118.69
425.178	93.69
425.401	99.69
425.623	99.69
425.846	95.69
426.068	96.69
426.291	91.69
426.513	93.69
426.735	97.69
426.958	93.69
427.18	108.69
427.402	129.69
427.625	167.69
427.847	134.69
428.069	107.69
428.292	99.69
428.514	94.69
428.736	88.69
428.958	106.69
429.181	105.69
429.403	86.69
429.625	98.69
429.847	104.69
430.069	71.69
430.292	92.69
430.514	106.69
430.736	93.69
430.958	89.69
431.18	90.69
431.402	99.69
431.624	97.69
431.846	96.69
432.068	86.69
432.29	90.69
432.512	92.69
432.734	76.69
432.956	89.69
433.178	104.69
433.4	87.69
433.622	101.69
433.844	100.69
434.066	99.69
434.287	89.69
434.509	91.69
434.731	75.69
434.953	85.69
435.175	91.69
435.397	100.69
435.618	103.69
435.84	102.69
436.062	112.69
436.284	119.69
436.505	118.69
436.727	101.69
436.949	97.69
437.17	83.69
437.392	86.69
437.614	101.69
437.835	110.69
438.057	93.69
438.278	124.69
438.5	117.69
438.721	128.69
438.943	99.69
439.165	86.69
439.386	94.69
439.608	80.69
439.829	96.69
440.05	136.69
440.272	124.69
440.493	103.69
440.715	95.69
440.936	76.69
441.158	91.69
441.379	87.69
441.6	103.69
441.822	83.69
442.043	93.69
442.264	91.69
442.486	98.69
442.707	103.69
442.928	98.69
443.149	146.69
443.371	135.69
443.592	106.69
443.813	113.69
444.034	105.69
444.255	93.69
444.476	91.69
444.698	90.69
444.919	80.69
445.14	140.69
445.361	128.69
445.582	119.69
445.803	140.69
446.024	130.69
446.245	145.69
446.466	98.69
446.687	92.69
446.908	94.69
447.129	80.69
447.35	86.69
447.571	100.69
447.792	86.69
448.013	100.69
448.234	112.69
448.455	105.69
448.675	119.69
448.896	106.69
449.117	103.69
449.338	94.69
449.559	130.69
449.779	125.69
450	101.69
450.221	97.69
450.442	95.69
450.662	97.69
450.883	98.69
451.104	105.69
451.324	100.69
451.545	98.69
451.766	104.69
451.986	106.69
452.207	99.69
452.428	89.69
452.648	94.69
452.869	109.69
453.089	103.69
453.31	122.69
453.53	92.69
453.751	82.69
453.971	98.69
454.192	113.69
454.412	84.69
454.633	89.69
454.853	94.69
455.073	98.69
455.294	96.69
455.514	107.69
455.734	95.69
455.955	98.69
456.175	107.69
456.395	84.69
456.616	77.69
456.836	90.69
457.056	86.69
457.276	97.69
457.497	83.69
457.717	91.69
457.937	98.69
458.157	106.69
458.377	101.69
458.598	105.69
458.818	136.69
459.038	149.69
459.258	117.69
459.478	106.69
459.698	91.69
459.918	93.69
460.138	78.69
460.358	90.69
460.578	83.69
460.798	76.69
461.018	89.69
461.238	89.69
461.458	100.69
461.678	73.69
461.898	93.69
462.118	89.69
462.338	90.69
462.558	82.69
462.777	79.69
462.997	92.69
463.217	74.69
463.437	90.69
463.657	88.69
463.876	72.69
464.096	89.69
464.316	89.69
464.536	96.69
464.755	101.69
464.975	105.69
465.195	152.69
465.414	144.69
465.634	96.69
465.854	90.69
466.073	89.69
466.293	99.69
466.512	96.69
466.732	103.69
466.951	89.69
467.171	91.69
467.391	92.69
467.61	96.69
467.829	108.69
468.049	112.69
468.268	88.69
468.488	90.69
468.707	92.69
468.927	89.69
469.146	91.69
469.365	89.69
469.585	82.69
469.804	96.69
470.023	88.69
470.243	105.69
470.462	101.69
470.681	99.69
470.901	87.69
471.12	99.69
471.339	77.69
471.558	91.69
471.777	101.69
471.997	80.69
472.216	106.69
472.435	104.69
472.654	92.69
472.873	99.69
473.092	91.69
473.311	87.69
473.53	94.69
473.749	93.69
473.968	100.69
474.187	88.69
474.406	107.69
474.625	85.69
474.844	74.69
475.063	81.69
475.282	108.69
475.501	83.69
475.72	109.69
475.939	74.69
476.158	98.69
476.377	93.69
476.596	92.69
476.814	90.69
477.033	94.69
477.252	89.69
477.471	91.69
477.69	86.69
477.908	72.69
478.127	83.69
478.346	101.69
478.564	96.69
478.783	101.69
479.002	95.69
479.22	91.69
479.439	99.69
479.658	94.69
479.876	101.69
480.095	87.69
480.313	83.69
480.532	98.69
480.751	97.69
480.969	109.69
481.188	148.69
481.406	121.69
481.624	95.69
481.843	83.69
482.061	112.69
482.28	89.69
482.498	93.69
482.717	93.69
482.935	94.69
483.153	79.69
483.372	89.69
483.59	94.69
483.808	107.69
484.027	79.69
484.245	91.69
484.463	93.69
484.681	97.69
484.9	87.69
485.118	99.69
485.336	97.69
485.554	102.69
485.772	105.69
485.99	119.69
486.209	111.69
486.427	100.69
486.645	114.69
486.863	100.69
487.081	100.69
487.299	105.69
487.517	91.69
487.735	100.69
487.953	97.69
488.171	96.69
488.389	101.69
488.607	104.69
488.825	98.69
489.043	86.69
489.261	105.69
489.479	90.69
489.696	90.69
489.914	80.69
490.132	96.69
490.35	88.69
490.568	110.69
490.786	94.69
491.003	95.69
491.221	97.69
491.439	103.69
491.657	94.69
491.874	99.69
492.092	81.69
492.31	99.69
492.527	106.69
492.745	77.69
492.963	116.69
493.18	93.69
493.398	98.69
493.615	97.69
493.833	102.69
494.05	96.69
494.268	108.69
494.485	93.69
494.703	98.69
494.92	83.69
495.138	94.69
495.355	96.69
495.573	99.69
495.79	99.69
496.008	87.69
496.225	101.69
496.442	91.69
496.66	99.69
496.877	84.69
497.094	109.69
497.312	79.69
497.529	88.69
497.746	106.69
497.963	102.69
498.181	94.69
498.398	90.69
498.615	112.69
498.832	90.69
499.049	92.69
499.267	92.69
499.484	92.69
499.701	92.69
499.918	92.69
500.135	75.69
500.352	100.69
500.569	87.69
500.786	85.69
501.003	89.69
501.22	90.69
501.437	86.69
501.654	106.69
501.871	118.69
502.088	93.69
502.305	92.69
502.522	96.69
502.739	90.69
502.956	93.69
503.172	93.69
503.389	85.69
503.606	119.69
503.823	97.69
504.04	95.69
504.256	93.69
504.473	84.69
504.69	100.69
504.907	99.69
505.123	91.69
505.34	90.69
505.557	100.69
505.773	100.69
505.99	91.69
506.207	98.69
506.423	92.69
506.64	89.69
506.856	85.69
507.073	96.69
507.289	93.69
507.506	104.69
507.722	115.69
507.939	115.69
508.155	103.69
508.372	94.69
508.588	106.69
508.805	111.69
509.021	105.69
509.238	103.69
509.454	98.69
509.67	122.69
509.887	114.69
510.103	138.69
510.319	224.69
510.536	767.69
510.752	2300.69
510.968	647.69
511.184	159.69
511.401	116.69
511.617	106.69
511.833	104.69
512.049	96.69
512.265	92.69
512.481	99.69
512.698	99.69
512.914	90.69
513.13	84.69
513.346	100.69
513.562	105.69
513.778	99.69
513.994	105.69
514.21	109.69
514.426	127.69
