Data from Uncirc_2004_H10_HRD10591_00063.txt Node
Date: Wed Jan 03 10:32:25 EST 2024
User: Yrep
Spectrometer: HR+D1059
Trigger mode: 1
Integration Time (sec): 1.000000E-1
Scans to average: 1
Electric dark correction enabled: true
Nonlinearity correction enabled: false
Boxcar width: 0
XAxis mode: Wavelengths
Number of Pixels in Spectrum: 2048
>>>>>Begin Spectral Data<<<<<
223.165	-26.94
223.4	-26.94
223.635	-26.94
223.869	-28.94
224.104	-11.94
224.338	-16.94
224.573	-27.94
224.808	-4.94
225.042	-14.94
225.277	-12.94
225.511	3.06
225.746	12.06
225.98	4.06
226.215	21.06
226.449	30.06
226.683	27.06
226.918	23.06
227.152	25.06
227.387	26.06
227.621	47.06
227.856	23.06
228.09	48.06
228.324	55.06
228.559	52.06
228.793	65.06
229.027	70.06
229.262	67.06
229.496	67.06
229.73	81.06
229.964	59.06
230.199	76.06
230.433	77.06
230.667	93.06
230.901	82.06
231.136	71.06
231.37	69.06
231.604	73.06
231.838	77.06
232.072	54.06
232.306	78.06
232.541	74.06
232.775	73.06
233.009	74.06
233.243	94.06
233.477	83.06
233.711	66.06
233.945	80.06
234.179	93.06
234.413	81.06
234.647	78.06
234.881	68.06
235.115	75.06
235.349	78.06
235.583	62.06
235.817	61.06
236.051	72.06
236.285	62.06
236.519	83.06
236.753	83.06
236.987	86.06
237.221	79.06
237.455	80.06
237.689	80.06
237.922	74.06
238.156	71.06
238.39	65.06
238.624	69.06
238.858	80.06
239.091	66.06
239.325	80.06
239.559	73.06
239.793	75.06
240.027	66.06
240.26	78.06
240.494	77.06
240.728	77.06
240.961	75.06
241.195	74.06
241.429	73.06
241.662	56.06
241.896	72.06
242.13	60.06
242.363	71.06
242.597	62.06
242.83	79.06
243.064	69.06
243.298	75.06
243.531	86.06
243.765	84.06
243.998	91.06
244.232	94.06
244.465	78.06
244.699	93.06
244.932	84.06
245.166	81.06
245.399	81.06
245.633	67.06
245.866	56.06
246.099	74.06
246.333	77.06
246.566	75.06
246.8	64.06
247.033	80.06
247.266	79.06
247.5	80.06
247.733	77.06
247.966	74.06
248.2	71.06
248.433	68.06
248.666	80.06
248.899	70.06
249.133	79.06
249.366	82.06
249.599	84.06
249.832	76.06
250.066	64.06
250.299	73.06
250.532	61.06
250.765	76.06
250.998	82.06
251.231	75.06
251.465	64.06
251.698	80.06
251.931	81.06
252.164	83.06
252.397	74.06
252.63	67.06
252.863	86.06
253.096	88.06
253.329	87.06
253.562	74.06
253.795	82.06
254.028	78.06
254.261	81.06
254.494	77.06
254.727	82.06
254.96	75.06
255.193	83.06
255.426	79.06
255.659	71.06
255.892	89.06
256.124	67.06
256.357	76.06
256.59	82.06
256.823	92.06
257.056	79.06
257.289	79.06
257.521	71.06
257.754	81.06
257.987	77.06
258.22	87.06
258.452	79.06
258.685	67.06
258.918	83.06
259.151	76.06
259.383	86.06
259.616	81.06
259.849	83.06
260.081	64.06
260.314	76.06
260.547	70.06
260.779	80.06
261.012	80.06
261.244	85.06
261.477	84.06
261.71	106.06
261.942	118.06
262.175	108.06
262.407	88.06
262.64	82.06
262.872	71.06
263.105	75.06
263.337	79.06
263.57	81.06
263.802	81.06
264.035	82.06
264.267	78.06
264.499	86.06
264.732	86.06
264.964	82.06
265.197	88.06
265.429	81.06
265.661	82.06
265.894	98.06
266.126	80.06
266.358	80.06
266.591	79.06
266.823	76.06
267.055	61.06
267.287	79.06
267.52	75.06
267.752	81.06
267.984	78.06
268.216	68.06
268.448	70.06
268.681	75.06
268.913	85.06
269.145	83.06
269.377	86.06
269.609	91.06
269.841	81.06
270.073	80.06
270.306	78.06
270.538	83.06
270.77	82.06
271.002	77.06
271.234	85.06
271.466	76.06
271.698	94.06
271.93	71.06
272.162	87.06
272.394	90.06
272.626	86.06
272.858	71.06
273.09	83.06
273.322	81.06
273.553	83.06
273.785	84.06
274.017	90.06
274.249	84.06
274.481	72.06
274.713	86.06
274.945	77.06
275.176	91.06
275.408	99.06
275.64	71.06
275.872	67.06
276.104	70.06
276.335	77.06
276.567	93.06
276.799	94.06
277.031	99.06
277.262	87.06
277.494	95.06
277.726	81.06
277.957	80.06
278.189	87.06
278.421	93.06
278.652	88.06
278.884	80.06
279.115	105.06
279.347	79.06
279.579	100.06
279.81	75.06
280.042	73.06
280.273	79.06
280.505	74.06
280.736	77.06
280.968	84.06
281.199	81.06
281.431	76.06
281.662	79.06
281.894	68.06
282.125	94.06
282.356	119.06
282.588	142.06
282.819	98.06
283.051	85.06
283.282	82.06
283.513	88.06
283.745	85.06
283.976	89.06
284.207	79.06
284.439	81.06
284.67	77.06
284.901	84.06
285.132	94.06
285.364	85.06
285.595	90.06
285.826	80.06
286.057	83.06
286.288	82.06
286.52	85.06
286.751	86.06
286.982	74.06
287.213	79.06
287.444	83.06
287.675	68.06
287.906	80.06
288.138	84.06
288.369	79.06
288.6	83.06
288.831	88.06
289.062	74.06
289.293	77.06
289.524	91.06
289.755	92.06
289.986	81.06
290.217	92.06
290.448	81.06
290.679	83.06
290.91	100.06
291.141	89.06
291.371	91.06
291.602	78.06
291.833	88.06
292.064	77.06
292.295	92.06
292.526	95.06
292.757	86.06
292.987	78.06
293.218	93.06
293.449	87.06
293.68	74.06
293.91	86.06
294.141	73.06
294.372	87.06
294.603	81.06
294.833	78.06
295.064	81.06
295.295	86.06
295.525	88.06
295.756	112.06
295.987	129.06
296.217	136.06
296.448	101.06
296.679	90.06
296.909	68.06
297.14	86.06
297.37	78.06
297.601	81.06
297.831	77.06
298.062	87.06
298.292	95.06
298.523	79.06
298.753	80.06
298.984	84.06
299.214	84.06
299.445	87.06
299.675	92.06
299.905	90.06
300.136	90.06
300.366	77.06
300.597	85.06
300.827	91.06
301.057	85.06
301.288	101.06
301.518	95.06
301.748	87.06
301.979	93.06
302.209	90.06
302.439	81.06
302.669	78.06
302.9	96.06
303.13	80.06
303.36	101.06
303.59	90.06
303.82	111.06
304.051	73.06
304.281	82.06
304.511	99.06
304.741	90.06
304.971	86.06
305.201	85.06
305.431	69.06
305.661	83.06
305.891	100.06
306.121	99.06
306.352	91.06
306.582	119.06
306.812	91.06
307.042	82.06
307.272	87.06
307.502	92.06
307.731	68.06
307.961	86.06
308.191	80.06
308.421	80.06
308.651	82.06
308.881	91.06
309.111	101.06
309.341	94.06
309.571	84.06
309.8	101.06
310.03	96.06
310.26	75.06
310.49	82.06
310.72	103.06
310.949	89.06
311.179	95.06
311.409	83.06
311.639	97.06
311.868	83.06
312.098	99.06
312.328	83.06
312.557	102.06
312.787	107.06
313.017	95.06
313.246	80.06
313.476	91.06
313.706	77.06
313.935	96.06
314.165	92.06
314.394	92.06
314.624	95.06
314.853	110.06
315.083	100.06
315.312	80.06
315.542	94.06
315.771	96.06
316.001	95.06
316.23	93.06
316.46	100.06
316.689	94.06
316.919	79.06
317.148	103.06
317.377	92.06
317.607	87.06
317.836	90.06
318.065	80.06
318.295	86.06
318.524	101.06
318.753	91.06
318.983	92.06
319.212	108.06
319.441	112.06
319.67	113.06
319.9	86.06
320.129	89.06
320.358	80.06
320.587	87.06
320.816	92.06
321.046	80.06
321.275	83.06
321.504	86.06
321.733	78.06
321.962	104.06
322.191	83.06
322.42	109.06
322.649	108.06
322.878	124.06
323.108	105.06
323.337	116.06
323.566	126.06
323.795	151.06
324.024	195.06
324.253	396.06
324.482	795.06
324.71	1620.06
324.939	2062.06
325.168	773.06
325.397	235.06
325.626	156.06
325.855	127.06
326.084	138.06
326.313	121.06
326.542	147.06
326.77	228.06
326.999	451.06
327.228	893.06
327.457	1640.06
327.686	1292.06
327.914	338.06
328.143	174.06
328.372	136.06
328.6	139.06
328.829	123.06
329.058	125.06
329.287	110.06
329.515	108.06
329.744	107.06
329.972	87.06
330.201	95.06
330.43	103.06
330.658	114.06
330.887	142.06
331.115	115.06
331.344	102.06
331.572	78.06
331.801	110.06
332.03	85.06
332.258	93.06
332.486	99.06
332.715	88.06
332.943	94.06
333.172	106.06
333.4	108.06
333.629	90.06
333.857	99.06
334.085	99.06
334.314	96.06
334.542	99.06
334.771	101.06
334.999	94.06
335.227	94.06
335.455	72.06
335.684	90.06
335.912	87.06
336.14	107.06
336.369	86.06
336.597	106.06
336.825	89.06
337.053	105.06
337.281	75.06
337.51	74.06
337.738	82.06
337.966	86.06
338.194	93.06
338.422	80.06
338.65	102.06
338.878	92.06
339.106	83.06
339.334	86.06
339.562	91.06
339.79	87.06
340.018	81.06
340.246	79.06
340.474	91.06
340.702	85.06
340.93	87.06
341.158	97.06
341.386	82.06
341.614	92.06
341.842	82.06
342.07	98.06
342.298	96.06
342.526	92.06
342.754	98.06
342.981	85.06
343.209	76.06
343.437	95.06
343.665	83.06
343.893	82.06
344.12	85.06
344.348	89.06
344.576	88.06
344.804	91.06
345.031	96.06
345.259	90.06
345.487	98.06
345.714	87.06
345.942	84.06
346.17	98.06
346.397	101.06
346.625	104.06
346.853	83.06
347.08	90.06
347.308	99.06
347.535	90.06
347.763	86.06
347.99	95.06
348.218	96.06
348.445	99.06
348.673	94.06
348.9	90.06
349.128	97.06
349.355	91.06
349.583	96.06
349.81	100.06
350.037	84.06
350.265	98.06
350.492	90.06
350.72	94.06
350.947	95.06
351.174	104.06
351.402	105.06
351.629	90.06
351.856	86.06
352.083	96.06
352.311	103.06
352.538	88.06
352.765	94.06
352.992	100.06
353.22	96.06
353.447	91.06
353.674	93.06
353.901	93.06
354.128	89.06
354.355	74.06
354.583	106.06
354.81	95.06
355.037	110.06
355.264	95.06
355.491	95.06
355.718	91.06
355.945	92.06
356.172	83.06
356.399	100.06
356.626	92.06
356.853	87.06
357.08	82.06
357.307	77.06
357.534	87.06
357.761	100.06
357.988	93.06
358.215	91.06
358.441	88.06
358.668	97.06
358.895	91.06
359.122	82.06
359.349	92.06
359.576	90.06
359.802	105.06
360.029	95.06
360.256	91.06
360.483	99.06
360.709	91.06
360.936	93.06
361.163	80.06
361.39	98.06
361.616	90.06
361.843	83.06
362.07	93.06
362.296	104.06
362.523	98.06
362.749	99.06
362.976	79.06
363.203	94.06
363.429	82.06
363.656	97.06
363.882	98.06
364.109	84.06
364.335	83.06
364.562	88.06
364.788	83.06
365.015	94.06
365.241	83.06
365.468	99.06
365.694	88.06
365.92	98.06
366.147	84.06
366.373	79.06
366.599	86.06
366.826	96.06
367.052	88.06
367.278	92.06
367.505	84.06
367.731	94.06
367.957	86.06
368.184	88.06
368.41	107.06
368.636	117.06
368.862	101.06
369.089	94.06
369.315	103.06
369.541	88.06
369.767	88.06
369.993	94.06
370.219	97.06
370.445	85.06
370.672	93.06
370.898	77.06
371.124	81.06
371.35	86.06
371.576	82.06
371.802	74.06
372.028	96.06
372.254	81.06
372.48	93.06
372.706	96.06
372.932	81.06
373.158	77.06
373.384	82.06
373.61	87.06
373.835	84.06
374.061	93.06
374.287	104.06
374.513	91.06
374.739	84.06
374.965	87.06
375.191	71.06
375.416	84.06
375.642	86.06
375.868	93.06
376.094	92.06
376.319	89.06
376.545	86.06
376.771	100.06
376.997	91.06
377.222	80.06
377.448	74.06
377.674	84.06
377.899	77.06
378.125	76.06
378.35	82.06
378.576	78.06
378.802	86.06
379.027	89.06
379.253	91.06
379.478	76.06
379.704	88.06
379.929	80.06
380.155	95.06
380.38	97.06
380.606	86.06
380.831	100.06
381.057	90.06
381.282	93.06
381.507	90.06
381.733	96.06
381.958	76.06
382.184	103.06
382.409	94.06
382.634	92.06
382.86	88.06
383.085	104.06
383.31	92.06
383.535	106.06
383.761	98.06
383.986	91.06
384.211	98.06
384.436	96.06
384.662	97.06
384.887	92.06
385.112	99.06
385.337	103.06
385.562	95.06
385.787	100.06
386.013	106.06
386.238	106.06
386.463	114.06
386.688	93.06
386.913	99.06
387.138	100.06
387.363	109.06
387.588	102.06
387.813	106.06
388.038	104.06
388.263	106.06
388.488	106.06
388.713	93.06
388.938	98.06
389.163	91.06
389.387	84.06
389.612	86.06
389.837	96.06
390.062	95.06
390.287	76.06
390.512	85.06
390.736	87.06
390.961	98.06
391.186	75.06
391.411	94.06
391.636	86.06
391.86	98.06
392.085	100.06
392.31	86.06
392.534	78.06
392.759	81.06
392.984	84.06
393.208	78.06
393.433	82.06
393.658	89.06
393.882	82.06
394.107	106.06
394.331	96.06
394.556	76.06
394.78	80.06
395.005	92.06
395.229	93.06
395.454	97.06
395.678	96.06
395.903	79.06
396.127	91.06
396.352	87.06
396.576	73.06
396.801	87.06
397.025	88.06
397.249	86.06
397.474	82.06
397.698	92.06
397.922	81.06
398.147	84.06
398.371	69.06
398.595	77.06
398.82	87.06
399.044	96.06
399.268	91.06
399.492	93.06
399.717	92.06
399.941	101.06
400.165	86.06
400.389	80.06
400.613	84.06
400.837	79.06
401.062	67.06
401.286	77.06
401.51	83.06
401.734	76.06
401.958	112.06
402.182	123.06
402.406	157.06
402.63	121.06
402.854	97.06
403.078	88.06
403.302	90.06
403.526	83.06
403.75	87.06
403.974	92.06
404.198	79.06
404.422	77.06
404.645	90.06
404.869	87.06
405.093	92.06
405.317	91.06
405.541	96.06
405.765	98.06
405.988	117.06
406.212	167.06
406.436	218.06
406.66	154.06
406.883	107.06
407.107	93.06
407.331	95.06
407.555	99.06
407.778	87.06
408.002	87.06
408.226	95.06
408.449	87.06
408.673	82.06
408.896	94.06
409.12	92.06
409.344	99.06
409.567	86.06
409.791	100.06
410.014	106.06
410.238	95.06
410.461	85.06
410.685	107.06
410.908	106.06
411.132	89.06
411.355	93.06
411.578	91.06
411.802	86.06
412.025	73.06
412.249	87.06
412.472	76.06
412.695	84.06
412.919	82.06
413.142	95.06
413.365	89.06
413.589	76.06
413.812	78.06
414.035	82.06
414.258	79.06
414.482	84.06
414.705	77.06
414.928	93.06
415.151	84.06
415.374	97.06
415.597	86.06
415.821	80.06
416.044	92.06
416.267	94.06
416.49	86.06
416.713	84.06
416.936	84.06
417.159	86.06
417.382	95.06
417.605	93.06
417.828	80.06
418.051	84.06
418.274	91.06
418.497	78.06
418.72	92.06
418.943	88.06
419.166	85.06
419.389	86.06
419.611	89.06
419.834	84.06
420.057	73.06
420.28	81.06
420.503	82.06
420.726	92.06
420.948	100.06
421.171	101.06
421.394	96.06
421.617	84.06
421.839	78.06
422.062	83.06
422.285	85.06
422.507	110.06
422.73	99.06
422.953	102.06
423.175	85.06
423.398	87.06
423.621	78.06
423.843	96.06
424.066	84.06
424.288	94.06
424.511	94.06
424.733	79.06
424.956	102.06
425.178	88.06
425.401	102.06
425.623	86.06
425.846	98.06
426.068	99.06
426.291	92.06
426.513	97.06
426.735	108.06
426.958	103.06
427.18	91.06
427.402	129.06
427.625	142.06
427.847	120.06
428.069	103.06
428.292	87.06
428.514	81.06
428.736	73.06
428.958	81.06
429.181	84.06
429.403	77.06
429.625	82.06
429.847	88.06
430.069	99.06
430.292	92.06
430.514	84.06
430.736	74.06
430.958	90.06
431.18	85.06
431.402	75.06
431.624	91.06
431.846	66.06
432.068	93.06
432.29	79.06
432.512	83.06
432.734	81.06
432.956	93.06
433.178	99.06
433.4	85.06
433.622	86.06
433.844	84.06
434.066	94.06
434.287	86.06
434.509	89.06
434.731	82.06
434.953	93.06
435.175	87.06
435.397	98.06
435.618	87.06
435.84	99.06
436.062	107.06
436.284	119.06
436.505	98.06
436.727	98.06
436.949	97.06
437.17	91.06
437.392	92.06
437.614	106.06
437.835	107.06
438.057	114.06
438.278	99.06
438.5	94.06
438.721	114.06
438.943	100.06
439.165	97.06
439.386	80.06
439.608	92.06
439.829	107.06
440.05	109.06
440.272	123.06
440.493	103.06
440.715	88.06
440.936	81.06
441.158	91.06
441.379	88.06
441.6	86.06
441.822	93.06
442.043	87.06
442.264	104.06
442.486	95.06
442.707	79.06
442.928	94.06
443.149	123.06
443.371	123.06
443.592	101.06
443.813	104.06
444.034	99.06
444.255	110.06
444.476	76.06
444.698	96.06
444.919	73.06
445.14	118.06
445.361	108.06
445.582	109.06
445.803	115.06
446.024	122.06
446.245	117.06
446.466	105.06
446.687	78.06
446.908	93.06
447.129	91.06
447.35	83.06
447.571	93.06
447.792	88.06
448.013	101.06
448.234	110.06
448.455	93.06
448.675	95.06
448.896	107.06
449.117	89.06
449.338	95.06
449.559	120.06
449.779	124.06
450	88.06
450.221	96.06
450.442	88.06
450.662	79.06
450.883	104.06
451.104	100.06
451.324	82.06
451.545	79.06
451.766	81.06
451.986	83.06
452.207	86.06
452.428	86.06
452.648	80.06
452.869	109.06
453.089	114.06
453.31	107.06
453.53	105.06
453.751	85.06
453.971	100.06
454.192	103.06
454.412	86.06
454.633	81.06
454.853	99.06
455.073	89.06
455.294	76.06
455.514	88.06
455.734	78.06
455.955	83.06
456.175	79.06
456.395	76.06
456.616	72.06
456.836	82.06
457.056	81.06
457.276	91.06
457.497	92.06
457.717	83.06
457.937	100.06
458.157	88.06
458.377	82.06
458.598	109.06
458.818	132.06
459.038	162.06
459.258	110.06
459.478	94.06
459.698	90.06
459.918	86.06
460.138	76.06
460.358	81.06
460.578	98.06
460.798	84.06
461.018	76.06
461.238	72.06
461.458	87.06
461.678	82.06
461.898	78.06
462.118	80.06
462.338	87.06
462.558	83.06
462.777	74.06
462.997	77.06
463.217	82.06
463.437	87.06
463.657	76.06
463.876	79.06
464.096	95.06
464.316	101.06
464.536	81.06
464.755	77.06
464.975	110.06
465.195	161.06
465.414	136.06
465.634	86.06
465.854	80.06
466.073	81.06
466.293	102.06
466.512	82.06
466.732	87.06
466.951	87.06
467.171	94.06
467.391	98.06
467.61	93.06
467.829	83.06
468.049	90.06
468.268	99.06
468.488	88.06
468.707	83.06
468.927	81.06
469.146	84.06
469.365	78.06
469.585	91.06
469.804	95.06
470.023	94.06
470.243	97.06
470.462	94.06
470.681	107.06
470.901	89.06
471.12	83.06
471.339	70.06
471.558	74.06
471.777	83.06
471.997	90.06
472.216	84.06
472.435	94.06
472.654	104.06
472.873	99.06
473.092	86.06
473.311	91.06
473.53	93.06
473.749	85.06
473.968	92.06
474.187	93.06
474.406	82.06
474.625	86.06
474.844	79.06
475.063	89.06
475.282	64.06
475.501	85.06
475.72	90.06
475.939	83.06
476.158	82.06
476.377	82.06
476.596	91.06
476.814	88.06
477.033	96.06
477.252	85.06
477.471	88.06
477.69	75.06
477.908	96.06
478.127	81.06
478.346	87.06
478.564	79.06
478.783	88.06
479.002	88.06
479.22	87.06
479.439	100.06
479.658	102.06
479.876	95.06
480.095	90.06
480.313	87.06
480.532	77.06
480.751	92.06
480.969	108.06
481.188	118.06
481.406	86.06
481.624	82.06
481.843	88.06
482.061	76.06
482.28	90.06
482.498	100.06
482.717	87.06
482.935	94.06
483.153	81.06
483.372	88.06
483.59	87.06
483.808	91.06
484.027	100.06
484.245	104.06
484.463	91.06
484.681	100.06
484.9	98.06
485.118	93.06
485.336	86.06
485.554	105.06
485.772	96.06
485.99	107.06
486.209	103.06
486.427	99.06
486.645	97.06
486.863	105.06
487.081	89.06
487.299	96.06
487.517	87.06
487.735	81.06
487.953	79.06
488.171	101.06
488.389	92.06
488.607	97.06
488.825	91.06
489.043	75.06
489.261	83.06
489.479	94.06
489.696	83.06
489.914	85.06
490.132	90.06
490.35	93.06
490.568	68.06
490.786	83.06
491.003	79.06
491.221	95.06
491.439	77.06
491.657	84.06
491.874	92.06
492.092	96.06
492.31	78.06
492.527	94.06
492.745	83.06
492.963	88.06
493.18	79.06
493.398	86.06
493.615	112.06
493.833	102.06
494.05	91.06
494.268	92.06
494.485	92.06
494.703	92.06
494.92	88.06
495.138	74.06
495.355	105.06
495.573	83.06
495.79	96.06
496.008	87.06
496.225	89.06
496.442	81.06
496.66	91.06
496.877	94.06
497.094	96.06
497.312	82.06
497.529	78.06
497.746	87.06
497.963	90.06
498.181	84.06
498.398	102.06
498.615	89.06
498.832	86.06
499.049	95.06
499.267	100.06
499.484	94.06
499.701	95.06
499.918	71.06
500.135	84.06
500.352	98.06
500.569	83.06
500.786	90.06
501.003	88.06
501.22	98.06
501.437	88.06
501.654	92.06
501.871	103.06
502.088	90.06
502.305	87.06
502.522	84.06
502.739	86.06
502.956	84.06
503.172	93.06
503.389	87.06
503.606	91.06
503.823	89.06
504.04	87.06
504.256	92.06
504.473	87.06
504.69	88.06
504.907	86.06
505.123	99.06
505.34	88.06
505.557	86.06
505.773	97.06
505.99	78.06
506.207	75.06
506.423	73.06
506.64	77.06
506.856	86.06
507.073	76.06
507.289	84.06
507.506	87.06
507.722	106.06
507.939	111.06
508.155	116.06
508.372	88.06
508.588	94.06
508.805	92.06
509.021	105.06
509.238	95.06
509.454	101.06
509.67	90.06
509.887	104.06
510.103	124.06
510.319	216.06
510.536	760.06
510.752	2469.06
510.968	686.06
511.184	158.06
511.401	118.06
511.617	96.06
511.833	98.06
512.049	95.06
512.265	83.06
512.481	88.06
512.698	78.06
512.914	92.06
513.13	85.06
513.346	71.06
513.562	92.06
513.778	95.06
513.994	91.06
514.21	105.06
514.426	128.06
514.642	127.06
514.858	113.06
515.074	152.06
515.29	453.06
515.506	1482.06
515.721	524.06
515.937	153.06
516.153	106.06
516.369	104.06
516.585	99.06
516.801	89.06
