Data from Uncirc_2004_H10_HRD10591_00093.txt Node
Date: Wed Jan 03 10:32:31 EST 2024
User: Yrep
Spectrometer: HR+D1059
Trigger mode: 1
Integration Time (sec): 1.000000E-1
Scans to average: 1
Electric dark correction enabled: true
Nonlinearity correction enabled: false
Boxcar width: 0
XAxis mode: Wavelengths
Number of Pixels in Spectrum: 2048
>>>>>Begin Spectral Data<<<<<
223.165	-17.62
223.4	-17.62
223.635	-17.62
223.869	-21.62
224.104	-25.62
224.338	-16.62
224.573	-16.62
224.808	-16.62
225.042	-12.62
225.277	-3.62
225.511	7.38
225.746	5.38
225.98	12.38
226.215	7.38
226.449	14.38
226.683	29.38
226.918	21.38
227.152	33.38
227.387	46.38
227.621	44.38
227.856	38.38
228.09	49.38
228.324	42.38
228.559	57.38
228.793	48.38
229.027	69.38
229.262	61.38
229.496	63.38
229.73	72.38
229.964	82.38
230.199	62.38
230.433	72.38
230.667	86.38
230.901	66.38
231.136	74.38
231.37	78.38
231.604	79.38
231.838	80.38
232.072	71.38
232.306	91.38
232.541	90.38
232.775	78.38
233.009	78.38
233.243	86.38
233.477	70.38
233.711	85.38
233.945	84.38
234.179	77.38
234.413	77.38
234.647	96.38
234.881	90.38
235.115	81.38
235.349	75.38
235.583	74.38
235.817	72.38
236.051	64.38
236.285	84.38
236.519	71.38
236.753	77.38
236.987	78.38
237.221	74.38
237.455	72.38
237.689	57.38
237.922	72.38
238.156	68.38
238.39	80.38
238.624	71.38
238.858	79.38
239.091	65.38
239.325	72.38
239.559	78.38
239.793	82.38
240.027	90.38
240.26	74.38
240.494	65.38
240.728	95.38
240.961	97.38
241.195	82.38
241.429	64.38
241.662	79.38
241.896	76.38
242.13	73.38
242.363	76.38
242.597	86.38
242.83	77.38
243.064	70.38
243.298	71.38
243.531	74.38
243.765	85.38
243.998	71.38
244.232	71.38
244.465	69.38
244.699	74.38
244.932	67.38
245.166	76.38
245.399	70.38
245.633	60.38
245.866	71.38
246.099	74.38
246.333	77.38
246.566	71.38
246.8	73.38
247.033	76.38
247.266	62.38
247.5	64.38
247.733	70.38
247.966	75.38
248.2	87.38
248.433	66.38
248.666	77.38
248.899	77.38
249.133	96.38
249.366	93.38
249.599	92.38
249.832	85.38
250.066	73.38
250.299	80.38
250.532	87.38
250.765	82.38
250.998	74.38
251.231	77.38
251.465	82.38
251.698	87.38
251.931	69.38
252.164	84.38
252.397	84.38
252.63	79.38
252.863	73.38
253.096	79.38
253.329	69.38
253.562	87.38
253.795	78.38
254.028	85.38
254.261	90.38
254.494	78.38
254.727	79.38
254.96	94.38
255.193	74.38
255.426	72.38
255.659	78.38
255.892	70.38
256.124	81.38
256.357	74.38
256.59	82.38
256.823	92.38
257.056	75.38
257.289	71.38
257.521	94.38
257.754	68.38
257.987	77.38
258.22	89.38
258.452	80.38
258.685	77.38
258.918	89.38
259.151	81.38
259.383	84.38
259.616	75.38
259.849	79.38
260.081	76.38
260.314	66.38
260.547	86.38
260.779	86.38
261.012	81.38
261.244	76.38
261.477	78.38
261.71	88.38
261.942	89.38
262.175	120.38
262.407	81.38
262.64	75.38
262.872	78.38
263.105	82.38
263.337	78.38
263.57	84.38
263.802	74.38
264.035	93.38
264.267	87.38
264.499	88.38
264.732	81.38
264.964	91.38
265.197	95.38
265.429	66.38
265.661	70.38
265.894	80.38
266.126	64.38
266.358	91.38
266.591	81.38
266.823	90.38
267.055	87.38
267.287	84.38
267.52	98.38
267.752	71.38
267.984	69.38
268.216	82.38
268.448	84.38
268.681	64.38
268.913	93.38
269.145	95.38
269.377	82.38
269.609	78.38
269.841	84.38
270.073	71.38
270.306	87.38
270.538	91.38
270.77	81.38
271.002	83.38
271.234	83.38
271.466	72.38
271.698	87.38
271.93	83.38
272.162	97.38
272.394	74.38
272.626	69.38
272.858	72.38
273.09	77.38
273.322	90.38
273.553	80.38
273.785	83.38
274.017	77.38
274.249	89.38
274.481	96.38
274.713	85.38
274.945	87.38
275.176	83.38
275.408	88.38
275.64	73.38
275.872	92.38
276.104	90.38
276.335	88.38
276.567	90.38
276.799	86.38
277.031	96.38
277.262	82.38
277.494	89.38
277.726	73.38
277.957	78.38
278.189	78.38
278.421	84.38
278.652	87.38
278.884	79.38
279.115	91.38
279.347	80.38
279.579	91.38
279.81	81.38
280.042	81.38
280.273	92.38
280.505	89.38
280.736	90.38
280.968	81.38
281.199	100.38
281.431	77.38
281.662	89.38
281.894	90.38
282.125	104.38
282.356	122.38
282.588	129.38
282.819	121.38
283.051	92.38
283.282	70.38
283.513	85.38
283.745	86.38
283.976	98.38
284.207	93.38
284.439	96.38
284.67	90.38
284.901	101.38
285.132	77.38
285.364	77.38
285.595	75.38
285.826	92.38
286.057	82.38
286.288	85.38
286.52	71.38
286.751	69.38
286.982	86.38
287.213	94.38
287.444	79.38
287.675	92.38
287.906	82.38
288.138	80.38
288.369	83.38
288.6	90.38
288.831	97.38
289.062	92.38
289.293	86.38
289.524	88.38
289.755	78.38
289.986	84.38
290.217	85.38
290.448	87.38
290.679	81.38
290.91	83.38
291.141	86.38
291.371	104.38
291.602	87.38
291.833	84.38
292.064	87.38
292.295	84.38
292.526	99.38
292.757	89.38
292.987	100.38
293.218	95.38
293.449	95.38
293.68	78.38
293.91	90.38
294.141	68.38
294.372	94.38
294.603	85.38
294.833	86.38
295.064	90.38
295.295	89.38
295.525	93.38
295.756	104.38
295.987	131.38
296.217	126.38
296.448	129.38
296.679	96.38
296.909	85.38
297.14	86.38
297.37	90.38
297.601	96.38
297.831	89.38
298.062	92.38
298.292	82.38
298.523	88.38
298.753	77.38
298.984	88.38
299.214	77.38
299.445	82.38
299.675	83.38
299.905	86.38
300.136	86.38
300.366	92.38
300.597	86.38
300.827	103.38
301.057	94.38
301.288	95.38
301.518	81.38
301.748	98.38
301.979	106.38
302.209	91.38
302.439	74.38
302.669	89.38
302.9	90.38
303.13	102.38
303.36	91.38
303.59	84.38
303.82	83.38
304.051	81.38
304.281	98.38
304.511	88.38
304.741	83.38
304.971	99.38
305.201	86.38
305.431	83.38
305.661	91.38
305.891	86.38
306.121	99.38
306.352	93.38
306.582	104.38
306.812	98.38
307.042	97.38
307.272	92.38
307.502	93.38
307.731	93.38
307.961	90.38
308.191	100.38
308.421	85.38
308.651	99.38
308.881	95.38
309.111	97.38
309.341	93.38
309.571	101.38
309.8	91.38
310.03	94.38
310.26	82.38
310.49	87.38
310.72	94.38
310.949	98.38
311.179	98.38
311.409	94.38
311.639	98.38
311.868	96.38
312.098	99.38
312.328	99.38
312.557	99.38
312.787	94.38
313.017	87.38
313.246	105.38
313.476	91.38
313.706	84.38
313.935	93.38
314.165	102.38
314.394	90.38
314.624	97.38
314.853	96.38
315.083	98.38
315.312	100.38
315.542	96.38
315.771	90.38
316.001	86.38
316.23	91.38
316.46	85.38
316.689	95.38
316.919	100.38
317.148	88.38
317.377	100.38
317.607	98.38
317.836	81.38
318.065	86.38
318.295	86.38
318.524	85.38
318.753	83.38
318.983	92.38
319.212	95.38
319.441	105.38
319.67	100.38
319.9	86.38
320.129	91.38
320.358	95.38
320.587	93.38
320.816	76.38
321.046	96.38
321.275	106.38
321.504	84.38
321.733	87.38
321.962	96.38
322.191	94.38
322.42	101.38
322.649	111.38
322.878	102.38
323.108	116.38
323.337	124.38
323.566	130.38
323.795	157.38
324.024	195.38
324.253	402.38
324.482	830.38
324.71	1708.38
324.939	2205.38
325.168	793.38
325.397	245.38
325.626	139.38
325.855	136.38
326.084	129.38
326.313	132.38
326.542	144.38
326.77	225.38
326.999	453.38
327.228	968.38
327.457	1715.38
327.686	1333.38
327.914	379.38
328.143	199.38
328.372	134.38
328.6	123.38
328.829	137.38
329.058	126.38
329.287	134.38
329.515	105.38
329.744	106.38
329.972	98.38
330.201	103.38
330.43	103.38
330.658	110.38
330.887	147.38
331.115	113.38
331.344	102.38
331.572	82.38
331.801	93.38
332.03	83.38
332.258	112.38
332.486	98.38
332.715	91.38
332.943	95.38
333.172	102.38
333.4	104.38
333.629	105.38
333.857	114.38
334.085	107.38
334.314	102.38
334.542	106.38
334.771	89.38
334.999	95.38
335.227	85.38
335.455	85.38
335.684	91.38
335.912	105.38
336.14	98.38
336.369	98.38
336.597	86.38
336.825	113.38
337.053	90.38
337.281	97.38
337.51	97.38
337.738	99.38
337.966	86.38
338.194	95.38
338.422	96.38
338.65	88.38
338.878	90.38
339.106	90.38
339.334	80.38
339.562	91.38
339.79	96.38
340.018	90.38
340.246	82.38
340.474	85.38
340.702	91.38
340.93	92.38
341.158	94.38
341.386	89.38
341.614	79.38
341.842	90.38
342.07	94.38
342.298	81.38
342.526	73.38
342.754	86.38
342.981	85.38
343.209	86.38
343.437	85.38
343.665	101.38
343.893	96.38
344.12	85.38
344.348	85.38
344.576	100.38
344.804	92.38
345.031	80.38
345.259	88.38
345.487	98.38
345.714	92.38
345.942	93.38
346.17	94.38
346.397	94.38
346.625	89.38
346.853	88.38
347.08	86.38
347.308	86.38
347.535	91.38
347.763	94.38
347.99	100.38
348.218	100.38
348.445	94.38
348.673	82.38
348.9	100.38
349.128	95.38
349.355	96.38
349.583	98.38
349.81	87.38
350.037	91.38
350.265	76.38
350.492	97.38
350.72	108.38
350.947	98.38
351.174	87.38
351.402	105.38
351.629	85.38
351.856	84.38
352.083	97.38
352.311	102.38
352.538	106.38
352.765	105.38
352.992	106.38
353.22	116.38
353.447	90.38
353.674	105.38
353.901	92.38
354.128	89.38
354.355	103.38
354.583	88.38
354.81	101.38
355.037	98.38
355.264	82.38
355.491	95.38
355.718	86.38
355.945	90.38
356.172	93.38
356.399	97.38
356.626	91.38
356.853	89.38
357.08	94.38
357.307	82.38
357.534	99.38
357.761	90.38
357.988	92.38
358.215	98.38
358.441	105.38
358.668	99.38
358.895	86.38
359.122	97.38
359.349	93.38
359.576	99.38
359.802	103.38
360.029	106.38
360.256	109.38
360.483	81.38
360.709	80.38
360.936	77.38
361.163	107.38
361.39	88.38
361.616	87.38
361.843	75.38
362.07	93.38
362.296	92.38
362.523	83.38
362.749	85.38
362.976	81.38
363.203	83.38
363.429	83.38
363.656	90.38
363.882	87.38
364.109	90.38
364.335	80.38
364.562	90.38
364.788	89.38
365.015	93.38
365.241	87.38
365.468	100.38
365.694	105.38
365.92	106.38
366.147	91.38
366.373	85.38
366.599	89.38
366.826	83.38
367.052	85.38
367.278	90.38
367.505	77.38
367.731	93.38
367.957	105.38
368.184	89.38
368.41	101.38
368.636	138.38
368.862	121.38
369.089	103.38
369.315	95.38
369.541	82.38
369.767	100.38
369.993	97.38
370.219	94.38
370.445	91.38
370.672	82.38
370.898	77.38
371.124	81.38
371.35	95.38
371.576	87.38
371.802	79.38
372.028	91.38
372.254	80.38
372.48	73.38
372.706	84.38
372.932	79.38
373.158	85.38
373.384	79.38
373.61	99.38
373.835	105.38
374.061	83.38
374.287	87.38
374.513	96.38
374.739	91.38
374.965	91.38
375.191	82.38
375.416	89.38
375.642	92.38
375.868	98.38
376.094	84.38
376.319	83.38
376.545	90.38
376.771	107.38
376.997	96.38
377.222	93.38
377.448	93.38
377.674	95.38
377.899	85.38
378.125	73.38
378.35	89.38
378.576	109.38
378.802	86.38
379.027	98.38
379.253	75.38
379.478	69.38
379.704	89.38
379.929	91.38
380.155	74.38
380.38	97.38
380.606	78.38
380.831	85.38
381.057	80.38
381.282	106.38
381.507	114.38
381.733	99.38
381.958	96.38
382.184	87.38
382.409	102.38
382.634	92.38
382.86	90.38
383.085	97.38
383.31	87.38
383.535	97.38
383.761	90.38
383.986	93.38
384.211	83.38
384.436	92.38
384.662	109.38
384.887	92.38
385.112	92.38
385.337	96.38
385.562	109.38
385.787	90.38
386.013	98.38
386.238	99.38
386.463	114.38
386.688	98.38
386.913	94.38
387.138	117.38
387.363	112.38
387.588	109.38
387.813	105.38
388.038	104.38
388.263	97.38
388.488	83.38
388.713	86.38
388.938	83.38
389.163	89.38
389.387	100.38
389.612	96.38
389.837	98.38
390.062	82.38
390.287	81.38
390.512	98.38
390.736	88.38
390.961	108.38
391.186	88.38
391.411	94.38
391.636	87.38
391.86	86.38
392.085	88.38
392.31	89.38
392.534	84.38
392.759	89.38
392.984	113.38
393.208	141.38
393.433	193.38
393.658	162.38
393.882	97.38
394.107	95.38
394.331	83.38
394.556	73.38
394.78	97.38
395.005	79.38
395.229	87.38
395.454	87.38
395.678	91.38
395.903	95.38
396.127	87.38
396.352	90.38
396.576	106.38
396.801	122.38
397.025	157.38
397.249	104.38
397.474	75.38
397.698	101.38
397.922	74.38
398.147	73.38
398.371	80.38
398.595	87.38
398.82	86.38
399.044	82.38
399.268	76.38
399.492	80.38
399.717	87.38
399.941	83.38
400.165	80.38
400.389	85.38
400.613	87.38
400.837	102.38
401.062	94.38
401.286	98.38
401.51	91.38
401.734	89.38
401.958	93.38
402.182	128.38
402.406	152.38
402.63	113.38
402.854	83.38
403.078	80.38
403.302	80.38
403.526	82.38
403.75	85.38
403.974	94.38
404.198	94.38
404.422	103.38
404.645	79.38
404.869	89.38
405.093	97.38
405.317	86.38
405.541	99.38
405.765	99.38
405.988	110.38
406.212	165.38
406.436	241.38
406.66	140.38
406.883	103.38
407.107	92.38
407.331	73.38
407.555	94.38
407.778	94.38
408.002	81.38
408.226	94.38
408.449	101.38
408.673	105.38
408.896	95.38
409.12	83.38
409.344	91.38
409.567	80.38
409.791	88.38
410.014	84.38
410.238	96.38
410.461	104.38
410.685	90.38
410.908	99.38
411.132	117.38
411.355	94.38
411.578	93.38
411.802	79.38
412.025	90.38
412.249	100.38
412.472	93.38
412.695	87.38
412.919	89.38
413.142	73.38
413.365	85.38
413.589	76.38
413.812	73.38
414.035	87.38
414.258	95.38
414.482	91.38
414.705	78.38
414.928	100.38
415.151	88.38
415.374	91.38
415.597	87.38
415.821	85.38
416.044	100.38
416.267	96.38
416.49	82.38
416.713	84.38
416.936	87.38
417.159	83.38
417.382	75.38
417.605	82.38
417.828	92.38
418.051	88.38
418.274	96.38
418.497	82.38
418.72	85.38
418.943	75.38
419.166	93.38
419.389	86.38
419.611	84.38
419.834	83.38
420.057	80.38
420.28	93.38
420.503	83.38
420.726	81.38
420.948	70.38
421.171	79.38
421.394	92.38
421.617	76.38
421.839	85.38
422.062	84.38
422.285	99.38
422.507	109.38
422.73	121.38
422.953	96.38
423.175	94.38
423.398	80.38
423.621	85.38
423.843	85.38
424.066	83.38
424.288	96.38
424.511	83.38
424.733	99.38
424.956	106.38
425.178	109.38
425.401	98.38
425.623	94.38
425.846	93.38
426.068	81.38
426.291	82.38
426.513	86.38
426.735	81.38
426.958	84.38
427.18	96.38
427.402	140.38
427.625	171.38
427.847	132.38
428.069	112.38
428.292	91.38
428.514	81.38
428.736	90.38
428.958	85.38
429.181	70.38
429.403	71.38
429.625	86.38
429.847	81.38
430.069	96.38
430.292	99.38
430.514	96.38
430.736	68.38
430.958	89.38
431.18	86.38
431.402	77.38
431.624	78.38
431.846	69.38
432.068	86.38
432.29	86.38
432.512	79.38
432.734	75.38
432.956	79.38
433.178	97.38
433.4	83.38
433.622	92.38
433.844	89.38
434.066	86.38
434.287	93.38
434.509	86.38
434.731	81.38
434.953	93.38
435.175	78.38
435.397	72.38
435.618	101.38
435.84	112.38
436.062	107.38
436.284	98.38
436.505	87.38
436.727	74.38
436.949	89.38
437.17	85.38
437.392	87.38
437.614	96.38
437.835	108.38
438.057	115.38
438.278	105.38
438.5	89.38
438.721	119.38
438.943	100.38
439.165	90.38
439.386	78.38
439.608	91.38
439.829	98.38
440.05	94.38
440.272	125.38
440.493	83.38
440.715	77.38
440.936	87.38
441.158	98.38
441.379	75.38
441.6	87.38
441.822	104.38
442.043	90.38
442.264	101.38
442.486	98.38
442.707	91.38
442.928	99.38
443.149	134.38
443.371	124.38
443.592	93.38
443.813	110.38
444.034	82.38
444.255	79.38
444.476	89.38
444.698	102.38
444.919	85.38
445.14	128.38
445.361	126.38
445.582	126.38
445.803	130.38
446.024	145.38
446.245	124.38
446.466	115.38
446.687	82.38
446.908	96.38
447.129	89.38
447.35	83.38
447.571	92.38
447.792	83.38
448.013	99.38
448.234	113.38
448.455	89.38
448.675	101.38
448.896	102.38
449.117	95.38
449.338	97.38
449.559	121.38
449.779	112.38
450	93.38
450.221	69.38
450.442	89.38
450.662	95.38
450.883	104.38
451.104	114.38
451.324	98.38
451.545	70.38
451.766	80.38
451.986	94.38
452.207	78.38
452.428	89.38
452.648	83.38
452.869	107.38
453.089	112.38
453.31	106.38
453.53	95.38
453.751	85.38
453.971	110.38
454.192	90.38
454.412	84.38
454.633	91.38
454.853	76.38
455.073	90.38
455.294	95.38
455.514	92.38
455.734	86.38
455.955	97.38
456.175	74.38
456.395	89.38
456.616	75.38
456.836	86.38
457.056	93.38
457.276	84.38
457.497	82.38
457.717	75.38
457.937	97.38
458.157	99.38
458.377	95.38
458.598	117.38
458.818	142.38
459.038	134.38
459.258	108.38
459.478	82.38
459.698	69.38
459.918	77.38
460.138	90.38
460.358	83.38
460.578	90.38
460.798	91.38
461.018	92.38
461.238	83.38
461.458	83.38
461.678	90.38
461.898	81.38
462.118	92.38
462.338	78.38
462.558	78.38
462.777	97.38
462.997	90.38
463.217	87.38
463.437	92.38
463.657	72.38
463.876	81.38
464.096	84.38
464.316	87.38
464.536	92.38
464.755	92.38
464.975	99.38
465.195	166.38
465.414	158.38
465.634	101.38
465.854	81.38
466.073	81.38
466.293	85.38
466.512	80.38
466.732	99.38
466.951	89.38
467.171	85.38
467.391	82.38
467.61	88.38
467.829	94.38
468.049	102.38
468.268	96.38
468.488	91.38
468.707	81.38
468.927	79.38
469.146	85.38
469.365	80.38
469.585	93.38
469.804	87.38
470.023	91.38
470.243	77.38
470.462	102.38
470.681	96.38
470.901	92.38
471.12	75.38
471.339	90.38
471.558	79.38
471.777	81.38
471.997	77.38
472.216	87.38
472.435	99.38
472.654	84.38
472.873	87.38
473.092	71.38
473.311	79.38
473.53	80.38
473.749	81.38
473.968	94.38
474.187	109.38
474.406	87.38
474.625	86.38
474.844	70.38
475.063	78.38
475.282	85.38
475.501	87.38
475.72	96.38
475.939	78.38
476.158	82.38
476.377	76.38
476.596	87.38
476.814	95.38
477.033	99.38
477.252	88.38
477.471	83.38
477.69	86.38
477.908	85.38
478.127	83.38
478.346	68.38
478.564	82.38
478.783	90.38
479.002	89.38
479.22	81.38
479.439	84.38
479.658	107.38
479.876	90.38
480.095	86.38
480.313	87.38
480.532	97.38
480.751	93.38
480.969	97.38
481.188	113.38
481.406	117.38
481.624	84.38
481.843	81.38
482.061	83.38
482.28	85.38
482.498	78.38
482.717	88.38
482.935	82.38
483.153	86.38
483.372	89.38
483.59	93.38
483.808	88.38
484.027	89.38
484.245	90.38
484.463	91.38
484.681	75.38
484.9	95.38
485.118	96.38
485.336	87.38
485.554	92.38
485.772	98.38
485.99	87.38
486.209	97.38
486.427	106.38
486.645	109.38
486.863	101.38
487.081	93.38
487.299	103.38
487.517	92.38
487.735	91.38
487.953	78.38
488.171	89.38
488.389	85.38
488.607	101.38
488.825	98.38
489.043	99.38
489.261	90.38
489.479	98.38
489.696	79.38
489.914	89.38
490.132	108.38
490.35	78.38
490.568	73.38
490.786	79.38
491.003	95.38
491.221	85.38
491.439	94.38
491.657	90.38
491.874	64.38
492.092	84.38
492.31	102.38
492.527	93.38
492.745	92.38
492.963	106.38
493.18	79.38
493.398	87.38
493.615	92.38
493.833	99.38
494.05	85.38
494.268	80.38
494.485	75.38
494.703	77.38
494.92	78.38
495.138	99.38
495.355	76.38
495.573	80.38
495.79	78.38
496.008	87.38
496.225	90.38
496.442	93.38
496.66	82.38
496.877	110.38
497.094	103.38
497.312	90.38
497.529	92.38
497.746	86.38
497.963	87.38
498.181	90.38
498.398	87.38
498.615	102.38
498.832	100.38
499.049	94.38
499.267	93.38
499.484	84.38
499.701	92.38
499.918	86.38
500.135	86.38
500.352	94.38
500.569	106.38
500.786	83.38
501.003	90.38
501.22	94.38
501.437	99.38
501.654	98.38
501.871	107.38
502.088	100.38
502.305	99.38
502.522	87.38
502.739	82.38
502.956	87.38
503.172	84.38
503.389	91.38
503.606	103.38
503.823	101.38
504.04	105.38
504.256	98.38
504.473	94.38
504.69	86.38
504.907	88.38
505.123	78.38
505.34	90.38
505.557	96.38
505.773	83.38
505.99	93.38
506.207	82.38
506.423	77.38
506.64	88.38
506.856	72.38
507.073	101.38
507.289	83.38
507.506	102.38
507.722	113.38
507.939	117.38
508.155	109.38
508.372	92.38
508.588	86.38
508.805	102.38
509.021	93.38
509.238	86.38
509.454	102.38
509.67	96.38
509.887	97.38
510.103	126.38
510.319	211.38
510.536	795.38
510.752	2569.38
510.968	710.38
511.184	165.38
511.401	123.38
511.617	94.38
511.833	80.38
512.049	100.38
512.265	89.38
512.481	89.38
512.698	89.38
512.914	91.38
513.13	83.38
513.346	97.38
513.562	90.38
513.778	93.38
513.994	82.38
514.21	100.38
514.426	120.38
514.642	145.38
514.858	140.38
515.074	167.38
515.29	457.38
515.506	1568.38
515.721	569.38
515.937	144.38
516.153	103.38
516.369	98.38
516.585	93.38
