Data from Uncirc_2004_H10_HRD10591_00048.txt Node
Date: Wed Jan 03 10:32:22 EST 2024
User: Yrep
Spectrometer: HR+D1059
Trigger mode: 1
Integration Time (sec): 1.000000E-1
Scans to average: 1
Electric dark correction enabled: true
Nonlinearity correction enabled: false
Boxcar width: 0
XAxis mode: Wavelengths
Number of Pixels in Spectrum: 2048
>>>>>Begin Spectral Data<<<<<
223.165	-14.38
223.4	-14.38
223.635	-14.38
223.869	-28.38
224.104	-21.38
224.338	-24.38
224.573	-11.38
224.808	-6.38
225.042	-16.38
225.277	-9.38
225.511	-0.38
225.746	6.62
225.98	6.62
226.215	14.62
226.449	19.62
226.683	16.62
226.918	35.62
227.152	32.62
227.387	35.62
227.621	37.62
227.856	48.62
228.09	49.62
228.324	47.62
228.559	65.62
228.793	48.62
229.027	47.62
229.262	73.62
229.496	89.62
229.73	76.62
229.964	75.62
230.199	61.62
230.433	66.62
230.667	80.62
230.901	77.62
231.136	81.62
231.37	79.62
231.604	71.62
231.838	73.62
232.072	92.62
232.306	85.62
232.541	84.62
232.775	86.62
233.009	56.62
233.243	88.62
233.477	78.62
233.711	69.62
233.945	91.62
234.179	87.62
234.413	78.62
234.647	78.62
234.881	65.62
235.115	71.62
235.349	77.62
235.583	77.62
235.817	83.62
236.051	83.62
236.285	78.62
236.519	75.62
236.753	72.62
236.987	84.62
237.221	70.62
237.455	78.62
237.689	79.62
237.922	71.62
238.156	68.62
238.39	88.62
238.624	84.62
238.858	87.62
239.091	87.62
239.325	79.62
239.559	74.62
239.793	90.62
240.027	77.62
240.26	62.62
240.494	72.62
240.728	87.62
240.961	80.62
241.195	67.62
241.429	86.62
241.662	81.62
241.896	82.62
242.13	84.62
242.363	73.62
242.597	73.62
242.83	84.62
243.064	58.62
243.298	65.62
243.531	78.62
243.765	77.62
243.998	77.62
244.232	87.62
244.465	82.62
244.699	88.62
244.932	80.62
245.166	78.62
245.399	92.62
245.633	78.62
245.866	85.62
246.099	89.62
246.333	90.62
246.566	81.62
246.8	85.62
247.033	76.62
247.266	78.62
247.5	75.62
247.733	68.62
247.966	76.62
248.2	87.62
248.433	64.62
248.666	70.62
248.899	78.62
249.133	87.62
249.366	101.62
249.599	90.62
249.832	74.62
250.066	99.62
250.299	84.62
250.532	83.62
250.765	84.62
250.998	79.62
251.231	85.62
251.465	91.62
251.698	66.62
251.931	93.62
252.164	84.62
252.397	84.62
252.63	100.62
252.863	88.62
253.096	81.62
253.329	80.62
253.562	64.62
253.795	79.62
254.028	77.62
254.261	78.62
254.494	82.62
254.727	85.62
254.96	81.62
255.193	89.62
255.426	81.62
255.659	100.62
255.892	70.62
256.124	82.62
256.357	86.62
256.59	81.62
256.823	82.62
257.056	73.62
257.289	60.62
257.521	71.62
257.754	74.62
257.987	68.62
258.22	82.62
258.452	78.62
258.685	90.62
258.918	80.62
259.151	88.62
259.383	87.62
259.616	95.62
259.849	78.62
260.081	78.62
260.314	87.62
260.547	94.62
260.779	85.62
261.012	81.62
261.244	76.62
261.477	84.62
261.71	75.62
261.942	106.62
262.175	100.62
262.407	89.62
262.64	89.62
262.872	74.62
263.105	92.62
263.337	73.62
263.57	93.62
263.802	84.62
264.035	80.62
264.267	69.62
264.499	77.62
264.732	81.62
264.964	76.62
265.197	82.62
265.429	88.62
265.661	96.62
265.894	86.62
266.126	89.62
266.358	66.62
266.591	76.62
266.823	92.62
267.055	89.62
267.287	60.62
267.52	84.62
267.752	89.62
267.984	90.62
268.216	95.62
268.448	95.62
268.681	88.62
268.913	78.62
269.145	72.62
269.377	74.62
269.609	77.62
269.841	78.62
270.073	83.62
270.306	84.62
270.538	76.62
270.77	94.62
271.002	90.62
271.234	91.62
271.466	99.62
271.698	94.62
271.93	89.62
272.162	93.62
272.394	89.62
272.626	75.62
272.858	65.62
273.09	79.62
273.322	73.62
273.553	88.62
273.785	96.62
274.017	86.62
274.249	94.62
274.481	83.62
274.713	77.62
274.945	88.62
275.176	84.62
275.408	87.62
275.64	82.62
275.872	76.62
276.104	89.62
276.335	95.62
276.567	89.62
276.799	113.62
277.031	90.62
277.262	90.62
277.494	88.62
277.726	89.62
277.957	91.62
278.189	82.62
278.421	84.62
278.652	79.62
278.884	93.62
279.115	78.62
279.347	79.62
279.579	84.62
279.81	93.62
280.042	89.62
280.273	76.62
280.505	86.62
280.736	87.62
280.968	78.62
281.199	87.62
281.431	89.62
281.662	84.62
281.894	81.62
282.125	103.62
282.356	119.62
282.588	138.62
282.819	97.62
283.051	90.62
283.282	90.62
283.513	92.62
283.745	96.62
283.976	71.62
284.207	73.62
284.439	97.62
284.67	86.62
284.901	85.62
285.132	73.62
285.364	85.62
285.595	76.62
285.826	82.62
286.057	93.62
286.288	81.62
286.52	105.62
286.751	88.62
286.982	73.62
287.213	76.62
287.444	98.62
287.675	89.62
287.906	81.62
288.138	84.62
288.369	95.62
288.6	87.62
288.831	85.62
289.062	83.62
289.293	76.62
289.524	83.62
289.755	87.62
289.986	83.62
290.217	88.62
290.448	80.62
290.679	87.62
290.91	86.62
291.141	77.62
291.371	80.62
291.602	82.62
291.833	94.62
292.064	87.62
292.295	94.62
292.526	86.62
292.757	87.62
292.987	90.62
293.218	85.62
293.449	82.62
293.68	95.62
293.91	98.62
294.141	80.62
294.372	85.62
294.603	72.62
294.833	88.62
295.064	100.62
295.295	90.62
295.525	81.62
295.756	98.62
295.987	126.62
296.217	140.62
296.448	117.62
296.679	91.62
296.909	89.62
297.14	70.62
297.37	89.62
297.601	108.62
297.831	83.62
298.062	94.62
298.292	81.62
298.523	85.62
298.753	92.62
298.984	103.62
299.214	82.62
299.445	93.62
299.675	77.62
299.905	101.62
300.136	80.62
300.366	100.62
300.597	87.62
300.827	86.62
301.057	93.62
301.288	91.62
301.518	95.62
301.748	81.62
301.979	98.62
302.209	79.62
302.439	79.62
302.669	78.62
302.9	96.62
303.13	85.62
303.36	84.62
303.59	106.62
303.82	101.62
304.051	85.62
304.281	84.62
304.511	89.62
304.741	108.62
304.971	85.62
305.201	97.62
305.431	84.62
305.661	80.62
305.891	88.62
306.121	90.62
306.352	97.62
306.582	108.62
306.812	85.62
307.042	78.62
307.272	88.62
307.502	89.62
307.731	92.62
307.961	72.62
308.191	92.62
308.421	94.62
308.651	90.62
308.881	89.62
309.111	94.62
309.341	85.62
309.571	104.62
309.8	84.62
310.03	97.62
310.26	91.62
310.49	77.62
310.72	107.62
310.949	111.62
311.179	94.62
311.409	81.62
311.639	81.62
311.868	90.62
312.098	97.62
312.328	95.62
312.557	105.62
312.787	103.62
313.017	83.62
313.246	101.62
313.476	74.62
313.706	81.62
313.935	81.62
314.165	106.62
314.394	83.62
314.624	95.62
314.853	100.62
315.083	101.62
315.312	87.62
315.542	89.62
315.771	78.62
316.001	79.62
316.23	89.62
316.46	100.62
316.689	90.62
316.919	84.62
317.148	95.62
317.377	93.62
317.607	97.62
317.836	84.62
318.065	89.62
318.295	85.62
318.524	89.62
318.753	81.62
318.983	96.62
319.212	94.62
319.441	112.62
319.67	94.62
319.9	95.62
320.129	84.62
320.358	88.62
320.587	96.62
320.816	110.62
321.046	109.62
321.275	90.62
321.504	102.62
321.733	96.62
321.962	101.62
322.191	87.62
322.42	109.62
322.649	110.62
322.878	114.62
323.108	118.62
323.337	127.62
323.566	124.62
323.795	130.62
324.024	204.62
324.253	402.62
324.482	840.62
324.71	1692.62
324.939	2229.62
325.168	814.62
325.397	256.62
325.626	153.62
325.855	117.62
326.084	119.62
326.313	133.62
326.542	147.62
326.77	226.62
326.999	468.62
327.228	962.62
327.457	1764.62
327.686	1380.62
327.914	363.62
328.143	170.62
328.372	138.62
328.6	140.62
328.829	106.62
329.058	119.62
329.287	121.62
329.515	119.62
329.744	95.62
329.972	93.62
330.201	122.62
330.43	107.62
330.658	122.62
330.887	126.62
331.115	111.62
331.344	70.62
331.572	95.62
331.801	96.62
332.03	104.62
332.258	82.62
332.486	100.62
332.715	97.62
332.943	82.62
333.172	99.62
333.4	89.62
333.629	103.62
333.857	105.62
334.085	114.62
334.314	97.62
334.542	108.62
334.771	119.62
334.999	100.62
335.227	97.62
335.455	90.62
335.684	90.62
335.912	86.62
336.14	86.62
336.369	101.62
336.597	90.62
336.825	87.62
337.053	84.62
337.281	82.62
337.51	97.62
337.738	80.62
337.966	95.62
338.194	77.62
338.422	96.62
338.65	89.62
338.878	98.62
339.106	80.62
339.334	94.62
339.562	106.62
339.79	96.62
340.018	96.62
340.246	90.62
340.474	86.62
340.702	89.62
340.93	98.62
341.158	101.62
341.386	93.62
341.614	95.62
341.842	100.62
342.07	90.62
342.298	89.62
342.526	97.62
342.754	90.62
342.981	89.62
343.209	92.62
343.437	95.62
343.665	82.62
343.893	84.62
344.12	86.62
344.348	96.62
344.576	84.62
344.804	93.62
345.031	88.62
345.259	85.62
345.487	85.62
345.714	83.62
345.942	88.62
346.17	95.62
346.397	103.62
346.625	76.62
346.853	96.62
347.08	78.62
347.308	87.62
347.535	90.62
347.763	95.62
347.99	97.62
348.218	116.62
348.445	90.62
348.673	86.62
348.9	92.62
349.128	90.62
349.355	83.62
349.583	89.62
349.81	103.62
350.037	99.62
350.265	93.62
350.492	86.62
350.72	87.62
350.947	94.62
351.174	108.62
351.402	109.62
351.629	101.62
351.856	96.62
352.083	99.62
352.311	110.62
352.538	102.62
352.765	104.62
352.992	104.62
353.22	112.62
353.447	100.62
353.674	102.62
353.901	98.62
354.128	100.62
354.355	99.62
354.583	101.62
354.81	105.62
355.037	89.62
355.264	101.62
355.491	88.62
355.718	87.62
355.945	88.62
356.172	98.62
356.399	105.62
356.626	109.62
356.853	79.62
357.08	91.62
357.307	80.62
357.534	95.62
357.761	109.62
357.988	93.62
358.215	108.62
358.441	92.62
358.668	97.62
358.895	93.62
359.122	85.62
359.349	98.62
359.576	87.62
359.802	99.62
360.029	102.62
360.256	105.62
360.483	90.62
360.709	94.62
360.936	106.62
361.163	93.62
361.39	104.62
361.616	86.62
361.843	91.62
362.07	102.62
362.296	101.62
362.523	88.62
362.749	78.62
362.976	82.62
363.203	82.62
363.429	89.62
363.656	77.62
363.882	86.62
364.109	89.62
364.335	92.62
364.562	83.62
364.788	101.62
365.015	97.62
365.241	109.62
365.468	110.62
365.694	108.62
365.92	99.62
366.147	101.62
366.373	91.62
366.599	93.62
366.826	86.62
367.052	95.62
367.278	95.62
367.505	83.62
367.731	94.62
367.957	85.62
368.184	93.62
368.41	99.62
368.636	105.62
368.862	111.62
369.089	104.62
369.315	99.62
369.541	94.62
369.767	79.62
369.993	100.62
370.219	99.62
370.445	85.62
370.672	92.62
370.898	101.62
371.124	94.62
371.35	91.62
371.576	96.62
371.802	86.62
372.028	90.62
372.254	79.62
372.48	82.62
372.706	81.62
372.932	93.62
373.158	102.62
373.384	99.62
373.61	81.62
373.835	85.62
374.061	88.62
374.287	108.62
374.513	85.62
374.739	95.62
374.965	88.62
375.191	85.62
375.416	88.62
375.642	94.62
375.868	94.62
376.094	94.62
376.319	95.62
376.545	94.62
376.771	98.62
376.997	86.62
377.222	108.62
377.448	98.62
377.674	81.62
377.899	82.62
378.125	82.62
378.35	99.62
378.576	103.62
378.802	87.62
379.027	96.62
379.253	94.62
379.478	95.62
379.704	101.62
379.929	90.62
380.155	99.62
380.38	93.62
380.606	85.62
380.831	98.62
381.057	100.62
381.282	93.62
381.507	95.62
381.733	94.62
381.958	102.62
382.184	100.62
382.409	106.62
382.634	97.62
382.86	100.62
383.085	101.62
383.31	103.62
383.535	93.62
383.761	99.62
383.986	96.62
384.211	94.62
384.436	106.62
384.662	96.62
384.887	104.62
385.112	91.62
385.337	82.62
385.562	113.62
385.787	108.62
386.013	115.62
386.238	105.62
386.463	101.62
386.688	93.62
386.913	92.62
387.138	113.62
387.363	109.62
387.588	107.62
387.813	105.62
388.038	114.62
388.263	105.62
388.488	109.62
388.713	105.62
388.938	100.62
389.163	94.62
389.387	119.62
389.612	100.62
389.837	98.62
390.062	101.62
390.287	84.62
390.512	86.62
390.736	87.62
390.961	87.62
391.186	89.62
391.411	97.62
391.636	93.62
391.86	87.62
392.085	82.62
392.31	83.62
392.534	86.62
392.759	101.62
392.984	96.62
393.208	85.62
393.433	87.62
393.658	88.62
393.882	78.62
394.107	91.62
394.331	89.62
394.556	99.62
394.78	76.62
395.005	95.62
395.229	76.62
395.454	86.62
395.678	78.62
395.903	80.62
396.127	96.62
396.352	89.62
396.576	95.62
396.801	105.62
397.025	83.62
397.249	87.62
397.474	84.62
397.698	93.62
397.922	89.62
398.147	85.62
398.371	85.62
398.595	80.62
398.82	81.62
399.044	93.62
399.268	96.62
399.492	82.62
399.717	77.62
399.941	86.62
400.165	88.62
400.389	79.62
400.613	89.62
400.837	86.62
401.062	84.62
401.286	85.62
401.51	86.62
401.734	97.62
401.958	100.62
402.182	111.62
402.406	151.62
402.63	116.62
402.854	102.62
403.078	96.62
403.302	73.62
403.526	70.62
403.75	92.62
403.974	84.62
404.198	97.62
404.422	101.62
404.645	75.62
404.869	86.62
405.093	107.62
405.317	90.62
405.541	87.62
405.765	100.62
405.988	124.62
406.212	168.62
406.436	207.62
406.66	147.62
406.883	93.62
407.107	102.62
407.331	85.62
407.555	114.62
407.778	96.62
408.002	103.62
408.226	88.62
408.449	79.62
408.673	102.62
408.896	96.62
409.12	85.62
409.344	90.62
409.567	96.62
409.791	84.62
410.014	90.62
410.238	91.62
410.461	92.62
410.685	84.62
410.908	90.62
411.132	102.62
411.355	92.62
411.578	91.62
411.802	88.62
412.025	74.62
412.249	76.62
412.472	78.62
412.695	88.62
412.919	91.62
413.142	93.62
413.365	84.62
413.589	82.62
413.812	88.62
414.035	85.62
414.258	89.62
414.482	93.62
414.705	92.62
414.928	83.62
415.151	88.62
415.374	83.62
415.597	88.62
415.821	92.62
416.044	90.62
416.267	94.62
416.49	94.62
416.713	90.62
416.936	85.62
417.159	79.62
417.382	99.62
417.605	93.62
417.828	100.62
418.051	89.62
418.274	75.62
418.497	88.62
418.72	95.62
418.943	99.62
419.166	85.62
419.389	82.62
419.611	105.62
419.834	88.62
420.057	92.62
420.28	80.62
420.503	82.62
420.726	95.62
420.948	82.62
421.171	96.62
421.394	87.62
421.617	95.62
421.839	87.62
422.062	90.62
422.285	110.62
422.507	88.62
422.73	92.62
422.953	85.62
423.175	92.62
423.398	89.62
423.621	85.62
423.843	89.62
424.066	86.62
424.288	91.62
424.511	88.62
424.733	87.62
424.956	102.62
425.178	94.62
425.401	112.62
425.623	96.62
425.846	91.62
426.068	76.62
426.291	89.62
426.513	88.62
426.735	82.62
426.958	90.62
427.18	98.62
427.402	120.62
427.625	175.62
427.847	114.62
428.069	113.62
428.292	98.62
428.514	87.62
428.736	86.62
428.958	76.62
429.181	93.62
429.403	69.62
429.625	77.62
429.847	84.62
430.069	105.62
430.292	99.62
430.514	86.62
430.736	87.62
430.958	86.62
431.18	92.62
431.402	96.62
431.624	83.62
431.846	82.62
432.068	88.62
432.29	78.62
432.512	79.62
432.734	98.62
432.956	102.62
433.178	98.62
433.4	102.62
433.622	100.62
433.844	95.62
434.066	80.62
434.287	91.62
434.509	84.62
434.731	81.62
434.953	88.62
435.175	84.62
435.397	89.62
435.618	95.62
435.84	96.62
436.062	100.62
436.284	96.62
436.505	92.62
436.727	89.62
436.949	102.62
437.17	100.62
437.392	83.62
437.614	84.62
437.835	109.62
438.057	105.62
438.278	103.62
438.5	102.62
438.721	125.62
438.943	86.62
439.165	83.62
439.386	94.62
439.608	91.62
439.829	95.62
440.05	123.62
440.272	146.62
440.493	106.62
440.715	81.62
440.936	90.62
441.158	65.62
441.379	89.62
441.6	81.62
441.822	88.62
442.043	84.62
442.264	91.62
442.486	90.62
442.707	96.62
442.928	96.62
443.149	127.62
443.371	124.62
443.592	97.62
443.813	93.62
444.034	103.62
444.255	96.62
444.476	85.62
444.698	86.62
444.919	93.62
445.14	116.62
445.361	110.62
445.582	109.62
445.803	117.62
446.024	134.62
446.245	127.62
446.466	112.62
446.687	97.62
446.908	87.62
447.129	95.62
447.35	82.62
447.571	86.62
447.792	94.62
448.013	89.62
448.234	90.62
448.455	98.62
448.675	109.62
448.896	110.62
449.117	83.62
449.338	105.62
449.559	133.62
449.779	121.62
450	89.62
450.221	96.62
450.442	83.62
450.662	99.62
450.883	99.62
451.104	103.62
451.324	99.62
451.545	86.62
451.766	86.62
451.986	80.62
452.207	93.62
452.428	93.62
452.648	86.62
452.869	112.62
453.089	104.62
453.31	118.62
453.53	94.62
453.751	88.62
453.971	101.62
454.192	95.62
454.412	81.62
454.633	94.62
454.853	90.62
455.073	92.62
455.294	88.62
455.514	104.62
455.734	84.62
455.955	86.62
456.175	77.62
456.395	86.62
456.616	87.62
456.836	93.62
457.056	91.62
457.276	92.62
457.497	85.62
457.717	79.62
457.937	86.62
458.157	76.62
458.377	78.62
458.598	108.62
458.818	143.62
459.038	146.62
459.258	96.62
459.478	72.62
459.698	82.62
459.918	87.62
460.138	93.62
460.358	85.62
460.578	91.62
460.798	98.62
461.018	82.62
461.238	91.62
461.458	72.62
461.678	78.62
461.898	92.62
462.118	84.62
462.338	83.62
462.558	78.62
462.777	68.62
462.997	77.62
463.217	85.62
463.437	87.62
463.657	83.62
463.876	82.62
464.096	82.62
464.316	80.62
464.536	90.62
464.755	101.62
464.975	113.62
465.195	156.62
465.414	158.62
465.634	90.62
465.854	89.62
466.073	85.62
466.293	88.62
466.512	83.62
466.732	81.62
466.951	92.62
467.171	82.62
467.391	93.62
467.61	90.62
467.829	100.62
468.049	93.62
468.268	82.62
468.488	87.62
468.707	92.62
468.927	93.62
469.146	94.62
469.365	84.62
469.585	86.62
469.804	99.62
470.023	100.62
470.243	96.62
470.462	96.62
470.681	99.62
470.901	102.62
471.12	81.62
471.339	89.62
471.558	87.62
471.777	99.62
471.997	73.62
472.216	99.62
472.435	109.62
472.654	74.62
472.873	82.62
473.092	85.62
473.311	86.62
473.53	79.62
473.749	93.62
473.968	96.62
474.187	97.62
474.406	86.62
474.625	77.62
474.844	70.62
475.063	88.62
475.282	81.62
475.501	84.62
475.72	89.62
475.939	77.62
476.158	76.62
476.377	77.62
476.596	89.62
476.814	99.62
477.033	90.62
477.252	80.62
477.471	82.62
477.69	94.62
477.908	86.62
478.127	70.62
478.346	85.62
478.564	86.62
478.783	93.62
479.002	87.62
479.22	100.62
479.439	96.62
479.658	110.62
479.876	95.62
480.095	95.62
480.313	84.62
480.532	95.62
480.751	94.62
480.969	90.62
481.188	112.62
481.406	106.62
481.624	90.62
481.843	82.62
482.061	90.62
482.28	83.62
482.498	81.62
482.717	101.62
482.935	75.62
483.153	82.62
483.372	87.62
483.59	95.62
483.808	90.62
484.027	94.62
484.245	95.62
484.463	83.62
484.681	78.62
484.9	88.62
485.118	83.62
485.336	88.62
485.554	99.62
485.772	112.62
485.99	113.62
486.209	109.62
486.427	97.62
486.645	108.62
486.863	95.62
487.081	91.62
487.299	96.62
487.517	96.62
487.735	93.62
487.953	87.62
488.171	100.62
488.389	103.62
488.607	99.62
488.825	90.62
489.043	96.62
489.261	106.62
489.479	104.62
489.696	81.62
489.914	84.62
490.132	79.62
490.35	105.62
490.568	66.62
490.786	87.62
491.003	98.62
491.221	88.62
491.439	85.62
491.657	94.62
491.874	92.62
492.092	90.62
492.31	103.62
492.527	87.62
492.745	83.62
492.963	81.62
493.18	92.62
493.398	94.62
493.615	91.62
493.833	89.62
494.05	90.62
494.268	87.62
494.485	77.62
494.703	81.62
494.92	84.62
495.138	91.62
495.355	92.62
495.573	101.62
495.79	100.62
496.008	80.62
496.225	103.62
496.442	69.62
496.66	90.62
496.877	72.62
497.094	100.62
497.312	65.62
497.529	88.62
497.746	90.62
497.963	92.62
498.181	101.62
498.398	108.62
498.615	118.62
498.832	88.62
499.049	84.62
499.267	98.62
499.484	90.62
499.701	84.62
499.918	88.62
500.135	83.62
500.352	96.62
500.569	98.62
500.786	91.62
501.003	94.62
501.22	95.62
501.437	97.62
501.654	88.62
501.871	96.62
502.088	101.62
502.305	97.62
502.522	98.62
502.739	94.62
502.956	85.62
503.172	94.62
503.389	92.62
503.606	86.62
503.823	96.62
504.04	86.62
504.256	105.62
504.473	93.62
504.69	87.62
504.907	101.62
505.123	82.62
505.34	92.62
505.557	99.62
505.773	96.62
505.99	87.62
506.207	96.62
506.423	92.62
506.64	77.62
506.856	70.62
507.073	86.62
507.289	104.62
507.506	101.62
507.722	111.62
507.939	104.62
508.155	101.62
508.372	92.62
508.588	83.62
508.805	94.62
509.021	93.62
509.238	102.62
509.454	109.62
509.67	110.62
509.887	108.62
510.103	140.62
510.319	222.62
510.536	805.62
510.752	2376.62
510.968	669.62
511.184	170.62
511.401	130.62
511.617	107.62
511.833	94.62
512.049	94.62
512.265	100.62
512.481	88.62
512.698	94.62
512.914	90.62
513.13	86.62
513.346	93.62
513.562	86.62
513.778	97.62
513.994	95.62
514.21	100.62
514.426	112.62
514.642	128.62
514.858	115.62
515.074	159.62
515.29	460.62
515.506	1404.62
515.721	508.62
515.937	140.62
516.153	97.62
