Data from Uncirc_2004_H10_HRD10591_00018.txt Node
Date: Wed Jan 03 10:32:16 EST 2024
User: Yrep
Spectrometer: HR+D1059
Trigger mode: 1
Integration Time (sec): 1.000000E-1
Scans to average: 1
Electric dark correction enabled: true
Nonlinearity correction enabled: false
Boxcar width: 0
XAxis mode: Wavelengths
Number of Pixels in Spectrum: 2048
>>>>>Begin Spectral Data<<<<<
223.165	-22.25
223.4	-22.25
223.635	-22.25
223.869	-14.25
224.104	-29.25
224.338	-19.25
224.573	-15.25
224.808	-23.25
225.042	-8.25
225.277	-3.25
225.511	4.75
225.746	-8.25
225.98	19.75
226.215	22.75
226.449	26.75
226.683	18.75
226.918	25.75
227.152	24.75
227.387	18.75
227.621	33.75
227.856	45.75
228.09	41.75
228.324	44.75
228.559	53.75
228.793	47.75
229.027	45.75
229.262	54.75
229.496	57.75
229.73	60.75
229.964	80.75
230.199	73.75
230.433	75.75
230.667	71.75
230.901	77.75
231.136	56.75
231.37	63.75
231.604	69.75
231.838	85.75
232.072	80.75
232.306	69.75
232.541	72.75
232.775	78.75
233.009	88.75
233.243	70.75
233.477	84.75
233.711	65.75
233.945	74.75
234.179	74.75
234.413	75.75
234.647	61.75
234.881	54.75
235.115	80.75
235.349	81.75
235.583	68.75
235.817	75.75
236.051	56.75
236.285	76.75
236.519	77.75
236.753	76.75
236.987	78.75
237.221	84.75
237.455	66.75
237.689	68.75
237.922	66.75
238.156	73.75
238.39	72.75
238.624	62.75
238.858	75.75
239.091	67.75
239.325	71.75
239.559	63.75
239.793	75.75
240.027	76.75
240.26	65.75
240.494	78.75
240.728	64.75
240.961	77.75
241.195	77.75
241.429	57.75
241.662	70.75
241.896	63.75
242.13	67.75
242.363	72.75
242.597	66.75
242.83	62.75
243.064	59.75
243.298	57.75
243.531	71.75
243.765	73.75
243.998	73.75
244.232	68.75
244.465	81.75
244.699	77.75
244.932	61.75
245.166	78.75
245.399	66.75
245.633	75.75
245.866	55.75
246.099	76.75
246.333	66.75
246.566	62.75
246.8	73.75
247.033	77.75
247.266	61.75
247.5	55.75
247.733	67.75
247.966	81.75
248.2	78.75
248.433	69.75
248.666	70.75
248.899	82.75
249.133	74.75
249.366	77.75
249.599	75.75
249.832	85.75
250.066	72.75
250.299	64.75
250.532	77.75
250.765	80.75
250.998	79.75
251.231	80.75
251.465	72.75
251.698	65.75
251.931	68.75
252.164	76.75
252.397	86.75
252.63	81.75
252.863	49.75
253.096	75.75
253.329	84.75
253.562	68.75
253.795	67.75
254.028	79.75
254.261	69.75
254.494	77.75
254.727	65.75
254.96	77.75
255.193	54.75
255.426	57.75
255.659	65.75
255.892	70.75
256.124	71.75
256.357	74.75
256.59	80.75
256.823	92.75
257.056	78.75
257.289	65.75
257.521	58.75
257.754	69.75
257.987	80.75
258.22	89.75
258.452	66.75
258.685	64.75
258.918	70.75
259.151	80.75
259.383	77.75
259.616	87.75
259.849	71.75
260.081	85.75
260.314	76.75
260.547	63.75
260.779	86.75
261.012	78.75
261.244	56.75
261.477	90.75
261.71	86.75
261.942	91.75
262.175	97.75
262.407	82.75
262.64	69.75
262.872	85.75
263.105	71.75
263.337	74.75
263.57	88.75
263.802	68.75
264.035	68.75
264.267	75.75
264.499	80.75
264.732	76.75
264.964	77.75
265.197	82.75
265.429	87.75
265.661	84.75
265.894	82.75
266.126	72.75
266.358	86.75
266.591	85.75
266.823	76.75
267.055	70.75
267.287	80.75
267.52	71.75
267.752	76.75
267.984	82.75
268.216	80.75
268.448	92.75
268.681	76.75
268.913	72.75
269.145	94.75
269.377	85.75
269.609	77.75
269.841	77.75
270.073	67.75
270.306	61.75
270.538	95.75
270.77	81.75
271.002	88.75
271.234	63.75
271.466	74.75
271.698	77.75
271.93	74.75
272.162	74.75
272.394	82.75
272.626	81.75
272.858	71.75
273.09	85.75
273.322	82.75
273.553	69.75
273.785	79.75
274.017	74.75
274.249	82.75
274.481	85.75
274.713	75.75
274.945	71.75
275.176	65.75
275.408	76.75
275.64	65.75
275.872	79.75
276.104	78.75
276.335	77.75
276.567	94.75
276.799	99.75
277.031	88.75
277.262	83.75
277.494	63.75
277.726	73.75
277.957	73.75
278.189	74.75
278.421	73.75
278.652	79.75
278.884	85.75
279.115	73.75
279.347	94.75
279.579	83.75
279.81	82.75
280.042	76.75
280.273	81.75
280.505	90.75
280.736	86.75
280.968	71.75
281.199	75.75
281.431	73.75
281.662	87.75
281.894	88.75
282.125	80.75
282.356	92.75
282.588	117.75
282.819	98.75
283.051	73.75
283.282	62.75
283.513	83.75
283.745	72.75
283.976	67.75
284.207	81.75
284.439	81.75
284.67	78.75
284.901	80.75
285.132	83.75
285.364	75.75
285.595	80.75
285.826	78.75
286.057	71.75
286.288	68.75
286.52	85.75
286.751	82.75
286.982	63.75
287.213	72.75
287.444	76.75
287.675	88.75
287.906	81.75
288.138	94.75
288.369	75.75
288.6	82.75
288.831	88.75
289.062	80.75
289.293	80.75
289.524	89.75
289.755	98.75
289.986	79.75
290.217	80.75
290.448	88.75
290.679	68.75
290.91	83.75
291.141	82.75
291.371	81.75
291.602	80.75
291.833	70.75
292.064	76.75
292.295	90.75
292.526	81.75
292.757	77.75
292.987	71.75
293.218	76.75
293.449	79.75
293.68	72.75
293.91	88.75
294.141	80.75
294.372	83.75
294.603	83.75
294.833	77.75
295.064	77.75
295.295	84.75
295.525	81.75
295.756	93.75
295.987	102.75
296.217	122.75
296.448	103.75
296.679	85.75
296.909	65.75
297.14	72.75
297.37	77.75
297.601	93.75
297.831	101.75
298.062	93.75
298.292	69.75
298.523	76.75
298.753	79.75
298.984	92.75
299.214	74.75
299.445	77.75
299.675	75.75
299.905	80.75
300.136	76.75
300.366	85.75
300.597	74.75
300.827	76.75
301.057	78.75
301.288	91.75
301.518	85.75
301.748	75.75
301.979	82.75
302.209	93.75
302.439	90.75
302.669	72.75
302.9	82.75
303.13	77.75
303.36	73.75
303.59	85.75
303.82	78.75
304.051	84.75
304.281	89.75
304.511	86.75
304.741	85.75
304.971	72.75
305.201	74.75
305.431	69.75
305.661	75.75
305.891	84.75
306.121	88.75
306.352	91.75
306.582	83.75
306.812	90.75
307.042	93.75
307.272	78.75
307.502	89.75
307.731	92.75
307.961	92.75
308.191	87.75
308.421	77.75
308.651	82.75
308.881	85.75
309.111	83.75
309.341	88.75
309.571	89.75
309.8	81.75
310.03	88.75
310.26	92.75
310.49	78.75
310.72	83.75
310.949	81.75
311.179	79.75
311.409	80.75
311.639	74.75
311.868	80.75
312.098	89.75
312.328	69.75
312.557	84.75
312.787	88.75
313.017	84.75
313.246	94.75
313.476	81.75
313.706	63.75
313.935	84.75
314.165	82.75
314.394	88.75
314.624	92.75
314.853	84.75
315.083	90.75
315.312	82.75
315.542	89.75
315.771	82.75
316.001	102.75
316.23	86.75
316.46	80.75
316.689	64.75
316.919	75.75
317.148	78.75
317.377	88.75
317.607	84.75
317.836	90.75
318.065	73.75
318.295	94.75
318.524	70.75
318.753	74.75
318.983	75.75
319.212	78.75
319.441	94.75
319.67	87.75
319.9	89.75
320.129	88.75
320.358	104.75
320.587	85.75
320.816	82.75
321.046	96.75
321.275	78.75
321.504	95.75
321.733	75.75
321.962	88.75
322.191	82.75
322.42	97.75
322.649	89.75
322.878	88.75
323.108	106.75
323.337	127.75
323.566	109.75
323.795	126.75
324.024	178.75
324.253	335.75
324.482	718.75
324.71	1412.75
324.939	1816.75
325.168	704.75
325.397	210.75
325.626	116.75
325.855	96.75
326.084	117.75
326.313	124.75
326.542	137.75
326.77	201.75
326.999	401.75
327.228	817.75
327.457	1486.75
327.686	1158.75
327.914	313.75
328.143	168.75
328.372	132.75
328.6	99.75
328.829	98.75
329.058	92.75
329.287	101.75
329.515	98.75
329.744	87.75
329.972	91.75
330.201	90.75
330.43	100.75
330.658	104.75
330.887	111.75
331.115	99.75
331.344	79.75
331.572	94.75
331.801	93.75
332.03	81.75
332.258	65.75
332.486	88.75
332.715	79.75
332.943	85.75
333.172	79.75
333.4	92.75
333.629	97.75
333.857	96.75
334.085	104.75
334.314	95.75
334.542	92.75
334.771	88.75
334.999	89.75
335.227	84.75
335.455	92.75
335.684	95.75
335.912	100.75
336.14	87.75
336.369	81.75
336.597	89.75
336.825	84.75
337.053	82.75
337.281	86.75
337.51	80.75
337.738	68.75
337.966	83.75
338.194	97.75
338.422	81.75
338.65	93.75
338.878	77.75
339.106	77.75
339.334	93.75
339.562	70.75
339.79	83.75
340.018	85.75
340.246	84.75
340.474	83.75
340.702	91.75
340.93	69.75
341.158	90.75
341.386	106.75
341.614	98.75
341.842	79.75
342.07	76.75
342.298	85.75
342.526	68.75
342.754	74.75
342.981	81.75
343.209	86.75
343.437	108.75
343.665	89.75
343.893	80.75
344.12	74.75
344.348	80.75
344.576	84.75
344.804	83.75
345.031	80.75
345.259	81.75
345.487	100.75
345.714	84.75
345.942	90.75
346.17	71.75
346.397	79.75
346.625	81.75
346.853	85.75
347.08	91.75
347.308	92.75
347.535	87.75
347.763	90.75
347.99	78.75
348.218	84.75
348.445	75.75
348.673	87.75
348.9	104.75
349.128	84.75
349.355	86.75
349.583	101.75
349.81	104.75
350.037	77.75
350.265	71.75
350.492	90.75
350.72	71.75
350.947	105.75
351.174	95.75
351.402	93.75
351.629	83.75
351.856	88.75
352.083	93.75
352.311	95.75
352.538	92.75
352.765	94.75
352.992	100.75
353.22	108.75
353.447	102.75
353.674	86.75
353.901	99.75
354.128	91.75
354.355	93.75
354.583	75.75
354.81	95.75
355.037	97.75
355.264	101.75
355.491	84.75
355.718	85.75
355.945	104.75
356.172	87.75
356.399	86.75
356.626	87.75
356.853	88.75
357.08	91.75
357.307	79.75
357.534	81.75
357.761	87.75
357.988	88.75
358.215	93.75
358.441	75.75
358.668	91.75
358.895	79.75
359.122	84.75
359.349	76.75
359.576	82.75
359.802	90.75
360.029	89.75
360.256	99.75
360.483	90.75
360.709	88.75
360.936	78.75
361.163	80.75
361.39	76.75
361.616	78.75
361.843	96.75
362.07	97.75
362.296	90.75
362.523	95.75
362.749	89.75
362.976	94.75
363.203	84.75
363.429	93.75
363.656	81.75
363.882	72.75
364.109	75.75
364.335	89.75
364.562	94.75
364.788	75.75
365.015	82.75
365.241	87.75
365.468	98.75
365.694	87.75
365.92	69.75
366.147	72.75
366.373	81.75
366.599	82.75
366.826	79.75
367.052	91.75
367.278	94.75
367.505	85.75
367.731	78.75
367.957	82.75
368.184	69.75
368.41	97.75
368.636	89.75
368.862	105.75
369.089	93.75
369.315	63.75
369.541	94.75
369.767	88.75
369.993	74.75
370.219	73.75
370.445	67.75
370.672	75.75
370.898	75.75
371.124	74.75
371.35	82.75
371.576	82.75
371.802	99.75
372.028	80.75
372.254	76.75
372.48	81.75
372.706	84.75
372.932	84.75
373.158	64.75
373.384	94.75
373.61	81.75
373.835	80.75
374.061	78.75
374.287	72.75
374.513	75.75
374.739	89.75
374.965	93.75
375.191	89.75
375.416	91.75
375.642	95.75
375.868	85.75
376.094	66.75
376.319	70.75
376.545	84.75
376.771	71.75
376.997	76.75
377.222	81.75
377.448	87.75
377.674	84.75
377.899	78.75
378.125	88.75
378.35	90.75
378.576	88.75
378.802	92.75
379.027	89.75
379.253	87.75
379.478	76.75
379.704	92.75
379.929	79.75
380.155	80.75
380.38	81.75
380.606	94.75
380.831	99.75
381.057	101.75
381.282	94.75
381.507	110.75
381.733	85.75
381.958	90.75
382.184	98.75
382.409	99.75
382.634	99.75
382.86	105.75
383.085	104.75
383.31	79.75
383.535	101.75
383.761	103.75
383.986	83.75
384.211	83.75
384.436	96.75
384.662	97.75
384.887	100.75
385.112	87.75
385.337	105.75
385.562	97.75
385.787	104.75
386.013	110.75
386.238	104.75
386.463	98.75
386.688	103.75
386.913	105.75
387.138	123.75
387.363	105.75
387.588	102.75
387.813	88.75
388.038	127.75
388.263	107.75
388.488	92.75
388.713	95.75
388.938	70.75
389.163	88.75
389.387	82.75
389.612	70.75
389.837	66.75
390.062	84.75
390.287	98.75
390.512	93.75
390.736	84.75
390.961	96.75
391.186	78.75
391.411	98.75
391.636	82.75
391.86	88.75
392.085	89.75
392.31	80.75
392.534	96.75
392.759	82.75
392.984	74.75
393.208	90.75
393.433	90.75
393.658	87.75
393.882	94.75
394.107	71.75
394.331	76.75
394.556	76.75
394.78	77.75
395.005	62.75
395.229	80.75
395.454	79.75
395.678	82.75
395.903	72.75
396.127	72.75
396.352	77.75
396.576	87.75
396.801	72.75
397.025	91.75
397.249	87.75
397.474	97.75
397.698	80.75
397.922	84.75
398.147	80.75
398.371	70.75
398.595	71.75
398.82	83.75
399.044	80.75
399.268	83.75
399.492	70.75
399.717	99.75
399.941	72.75
400.165	93.75
400.389	70.75
400.613	79.75
400.837	85.75
401.062	86.75
401.286	77.75
401.51	65.75
401.734	74.75
401.958	79.75
402.182	118.75
402.406	128.75
402.63	82.75
402.854	89.75
403.078	82.75
403.302	71.75
403.526	74.75
403.75	84.75
403.974	97.75
404.198	82.75
404.422	81.75
404.645	77.75
404.869	81.75
405.093	86.75
405.317	85.75
405.541	84.75
405.765	72.75
405.988	100.75
406.212	146.75
406.436	177.75
406.66	113.75
406.883	87.75
407.107	84.75
407.331	87.75
407.555	92.75
407.778	86.75
408.002	87.75
408.226	93.75
408.449	89.75
408.673	90.75
408.896	92.75
409.12	80.75
409.344	84.75
409.567	65.75
409.791	85.75
410.014	91.75
410.238	96.75
410.461	96.75
410.685	91.75
410.908	96.75
411.132	98.75
411.355	85.75
411.578	91.75
411.802	94.75
412.025	79.75
412.249	84.75
412.472	88.75
412.695	77.75
412.919	76.75
413.142	88.75
413.365	91.75
413.589	71.75
413.812	102.75
414.035	87.75
414.258	85.75
414.482	89.75
414.705	95.75
414.928	69.75
415.151	82.75
415.374	106.75
415.597	73.75
415.821	100.75
416.044	99.75
416.267	80.75
416.49	77.75
416.713	77.75
416.936	82.75
417.159	78.75
417.382	82.75
417.605	81.75
417.828	85.75
418.051	71.75
418.274	81.75
418.497	87.75
418.72	79.75
418.943	77.75
419.166	80.75
419.389	68.75
419.611	86.75
419.834	78.75
420.057	83.75
420.28	94.75
420.503	81.75
420.726	81.75
420.948	81.75
421.171	77.75
421.394	95.75
421.617	80.75
421.839	92.75
422.062	87.75
422.285	91.75
422.507	94.75
422.73	92.75
422.953	78.75
423.175	72.75
423.398	89.75
423.621	66.75
423.843	84.75
424.066	89.75
424.288	81.75
424.511	78.75
424.733	86.75
424.956	98.75
425.178	83.75
425.401	96.75
425.623	92.75
425.846	73.75
426.068	86.75
426.291	76.75
426.513	77.75
426.735	79.75
426.958	83.75
427.18	82.75
427.402	113.75
427.625	146.75
427.847	101.75
428.069	86.75
428.292	78.75
428.514	80.75
428.736	91.75
428.958	78.75
429.181	87.75
429.403	76.75
429.625	64.75
429.847	77.75
430.069	77.75
430.292	77.75
430.514	76.75
430.736	77.75
430.958	86.75
431.18	72.75
431.402	67.75
431.624	80.75
431.846	77.75
432.068	72.75
432.29	75.75
432.512	81.75
432.734	69.75
432.956	79.75
433.178	87.75
433.4	85.75
433.622	87.75
433.844	90.75
434.066	67.75
434.287	75.75
434.509	70.75
434.731	76.75
434.953	77.75
435.175	86.75
435.397	91.75
435.618	68.75
435.84	99.75
436.062	90.75
436.284	104.75
436.505	97.75
436.727	78.75
436.949	88.75
437.17	95.75
437.392	91.75
437.614	78.75
437.835	85.75
438.057	78.75
438.278	102.75
438.5	89.75
438.721	98.75
438.943	102.75
439.165	86.75
439.386	82.75
439.608	92.75
439.829	85.75
440.05	106.75
440.272	108.75
440.493	77.75
440.715	73.75
440.936	81.75
441.158	78.75
441.379	94.75
441.6	81.75
441.822	79.75
442.043	86.75
442.264	85.75
442.486	84.75
442.707	88.75
442.928	84.75
443.149	105.75
443.371	105.75
443.592	100.75
443.813	96.75
444.034	88.75
444.255	93.75
444.476	92.75
444.698	80.75
444.919	81.75
445.14	125.75
445.361	90.75
445.582	97.75
445.803	90.75
446.024	103.75
446.245	112.75
446.466	99.75
446.687	79.75
446.908	82.75
447.129	83.75
447.35	80.75
447.571	77.75
447.792	73.75
448.013	86.75
448.234	86.75
448.455	91.75
448.675	95.75
448.896	92.75
449.117	87.75
449.338	91.75
449.559	117.75
449.779	124.75
450	84.75
450.221	82.75
450.442	84.75
450.662	76.75
450.883	98.75
451.104	88.75
451.324	90.75
451.545	74.75
451.766	72.75
451.986	82.75
452.207	97.75
452.428	92.75
452.648	94.75
452.869	94.75
453.089	98.75
453.31	101.75
453.53	100.75
453.751	77.75
453.971	85.75
454.192	98.75
454.412	76.75
454.633	69.75
454.853	81.75
455.073	72.75
455.294	73.75
455.514	83.75
455.734	72.75
455.955	89.75
456.175	75.75
456.395	76.75
456.616	79.75
456.836	76.75
457.056	81.75
457.276	75.75
457.497	78.75
457.717	73.75
457.937	73.75
458.157	75.75
458.377	87.75
458.598	98.75
458.818	134.75
459.038	134.75
459.258	96.75
459.478	84.75
459.698	74.75
459.918	74.75
460.138	79.75
460.358	74.75
460.578	82.75
460.798	80.75
461.018	74.75
461.238	78.75
461.458	82.75
461.678	82.75
461.898	77.75
462.118	73.75
462.338	71.75
462.558	85.75
462.777	81.75
462.997	68.75
463.217	70.75
463.437	80.75
463.657	89.75
463.876	75.75
464.096	75.75
464.316	88.75
464.536	67.75
464.755	98.75
464.975	92.75
465.195	128.75
465.414	126.75
465.634	94.75
465.854	105.75
466.073	81.75
466.293	84.75
466.512	86.75
466.732	70.75
466.951	72.75
467.171	73.75
467.391	87.75
467.61	102.75
467.829	80.75
468.049	77.75
468.268	97.75
468.488	80.75
468.707	85.75
468.927	85.75
469.146	80.75
469.365	74.75
469.585	79.75
469.804	96.75
470.023	89.75
470.243	79.75
470.462	85.75
470.681	92.75
470.901	81.75
471.12	84.75
471.339	81.75
471.558	89.75
471.777	81.75
471.997	72.75
472.216	91.75
472.435	87.75
472.654	76.75
472.873	86.75
473.092	77.75
473.311	79.75
473.53	76.75
473.749	77.75
473.968	87.75
474.187	93.75
474.406	81.75
474.625	83.75
474.844	74.75
475.063	86.75
475.282	74.75
475.501	88.75
475.72	83.75
475.939	75.75
476.158	79.75
476.377	69.75
476.596	88.75
476.814	73.75
477.033	75.75
477.252	73.75
477.471	96.75
477.69	87.75
477.908	70.75
478.127	76.75
478.346	89.75
478.564	68.75
478.783	81.75
479.002	89.75
479.22	85.75
479.439	90.75
479.658	88.75
479.876	84.75
480.095	68.75
480.313	83.75
480.532	82.75
480.751	90.75
480.969	73.75
481.188	110.75
481.406	96.75
481.624	87.75
481.843	86.75
482.061	86.75
482.28	83.75
482.498	72.75
482.717	74.75
482.935	74.75
483.153	79.75
483.372	77.75
483.59	89.75
483.808	79.75
484.027	71.75
484.245	88.75
484.463	90.75
484.681	80.75
484.9	83.75
485.118	79.75
485.336	94.75
485.554	112.75
485.772	82.75
485.99	94.75
486.209	93.75
486.427	108.75
486.645	84.75
486.863	101.75
487.081	90.75
487.299	92.75
487.517	84.75
487.735	82.75
487.953	93.75
488.171	97.75
488.389	108.75
488.607	85.75
488.825	84.75
489.043	77.75
489.261	53.75
489.479	80.75
489.696	82.75
489.914	81.75
490.132	76.75
490.35	82.75
490.568	85.75
490.786	95.75
491.003	86.75
491.221	87.75
491.439	82.75
491.657	80.75
491.874	94.75
492.092	79.75
492.31	85.75
492.527	82.75
492.745	87.75
492.963	92.75
493.18	81.75
493.398	87.75
493.615	94.75
493.833	94.75
494.05	82.75
494.268	89.75
494.485	93.75
494.703	84.75
494.92	87.75
495.138	70.75
495.355	86.75
495.573	91.75
495.79	89.75
496.008	79.75
496.225	84.75
496.442	80.75
496.66	91.75
496.877	92.75
497.094	75.75
497.312	77.75
497.529	81.75
497.746	81.75
497.963	95.75
498.181	75.75
498.398	91.75
498.615	101.75
498.832	97.75
499.049	93.75
499.267	93.75
499.484	88.75
499.701	82.75
499.918	87.75
500.135	89.75
500.352	92.75
500.569	84.75
500.786	85.75
501.003	83.75
501.22	81.75
501.437	84.75
501.654	90.75
501.871	88.75
502.088	89.75
502.305	74.75
502.522	83.75
502.739	94.75
502.956	86.75
503.172	89.75
503.389	89.75
503.606	93.75
503.823	89.75
504.04	94.75
504.256	85.75
504.473	95.75
504.69	86.75
504.907	79.75
505.123	89.75
505.34	97.75
505.557	85.75
505.773	97.75
505.99	77.75
506.207	84.75
506.423	87.75
506.64	89.75
506.856	86.75
507.073	77.75
507.289	86.75
507.506	91.75
507.722	87.75
507.939	91.75
508.155	84.75
508.372	86.75
508.588	86.75
508.805	95.75
509.021	94.75
509.238	92.75
509.454	88.75
509.67	97.75
509.887	99.75
510.103	112.75
510.319	198.75
510.536	660.75
510.752	2057.75
510.968	612.75
511.184	141.75
511.401	97.75
511.617	97.75
511.833	86.75
512.049	70.75
512.265	81.75
512.481	78.75
512.698	88.75
512.914	95.75
513.13	80.75
513.346	86.75
513.562	84.75
513.778	93.75
513.994	84.75
514.21	80.75
514.426	118.75
514.642	113.75
514.858	114.75
515.074	132.75
515.29	346.75
515.506	1198.75
515.721	428.75
515.937	138.75
516.153	96.75
516.369	90.75
516.585	73.75
516.801	91.75
517.016	88.75
517.232	75.75
517.448	86.75
517.664	86.75
517.879	90.75
518.095	92.75
518.311	91.75
