Data from Uncirc_2004_H10_HRD10591_00019.txt Node
Date: Wed Jan 03 10:32:16 EST 2024
User: Yrep
Spectrometer: HR+D1059
Trigger mode: 1
Integration Time (sec): 1.000000E-1
Scans to average: 1
Electric dark correction enabled: true
Nonlinearity correction enabled: false
Boxcar width: 0
XAxis mode: Wavelengths
Number of Pixels in Spectrum: 2048
>>>>>Begin Spectral Data<<<<<
223.165	-2.5
223.4	-2.5
223.635	-2.5
223.869	-13.5
224.104	-13.5
224.338	-19.5
224.573	-18.5
224.808	-14.5
225.042	-11.5
225.277	-14.5
225.511	-2.5
225.746	2.5
225.98	7.5
226.215	14.5
226.449	11.5
226.683	27.5
226.918	24.5
227.152	22.5
227.387	41.5
227.621	42.5
227.856	49.5
228.09	46.5
228.324	44.5
228.559	58.5
228.793	59.5
229.027	55.5
229.262	65.5
229.496	78.5
229.73	86.5
229.964	77.5
230.199	75.5
230.433	83.5
230.667	75.5
230.901	88.5
231.136	82.5
231.37	85.5
231.604	71.5
231.838	86.5
232.072	66.5
232.306	84.5
232.541	82.5
232.775	84.5
233.009	76.5
233.243	83.5
233.477	92.5
233.711	69.5
233.945	79.5
234.179	80.5
234.413	83.5
234.647	92.5
234.881	82.5
235.115	81.5
235.349	67.5
235.583	84.5
235.817	84.5
236.051	87.5
236.285	89.5
236.519	73.5
236.753	78.5
236.987	87.5
237.221	95.5
237.455	83.5
237.689	82.5
237.922	81.5
238.156	82.5
238.39	84.5
238.624	80.5
238.858	78.5
239.091	84.5
239.325	82.5
239.559	85.5
239.793	76.5
240.027	78.5
240.26	76.5
240.494	71.5
240.728	83.5
240.961	74.5
241.195	69.5
241.429	93.5
241.662	100.5
241.896	94.5
242.13	86.5
242.363	72.5
242.597	82.5
242.83	84.5
243.064	88.5
243.298	71.5
243.531	74.5
243.765	86.5
243.998	83.5
244.232	76.5
244.465	95.5
244.699	86.5
244.932	75.5
245.166	85.5
245.399	77.5
245.633	85.5
245.866	90.5
246.099	83.5
246.333	88.5
246.566	89.5
246.8	84.5
247.033	80.5
247.266	82.5
247.5	82.5
247.733	85.5
247.966	88.5
248.2	86.5
248.433	80.5
248.666	82.5
248.899	96.5
249.133	90.5
249.366	96.5
249.599	100.5
249.832	77.5
250.066	92.5
250.299	90.5
250.532	80.5
250.765	72.5
250.998	75.5
251.231	87.5
251.465	91.5
251.698	91.5
251.931	84.5
252.164	79.5
252.397	78.5
252.63	89.5
252.863	82.5
253.096	77.5
253.329	87.5
253.562	87.5
253.795	84.5
254.028	89.5
254.261	96.5
254.494	82.5
254.727	89.5
254.96	98.5
255.193	83.5
255.426	83.5
255.659	77.5
255.892	86.5
256.124	86.5
256.357	88.5
256.59	91.5
256.823	102.5
257.056	90.5
257.289	86.5
257.521	84.5
257.754	96.5
257.987	79.5
258.22	94.5
258.452	92.5
258.685	82.5
258.918	91.5
259.151	83.5
259.383	95.5
259.616	73.5
259.849	80.5
260.081	85.5
260.314	87.5
260.547	83.5
260.779	86.5
261.012	94.5
261.244	83.5
261.477	91.5
261.71	89.5
261.942	112.5
262.175	107.5
262.407	90.5
262.64	83.5
262.872	74.5
263.105	98.5
263.337	87.5
263.57	84.5
263.802	90.5
264.035	89.5
264.267	90.5
264.499	88.5
264.732	99.5
264.964	84.5
265.197	82.5
265.429	85.5
265.661	96.5
265.894	93.5
266.126	88.5
266.358	80.5
266.591	89.5
266.823	85.5
267.055	80.5
267.287	102.5
267.52	90.5
267.752	100.5
267.984	77.5
268.216	82.5
268.448	73.5
268.681	93.5
268.913	103.5
269.145	107.5
269.377	93.5
269.609	85.5
269.841	78.5
270.073	91.5
270.306	91.5
270.538	94.5
270.77	93.5
271.002	85.5
271.234	76.5
271.466	74.5
271.698	98.5
271.93	87.5
272.162	77.5
272.394	80.5
272.626	84.5
272.858	98.5
273.09	88.5
273.322	91.5
273.553	95.5
273.785	96.5
274.017	81.5
274.249	86.5
274.481	84.5
274.713	93.5
274.945	93.5
275.176	95.5
275.408	98.5
275.64	76.5
275.872	106.5
276.104	98.5
276.335	97.5
276.567	94.5
276.799	112.5
277.031	94.5
277.262	88.5
277.494	83.5
277.726	80.5
277.957	89.5
278.189	92.5
278.421	91.5
278.652	104.5
278.884	86.5
279.115	102.5
279.347	86.5
279.579	90.5
279.81	95.5
280.042	102.5
280.273	107.5
280.505	84.5
280.736	81.5
280.968	98.5
281.199	88.5
281.431	84.5
281.662	94.5
281.894	104.5
282.125	107.5
282.356	122.5
282.588	122.5
282.819	112.5
283.051	93.5
283.282	95.5
283.513	105.5
283.745	92.5
283.976	96.5
284.207	98.5
284.439	94.5
284.67	83.5
284.901	75.5
285.132	87.5
285.364	88.5
285.595	88.5
285.826	82.5
286.057	89.5
286.288	81.5
286.52	109.5
286.751	92.5
286.982	86.5
287.213	92.5
287.444	95.5
287.675	102.5
287.906	90.5
288.138	91.5
288.369	91.5
288.6	95.5
288.831	88.5
289.062	93.5
289.293	93.5
289.524	94.5
289.755	92.5
289.986	92.5
290.217	82.5
290.448	84.5
290.679	88.5
290.91	94.5
291.141	84.5
291.371	99.5
291.602	86.5
291.833	97.5
292.064	96.5
292.295	93.5
292.526	84.5
292.757	112.5
292.987	89.5
293.218	90.5
293.449	87.5
293.68	76.5
293.91	76.5
294.141	94.5
294.372	92.5
294.603	98.5
294.833	96.5
295.064	91.5
295.295	93.5
295.525	95.5
295.756	106.5
295.987	113.5
296.217	123.5
296.448	119.5
296.679	92.5
296.909	92.5
297.14	93.5
297.37	93.5
297.601	90.5
297.831	85.5
298.062	85.5
298.292	103.5
298.523	99.5
298.753	83.5
298.984	101.5
299.214	91.5
299.445	89.5
299.675	85.5
299.905	106.5
300.136	100.5
300.366	97.5
300.597	85.5
300.827	100.5
301.057	107.5
301.288	113.5
301.518	108.5
301.748	102.5
301.979	93.5
302.209	74.5
302.439	86.5
302.669	91.5
302.9	111.5
303.13	91.5
303.36	105.5
303.59	108.5
303.82	106.5
304.051	89.5
304.281	86.5
304.511	98.5
304.741	105.5
304.971	98.5
305.201	102.5
305.431	90.5
305.661	98.5
305.891	95.5
306.121	97.5
306.352	105.5
306.582	100.5
306.812	99.5
307.042	95.5
307.272	88.5
307.502	94.5
307.731	99.5
307.961	100.5
308.191	98.5
308.421	104.5
308.651	94.5
308.881	100.5
309.111	94.5
309.341	92.5
309.571	77.5
309.8	80.5
310.03	101.5
310.26	101.5
310.49	93.5
310.72	85.5
310.949	98.5
311.179	102.5
311.409	90.5
311.639	108.5
311.868	107.5
312.098	108.5
312.328	102.5
312.557	91.5
312.787	110.5
313.017	99.5
313.246	113.5
313.476	101.5
313.706	105.5
313.935	98.5
314.165	91.5
314.394	109.5
314.624	102.5
314.853	93.5
315.083	85.5
315.312	102.5
315.542	90.5
315.771	96.5
316.001	96.5
316.23	109.5
316.46	85.5
316.689	99.5
316.919	101.5
317.148	104.5
317.377	101.5
317.607	101.5
317.836	99.5
318.065	92.5
318.295	97.5
318.524	104.5
318.753	92.5
318.983	104.5
319.212	102.5
319.441	86.5
319.67	106.5
319.9	90.5
320.129	107.5
320.358	101.5
320.587	98.5
320.816	96.5
321.046	98.5
321.275	103.5
321.504	99.5
321.733	99.5
321.962	93.5
322.191	99.5
322.42	106.5
322.649	118.5
322.878	119.5
323.108	110.5
323.337	128.5
323.566	128.5
323.795	148.5
324.024	196.5
324.253	377.5
324.482	761.5
324.71	1533.5
324.939	2029.5
325.168	777.5
325.397	233.5
325.626	156.5
325.855	128.5
326.084	123.5
326.313	144.5
326.542	159.5
326.77	225.5
326.999	452.5
327.228	900.5
327.457	1627.5
327.686	1248.5
327.914	356.5
328.143	188.5
328.372	135.5
328.6	120.5
328.829	120.5
329.058	117.5
329.287	127.5
329.515	104.5
329.744	105.5
329.972	105.5
330.201	104.5
330.43	109.5
330.658	111.5
330.887	136.5
331.115	106.5
331.344	115.5
331.572	104.5
331.801	111.5
332.03	93.5
332.258	105.5
332.486	102.5
332.715	83.5
332.943	90.5
333.172	93.5
333.4	101.5
333.629	126.5
333.857	117.5
334.085	112.5
334.314	98.5
334.542	107.5
334.771	102.5
334.999	94.5
335.227	99.5
335.455	104.5
335.684	94.5
335.912	99.5
336.14	98.5
336.369	100.5
336.597	98.5
336.825	101.5
337.053	98.5
337.281	105.5
337.51	94.5
337.738	107.5
337.966	100.5
338.194	103.5
338.422	100.5
338.65	93.5
338.878	98.5
339.106	83.5
339.334	90.5
339.562	100.5
339.79	105.5
340.018	94.5
340.246	93.5
340.474	104.5
340.702	98.5
340.93	98.5
341.158	110.5
341.386	101.5
341.614	97.5
341.842	104.5
342.07	116.5
342.298	81.5
342.526	100.5
342.754	95.5
342.981	104.5
343.209	96.5
343.437	91.5
343.665	102.5
343.893	94.5
344.12	107.5
344.348	109.5
344.576	91.5
344.804	90.5
345.031	107.5
345.259	109.5
345.487	116.5
345.714	91.5
345.942	96.5
346.17	86.5
346.397	98.5
346.625	88.5
346.853	93.5
347.08	96.5
347.308	90.5
347.535	100.5
347.763	100.5
347.99	103.5
348.218	94.5
348.445	97.5
348.673	96.5
348.9	91.5
349.128	105.5
349.355	97.5
349.583	100.5
349.81	100.5
350.037	78.5
350.265	101.5
350.492	102.5
350.72	106.5
350.947	104.5
351.174	110.5
351.402	100.5
351.629	98.5
351.856	106.5
352.083	100.5
352.311	108.5
352.538	114.5
352.765	123.5
352.992	113.5
353.22	112.5
353.447	108.5
353.674	101.5
353.901	107.5
354.128	94.5
354.355	97.5
354.583	97.5
354.81	98.5
355.037	96.5
355.264	119.5
355.491	97.5
355.718	74.5
355.945	87.5
356.172	100.5
356.399	97.5
356.626	94.5
356.853	97.5
357.08	101.5
357.307	103.5
357.534	104.5
357.761	97.5
357.988	101.5
358.215	99.5
358.441	101.5
358.668	105.5
358.895	104.5
359.122	112.5
359.349	84.5
359.576	96.5
359.802	88.5
360.029	92.5
360.256	104.5
360.483	95.5
360.709	91.5
360.936	88.5
361.163	83.5
361.39	109.5
361.616	93.5
361.843	102.5
362.07	90.5
362.296	94.5
362.523	102.5
362.749	101.5
362.976	94.5
363.203	92.5
363.429	88.5
363.656	106.5
363.882	96.5
364.109	101.5
364.335	91.5
364.562	102.5
364.788	88.5
365.015	89.5
365.241	113.5
365.468	114.5
365.694	105.5
365.92	101.5
366.147	91.5
366.373	91.5
366.599	98.5
366.826	102.5
367.052	87.5
367.278	86.5
367.505	92.5
367.731	95.5
367.957	89.5
368.184	103.5
368.41	103.5
368.636	115.5
368.862	113.5
369.089	101.5
369.315	90.5
369.541	96.5
369.767	91.5
369.993	100.5
370.219	109.5
370.445	104.5
370.672	97.5
370.898	85.5
371.124	93.5
371.35	89.5
371.576	85.5
371.802	92.5
372.028	100.5
372.254	96.5
372.48	95.5
372.706	81.5
372.932	96.5
373.158	92.5
373.384	93.5
373.61	95.5
373.835	101.5
374.061	94.5
374.287	89.5
374.513	81.5
374.739	82.5
374.965	79.5
375.191	94.5
375.416	92.5
375.642	91.5
375.868	99.5
376.094	94.5
376.319	83.5
376.545	96.5
376.771	98.5
376.997	96.5
377.222	81.5
377.448	94.5
377.674	93.5
377.899	96.5
378.125	89.5
378.35	91.5
378.576	102.5
378.802	86.5
379.027	90.5
379.253	102.5
379.478	121.5
379.704	109.5
379.929	98.5
380.155	110.5
380.38	108.5
380.606	94.5
380.831	99.5
381.057	95.5
381.282	106.5
381.507	97.5
381.733	117.5
381.958	101.5
382.184	128.5
382.409	113.5
382.634	105.5
382.86	107.5
383.085	109.5
383.31	108.5
383.535	117.5
383.761	107.5
383.986	110.5
384.211	105.5
384.436	111.5
384.662	104.5
384.887	126.5
385.112	130.5
385.337	109.5
385.562	125.5
385.787	113.5
386.013	120.5
386.238	123.5
386.463	106.5
386.688	115.5
386.913	111.5
387.138	117.5
387.363	99.5
387.588	106.5
387.813	101.5
388.038	109.5
388.263	123.5
388.488	123.5
388.713	117.5
388.938	94.5
389.163	101.5
389.387	107.5
389.612	94.5
389.837	113.5
390.062	91.5
390.287	95.5
390.512	111.5
390.736	105.5
390.961	95.5
391.186	94.5
391.411	91.5
391.636	99.5
391.86	87.5
392.085	98.5
392.31	96.5
392.534	100.5
392.759	101.5
392.984	99.5
393.208	101.5
393.433	97.5
393.658	117.5
393.882	101.5
394.107	98.5
394.331	90.5
394.556	76.5
394.78	93.5
395.005	92.5
395.229	88.5
395.454	95.5
395.678	100.5
395.903	93.5
396.127	94.5
396.352	90.5
396.576	94.5
396.801	104.5
397.025	102.5
397.249	86.5
397.474	103.5
397.698	89.5
397.922	104.5
398.147	98.5
398.371	101.5
398.595	92.5
398.82	87.5
399.044	87.5
399.268	88.5
399.492	85.5
399.717	99.5
399.941	90.5
400.165	93.5
400.389	86.5
400.613	98.5
400.837	82.5
401.062	96.5
401.286	84.5
401.51	88.5
401.734	103.5
401.958	103.5
402.182	126.5
402.406	146.5
402.63	121.5
402.854	108.5
403.078	86.5
403.302	92.5
403.526	81.5
403.75	91.5
403.974	74.5
404.198	99.5
404.422	85.5
404.645	91.5
404.869	89.5
405.093	93.5
405.317	99.5
405.541	100.5
405.765	117.5
405.988	122.5
406.212	147.5
406.436	202.5
406.66	146.5
406.883	117.5
407.107	107.5
407.331	99.5
407.555	97.5
407.778	102.5
408.002	84.5
408.226	78.5
408.449	81.5
408.673	85.5
408.896	102.5
409.12	88.5
409.344	78.5
409.567	100.5
409.791	97.5
410.014	102.5
410.238	105.5
410.461	100.5
410.685	100.5
410.908	100.5
411.132	109.5
411.355	96.5
411.578	105.5
411.802	80.5
412.025	89.5
412.249	103.5
412.472	96.5
412.695	104.5
412.919	104.5
413.142	90.5
413.365	103.5
413.589	92.5
413.812	95.5
414.035	71.5
414.258	89.5
414.482	76.5
414.705	90.5
414.928	90.5
415.151	106.5
415.374	102.5
415.597	88.5
415.821	92.5
416.044	99.5
416.267	86.5
416.49	89.5
416.713	84.5
416.936	81.5
417.159	89.5
417.382	76.5
417.605	98.5
417.828	113.5
418.051	100.5
418.274	97.5
418.497	97.5
418.72	94.5
418.943	88.5
419.166	75.5
419.389	75.5
419.611	79.5
419.834	88.5
420.057	94.5
420.28	73.5
420.503	89.5
420.726	87.5
420.948	94.5
421.171	97.5
421.394	98.5
421.617	93.5
421.839	87.5
422.062	90.5
422.285	94.5
422.507	105.5
422.73	117.5
422.953	108.5
423.175	88.5
423.398	114.5
423.621	100.5
423.843	80.5
424.066	102.5
424.288	92.5
424.511	91.5
424.733	98.5
424.956	104.5
425.178	101.5
425.401	113.5
425.623	94.5
425.846	78.5
426.068	106.5
426.291	100.5
426.513	89.5
426.735	97.5
426.958	89.5
427.18	101.5
427.402	127.5
427.625	168.5
427.847	118.5
428.069	103.5
428.292	103.5
428.514	86.5
428.736	96.5
428.958	88.5
429.181	93.5
429.403	85.5
429.625	86.5
429.847	88.5
430.069	110.5
430.292	94.5
430.514	90.5
430.736	88.5
430.958	85.5
431.18	85.5
431.402	98.5
431.624	89.5
431.846	98.5
432.068	80.5
432.29	93.5
432.512	90.5
432.734	79.5
432.956	90.5
433.178	103.5
433.4	88.5
433.622	97.5
433.844	88.5
434.066	96.5
434.287	93.5
434.509	90.5
434.731	94.5
434.953	94.5
435.175	88.5
435.397	99.5
435.618	113.5
435.84	95.5
436.062	118.5
436.284	97.5
436.505	105.5
436.727	108.5
436.949	93.5
437.17	104.5
437.392	94.5
437.614	91.5
437.835	103.5
438.057	108.5
438.278	105.5
438.5	117.5
438.721	114.5
438.943	95.5
439.165	94.5
439.386	97.5
439.608	100.5
439.829	92.5
440.05	121.5
440.272	131.5
440.493	94.5
440.715	109.5
440.936	89.5
441.158	90.5
441.379	96.5
441.6	104.5
441.822	98.5
442.043	101.5
442.264	90.5
442.486	106.5
442.707	93.5
442.928	109.5
443.149	132.5
443.371	129.5
443.592	106.5
443.813	112.5
444.034	93.5
444.255	97.5
444.476	82.5
444.698	96.5
444.919	92.5
445.14	136.5
445.361	124.5
445.582	109.5
445.803	125.5
446.024	134.5
446.245	125.5
446.466	102.5
446.687	87.5
446.908	74.5
447.129	101.5
447.35	90.5
447.571	85.5
447.792	91.5
448.013	104.5
448.234	97.5
448.455	93.5
448.675	106.5
448.896	117.5
449.117	95.5
449.338	102.5
449.559	121.5
449.779	138.5
450	96.5
450.221	93.5
450.442	85.5
450.662	94.5
450.883	108.5
451.104	114.5
451.324	106.5
451.545	83.5
451.766	94.5
451.986	89.5
452.207	100.5
452.428	100.5
452.648	95.5
452.869	107.5
453.089	113.5
453.31	115.5
453.53	96.5
453.751	98.5
453.971	93.5
454.192	96.5
454.412	94.5
454.633	98.5
454.853	95.5
455.073	107.5
455.294	99.5
455.514	90.5
455.734	93.5
455.955	91.5
456.175	92.5
456.395	95.5
456.616	91.5
456.836	93.5
457.056	72.5
457.276	86.5
457.497	88.5
457.717	81.5
457.937	90.5
458.157	94.5
458.377	109.5
458.598	113.5
458.818	134.5
459.038	131.5
459.258	113.5
459.478	93.5
459.698	80.5
459.918	93.5
460.138	87.5
460.358	96.5
460.578	95.5
460.798	89.5
461.018	89.5
461.238	97.5
461.458	86.5
461.678	73.5
461.898	99.5
462.118	91.5
462.338	98.5
462.558	95.5
462.777	86.5
462.997	95.5
463.217	81.5
463.437	94.5
463.657	94.5
463.876	83.5
464.096	91.5
464.316	95.5
464.536	99.5
464.755	105.5
464.975	94.5
465.195	147.5
465.414	140.5
465.634	90.5
465.854	101.5
466.073	89.5
466.293	86.5
466.512	99.5
466.732	86.5
466.951	79.5
467.171	100.5
467.391	90.5
467.61	108.5
467.829	98.5
468.049	101.5
468.268	105.5
468.488	86.5
468.707	88.5
468.927	77.5
469.146	88.5
469.365	102.5
469.585	108.5
469.804	92.5
470.023	93.5
470.243	93.5
470.462	94.5
470.681	98.5
470.901	87.5
471.12	86.5
471.339	107.5
471.558	90.5
471.777	84.5
471.997	75.5
472.216	94.5
472.435	100.5
472.654	93.5
472.873	84.5
473.092	100.5
473.311	98.5
473.53	94.5
473.749	90.5
473.968	92.5
474.187	84.5
474.406	89.5
474.625	98.5
474.844	97.5
475.063	93.5
475.282	95.5
475.501	84.5
475.72	89.5
475.939	103.5
476.158	84.5
476.377	96.5
476.596	113.5
476.814	92.5
477.033	93.5
477.252	100.5
477.471	92.5
477.69	98.5
477.908	85.5
478.127	102.5
478.346	87.5
478.564	101.5
478.783	93.5
479.002	94.5
479.22	81.5
479.439	91.5
479.658	113.5
479.876	100.5
480.095	80.5
480.313	101.5
480.532	101.5
480.751	96.5
480.969	98.5
481.188	118.5
481.406	118.5
481.624	104.5
481.843	104.5
482.061	85.5
482.28	90.5
482.498	96.5
482.717	93.5
482.935	105.5
483.153	101.5
483.372	107.5
483.59	97.5
483.808	81.5
484.027	92.5
484.245	97.5
484.463	90.5
484.681	92.5
484.9	87.5
485.118	93.5
485.336	91.5
485.554	106.5
485.772	88.5
485.99	97.5
486.209	99.5
486.427	109.5
486.645	109.5
486.863	124.5
487.081	105.5
487.299	93.5
487.517	96.5
487.735	87.5
487.953	91.5
488.171	118.5
488.389	118.5
488.607	94.5
488.825	97.5
489.043	80.5
489.261	101.5
489.479	79.5
489.696	95.5
489.914	91.5
490.132	93.5
490.35	90.5
490.568	94.5
490.786	107.5
491.003	87.5
491.221	86.5
491.439	83.5
491.657	101.5
491.874	103.5
492.092	98.5
492.31	98.5
492.527	83.5
492.745	100.5
492.963	95.5
493.18	93.5
493.398	96.5
493.615	105.5
493.833	98.5
494.05	105.5
494.268	98.5
494.485	106.5
494.703	99.5
494.92	108.5
495.138	93.5
495.355	105.5
495.573	91.5
495.79	86.5
496.008	103.5
496.225	94.5
496.442	86.5
496.66	94.5
496.877	96.5
497.094	84.5
497.312	112.5
497.529	91.5
497.746	89.5
497.963	95.5
498.181	88.5
498.398	85.5
498.615	113.5
498.832	92.5
499.049	103.5
499.267	96.5
499.484	96.5
499.701	82.5
499.918	97.5
500.135	102.5
500.352	103.5
500.569	106.5
500.786	99.5
501.003	92.5
501.22	97.5
501.437	100.5
501.654	98.5
501.871	103.5
502.088	82.5
502.305	92.5
502.522	97.5
502.739	100.5
502.956	98.5
503.172	93.5
503.389	97.5
503.606	100.5
503.823	90.5
504.04	97.5
504.256	94.5
504.473	90.5
504.69	97.5
504.907	85.5
505.123	105.5
505.34	107.5
505.557	94.5
505.773	87.5
505.99	93.5
506.207	95.5
506.423	78.5
506.64	108.5
506.856	88.5
507.073	96.5
507.289	102.5
507.506	104.5
507.722	101.5
507.939	103.5
508.155	100.5
508.372	84.5
508.588	89.5
508.805	89.5
509.021	86.5
509.238	96.5
509.454	94.5
509.67	105.5
509.887	98.5
510.103	151.5
510.319	210.5
510.536	730.5
510.752	2224.5
510.968	625.5
511.184	138.5
511.401	108.5
511.617	100.5
511.833	88.5
512.049	91.5
512.265	93.5
512.481	93.5
512.698	116.5
512.914	87.5
513.13	81.5
513.346	90.5
513.562	88.5
513.778	106.5
513.994	101.5
514.21	106.5
514.426	118.5
514.642	121.5
514.858	125.5
515.074	151.5
515.29	412.5
515.506	1340.5
515.721	521.5
515.937	151.5
516.153	130.5
516.369	105.5
516.585	103.5
516.801	86.5
517.016	92.5
517.232	99.5
517.448	104.5
517.664	80.5
517.879	103.5
518.095	108.5
518.311	99.5
518.527	101.5
518.742	81.5
518.958	96.5
519.173	84.5
519.389	102.5
519.605	106.5
519.82	88.5
520.036	94.5
520.251	115.5
520.467	117.5
520.682	107.5
520.898	93.5
521.113	115.5
521.329	154.5
521.544	196.5
521.76	531.5
521.975	2234.5
522.19	1322.5
522.406	283.5
522.621	113.5
522.836	107.5
523.052	103.5
523.267	107.5
523.482	89.5
523.698	111.5
523.913	119.5
524.128	104.5
524.343	108.5
524.559	91.5
524.774	90.5
524.989	104.5
525.204	103.5
525.419	99.5
525.634	91.5
525.849	101.5
526.064	81.5
526.28	99.5
526.495	92.5
526.71	94.5
526.925	95.5
527.14	96.5
527.355	97.5
527.57	97.5
527.785	91.5
527.999	101.5
528.214	98.5
528.429	98.5
528.644	105.5
528.859	103.5
529.074	93.5
529.289	138.5
529.503	175.5
529.718	116.5
529.933	112.5
530.148	87.5
530.363	103.5
530.577	98.5
530.792	90.5
531.007	104.5
531.221	99.5
531.436	103.5
531.651	98.5
531.865	107.5
532.08	111.5
532.295	102.5
532.509	109.5
532.724	94.5
532.938	101.5
