Data from Uncirc_2004_H10_HRD10591_00032.txt Node
Date: Wed Jan 03 10:32:19 EST 2024
User: Yrep
Spectrometer: HR+D1059
Trigger mode: 1
Integration Time (sec): 1.000000E-1
Scans to average: 1
Electric dark correction enabled: true
Nonlinearity correction enabled: false
Boxcar width: 0
XAxis mode: Wavelengths
Number of Pixels in Spectrum: 2048
>>>>>Begin Spectral Data<<<<<
223.165	-14.38
223.4	-14.38
223.635	-14.38
223.869	-23.38
224.104	-15.38
224.338	-10.38
224.573	-26.38
224.808	-17.38
225.042	-15.38
225.277	-5.38
225.511	3.62
225.746	3.62
225.98	2.62
226.215	17.62
226.449	20.62
226.683	15.62
226.918	23.62
227.152	40.62
227.387	34.62
227.621	32.62
227.856	36.62
228.09	41.62
228.324	58.62
228.559	52.62
228.793	70.62
229.027	60.62
229.262	67.62
229.496	65.62
229.73	81.62
229.964	89.62
230.199	72.62
230.433	72.62
230.667	76.62
230.901	97.62
231.136	77.62
231.37	84.62
231.604	89.62
231.838	84.62
232.072	89.62
232.306	87.62
232.541	81.62
232.775	83.62
233.009	82.62
233.243	84.62
233.477	81.62
233.711	77.62
233.945	84.62
234.179	72.62
234.413	80.62
234.647	81.62
234.881	94.62
235.115	82.62
235.349	80.62
235.583	100.62
235.817	78.62
236.051	91.62
236.285	73.62
236.519	73.62
236.753	76.62
236.987	77.62
237.221	77.62
237.455	87.62
237.689	88.62
237.922	74.62
238.156	69.62
238.39	78.62
238.624	87.62
238.858	76.62
239.091	69.62
239.325	85.62
239.559	78.62
239.793	90.62
240.027	70.62
240.26	72.62
240.494	86.62
240.728	87.62
240.961	90.62
241.195	93.62
241.429	91.62
241.662	71.62
241.896	67.62
242.13	80.62
242.363	84.62
242.597	70.62
242.83	87.62
243.064	85.62
243.298	76.62
243.531	83.62
243.765	54.62
243.998	79.62
244.232	79.62
244.465	88.62
244.699	89.62
244.932	88.62
245.166	77.62
245.399	69.62
245.633	71.62
245.866	74.62
246.099	72.62
246.333	82.62
246.566	75.62
246.8	72.62
247.033	80.62
247.266	77.62
247.5	85.62
247.733	77.62
247.966	75.62
248.2	87.62
248.433	82.62
248.666	79.62
248.899	81.62
249.133	93.62
249.366	85.62
249.599	83.62
249.832	76.62
250.066	85.62
250.299	75.62
250.532	81.62
250.765	80.62
250.998	75.62
251.231	87.62
251.465	64.62
251.698	94.62
251.931	94.62
252.164	73.62
252.397	89.62
252.63	78.62
252.863	81.62
253.096	79.62
253.329	85.62
253.562	79.62
253.795	67.62
254.028	75.62
254.261	86.62
254.494	82.62
254.727	100.62
254.96	81.62
255.193	86.62
255.426	77.62
255.659	84.62
255.892	87.62
256.124	81.62
256.357	81.62
256.59	88.62
256.823	82.62
257.056	89.62
257.289	77.62
257.521	84.62
257.754	81.62
257.987	78.62
258.22	71.62
258.452	87.62
258.685	88.62
258.918	83.62
259.151	82.62
259.383	80.62
259.616	81.62
259.849	71.62
260.081	81.62
260.314	83.62
260.547	84.62
260.779	92.62
261.012	80.62
261.244	77.62
261.477	84.62
261.71	87.62
261.942	113.62
262.175	125.62
262.407	87.62
262.64	76.62
262.872	93.62
263.105	84.62
263.337	94.62
263.57	82.62
263.802	66.62
264.035	72.62
264.267	77.62
264.499	80.62
264.732	88.62
264.964	87.62
265.197	84.62
265.429	84.62
265.661	89.62
265.894	84.62
266.126	84.62
266.358	80.62
266.591	74.62
266.823	85.62
267.055	88.62
267.287	80.62
267.52	96.62
267.752	83.62
267.984	78.62
268.216	76.62
268.448	89.62
268.681	90.62
268.913	93.62
269.145	93.62
269.377	78.62
269.609	79.62
269.841	104.62
270.073	79.62
270.306	74.62
270.538	77.62
270.77	93.62
271.002	73.62
271.234	81.62
271.466	73.62
271.698	85.62
271.93	66.62
272.162	81.62
272.394	85.62
272.626	103.62
272.858	100.62
273.09	83.62
273.322	84.62
273.553	78.62
273.785	81.62
274.017	95.62
274.249	96.62
274.481	71.62
274.713	92.62
274.945	73.62
275.176	104.62
275.408	91.62
275.64	85.62
275.872	90.62
276.104	75.62
276.335	95.62
276.567	99.62
276.799	109.62
277.031	92.62
277.262	94.62
277.494	88.62
277.726	93.62
277.957	82.62
278.189	87.62
278.421	95.62
278.652	87.62
278.884	85.62
279.115	97.62
279.347	86.62
279.579	93.62
279.81	80.62
280.042	84.62
280.273	100.62
280.505	86.62
280.736	81.62
280.968	93.62
281.199	85.62
281.431	92.62
281.662	89.62
281.894	97.62
282.125	98.62
282.356	109.62
282.588	121.62
282.819	116.62
283.051	94.62
283.282	77.62
283.513	87.62
283.745	81.62
283.976	64.62
284.207	84.62
284.439	92.62
284.67	86.62
284.901	87.62
285.132	96.62
285.364	87.62
285.595	93.62
285.826	79.62
286.057	99.62
286.288	75.62
286.52	87.62
286.751	88.62
286.982	100.62
287.213	77.62
287.444	80.62
287.675	84.62
287.906	85.62
288.138	89.62
288.369	98.62
288.6	90.62
288.831	84.62
289.062	86.62
289.293	93.62
289.524	89.62
289.755	97.62
289.986	87.62
290.217	92.62
290.448	94.62
290.679	77.62
290.91	85.62
291.141	107.62
291.371	99.62
291.602	96.62
291.833	87.62
292.064	88.62
292.295	69.62
292.526	74.62
292.757	74.62
292.987	78.62
293.218	101.62
293.449	86.62
293.68	83.62
293.91	83.62
294.141	89.62
294.372	88.62
294.603	93.62
294.833	87.62
295.064	93.62
295.295	92.62
295.525	95.62
295.756	106.62
295.987	100.62
296.217	129.62
296.448	118.62
296.679	85.62
296.909	104.62
297.14	91.62
297.37	95.62
297.601	104.62
297.831	87.62
298.062	95.62
298.292	94.62
298.523	89.62
298.753	99.62
298.984	101.62
299.214	84.62
299.445	86.62
299.675	80.62
299.905	98.62
300.136	91.62
300.366	90.62
300.597	90.62
300.827	93.62
301.057	99.62
301.288	97.62
301.518	94.62
301.748	89.62
301.979	99.62
302.209	84.62
302.439	85.62
302.669	74.62
302.9	87.62
303.13	97.62
303.36	89.62
303.59	87.62
303.82	104.62
304.051	96.62
304.281	99.62
304.511	108.62
304.741	92.62
304.971	80.62
305.201	88.62
305.431	83.62
305.661	93.62
305.891	104.62
306.121	89.62
306.352	100.62
306.582	90.62
306.812	88.62
307.042	87.62
307.272	92.62
307.502	88.62
307.731	87.62
307.961	99.62
308.191	99.62
308.421	96.62
308.651	98.62
308.881	94.62
309.111	88.62
309.341	109.62
309.571	94.62
309.8	108.62
310.03	87.62
310.26	97.62
310.49	98.62
310.72	87.62
310.949	110.62
311.179	106.62
311.409	91.62
311.639	95.62
311.868	94.62
312.098	90.62
312.328	101.62
312.557	101.62
312.787	86.62
313.017	107.62
313.246	113.62
313.476	87.62
313.706	82.62
313.935	80.62
314.165	104.62
314.394	95.62
314.624	91.62
314.853	92.62
315.083	81.62
315.312	97.62
315.542	88.62
315.771	89.62
316.001	83.62
316.23	98.62
316.46	96.62
316.689	91.62
316.919	79.62
317.148	91.62
317.377	90.62
317.607	94.62
317.836	81.62
318.065	96.62
318.295	95.62
318.524	97.62
318.753	93.62
318.983	104.62
319.212	100.62
319.441	94.62
319.67	94.62
319.9	86.62
320.129	88.62
320.358	85.62
320.587	97.62
320.816	94.62
321.046	99.62
321.275	100.62
321.504	98.62
321.733	94.62
321.962	100.62
322.191	107.62
322.42	102.62
322.649	99.62
322.878	110.62
323.108	106.62
323.337	120.62
323.566	127.62
323.795	140.62
324.024	196.62
324.253	370.62
324.482	772.62
324.71	1569.62
324.939	2033.62
325.168	759.62
325.397	231.62
325.626	133.62
325.855	121.62
326.084	111.62
326.313	119.62
326.542	148.62
326.77	215.62
326.999	450.62
327.228	894.62
327.457	1617.62
327.686	1271.62
327.914	344.62
328.143	194.62
328.372	154.62
328.6	116.62
328.829	112.62
329.058	132.62
329.287	127.62
329.515	94.62
329.744	105.62
329.972	102.62
330.201	107.62
330.43	105.62
330.658	113.62
330.887	121.62
331.115	110.62
331.344	90.62
331.572	92.62
331.801	89.62
332.03	97.62
332.258	94.62
332.486	97.62
332.715	82.62
332.943	96.62
333.172	86.62
333.4	105.62
333.629	102.62
333.857	112.62
334.085	95.62
334.314	98.62
334.542	99.62
334.771	101.62
334.999	110.62
335.227	88.62
335.455	95.62
335.684	96.62
335.912	112.62
336.14	91.62
336.369	103.62
336.597	100.62
336.825	93.62
337.053	85.62
337.281	91.62
337.51	90.62
337.738	90.62
337.966	94.62
338.194	100.62
338.422	93.62
338.65	91.62
338.878	90.62
339.106	97.62
339.334	88.62
339.562	98.62
339.79	87.62
340.018	90.62
340.246	80.62
340.474	100.62
340.702	99.62
340.93	88.62
341.158	91.62
341.386	101.62
341.614	97.62
341.842	102.62
342.07	92.62
342.298	96.62
342.526	94.62
342.754	83.62
342.981	88.62
343.209	87.62
343.437	84.62
343.665	84.62
343.893	96.62
344.12	90.62
344.348	90.62
344.576	87.62
344.804	91.62
345.031	104.62
345.259	84.62
345.487	84.62
345.714	76.62
345.942	97.62
346.17	83.62
346.397	103.62
346.625	99.62
346.853	87.62
347.08	81.62
347.308	103.62
347.535	98.62
347.763	101.62
347.99	87.62
348.218	89.62
348.445	105.62
348.673	109.62
348.9	92.62
349.128	96.62
349.355	86.62
349.583	81.62
349.81	92.62
350.037	100.62
350.265	89.62
350.492	100.62
350.72	96.62
350.947	95.62
351.174	109.62
351.402	115.62
351.629	102.62
351.856	101.62
352.083	97.62
352.311	101.62
352.538	103.62
352.765	109.62
352.992	111.62
353.22	93.62
353.447	109.62
353.674	108.62
353.901	88.62
354.128	87.62
354.355	95.62
354.583	87.62
354.81	119.62
355.037	90.62
355.264	80.62
355.491	83.62
355.718	98.62
355.945	96.62
356.172	100.62
356.399	89.62
356.626	100.62
356.853	91.62
357.08	87.62
357.307	94.62
357.534	88.62
357.761	83.62
357.988	91.62
358.215	105.62
358.441	105.62
358.668	103.62
358.895	82.62
359.122	84.62
359.349	102.62
359.576	98.62
359.802	95.62
360.029	104.62
360.256	110.62
360.483	92.62
360.709	88.62
360.936	94.62
361.163	96.62
361.39	101.62
361.616	97.62
361.843	84.62
362.07	100.62
362.296	101.62
362.523	76.62
362.749	92.62
362.976	95.62
363.203	85.62
363.429	94.62
363.656	92.62
363.882	85.62
364.109	85.62
364.335	85.62
364.562	82.62
364.788	78.62
365.015	93.62
365.241	101.62
365.468	123.62
365.694	105.62
365.92	89.62
366.147	93.62
366.373	93.62
366.599	81.62
366.826	97.62
367.052	80.62
367.278	105.62
367.505	82.62
367.731	87.62
367.957	84.62
368.184	88.62
368.41	104.62
368.636	106.62
368.862	109.62
369.089	92.62
369.315	85.62
369.541	87.62
369.767	95.62
369.993	86.62
370.219	87.62
370.445	100.62
370.672	86.62
370.898	93.62
371.124	87.62
371.35	97.62
371.576	77.62
371.802	78.62
372.028	89.62
372.254	78.62
372.48	80.62
372.706	85.62
372.932	99.62
373.158	88.62
373.384	82.62
373.61	94.62
373.835	104.62
374.061	101.62
374.287	89.62
374.513	94.62
374.739	94.62
374.965	75.62
375.191	78.62
375.416	98.62
375.642	89.62
375.868	89.62
376.094	98.62
376.319	98.62
376.545	85.62
376.771	83.62
376.997	96.62
377.222	78.62
377.448	89.62
377.674	87.62
377.899	94.62
378.125	110.62
378.35	97.62
378.576	103.62
378.802	93.62
379.027	111.62
379.253	93.62
379.478	93.62
379.704	88.62
379.929	109.62
380.155	88.62
380.38	90.62
380.606	77.62
380.831	88.62
381.057	89.62
381.282	92.62
381.507	76.62
381.733	89.62
381.958	92.62
382.184	101.62
382.409	106.62
382.634	95.62
382.86	97.62
383.085	94.62
383.31	98.62
383.535	93.62
383.761	107.62
383.986	94.62
384.211	96.62
384.436	109.62
384.662	97.62
384.887	87.62
385.112	103.62
385.337	110.62
385.562	113.62
385.787	93.62
386.013	129.62
386.238	103.62
386.463	93.62
386.688	117.62
386.913	121.62
387.138	113.62
387.363	106.62
387.588	104.62
387.813	102.62
388.038	116.62
388.263	117.62
388.488	114.62
388.713	85.62
388.938	71.62
389.163	98.62
389.387	95.62
389.612	88.62
389.837	95.62
390.062	104.62
390.287	90.62
390.512	93.62
390.736	100.62
390.961	93.62
391.186	91.62
391.411	100.62
391.636	100.62
391.86	86.62
392.085	95.62
392.31	78.62
392.534	89.62
392.759	78.62
392.984	69.62
393.208	85.62
393.433	99.62
393.658	99.62
393.882	87.62
394.107	95.62
394.331	98.62
394.556	85.62
394.78	93.62
395.005	95.62
395.229	88.62
395.454	90.62
395.678	103.62
395.903	91.62
396.127	85.62
396.352	85.62
396.576	80.62
396.801	94.62
397.025	88.62
397.249	94.62
397.474	98.62
397.698	99.62
397.922	88.62
398.147	82.62
398.371	86.62
398.595	92.62
398.82	93.62
399.044	83.62
399.268	83.62
399.492	93.62
399.717	86.62
399.941	90.62
400.165	95.62
400.389	93.62
400.613	85.62
400.837	74.62
401.062	85.62
401.286	94.62
401.51	96.62
401.734	88.62
401.958	101.62
402.182	110.62
402.406	139.62
402.63	102.62
402.854	109.62
403.078	100.62
403.302	90.62
403.526	80.62
403.75	90.62
403.974	89.62
404.198	97.62
404.422	87.62
404.645	91.62
404.869	93.62
405.093	100.62
405.317	98.62
405.541	84.62
405.765	94.62
405.988	103.62
406.212	167.62
406.436	223.62
406.66	140.62
406.883	101.62
407.107	99.62
407.331	94.62
407.555	93.62
407.778	97.62
408.002	97.62
408.226	87.62
408.449	62.62
408.673	91.62
408.896	87.62
409.12	90.62
409.344	92.62
409.567	87.62
409.791	83.62
410.014	101.62
410.238	95.62
410.461	86.62
410.685	86.62
410.908	91.62
411.132	110.62
411.355	90.62
411.578	87.62
411.802	90.62
412.025	97.62
412.249	87.62
412.472	90.62
412.695	84.62
412.919	82.62
413.142	87.62
413.365	111.62
413.589	74.62
413.812	88.62
414.035	103.62
414.258	87.62
414.482	85.62
414.705	110.62
414.928	110.62
415.151	95.62
415.374	93.62
415.597	88.62
415.821	90.62
416.044	94.62
416.267	104.62
416.49	77.62
416.713	78.62
416.936	89.62
417.159	77.62
417.382	76.62
417.605	87.62
417.828	84.62
418.051	87.62
418.274	97.62
418.497	89.62
418.72	82.62
418.943	86.62
419.166	85.62
419.389	96.62
419.611	104.62
419.834	74.62
420.057	93.62
420.28	73.62
420.503	87.62
420.726	94.62
420.948	84.62
421.171	82.62
421.394	79.62
421.617	104.62
421.839	93.62
422.062	93.62
422.285	82.62
422.507	96.62
422.73	108.62
422.953	95.62
423.175	77.62
423.398	93.62
423.621	94.62
423.843	93.62
424.066	88.62
424.288	89.62
424.511	85.62
424.733	87.62
424.956	104.62
425.178	97.62
425.401	108.62
425.623	97.62
425.846	92.62
426.068	83.62
426.291	96.62
426.513	80.62
426.735	104.62
426.958	93.62
427.18	100.62
427.402	127.62
427.625	150.62
427.847	115.62
428.069	104.62
428.292	89.62
428.514	100.62
428.736	75.62
428.958	83.62
429.181	100.62
429.403	92.62
429.625	90.62
429.847	98.62
430.069	95.62
430.292	94.62
430.514	91.62
430.736	84.62
430.958	87.62
431.18	78.62
431.402	90.62
431.624	101.62
431.846	82.62
432.068	96.62
432.29	108.62
432.512	99.62
432.734	87.62
432.956	102.62
433.178	89.62
433.4	100.62
433.622	91.62
433.844	84.62
434.066	86.62
434.287	91.62
434.509	97.62
434.731	84.62
434.953	87.62
435.175	82.62
435.397	102.62
435.618	101.62
435.84	99.62
436.062	116.62
436.284	103.62
436.505	115.62
436.727	100.62
436.949	87.62
437.17	88.62
437.392	94.62
437.614	92.62
437.835	107.62
438.057	105.62
438.278	108.62
438.5	98.62
438.721	115.62
438.943	83.62
439.165	87.62
439.386	77.62
439.608	93.62
439.829	90.62
440.05	107.62
440.272	122.62
440.493	93.62
440.715	85.62
440.936	88.62
441.158	84.62
441.379	98.62
441.6	85.62
441.822	98.62
442.043	90.62
442.264	102.62
442.486	109.62
442.707	101.62
442.928	94.62
443.149	117.62
443.371	110.62
443.592	100.62
443.813	114.62
444.034	92.62
444.255	86.62
444.476	88.62
444.698	84.62
444.919	85.62
445.14	126.62
445.361	128.62
445.582	110.62
445.803	111.62
446.024	123.62
446.245	121.62
446.466	114.62
446.687	96.62
446.908	92.62
447.129	80.62
447.35	96.62
447.571	85.62
447.792	99.62
448.013	102.62
448.234	113.62
448.455	103.62
448.675	116.62
448.896	99.62
449.117	86.62
449.338	98.62
449.559	125.62
449.779	111.62
450	100.62
450.221	78.62
450.442	95.62
450.662	92.62
450.883	93.62
451.104	100.62
451.324	94.62
451.545	108.62
451.766	86.62
451.986	84.62
452.207	82.62
452.428	84.62
452.648	97.62
452.869	101.62
453.089	116.62
453.31	109.62
453.53	96.62
453.751	96.62
453.971	108.62
454.192	99.62
454.412	92.62
454.633	85.62
454.853	89.62
455.073	91.62
455.294	85.62
455.514	100.62
455.734	94.62
455.955	79.62
456.175	86.62
456.395	81.62
456.616	101.62
456.836	94.62
457.056	73.62
457.276	86.62
457.497	92.62
457.717	95.62
457.937	86.62
458.157	77.62
458.377	93.62
458.598	93.62
458.818	141.62
459.038	160.62
459.258	107.62
459.478	85.62
459.698	90.62
459.918	90.62
460.138	88.62
460.358	98.62
460.578	94.62
460.798	96.62
461.018	93.62
461.238	100.62
461.458	82.62
461.678	87.62
461.898	73.62
462.118	96.62
462.338	78.62
462.558	82.62
462.777	86.62
462.997	85.62
463.217	85.62
463.437	90.62
463.657	85.62
463.876	94.62
464.096	86.62
464.316	94.62
464.536	87.62
464.755	111.62
464.975	110.62
465.195	173.62
465.414	157.62
465.634	104.62
465.854	85.62
466.073	102.62
466.293	97.62
466.512	90.62
466.732	89.62
466.951	87.62
467.171	90.62
467.391	82.62
467.61	101.62
467.829	96.62
468.049	97.62
468.268	110.62
468.488	91.62
468.707	93.62
468.927	92.62
469.146	87.62
469.365	91.62
469.585	94.62
469.804	84.62
470.023	82.62
470.243	93.62
470.462	97.62
470.681	111.62
470.901	95.62
471.12	89.62
471.339	88.62
471.558	90.62
471.777	79.62
471.997	98.62
472.216	96.62
472.435	106.62
472.654	86.62
472.873	90.62
473.092	81.62
473.311	84.62
473.53	98.62
473.749	95.62
473.968	87.62
474.187	102.62
474.406	89.62
474.625	104.62
474.844	89.62
475.063	90.62
475.282	73.62
475.501	103.62
475.72	84.62
475.939	76.62
476.158	86.62
476.377	81.62
476.596	96.62
476.814	92.62
477.033	90.62
477.252	84.62
477.471	100.62
477.69	97.62
477.908	96.62
478.127	94.62
478.346	88.62
478.564	83.62
478.783	97.62
479.002	83.62
479.22	97.62
479.439	90.62
479.658	98.62
479.876	90.62
480.095	104.62
480.313	81.62
480.532	94.62
480.751	99.62
480.969	93.62
481.188	115.62
481.406	104.62
481.624	98.62
481.843	78.62
482.061	90.62
482.28	86.62
482.498	93.62
482.717	95.62
482.935	90.62
483.153	97.62
483.372	97.62
483.59	101.62
483.808	92.62
484.027	98.62
484.245	96.62
484.463	104.62
484.681	97.62
484.9	100.62
485.118	90.62
485.336	110.62
485.554	103.62
485.772	100.62
485.99	103.62
486.209	107.62
486.427	97.62
486.645	108.62
486.863	100.62
487.081	85.62
487.299	90.62
487.517	88.62
487.735	101.62
487.953	99.62
488.171	92.62
488.389	100.62
488.607	97.62
488.825	99.62
489.043	108.62
489.261	84.62
489.479	95.62
489.696	117.62
489.914	86.62
490.132	89.62
490.35	93.62
490.568	76.62
490.786	77.62
491.003	90.62
491.221	86.62
491.439	106.62
491.657	93.62
491.874	90.62
492.092	85.62
492.31	85.62
492.527	95.62
492.745	88.62
492.963	89.62
493.18	93.62
493.398	96.62
493.615	104.62
493.833	90.62
494.05	80.62
494.268	96.62
494.485	85.62
494.703	81.62
494.92	89.62
495.138	97.62
495.355	94.62
495.573	91.62
495.79	97.62
496.008	99.62
496.225	77.62
496.442	89.62
496.66	103.62
496.877	90.62
497.094	88.62
497.312	98.62
497.529	90.62
497.746	96.62
497.963	83.62
498.181	96.62
498.398	79.62
498.615	106.62
498.832	105.62
499.049	95.62
499.267	91.62
499.484	86.62
499.701	86.62
499.918	87.62
500.135	77.62
500.352	93.62
500.569	87.62
500.786	103.62
501.003	93.62
501.22	86.62
501.437	96.62
501.654	113.62
501.871	105.62
502.088	88.62
502.305	100.62
502.522	93.62
502.739	88.62
502.956	78.62
503.172	89.62
503.389	95.62
503.606	102.62
503.823	87.62
504.04	97.62
504.256	95.62
504.473	83.62
504.69	100.62
504.907	104.62
505.123	83.62
505.34	99.62
505.557	90.62
505.773	86.62
505.99	75.62
506.207	89.62
506.423	90.62
506.64	91.62
506.856	88.62
507.073	92.62
507.289	80.62
507.506	91.62
507.722	89.62
507.939	116.62
508.155	103.62
508.372	105.62
508.588	90.62
508.805	87.62
509.021	97.62
509.238	98.62
509.454	106.62
509.67	98.62
509.887	118.62
510.103	124.62
510.319	232.62
510.536	764.62
510.752	2384.62
510.968	658.62
511.184	167.62
511.401	112.62
511.617	108.62
511.833	100.62
512.049	99.62
512.265	92.62
512.481	81.62
512.698	98.62
512.914	100.62
513.13	91.62
513.346	79.62
513.562	85.62
513.778	94.62
513.994	78.62
514.21	105.62
514.426	116.62
514.642	115.62
514.858	115.62
515.074	162.62
515.29	431.62
515.506	1416.62
515.721	520.62
