Data from Uncirc_2004_H10_HRD10591_00002.txt Node
Date: Wed Jan 03 10:32:13 EST 2024
User: Yrep
Spectrometer: HR+D1059
Trigger mode: 1
Integration Time (sec): 1.000000E-1
Scans to average: 1
Electric dark correction enabled: true
Nonlinearity correction enabled: false
Boxcar width: 0
XAxis mode: Wavelengths
Number of Pixels in Spectrum: 2048
>>>>>Begin Spectral Data<<<<<
223.165	-28.69
223.4	-28.69
223.635	-28.69
223.869	-18.69
224.104	-20.69
224.338	-8.69
224.573	-17.69
224.808	-12.69
225.042	0.31
225.277	4.31
225.511	6.31
225.746	3.31
225.98	18.31
226.215	4.31
226.449	13.31
226.683	25.31
226.918	13.31
227.152	18.31
227.387	39.31
227.621	37.31
227.856	51.31
228.09	48.31
228.324	42.31
228.559	60.31
228.793	58.31
229.027	77.31
229.262	82.31
229.496	78.31
229.73	82.31
229.964	70.31
230.199	64.31
230.433	88.31
230.667	62.31
230.901	71.31
231.136	72.31
231.37	88.31
231.604	78.31
231.838	75.31
232.072	90.31
232.306	80.31
232.541	89.31
232.775	86.31
233.009	75.31
233.243	74.31
233.477	78.31
233.711	69.31
233.945	77.31
234.179	97.31
234.413	76.31
234.647	74.31
234.881	84.31
235.115	83.31
235.349	75.31
235.583	91.31
235.817	75.31
236.051	71.31
236.285	79.31
236.519	67.31
236.753	77.31
236.987	81.31
237.221	83.31
237.455	81.31
237.689	78.31
237.922	86.31
238.156	76.31
238.39	67.31
238.624	74.31
238.858	74.31
239.091	78.31
239.325	83.31
239.559	78.31
239.793	75.31
240.027	72.31
240.26	81.31
240.494	88.31
240.728	65.31
240.961	81.31
241.195	84.31
241.429	80.31
241.662	79.31
241.896	82.31
242.13	78.31
242.363	70.31
242.597	67.31
242.83	70.31
243.064	70.31
243.298	78.31
243.531	66.31
243.765	71.31
243.998	81.31
244.232	84.31
244.465	64.31
244.699	58.31
244.932	62.31
245.166	67.31
245.399	80.31
245.633	71.31
245.866	65.31
246.099	72.31
246.333	75.31
246.566	71.31
246.8	77.31
247.033	91.31
247.266	76.31
247.5	70.31
247.733	75.31
247.966	71.31
248.2	80.31
248.433	82.31
248.666	87.31
248.899	72.31
249.133	86.31
249.366	91.31
249.599	92.31
249.832	70.31
250.066	69.31
250.299	85.31
250.532	72.31
250.765	76.31
250.998	85.31
251.231	79.31
251.465	82.31
251.698	76.31
251.931	75.31
252.164	73.31
252.397	73.31
252.63	79.31
252.863	72.31
253.096	71.31
253.329	78.31
253.562	86.31
253.795	84.31
254.028	89.31
254.261	72.31
254.494	86.31
254.727	87.31
254.96	83.31
255.193	87.31
255.426	76.31
255.659	77.31
255.892	72.31
256.124	70.31
256.357	78.31
256.59	78.31
256.823	79.31
257.056	82.31
257.289	88.31
257.521	79.31
257.754	88.31
257.987	92.31
258.22	73.31
258.452	78.31
258.685	74.31
258.918	85.31
259.151	78.31
259.383	81.31
259.616	90.31
259.849	80.31
260.081	81.31
260.314	78.31
260.547	59.31
260.779	70.31
261.012	82.31
261.244	79.31
261.477	96.31
261.71	97.31
261.942	94.31
262.175	99.31
262.407	91.31
262.64	72.31
262.872	68.31
263.105	78.31
263.337	85.31
263.57	86.31
263.802	72.31
264.035	70.31
264.267	80.31
264.499	82.31
264.732	95.31
264.964	76.31
265.197	88.31
265.429	86.31
265.661	88.31
265.894	83.31
266.126	85.31
266.358	67.31
266.591	82.31
266.823	79.31
267.055	76.31
267.287	74.31
267.52	92.31
267.752	90.31
267.984	97.31
268.216	77.31
268.448	79.31
268.681	84.31
268.913	85.31
269.145	75.31
269.377	93.31
269.609	82.31
269.841	82.31
270.073	80.31
270.306	94.31
270.538	70.31
270.77	79.31
271.002	79.31
271.234	91.31
271.466	72.31
271.698	82.31
271.93	86.31
272.162	89.31
272.394	82.31
272.626	80.31
272.858	84.31
273.09	85.31
273.322	67.31
273.553	63.31
273.785	82.31
274.017	84.31
274.249	75.31
274.481	85.31
274.713	80.31
274.945	79.31
275.176	86.31
275.408	82.31
275.64	79.31
275.872	95.31
276.104	86.31
276.335	74.31
276.567	96.31
276.799	95.31
277.031	89.31
277.262	71.31
277.494	84.31
277.726	81.31
277.957	80.31
278.189	81.31
278.421	91.31
278.652	80.31
278.884	74.31
279.115	74.31
279.347	91.31
279.579	80.31
279.81	69.31
280.042	78.31
280.273	81.31
280.505	92.31
280.736	83.31
280.968	77.31
281.199	84.31
281.431	77.31
281.662	91.31
281.894	84.31
282.125	88.31
282.356	101.31
282.588	104.31
282.819	92.31
283.051	71.31
283.282	74.31
283.513	73.31
283.745	81.31
283.976	87.31
284.207	77.31
284.439	83.31
284.67	84.31
284.901	87.31
285.132	71.31
285.364	82.31
285.595	77.31
285.826	81.31
286.057	83.31
286.288	78.31
286.52	81.31
286.751	87.31
286.982	91.31
287.213	93.31
287.444	80.31
287.675	88.31
287.906	80.31
288.138	86.31
288.369	79.31
288.6	85.31
288.831	77.31
289.062	79.31
289.293	82.31
289.524	92.31
289.755	84.31
289.986	74.31
290.217	88.31
290.448	92.31
290.679	70.31
290.91	98.31
291.141	82.31
291.371	94.31
291.602	86.31
291.833	83.31
292.064	97.31
292.295	96.31
292.526	107.31
292.757	77.31
292.987	80.31
293.218	79.31
293.449	96.31
293.68	86.31
293.91	70.31
294.141	84.31
294.372	86.31
294.603	82.31
294.833	87.31
295.064	87.31
295.295	70.31
295.525	85.31
295.756	87.31
295.987	93.31
296.217	107.31
296.448	94.31
296.679	82.31
296.909	82.31
297.14	79.31
297.37	98.31
297.601	86.31
297.831	88.31
298.062	76.31
298.292	93.31
298.523	92.31
298.753	92.31
298.984	86.31
299.214	82.31
299.445	86.31
299.675	94.31
299.905	91.31
300.136	98.31
300.366	88.31
300.597	96.31
300.827	85.31
301.057	74.31
301.288	92.31
301.518	90.31
301.748	92.31
301.979	88.31
302.209	88.31
302.439	82.31
302.669	72.31
302.9	83.31
303.13	80.31
303.36	96.31
303.59	93.31
303.82	96.31
304.051	94.31
304.281	86.31
304.511	93.31
304.741	88.31
304.971	71.31
305.201	74.31
305.431	76.31
305.661	92.31
305.891	90.31
306.121	99.31
306.352	93.31
306.582	95.31
306.812	86.31
307.042	93.31
307.272	69.31
307.502	83.31
307.731	97.31
307.961	88.31
308.191	84.31
308.421	81.31
308.651	82.31
308.881	90.31
309.111	90.31
309.341	87.31
309.571	93.31
309.8	83.31
310.03	95.31
310.26	96.31
310.49	90.31
310.72	84.31
310.949	97.31
311.179	86.31
311.409	87.31
311.639	91.31
311.868	82.31
312.098	80.31
312.328	76.31
312.557	97.31
312.787	93.31
313.017	94.31
313.246	79.31
313.476	81.31
313.706	78.31
313.935	97.31
314.165	87.31
314.394	85.31
314.624	87.31
314.853	109.31
315.083	104.31
315.312	82.31
315.542	83.31
315.771	91.31
316.001	77.31
316.23	85.31
316.46	78.31
316.689	75.31
316.919	81.31
317.148	89.31
317.377	83.31
317.607	93.31
317.836	83.31
318.065	75.31
318.295	78.31
318.524	81.31
318.753	94.31
318.983	84.31
319.212	104.31
319.441	99.31
319.67	90.31
319.9	81.31
320.129	80.31
320.358	94.31
320.587	76.31
320.816	93.31
321.046	95.31
321.275	91.31
321.504	96.31
321.733	102.31
321.962	100.31
322.191	88.31
322.42	98.31
322.649	106.31
322.878	97.31
323.108	102.31
323.337	105.31
323.566	118.31
323.795	143.31
324.024	181.31
324.253	352.31
324.482	695.31
324.71	1424.31
324.939	1814.31
325.168	650.31
325.397	195.31
325.626	139.31
325.855	125.31
326.084	121.31
326.313	115.31
326.542	128.31
326.77	187.31
326.999	416.31
327.228	850.31
327.457	1474.31
327.686	1106.31
327.914	304.31
328.143	154.31
328.372	115.31
328.6	107.31
328.829	108.31
329.058	114.31
329.287	110.31
329.515	109.31
329.744	110.31
329.972	108.31
330.201	92.31
330.43	109.31
330.658	108.31
330.887	122.31
331.115	117.31
331.344	89.31
331.572	97.31
331.801	93.31
332.03	90.31
332.258	67.31
332.486	76.31
332.715	81.31
332.943	87.31
333.172	89.31
333.4	94.31
333.629	94.31
333.857	111.31
334.085	95.31
334.314	104.31
334.542	102.31
334.771	105.31
334.999	85.31
335.227	94.31
335.455	79.31
335.684	93.31
335.912	86.31
336.14	91.31
336.369	83.31
336.597	87.31
336.825	90.31
337.053	97.31
337.281	87.31
337.51	76.31
337.738	98.31
337.966	87.31
338.194	99.31
338.422	94.31
338.65	88.31
338.878	95.31
339.106	88.31
339.334	82.31
339.562	81.31
339.79	82.31
340.018	87.31
340.246	93.31
340.474	81.31
340.702	78.31
340.93	91.31
341.158	86.31
341.386	89.31
341.614	84.31
341.842	99.31
342.07	77.31
342.298	88.31
342.526	85.31
342.754	95.31
342.981	94.31
343.209	95.31
343.437	96.31
343.665	74.31
343.893	85.31
344.12	78.31
344.348	87.31
344.576	96.31
344.804	94.31
345.031	103.31
345.259	90.31
345.487	96.31
345.714	92.31
345.942	83.31
346.17	87.31
346.397	71.31
346.625	87.31
346.853	84.31
347.08	83.31
347.308	95.31
347.535	83.31
347.763	99.31
347.99	95.31
348.218	106.31
348.445	85.31
348.673	95.31
348.9	91.31
349.128	92.31
349.355	82.31
349.583	94.31
349.81	87.31
350.037	98.31
350.265	91.31
350.492	99.31
350.72	93.31
350.947	108.31
351.174	102.31
351.402	102.31
351.629	99.31
351.856	82.31
352.083	101.31
352.311	110.31
352.538	105.31
352.765	101.31
352.992	111.31
353.22	106.31
353.447	98.31
353.674	95.31
353.901	90.31
354.128	81.31
354.355	90.31
354.583	112.31
354.81	98.31
355.037	100.31
355.264	106.31
355.491	97.31
355.718	86.31
355.945	95.31
356.172	97.31
356.399	89.31
356.626	96.31
356.853	98.31
357.08	104.31
357.307	82.31
357.534	99.31
357.761	96.31
357.988	99.31
358.215	95.31
358.441	98.31
358.668	79.31
358.895	102.31
359.122	92.31
359.349	87.31
359.576	100.31
359.802	77.31
360.029	92.31
360.256	104.31
360.483	95.31
360.709	80.31
360.936	85.31
361.163	77.31
361.39	101.31
361.616	87.31
361.843	91.31
362.07	94.31
362.296	91.31
362.523	87.31
362.749	92.31
362.976	81.31
363.203	90.31
363.429	74.31
363.656	68.31
363.882	75.31
364.109	79.31
364.335	84.31
364.562	85.31
364.788	82.31
365.015	100.31
365.241	91.31
365.468	102.31
365.694	96.31
365.92	100.31
366.147	79.31
366.373	87.31
366.599	79.31
366.826	91.31
367.052	84.31
367.278	86.31
367.505	95.31
367.731	100.31
367.957	87.31
368.184	69.31
368.41	63.31
368.636	108.31
368.862	114.31
369.089	106.31
369.315	94.31
369.541	76.31
369.767	69.31
369.993	89.31
370.219	92.31
370.445	88.31
370.672	84.31
370.898	79.31
371.124	77.31
371.35	94.31
371.576	92.31
371.802	81.31
372.028	88.31
372.254	88.31
372.48	86.31
372.706	78.31
372.932	85.31
373.158	98.31
373.384	85.31
373.61	84.31
373.835	79.31
374.061	82.31
374.287	87.31
374.513	99.31
374.739	74.31
374.965	99.31
375.191	88.31
375.416	92.31
375.642	85.31
375.868	79.31
376.094	81.31
376.319	100.31
376.545	100.31
376.771	96.31
376.997	72.31
377.222	89.31
377.448	84.31
377.674	90.31
377.899	74.31
378.125	80.31
378.35	82.31
378.576	84.31
378.802	96.31
379.027	90.31
379.253	91.31
379.478	77.31
379.704	100.31
379.929	94.31
380.155	92.31
380.38	87.31
380.606	102.31
380.831	96.31
381.057	110.31
381.282	111.31
381.507	97.31
381.733	102.31
381.958	102.31
382.184	116.31
382.409	97.31
382.634	110.31
382.86	102.31
383.085	103.31
383.31	103.31
383.535	102.31
383.761	113.31
383.986	105.31
384.211	115.31
384.436	101.31
384.662	109.31
384.887	111.31
385.112	122.31
385.337	107.31
385.562	138.31
385.787	111.31
386.013	127.31
386.238	114.31
386.463	122.31
386.688	125.31
386.913	124.31
387.138	119.31
387.363	116.31
387.588	114.31
387.813	106.31
388.038	116.31
388.263	134.31
388.488	130.31
388.713	103.31
388.938	99.31
389.163	89.31
389.387	89.31
389.612	82.31
389.837	87.31
390.062	100.31
390.287	90.31
390.512	98.31
390.736	94.31
390.961	87.31
391.186	101.31
391.411	87.31
391.636	103.31
391.86	90.31
392.085	88.31
392.31	95.31
392.534	80.31
392.759	91.31
392.984	82.31
393.208	78.31
393.433	97.31
393.658	98.31
393.882	80.31
394.107	88.31
394.331	88.31
394.556	88.31
394.78	82.31
395.005	88.31
395.229	88.31
395.454	85.31
395.678	85.31
395.903	86.31
396.127	79.31
396.352	87.31
396.576	106.31
396.801	80.31
397.025	96.31
397.249	95.31
397.474	85.31
397.698	85.31
397.922	102.31
398.147	93.31
398.371	77.31
398.595	76.31
398.82	80.31
399.044	91.31
399.268	88.31
399.492	98.31
399.717	83.31
399.941	91.31
400.165	85.31
400.389	91.31
400.613	84.31
400.837	79.31
401.062	87.31
401.286	96.31
401.51	85.31
401.734	95.31
401.958	94.31
402.182	97.31
402.406	136.31
402.63	97.31
402.854	86.31
403.078	90.31
403.302	84.31
403.526	82.31
403.75	83.31
403.974	91.31
404.198	80.31
404.422	66.31
404.645	84.31
404.869	77.31
405.093	92.31
405.317	94.31
405.541	83.31
405.765	84.31
405.988	107.31
406.212	133.31
406.436	186.31
406.66	114.31
406.883	84.31
407.107	74.31
407.331	83.31
407.555	91.31
407.778	89.31
408.002	93.31
408.226	71.31
408.449	79.31
408.673	88.31
408.896	88.31
409.12	98.31
409.344	95.31
409.567	81.31
409.791	98.31
410.014	94.31
410.238	91.31
410.461	90.31
410.685	100.31
410.908	97.31
411.132	94.31
411.355	98.31
411.578	94.31
411.802	88.31
412.025	91.31
412.249	84.31
412.472	98.31
412.695	92.31
412.919	78.31
413.142	79.31
413.365	97.31
413.589	94.31
413.812	88.31
414.035	90.31
414.258	87.31
414.482	97.31
414.705	80.31
414.928	85.31
415.151	103.31
415.374	101.31
415.597	91.31
415.821	87.31
416.044	94.31
416.267	86.31
416.49	89.31
416.713	94.31
416.936	92.31
417.159	102.31
417.382	87.31
417.605	88.31
417.828	92.31
418.051	86.31
418.274	90.31
418.497	89.31
418.72	86.31
418.943	82.31
419.166	87.31
419.389	90.31
419.611	88.31
419.834	94.31
420.057	99.31
420.28	92.31
420.503	73.31
420.726	88.31
420.948	86.31
421.171	87.31
421.394	78.31
421.617	92.31
421.839	87.31
422.062	87.31
422.285	84.31
422.507	90.31
422.73	101.31
422.953	90.31
423.175	87.31
423.398	83.31
423.621	110.31
423.843	83.31
424.066	84.31
424.288	84.31
424.511	85.31
424.733	86.31
424.956	110.31
425.178	91.31
425.401	85.31
425.623	97.31
425.846	86.31
426.068	80.31
426.291	86.31
426.513	81.31
426.735	91.31
426.958	75.31
427.18	86.31
427.402	117.31
427.625	131.31
427.847	99.31
428.069	87.31
428.292	84.31
428.514	87.31
428.736	84.31
428.958	86.31
429.181	93.31
429.403	78.31
429.625	82.31
429.847	98.31
430.069	100.31
430.292	79.31
430.514	78.31
430.736	99.31
430.958	89.31
431.18	83.31
431.402	83.31
431.624	83.31
431.846	92.31
432.068	87.31
432.29	84.31
432.512	82.31
432.734	92.31
432.956	88.31
433.178	89.31
433.4	90.31
433.622	90.31
433.844	92.31
434.066	82.31
434.287	85.31
434.509	92.31
434.731	97.31
434.953	108.31
435.175	79.31
435.397	98.31
435.618	83.31
435.84	84.31
436.062	111.31
436.284	96.31
436.505	92.31
436.727	92.31
436.949	88.31
437.17	110.31
437.392	86.31
437.614	97.31
437.835	99.31
438.057	104.31
438.278	96.31
438.5	84.31
438.721	106.31
438.943	99.31
439.165	92.31
439.386	91.31
439.608	86.31
439.829	92.31
440.05	101.31
440.272	114.31
440.493	101.31
440.715	93.31
440.936	82.31
441.158	86.31
441.379	77.31
441.6	85.31
441.822	90.31
442.043	90.31
442.264	87.31
442.486	82.31
442.707	95.31
442.928	107.31
443.149	103.31
443.371	103.31
443.592	96.31
443.813	106.31
444.034	102.31
444.255	83.31
444.476	85.31
444.698	85.31
444.919	87.31
445.14	130.31
445.361	118.31
445.582	101.31
445.803	103.31
446.024	109.31
446.245	116.31
446.466	99.31
446.687	91.31
446.908	95.31
447.129	103.31
447.35	84.31
447.571	79.31
447.792	96.31
448.013	106.31
448.234	96.31
448.455	88.31
448.675	87.31
448.896	107.31
449.117	81.31
449.338	100.31
449.559	107.31
449.779	108.31
450	101.31
450.221	79.31
450.442	85.31
450.662	93.31
450.883	94.31
451.104	108.31
451.324	99.31
451.545	80.31
451.766	74.31
451.986	72.31
452.207	79.31
452.428	83.31
452.648	78.31
452.869	105.31
453.089	101.31
453.31	109.31
453.53	95.31
453.751	98.31
453.971	91.31
454.192	103.31
454.412	93.31
454.633	90.31
454.853	71.31
455.073	93.31
455.294	93.31
455.514	91.31
455.734	65.31
455.955	86.31
456.175	81.31
456.395	87.31
456.616	79.31
456.836	85.31
457.056	74.31
457.276	76.31
457.497	78.31
457.717	85.31
457.937	81.31
458.157	88.31
458.377	91.31
458.598	102.31
458.818	115.31
459.038	122.31
459.258	101.31
459.478	98.31
459.698	75.31
459.918	94.31
460.138	90.31
460.358	77.31
460.578	92.31
460.798	85.31
461.018	84.31
461.238	89.31
461.458	76.31
461.678	98.31
461.898	83.31
462.118	82.31
462.338	71.31
462.558	92.31
462.777	92.31
462.997	91.31
463.217	80.31
463.437	79.31
463.657	96.31
463.876	92.31
464.096	95.31
464.316	87.31
464.536	98.31
464.755	98.31
464.975	108.31
465.195	140.31
465.414	132.31
465.634	99.31
465.854	91.31
466.073	78.31
466.293	83.31
466.512	91.31
466.732	95.31
466.951	82.31
467.171	113.31
467.391	97.31
467.61	93.31
467.829	89.31
468.049	92.31
468.268	69.31
468.488	83.31
468.707	81.31
468.927	76.31
469.146	81.31
469.365	82.31
469.585	92.31
469.804	98.31
470.023	90.31
470.243	83.31
470.462	99.31
470.681	94.31
470.901	86.31
471.12	85.31
471.339	82.31
471.558	82.31
471.777	73.31
471.997	86.31
472.216	97.31
472.435	91.31
472.654	79.31
472.873	82.31
473.092	97.31
473.311	87.31
473.53	79.31
473.749	65.31
473.968	86.31
474.187	93.31
474.406	102.31
474.625	94.31
474.844	81.31
475.063	82.31
475.282	87.31
475.501	91.31
475.72	91.31
475.939	78.31
476.158	66.31
476.377	81.31
476.596	89.31
476.814	87.31
477.033	90.31
477.252	94.31
477.471	86.31
477.69	83.31
477.908	82.31
478.127	93.31
478.346	76.31
478.564	95.31
478.783	106.31
479.002	100.31
479.22	84.31
479.439	100.31
479.658	92.31
479.876	91.31
480.095	99.31
480.313	85.31
480.532	97.31
480.751	86.31
480.969	81.31
481.188	116.31
481.406	115.31
481.624	101.31
481.843	87.31
482.061	79.31
482.28	78.31
482.498	80.31
482.717	82.31
482.935	106.31
483.153	91.31
483.372	108.31
483.59	79.31
483.808	93.31
484.027	84.31
484.245	87.31
484.463	91.31
484.681	106.31
484.9	99.31
485.118	99.31
485.336	99.31
485.554	105.31
485.772	86.31
485.99	114.31
486.209	112.31
486.427	112.31
486.645	111.31
486.863	99.31
487.081	119.31
487.299	101.31
487.517	85.31
487.735	99.31
487.953	91.31
488.171	79.31
488.389	102.31
488.607	102.31
488.825	79.31
489.043	107.31
489.261	92.31
489.479	95.31
489.696	94.31
489.914	86.31
490.132	99.31
490.35	97.31
490.568	99.31
490.786	81.31
491.003	70.31
491.221	68.31
491.439	88.31
491.657	88.31
491.874	84.31
492.092	94.31
492.31	82.31
492.527	85.31
492.745	96.31
492.963	90.31
493.18	106.31
493.398	88.31
493.615	99.31
493.833	86.31
494.05	85.31
494.268	85.31
494.485	73.31
494.703	86.31
494.92	87.31
495.138	89.31
495.355	104.31
495.573	98.31
495.79	74.31
496.008	88.31
496.225	92.31
496.442	83.31
496.66	92.31
496.877	84.31
497.094	87.31
497.312	70.31
497.529	87.31
497.746	95.31
497.963	93.31
498.181	87.31
498.398	99.31
498.615	106.31
498.832	97.31
499.049	81.31
499.267	77.31
499.484	98.31
499.701	78.31
499.918	94.31
500.135	86.31
500.352	86.31
500.569	100.31
500.786	89.31
501.003	95.31
501.22	92.31
501.437	74.31
501.654	93.31
501.871	96.31
502.088	83.31
502.305	79.31
502.522	99.31
502.739	94.31
502.956	96.31
503.172	88.31
503.389	92.31
503.606	104.31
503.823	103.31
504.04	99.31
504.256	86.31
504.473	85.31
504.69	95.31
504.907	90.31
505.123	84.31
505.34	81.31
505.557	74.31
505.773	95.31
505.99	70.31
506.207	102.31
506.423	95.31
506.64	76.31
506.856	78.31
507.073	71.31
507.289	83.31
507.506	96.31
507.722	105.31
507.939	96.31
508.155	98.31
508.372	99.31
508.588	86.31
508.805	90.31
509.021	105.31
509.238	87.31
509.454	94.31
509.67	92.31
509.887	99.31
510.103	119.31
510.319	186.31
510.536	607.31
510.752	1761.31
510.968	520.31
511.184	134.31
511.401	97.31
511.617	92.31
511.833	91.31
512.049	77.31
512.265	97.31
512.481	82.31
512.698	80.31
512.914	77.31
513.13	71.31
513.346	75.31
513.562	92.31
513.778	91.31
513.994	82.31
514.21	102.31
514.426	117.31
514.642	107.31
514.858	111.31
515.074	142.31
515.29	336.31
515.506	1039.31
515.721	397.31
515.937	133.31
516.153	103.31
516.369	106.31
516.585	92.31
516.801	92.31
517.016	92.31
