Data from Uncirc_2004_H10_HRD10591_00005.txt Node
Date: Wed Jan 03 10:32:13 EST 2024
User: Yrep
Spectrometer: HR+D1059
Trigger mode: 1
Integration Time (sec): 1.000000E-1
Scans to average: 1
Electric dark correction enabled: true
Nonlinearity correction enabled: false
Boxcar width: 0
XAxis mode: Wavelengths
Number of Pixels in Spectrum: 2048
>>>>>Begin Spectral Data<<<<<
223.165	-4.75
223.4	-4.75
223.635	-4.75
223.869	-9.75
224.104	-17.75
224.338	-3.75
224.573	-9.75
224.808	-20.75
225.042	-11.75
225.277	-13.75
225.511	-11.75
225.746	-1.75
225.98	13.25
226.215	3.25
226.449	21.25
226.683	14.25
226.918	30.25
227.152	23.25
227.387	43.25
227.621	41.25
227.856	44.25
228.09	34.25
228.324	46.25
228.559	62.25
228.793	62.25
229.027	55.25
229.262	75.25
229.496	66.25
229.73	82.25
229.964	79.25
230.199	82.25
230.433	76.25
230.667	76.25
230.901	81.25
231.136	70.25
231.37	76.25
231.604	83.25
231.838	83.25
232.072	79.25
232.306	68.25
232.541	86.25
232.775	90.25
233.009	77.25
233.243	85.25
233.477	73.25
233.711	80.25
233.945	90.25
234.179	67.25
234.413	77.25
234.647	82.25
234.881	79.25
235.115	71.25
235.349	75.25
235.583	65.25
235.817	63.25
236.051	74.25
236.285	85.25
236.519	82.25
236.753	79.25
236.987	72.25
237.221	65.25
237.455	66.25
237.689	73.25
237.922	71.25
238.156	77.25
238.39	75.25
238.624	70.25
238.858	79.25
239.091	65.25
239.325	75.25
239.559	76.25
239.793	83.25
240.027	85.25
240.26	68.25
240.494	71.25
240.728	78.25
240.961	69.25
241.195	78.25
241.429	73.25
241.662	73.25
241.896	84.25
242.13	75.25
242.363	67.25
242.597	83.25
242.83	69.25
243.064	75.25
243.298	75.25
243.531	65.25
243.765	62.25
243.998	78.25
244.232	73.25
244.465	77.25
244.699	79.25
244.932	86.25
245.166	74.25
245.399	70.25
245.633	71.25
245.866	66.25
246.099	70.25
246.333	82.25
246.566	72.25
246.8	66.25
247.033	75.25
247.266	69.25
247.5	82.25
247.733	89.25
247.966	81.25
248.2	78.25
248.433	72.25
248.666	76.25
248.899	84.25
249.133	83.25
249.366	89.25
249.599	93.25
249.832	72.25
250.066	73.25
250.299	79.25
250.532	81.25
250.765	76.25
250.998	83.25
251.231	81.25
251.465	62.25
251.698	77.25
251.931	87.25
252.164	83.25
252.397	89.25
252.63	79.25
252.863	79.25
253.096	62.25
253.329	78.25
253.562	76.25
253.795	95.25
254.028	92.25
254.261	70.25
254.494	80.25
254.727	61.25
254.96	85.25
255.193	68.25
255.426	77.25
255.659	90.25
255.892	85.25
256.124	87.25
256.357	83.25
256.59	80.25
256.823	80.25
257.056	96.25
257.289	79.25
257.521	81.25
257.754	84.25
257.987	77.25
258.22	77.25
258.452	74.25
258.685	71.25
258.918	79.25
259.151	80.25
259.383	80.25
259.616	84.25
259.849	70.25
260.081	79.25
260.314	75.25
260.547	87.25
260.779	64.25
261.012	79.25
261.244	73.25
261.477	81.25
261.71	84.25
261.942	94.25
262.175	100.25
262.407	87.25
262.64	85.25
262.872	72.25
263.105	74.25
263.337	70.25
263.57	90.25
263.802	79.25
264.035	91.25
264.267	80.25
264.499	92.25
264.732	84.25
264.964	83.25
265.197	80.25
265.429	84.25
265.661	72.25
265.894	84.25
266.126	79.25
266.358	95.25
266.591	77.25
266.823	90.25
267.055	86.25
267.287	74.25
267.52	83.25
267.752	75.25
267.984	87.25
268.216	78.25
268.448	78.25
268.681	88.25
268.913	92.25
269.145	89.25
269.377	62.25
269.609	76.25
269.841	79.25
270.073	78.25
270.306	77.25
270.538	87.25
270.77	73.25
271.002	81.25
271.234	85.25
271.466	87.25
271.698	71.25
271.93	74.25
272.162	81.25
272.394	88.25
272.626	84.25
272.858	73.25
273.09	69.25
273.322	83.25
273.553	83.25
273.785	79.25
274.017	83.25
274.249	75.25
274.481	90.25
274.713	90.25
274.945	82.25
275.176	91.25
275.408	80.25
275.64	81.25
275.872	77.25
276.104	101.25
276.335	81.25
276.567	86.25
276.799	94.25
277.031	91.25
277.262	100.25
277.494	77.25
277.726	81.25
277.957	85.25
278.189	83.25
278.421	86.25
278.652	82.25
278.884	84.25
279.115	78.25
279.347	73.25
279.579	77.25
279.81	85.25
280.042	75.25
280.273	84.25
280.505	78.25
280.736	83.25
280.968	75.25
281.199	80.25
281.431	71.25
281.662	90.25
281.894	95.25
282.125	93.25
282.356	102.25
282.588	118.25
282.819	98.25
283.051	68.25
283.282	82.25
283.513	75.25
283.745	93.25
283.976	82.25
284.207	88.25
284.439	80.25
284.67	87.25
284.901	89.25
285.132	82.25
285.364	78.25
285.595	89.25
285.826	77.25
286.057	89.25
286.288	79.25
286.52	74.25
286.751	75.25
286.982	84.25
287.213	94.25
287.444	91.25
287.675	86.25
287.906	97.25
288.138	95.25
288.369	85.25
288.6	94.25
288.831	91.25
289.062	92.25
289.293	85.25
289.524	78.25
289.755	97.25
289.986	80.25
290.217	102.25
290.448	89.25
290.679	78.25
290.91	94.25
291.141	85.25
291.371	77.25
291.602	87.25
291.833	73.25
292.064	87.25
292.295	90.25
292.526	87.25
292.757	89.25
292.987	75.25
293.218	76.25
293.449	67.25
293.68	87.25
293.91	72.25
294.141	92.25
294.372	81.25
294.603	94.25
294.833	92.25
295.064	68.25
295.295	89.25
295.525	84.25
295.756	95.25
295.987	109.25
296.217	109.25
296.448	93.25
296.679	86.25
296.909	81.25
297.14	93.25
297.37	86.25
297.601	89.25
297.831	85.25
298.062	83.25
298.292	81.25
298.523	88.25
298.753	87.25
298.984	83.25
299.214	69.25
299.445	79.25
299.675	84.25
299.905	87.25
300.136	85.25
300.366	87.25
300.597	82.25
300.827	86.25
301.057	95.25
301.288	99.25
301.518	94.25
301.748	68.25
301.979	85.25
302.209	99.25
302.439	77.25
302.669	74.25
302.9	76.25
303.13	90.25
303.36	84.25
303.59	89.25
303.82	102.25
304.051	91.25
304.281	98.25
304.511	85.25
304.741	83.25
304.971	80.25
305.201	100.25
305.431	86.25
305.661	80.25
305.891	95.25
306.121	84.25
306.352	89.25
306.582	94.25
306.812	89.25
307.042	77.25
307.272	90.25
307.502	91.25
307.731	78.25
307.961	100.25
308.191	84.25
308.421	97.25
308.651	93.25
308.881	87.25
309.111	100.25
309.341	87.25
309.571	95.25
309.8	95.25
310.03	97.25
310.26	91.25
310.49	87.25
310.72	94.25
310.949	104.25
311.179	82.25
311.409	81.25
311.639	91.25
311.868	81.25
312.098	87.25
312.328	91.25
312.557	91.25
312.787	97.25
313.017	82.25
313.246	101.25
313.476	94.25
313.706	94.25
313.935	88.25
314.165	94.25
314.394	92.25
314.624	88.25
314.853	75.25
315.083	77.25
315.312	85.25
315.542	90.25
315.771	86.25
316.001	81.25
316.23	86.25
316.46	94.25
316.689	83.25
316.919	78.25
317.148	86.25
317.377	79.25
317.607	102.25
317.836	74.25
318.065	90.25
318.295	96.25
318.524	85.25
318.753	91.25
318.983	90.25
319.212	89.25
319.441	85.25
319.67	100.25
319.9	90.25
320.129	85.25
320.358	92.25
320.587	107.25
320.816	90.25
321.046	90.25
321.275	93.25
321.504	100.25
321.733	72.25
321.962	84.25
322.191	104.25
322.42	94.25
322.649	99.25
322.878	111.25
323.108	120.25
323.337	105.25
323.566	117.25
323.795	125.25
324.024	171.25
324.253	341.25
324.482	682.25
324.71	1383.25
324.939	1766.25
325.168	646.25
325.397	217.25
325.626	132.25
325.855	112.25
326.084	120.25
326.313	118.25
326.542	130.25
326.77	189.25
326.999	395.25
327.228	803.25
327.457	1436.25
327.686	1133.25
327.914	316.25
328.143	155.25
328.372	124.25
328.6	108.25
328.829	112.25
329.058	94.25
329.287	117.25
329.515	91.25
329.744	93.25
329.972	104.25
330.201	94.25
330.43	103.25
330.658	96.25
330.887	100.25
331.115	114.25
331.344	90.25
331.572	97.25
331.801	96.25
332.03	96.25
332.258	92.25
332.486	92.25
332.715	87.25
332.943	95.25
333.172	91.25
333.4	102.25
333.629	114.25
333.857	101.25
334.085	112.25
334.314	90.25
334.542	92.25
334.771	83.25
334.999	89.25
335.227	88.25
335.455	95.25
335.684	95.25
335.912	92.25
336.14	97.25
336.369	91.25
336.597	110.25
336.825	91.25
337.053	78.25
337.281	80.25
337.51	98.25
337.738	89.25
337.966	96.25
338.194	79.25
338.422	91.25
338.65	81.25
338.878	80.25
339.106	96.25
339.334	110.25
339.562	83.25
339.79	85.25
340.018	85.25
340.246	79.25
340.474	85.25
340.702	80.25
340.93	73.25
341.158	83.25
341.386	97.25
341.614	74.25
341.842	105.25
342.07	75.25
342.298	95.25
342.526	89.25
342.754	81.25
342.981	86.25
343.209	89.25
343.437	92.25
343.665	83.25
343.893	92.25
344.12	88.25
344.348	83.25
344.576	95.25
344.804	78.25
345.031	89.25
345.259	90.25
345.487	90.25
345.714	102.25
345.942	79.25
346.17	92.25
346.397	89.25
346.625	89.25
346.853	89.25
347.08	100.25
347.308	94.25
347.535	79.25
347.763	86.25
347.99	101.25
348.218	104.25
348.445	95.25
348.673	86.25
348.9	86.25
349.128	100.25
349.355	90.25
349.583	90.25
349.81	94.25
350.037	97.25
350.265	91.25
350.492	81.25
350.72	76.25
350.947	101.25
351.174	91.25
351.402	107.25
351.629	91.25
351.856	101.25
352.083	94.25
352.311	86.25
352.538	97.25
352.765	94.25
352.992	112.25
353.22	109.25
353.447	99.25
353.674	102.25
353.901	89.25
354.128	109.25
354.355	96.25
354.583	102.25
354.81	95.25
355.037	86.25
355.264	90.25
355.491	89.25
355.718	91.25
355.945	92.25
356.172	102.25
356.399	104.25
356.626	95.25
356.853	87.25
357.08	83.25
357.307	93.25
357.534	100.25
357.761	96.25
357.988	90.25
358.215	106.25
358.441	112.25
358.668	109.25
358.895	91.25
359.122	105.25
359.349	91.25
359.576	98.25
359.802	82.25
360.029	97.25
360.256	103.25
360.483	86.25
360.709	60.25
360.936	83.25
361.163	91.25
361.39	94.25
361.616	88.25
361.843	87.25
362.07	98.25
362.296	95.25
362.523	93.25
362.749	89.25
362.976	97.25
363.203	82.25
363.429	86.25
363.656	78.25
363.882	88.25
364.109	93.25
364.335	89.25
364.562	87.25
364.788	83.25
365.015	82.25
365.241	96.25
365.468	106.25
365.694	105.25
365.92	77.25
366.147	80.25
366.373	89.25
366.599	92.25
366.826	79.25
367.052	78.25
367.278	86.25
367.505	95.25
367.731	95.25
367.957	84.25
368.184	97.25
368.41	99.25
368.636	103.25
368.862	98.25
369.089	95.25
369.315	89.25
369.541	91.25
369.767	91.25
369.993	92.25
370.219	82.25
370.445	73.25
370.672	89.25
370.898	93.25
371.124	91.25
371.35	91.25
371.576	83.25
371.802	87.25
372.028	87.25
372.254	84.25
372.48	91.25
372.706	87.25
372.932	86.25
373.158	84.25
373.384	78.25
373.61	94.25
373.835	83.25
374.061	92.25
374.287	83.25
374.513	85.25
374.739	87.25
374.965	81.25
375.191	91.25
375.416	77.25
375.642	74.25
375.868	96.25
376.094	82.25
376.319	90.25
376.545	85.25
376.771	94.25
376.997	102.25
377.222	97.25
377.448	103.25
377.674	92.25
377.899	82.25
378.125	98.25
378.35	104.25
378.576	79.25
378.802	76.25
379.027	95.25
379.253	79.25
379.478	85.25
379.704	87.25
379.929	94.25
380.155	89.25
380.38	89.25
380.606	103.25
380.831	108.25
381.057	106.25
381.282	101.25
381.507	106.25
381.733	102.25
381.958	110.25
382.184	90.25
382.409	102.25
382.634	106.25
382.86	86.25
383.085	101.25
383.31	114.25
383.535	107.25
383.761	97.25
383.986	101.25
384.211	91.25
384.436	98.25
384.662	113.25
384.887	135.25
385.112	129.25
385.337	122.25
385.562	109.25
385.787	113.25
386.013	138.25
386.238	115.25
386.463	117.25
386.688	105.25
386.913	113.25
387.138	113.25
387.363	119.25
387.588	101.25
387.813	105.25
388.038	123.25
388.263	137.25
388.488	126.25
388.713	94.25
388.938	101.25
389.163	91.25
389.387	107.25
389.612	107.25
389.837	85.25
390.062	81.25
390.287	91.25
390.512	99.25
390.736	91.25
390.961	88.25
391.186	78.25
391.411	105.25
391.636	79.25
391.86	92.25
392.085	94.25
392.31	87.25
392.534	87.25
392.759	89.25
392.984	99.25
393.208	105.25
393.433	100.25
393.658	100.25
393.882	87.25
394.107	92.25
394.331	81.25
394.556	85.25
394.78	87.25
395.005	95.25
395.229	79.25
395.454	87.25
395.678	78.25
395.903	85.25
396.127	82.25
396.352	78.25
396.576	105.25
396.801	83.25
397.025	91.25
397.249	82.25
397.474	75.25
397.698	83.25
397.922	81.25
398.147	83.25
398.371	75.25
398.595	87.25
398.82	85.25
399.044	80.25
399.268	82.25
399.492	95.25
399.717	87.25
399.941	83.25
400.165	95.25
400.389	94.25
400.613	92.25
400.837	85.25
401.062	85.25
401.286	83.25
401.51	80.25
401.734	84.25
401.958	94.25
402.182	113.25
402.406	117.25
402.63	101.25
402.854	85.25
403.078	85.25
403.302	88.25
403.526	79.25
403.75	81.25
403.974	76.25
404.198	76.25
404.422	82.25
404.645	84.25
404.869	83.25
405.093	83.25
405.317	82.25
405.541	79.25
405.765	90.25
405.988	112.25
406.212	130.25
406.436	178.25
406.66	123.25
406.883	109.25
407.107	82.25
407.331	81.25
407.555	71.25
407.778	83.25
408.002	87.25
408.226	81.25
408.449	76.25
408.673	86.25
408.896	88.25
409.12	89.25
409.344	89.25
409.567	82.25
409.791	82.25
410.014	94.25
410.238	95.25
410.461	82.25
410.685	100.25
410.908	91.25
411.132	90.25
411.355	91.25
411.578	98.25
411.802	89.25
412.025	86.25
412.249	100.25
412.472	84.25
412.695	90.25
412.919	92.25
413.142	90.25
413.365	75.25
413.589	81.25
413.812	89.25
414.035	100.25
414.258	94.25
414.482	84.25
414.705	78.25
414.928	82.25
415.151	100.25
415.374	99.25
415.597	93.25
415.821	84.25
416.044	80.25
416.267	88.25
416.49	93.25
416.713	94.25
416.936	90.25
417.159	75.25
417.382	76.25
417.605	90.25
417.828	83.25
418.051	89.25
418.274	76.25
418.497	79.25
418.72	89.25
418.943	85.25
419.166	85.25
419.389	87.25
419.611	90.25
419.834	97.25
420.057	86.25
420.28	93.25
420.503	83.25
420.726	82.25
420.948	103.25
421.171	79.25
421.394	93.25
421.617	100.25
421.839	89.25
422.062	78.25
422.285	91.25
422.507	102.25
422.73	92.25
422.953	84.25
423.175	81.25
423.398	87.25
423.621	90.25
423.843	88.25
424.066	81.25
424.288	93.25
424.511	83.25
424.733	96.25
424.956	99.25
425.178	89.25
425.401	89.25
425.623	102.25
425.846	88.25
426.068	95.25
426.291	79.25
426.513	78.25
426.735	74.25
426.958	101.25
427.18	100.25
427.402	115.25
427.625	136.25
427.847	126.25
428.069	88.25
428.292	87.25
428.514	85.25
428.736	75.25
428.958	77.25
429.181	81.25
429.403	91.25
429.625	84.25
429.847	83.25
430.069	86.25
430.292	84.25
430.514	88.25
430.736	70.25
430.958	84.25
431.18	86.25
431.402	74.25
431.624	89.25
431.846	91.25
432.068	92.25
432.29	82.25
432.512	97.25
432.734	94.25
432.956	78.25
433.178	90.25
433.4	78.25
433.622	77.25
433.844	89.25
434.066	99.25
434.287	85.25
434.509	82.25
434.731	90.25
434.953	77.25
435.175	78.25
435.397	100.25
435.618	95.25
435.84	89.25
436.062	118.25
436.284	118.25
436.505	78.25
436.727	91.25
436.949	86.25
437.17	84.25
437.392	90.25
437.614	78.25
437.835	102.25
438.057	91.25
438.278	81.25
438.5	94.25
438.721	101.25
438.943	86.25
439.165	85.25
439.386	88.25
439.608	87.25
439.829	94.25
440.05	99.25
440.272	106.25
440.493	91.25
440.715	85.25
440.936	89.25
441.158	83.25
441.379	93.25
441.6	83.25
441.822	101.25
442.043	92.25
442.264	77.25
442.486	93.25
442.707	92.25
442.928	82.25
443.149	98.25
443.371	126.25
443.592	91.25
443.813	95.25
444.034	103.25
444.255	90.25
444.476	83.25
444.698	78.25
444.919	75.25
445.14	127.25
445.361	114.25
445.582	99.25
445.803	118.25
446.024	109.25
446.245	110.25
446.466	87.25
446.687	86.25
446.908	70.25
447.129	79.25
447.35	85.25
447.571	88.25
447.792	86.25
448.013	99.25
448.234	84.25
448.455	90.25
448.675	94.25
448.896	103.25
449.117	90.25
449.338	103.25
449.559	124.25
449.779	114.25
450	83.25
450.221	72.25
450.442	98.25
450.662	85.25
450.883	105.25
451.104	107.25
451.324	89.25
451.545	69.25
451.766	81.25
451.986	88.25
452.207	100.25
452.428	92.25
452.648	96.25
452.869	91.25
453.089	102.25
453.31	99.25
453.53	90.25
453.751	92.25
453.971	100.25
454.192	95.25
454.412	98.25
454.633	84.25
454.853	70.25
455.073	91.25
455.294	83.25
455.514	71.25
455.734	88.25
455.955	73.25
456.175	78.25
456.395	79.25
456.616	78.25
456.836	92.25
457.056	92.25
457.276	90.25
457.497	85.25
457.717	66.25
457.937	85.25
458.157	90.25
458.377	92.25
458.598	107.25
458.818	109.25
459.038	117.25
459.258	95.25
459.478	90.25
459.698	94.25
459.918	96.25
460.138	73.25
460.358	77.25
460.578	75.25
460.798	90.25
461.018	95.25
461.238	79.25
461.458	81.25
461.678	87.25
461.898	83.25
462.118	92.25
462.338	82.25
462.558	90.25
462.777	85.25
462.997	76.25
463.217	76.25
463.437	93.25
463.657	81.25
463.876	75.25
464.096	87.25
464.316	87.25
464.536	84.25
464.755	96.25
464.975	98.25
465.195	128.25
465.414	118.25
465.634	86.25
465.854	93.25
466.073	70.25
466.293	83.25
466.512	81.25
466.732	91.25
466.951	98.25
467.171	78.25
467.391	88.25
467.61	78.25
467.829	85.25
468.049	92.25
468.268	91.25
468.488	84.25
468.707	69.25
468.927	78.25
469.146	82.25
469.365	75.25
469.585	85.25
469.804	94.25
470.023	80.25
470.243	79.25
470.462	88.25
470.681	91.25
470.901	80.25
471.12	80.25
471.339	78.25
471.558	75.25
471.777	96.25
471.997	77.25
472.216	86.25
472.435	83.25
472.654	86.25
472.873	94.25
473.092	85.25
473.311	88.25
473.53	87.25
473.749	88.25
473.968	77.25
474.187	96.25
474.406	84.25
474.625	70.25
474.844	81.25
475.063	89.25
475.282	78.25
475.501	77.25
475.72	93.25
475.939	111.25
476.158	83.25
476.377	81.25
476.596	73.25
476.814	94.25
477.033	79.25
477.252	89.25
477.471	85.25
477.69	80.25
477.908	83.25
478.127	71.25
478.346	81.25
478.564	85.25
478.783	86.25
479.002	101.25
479.22	90.25
479.439	86.25
479.658	95.25
479.876	98.25
480.095	80.25
480.313	91.25
480.532	85.25
480.751	89.25
480.969	95.25
481.188	105.25
481.406	114.25
481.624	78.25
481.843	91.25
482.061	84.25
482.28	94.25
482.498	91.25
482.717	74.25
482.935	85.25
483.153	80.25
483.372	85.25
483.59	75.25
483.808	76.25
484.027	77.25
484.245	86.25
484.463	75.25
484.681	103.25
484.9	97.25
485.118	93.25
485.336	89.25
485.554	87.25
485.772	93.25
485.99	85.25
486.209	94.25
486.427	86.25
486.645	104.25
486.863	93.25
487.081	92.25
487.299	89.25
487.517	82.25
487.735	89.25
487.953	90.25
488.171	95.25
488.389	82.25
488.607	77.25
488.825	87.25
489.043	86.25
489.261	90.25
489.479	88.25
489.696	88.25
489.914	87.25
490.132	80.25
490.35	84.25
490.568	89.25
490.786	83.25
491.003	91.25
491.221	97.25
491.439	86.25
491.657	87.25
491.874	86.25
492.092	88.25
492.31	95.25
492.527	84.25
492.745	97.25
492.963	93.25
493.18	94.25
493.398	102.25
493.615	95.25
493.833	86.25
494.05	65.25
494.268	101.25
494.485	86.25
494.703	97.25
494.92	69.25
495.138	83.25
495.355	92.25
495.573	80.25
495.79	87.25
496.008	108.25
496.225	93.25
496.442	99.25
496.66	87.25
496.877	99.25
497.094	85.25
497.312	92.25
497.529	91.25
497.746	86.25
497.963	91.25
498.181	101.25
498.398	83.25
498.615	104.25
498.832	114.25
499.049	97.25
499.267	83.25
499.484	91.25
499.701	95.25
499.918	90.25
500.135	84.25
500.352	95.25
500.569	89.25
500.786	91.25
501.003	92.25
501.22	83.25
501.437	99.25
501.654	93.25
501.871	93.25
502.088	87.25
502.305	96.25
502.522	105.25
502.739	76.25
502.956	82.25
503.172	90.25
503.389	90.25
503.606	99.25
503.823	107.25
504.04	91.25
504.256	96.25
504.473	92.25
504.69	71.25
504.907	82.25
505.123	86.25
505.34	98.25
505.557	82.25
505.773	82.25
505.99	83.25
506.207	94.25
506.423	81.25
506.64	90.25
506.856	79.25
507.073	71.25
507.289	98.25
507.506	99.25
507.722	97.25
507.939	94.25
508.155	87.25
508.372	95.25
508.588	97.25
508.805	79.25
509.021	76.25
509.238	87.25
509.454	98.25
509.67	98.25
509.887	91.25
510.103	122.25
510.319	180.25
510.536	613.25
510.752	1817.25
510.968	526.25
511.184	150.25
511.401	86.25
511.617	102.25
511.833	89.25
512.049	95.25
512.265	81.25
512.481	98.25
512.698	88.25
512.914	80.25
513.13	91.25
513.346	90.25
513.562	91.25
513.778	87.25
513.994	95.25
514.21	97.25
514.426	112.25
514.642	112.25
514.858	108.25
515.074	146.25
515.29	340.25
515.506	1115.25
515.721	428.25
515.937	141.25
516.153	107.25
516.369	101.25
516.585	86.25
516.801	101.25
517.016	84.25
517.232	102.25
