Data from Uncirc_2004_H10_HRD10591_00058.txt Node
Date: Wed Jan 03 10:32:24 EST 2024
User: Yrep
Spectrometer: HR+D1059
Trigger mode: 1
Integration Time (sec): 1.000000E-1
Scans to average: 1
Electric dark correction enabled: true
Nonlinearity correction enabled: false
Boxcar width: 0
XAxis mode: Wavelengths
Number of Pixels in Spectrum: 2048
>>>>>Begin Spectral Data<<<<<
223.165	-11.25
223.4	-11.25
223.635	-11.25
223.869	-23.25
224.104	-14.25
224.338	-11.25
224.573	-25.25
224.808	-23.25
225.042	-13.25
225.277	-6.25
225.511	-9.25
225.746	12.75
225.98	12.75
226.215	13.75
226.449	21.75
226.683	14.75
226.918	29.75
227.152	31.75
227.387	45.75
227.621	52.75
227.856	37.75
228.09	49.75
228.324	40.75
228.559	55.75
228.793	56.75
229.027	68.75
229.262	76.75
229.496	66.75
229.73	76.75
229.964	79.75
230.199	85.75
230.433	72.75
230.667	90.75
230.901	98.75
231.136	83.75
231.37	69.75
231.604	82.75
231.838	92.75
232.072	94.75
232.306	81.75
232.541	91.75
232.775	84.75
233.009	74.75
233.243	86.75
233.477	88.75
233.711	86.75
233.945	97.75
234.179	84.75
234.413	93.75
234.647	72.75
234.881	79.75
235.115	80.75
235.349	80.75
235.583	83.75
235.817	67.75
236.051	87.75
236.285	88.75
236.519	85.75
236.753	68.75
236.987	89.75
237.221	84.75
237.455	83.75
237.689	89.75
237.922	74.75
238.156	91.75
238.39	76.75
238.624	78.75
238.858	84.75
239.091	77.75
239.325	77.75
239.559	76.75
239.793	77.75
240.027	82.75
240.26	62.75
240.494	62.75
240.728	103.75
240.961	91.75
241.195	87.75
241.429	86.75
241.662	78.75
241.896	82.75
242.13	80.75
242.363	94.75
242.597	86.75
242.83	72.75
243.064	71.75
243.298	92.75
243.531	77.75
243.765	82.75
243.998	85.75
244.232	72.75
244.465	79.75
244.699	70.75
244.932	77.75
245.166	72.75
245.399	76.75
245.633	78.75
245.866	88.75
246.099	82.75
246.333	89.75
246.566	75.75
246.8	81.75
247.033	79.75
247.266	86.75
247.5	80.75
247.733	76.75
247.966	83.75
248.2	83.75
248.433	70.75
248.666	77.75
248.899	85.75
249.133	80.75
249.366	100.75
249.599	107.75
249.832	89.75
250.066	87.75
250.299	73.75
250.532	94.75
250.765	72.75
250.998	85.75
251.231	76.75
251.465	83.75
251.698	88.75
251.931	84.75
252.164	67.75
252.397	77.75
252.63	82.75
252.863	84.75
253.096	73.75
253.329	89.75
253.562	85.75
253.795	86.75
254.028	79.75
254.261	70.75
254.494	80.75
254.727	81.75
254.96	77.75
255.193	89.75
255.426	73.75
255.659	73.75
255.892	96.75
256.124	86.75
256.357	77.75
256.59	93.75
256.823	84.75
257.056	86.75
257.289	84.75
257.521	92.75
257.754	105.75
257.987	87.75
258.22	81.75
258.452	77.75
258.685	75.75
258.918	76.75
259.151	66.75
259.383	79.75
259.616	90.75
259.849	78.75
260.081	85.75
260.314	74.75
260.547	88.75
260.779	74.75
261.012	77.75
261.244	78.75
261.477	86.75
261.71	97.75
261.942	104.75
262.175	121.75
262.407	90.75
262.64	84.75
262.872	95.75
263.105	93.75
263.337	77.75
263.57	89.75
263.802	93.75
264.035	77.75
264.267	72.75
264.499	76.75
264.732	78.75
264.964	77.75
265.197	76.75
265.429	85.75
265.661	75.75
265.894	70.75
266.126	90.75
266.358	99.75
266.591	83.75
266.823	95.75
267.055	89.75
267.287	88.75
267.52	101.75
267.752	91.75
267.984	92.75
268.216	82.75
268.448	79.75
268.681	81.75
268.913	85.75
269.145	89.75
269.377	82.75
269.609	75.75
269.841	76.75
270.073	79.75
270.306	94.75
270.538	83.75
270.77	94.75
271.002	93.75
271.234	81.75
271.466	83.75
271.698	84.75
271.93	74.75
272.162	89.75
272.394	92.75
272.626	74.75
272.858	92.75
273.09	91.75
273.322	97.75
273.553	93.75
273.785	98.75
274.017	78.75
274.249	101.75
274.481	84.75
274.713	79.75
274.945	93.75
275.176	97.75
275.408	89.75
275.64	89.75
275.872	82.75
276.104	94.75
276.335	85.75
276.567	98.75
276.799	111.75
277.031	92.75
277.262	95.75
277.494	84.75
277.726	94.75
277.957	96.75
278.189	85.75
278.421	84.75
278.652	97.75
278.884	82.75
279.115	91.75
279.347	89.75
279.579	66.75
279.81	81.75
280.042	91.75
280.273	76.75
280.505	79.75
280.736	82.75
280.968	103.75
281.199	79.75
281.431	99.75
281.662	71.75
281.894	93.75
282.125	97.75
282.356	127.75
282.588	140.75
282.819	107.75
283.051	81.75
283.282	90.75
283.513	94.75
283.745	91.75
283.976	92.75
284.207	84.75
284.439	99.75
284.67	85.75
284.901	86.75
285.132	94.75
285.364	83.75
285.595	86.75
285.826	85.75
286.057	93.75
286.288	88.75
286.52	98.75
286.751	94.75
286.982	93.75
287.213	91.75
287.444	92.75
287.675	84.75
287.906	101.75
288.138	83.75
288.369	89.75
288.6	85.75
288.831	99.75
289.062	86.75
289.293	84.75
289.524	96.75
289.755	96.75
289.986	79.75
290.217	80.75
290.448	93.75
290.679	92.75
290.91	101.75
291.141	92.75
291.371	86.75
291.602	84.75
291.833	85.75
292.064	98.75
292.295	89.75
292.526	109.75
292.757	98.75
292.987	71.75
293.218	91.75
293.449	80.75
293.68	92.75
293.91	93.75
294.141	92.75
294.372	94.75
294.603	93.75
294.833	86.75
295.064	93.75
295.295	107.75
295.525	100.75
295.756	101.75
295.987	125.75
296.217	145.75
296.448	117.75
296.679	82.75
296.909	93.75
297.14	86.75
297.37	89.75
297.601	94.75
297.831	102.75
298.062	89.75
298.292	81.75
298.523	97.75
298.753	82.75
298.984	90.75
299.214	100.75
299.445	88.75
299.675	108.75
299.905	94.75
300.136	96.75
300.366	91.75
300.597	108.75
300.827	104.75
301.057	98.75
301.288	105.75
301.518	93.75
301.748	96.75
301.979	104.75
302.209	92.75
302.439	93.75
302.669	96.75
302.9	91.75
303.13	114.75
303.36	94.75
303.59	106.75
303.82	104.75
304.051	97.75
304.281	99.75
304.511	87.75
304.741	91.75
304.971	100.75
305.201	88.75
305.431	107.75
305.661	82.75
305.891	106.75
306.121	92.75
306.352	93.75
306.582	96.75
306.812	91.75
307.042	88.75
307.272	93.75
307.502	82.75
307.731	118.75
307.961	102.75
308.191	99.75
308.421	97.75
308.651	100.75
308.881	84.75
309.111	115.75
309.341	107.75
309.571	106.75
309.8	101.75
310.03	100.75
310.26	107.75
310.49	105.75
310.72	94.75
310.949	106.75
311.179	102.75
311.409	99.75
311.639	104.75
311.868	115.75
312.098	96.75
312.328	92.75
312.557	102.75
312.787	103.75
313.017	116.75
313.246	95.75
313.476	98.75
313.706	95.75
313.935	103.75
314.165	100.75
314.394	94.75
314.624	81.75
314.853	107.75
315.083	111.75
315.312	91.75
315.542	107.75
315.771	86.75
316.001	105.75
316.23	101.75
316.46	90.75
316.689	88.75
316.919	106.75
317.148	97.75
317.377	89.75
317.607	99.75
317.836	99.75
318.065	113.75
318.295	108.75
318.524	91.75
318.753	87.75
318.983	101.75
319.212	102.75
319.441	112.75
319.67	111.75
319.9	98.75
320.129	98.75
320.358	108.75
320.587	85.75
320.816	110.75
321.046	97.75
321.275	106.75
321.504	105.75
321.733	108.75
321.962	100.75
322.191	98.75
322.42	102.75
322.649	93.75
322.878	125.75
323.108	142.75
323.337	132.75
323.566	124.75
323.795	155.75
324.024	219.75
324.253	422.75
324.482	873.75
324.71	1754.75
324.939	2274.75
325.168	808.75
325.397	253.75
325.626	152.75
325.855	152.75
326.084	126.75
326.313	152.75
326.542	170.75
326.77	243.75
326.999	495.75
327.228	972.75
327.457	1747.75
327.686	1389.75
327.914	369.75
328.143	184.75
328.372	155.75
328.6	119.75
328.829	123.75
329.058	125.75
329.287	144.75
329.515	122.75
329.744	116.75
329.972	107.75
330.201	100.75
330.43	108.75
330.658	122.75
330.887	142.75
331.115	125.75
331.344	118.75
331.572	108.75
331.801	116.75
332.03	98.75
332.258	95.75
332.486	99.75
332.715	98.75
332.943	103.75
333.172	115.75
333.4	98.75
333.629	114.75
333.857	130.75
334.085	114.75
334.314	100.75
334.542	100.75
334.771	106.75
334.999	101.75
335.227	97.75
335.455	97.75
335.684	105.75
335.912	115.75
336.14	90.75
336.369	111.75
336.597	93.75
336.825	120.75
337.053	102.75
337.281	93.75
337.51	90.75
337.738	102.75
337.966	88.75
338.194	96.75
338.422	90.75
338.65	92.75
338.878	88.75
339.106	92.75
339.334	100.75
339.562	95.75
339.79	98.75
340.018	91.75
340.246	100.75
340.474	96.75
340.702	104.75
340.93	101.75
341.158	92.75
341.386	102.75
341.614	96.75
341.842	91.75
342.07	93.75
342.298	92.75
342.526	98.75
342.754	87.75
342.981	97.75
343.209	95.75
343.437	109.75
343.665	109.75
343.893	93.75
344.12	103.75
344.348	84.75
344.576	97.75
344.804	92.75
345.031	118.75
345.259	110.75
345.487	93.75
345.714	98.75
345.942	102.75
346.17	96.75
346.397	101.75
346.625	100.75
346.853	100.75
347.08	106.75
347.308	88.75
347.535	85.75
347.763	104.75
347.99	109.75
348.218	113.75
348.445	114.75
348.673	105.75
348.9	93.75
349.128	101.75
349.355	92.75
349.583	94.75
349.81	92.75
350.037	96.75
350.265	91.75
350.492	102.75
350.72	71.75
350.947	115.75
351.174	124.75
351.402	129.75
351.629	99.75
351.856	109.75
352.083	106.75
352.311	106.75
352.538	101.75
352.765	98.75
352.992	117.75
353.22	116.75
353.447	105.75
353.674	110.75
353.901	103.75
354.128	94.75
354.355	85.75
354.583	115.75
354.81	104.75
355.037	104.75
355.264	97.75
355.491	87.75
355.718	85.75
355.945	109.75
356.172	97.75
356.399	99.75
356.626	93.75
356.853	86.75
357.08	107.75
357.307	97.75
357.534	90.75
357.761	94.75
357.988	100.75
358.215	100.75
358.441	91.75
358.668	97.75
358.895	88.75
359.122	99.75
359.349	103.75
359.576	107.75
359.802	89.75
360.029	116.75
360.256	118.75
360.483	100.75
360.709	80.75
360.936	93.75
361.163	99.75
361.39	115.75
361.616	110.75
361.843	97.75
362.07	88.75
362.296	109.75
362.523	86.75
362.749	110.75
362.976	94.75
363.203	107.75
363.429	94.75
363.656	94.75
363.882	85.75
364.109	102.75
364.335	93.75
364.562	114.75
364.788	104.75
365.015	98.75
365.241	93.75
365.468	115.75
365.694	107.75
365.92	104.75
366.147	93.75
366.373	93.75
366.599	84.75
366.826	88.75
367.052	92.75
367.278	100.75
367.505	83.75
367.731	93.75
367.957	90.75
368.184	92.75
368.41	106.75
368.636	103.75
368.862	118.75
369.089	110.75
369.315	95.75
369.541	89.75
369.767	93.75
369.993	100.75
370.219	100.75
370.445	89.75
370.672	98.75
370.898	95.75
371.124	80.75
371.35	84.75
371.576	83.75
371.802	95.75
372.028	88.75
372.254	100.75
372.48	105.75
372.706	93.75
372.932	91.75
373.158	90.75
373.384	102.75
373.61	95.75
373.835	93.75
374.061	86.75
374.287	96.75
374.513	100.75
374.739	101.75
374.965	96.75
375.191	98.75
375.416	80.75
375.642	99.75
375.868	95.75
376.094	101.75
376.319	102.75
376.545	90.75
376.771	92.75
376.997	106.75
377.222	99.75
377.448	102.75
377.674	97.75
377.899	99.75
378.125	95.75
378.35	88.75
378.576	102.75
378.802	95.75
379.027	99.75
379.253	94.75
379.478	100.75
379.704	83.75
379.929	88.75
380.155	112.75
380.38	89.75
380.606	113.75
380.831	109.75
381.057	109.75
381.282	105.75
381.507	97.75
381.733	106.75
381.958	94.75
382.184	101.75
382.409	106.75
382.634	110.75
382.86	107.75
383.085	102.75
383.31	101.75
383.535	113.75
383.761	115.75
383.986	99.75
384.211	106.75
384.436	105.75
384.662	95.75
384.887	112.75
385.112	109.75
385.337	106.75
385.562	106.75
385.787	113.75
386.013	108.75
386.238	130.75
386.463	119.75
386.688	110.75
386.913	108.75
387.138	113.75
387.363	93.75
387.588	107.75
387.813	94.75
388.038	106.75
388.263	118.75
388.488	100.75
388.713	98.75
388.938	99.75
389.163	111.75
389.387	102.75
389.612	95.75
389.837	103.75
390.062	96.75
390.287	80.75
390.512	92.75
390.736	105.75
390.961	108.75
391.186	94.75
391.411	106.75
391.636	90.75
391.86	85.75
392.085	96.75
392.31	106.75
392.534	90.75
392.759	94.75
392.984	82.75
393.208	87.75
393.433	89.75
393.658	86.75
393.882	76.75
394.107	85.75
394.331	101.75
394.556	91.75
394.78	105.75
395.005	101.75
395.229	78.75
395.454	91.75
395.678	99.75
395.903	93.75
396.127	87.75
396.352	92.75
396.576	88.75
396.801	95.75
397.025	97.75
397.249	88.75
397.474	89.75
397.698	93.75
397.922	92.75
398.147	88.75
398.371	89.75
398.595	99.75
398.82	93.75
399.044	87.75
399.268	99.75
399.492	95.75
399.717	83.75
399.941	84.75
400.165	105.75
400.389	93.75
400.613	91.75
400.837	96.75
401.062	84.75
401.286	97.75
401.51	93.75
401.734	90.75
401.958	93.75
402.182	125.75
402.406	157.75
402.63	120.75
402.854	88.75
403.078	89.75
403.302	82.75
403.526	78.75
403.75	84.75
403.974	98.75
404.198	107.75
404.422	103.75
404.645	86.75
404.869	90.75
405.093	94.75
405.317	77.75
405.541	86.75
405.765	86.75
405.988	112.75
406.212	162.75
406.436	223.75
406.66	146.75
406.883	108.75
407.107	106.75
407.331	96.75
407.555	105.75
407.778	100.75
408.002	85.75
408.226	84.75
408.449	111.75
408.673	92.75
408.896	105.75
409.12	88.75
409.344	91.75
409.567	114.75
409.791	96.75
410.014	114.75
410.238	99.75
410.461	87.75
410.685	104.75
410.908	92.75
411.132	91.75
411.355	94.75
411.578	91.75
411.802	97.75
412.025	79.75
412.249	90.75
412.472	80.75
412.695	97.75
412.919	90.75
413.142	105.75
413.365	88.75
413.589	90.75
413.812	90.75
414.035	88.75
414.258	85.75
414.482	92.75
414.705	84.75
414.928	76.75
415.151	86.75
415.374	93.75
415.597	91.75
415.821	100.75
416.044	81.75
416.267	112.75
416.49	98.75
416.713	97.75
416.936	99.75
417.159	97.75
417.382	88.75
417.605	93.75
417.828	114.75
418.051	101.75
418.274	98.75
418.497	88.75
418.72	97.75
418.943	89.75
419.166	92.75
419.389	84.75
419.611	94.75
419.834	106.75
420.057	101.75
420.28	82.75
420.503	87.75
420.726	94.75
420.948	96.75
421.171	108.75
421.394	96.75
421.617	92.75
421.839	87.75
422.062	104.75
422.285	101.75
422.507	110.75
422.73	104.75
422.953	95.75
423.175	93.75
423.398	94.75
423.621	87.75
423.843	89.75
424.066	87.75
424.288	82.75
424.511	90.75
424.733	89.75
424.956	103.75
425.178	101.75
425.401	105.75
425.623	92.75
425.846	88.75
426.068	98.75
426.291	90.75
426.513	89.75
426.735	95.75
426.958	85.75
427.18	101.75
427.402	147.75
427.625	169.75
427.847	127.75
428.069	102.75
428.292	84.75
428.514	78.75
428.736	99.75
428.958	89.75
429.181	101.75
429.403	92.75
429.625	88.75
429.847	93.75
430.069	102.75
430.292	105.75
430.514	86.75
430.736	100.75
430.958	100.75
431.18	93.75
431.402	93.75
431.624	90.75
431.846	89.75
432.068	96.75
432.29	86.75
432.512	96.75
432.734	96.75
432.956	92.75
433.178	105.75
433.4	109.75
433.622	87.75
433.844	68.75
434.066	85.75
434.287	86.75
434.509	90.75
434.731	100.75
434.953	85.75
435.175	89.75
435.397	97.75
435.618	90.75
435.84	107.75
436.062	109.75
436.284	125.75
436.505	94.75
436.727	109.75
436.949	91.75
437.17	80.75
437.392	99.75
437.614	104.75
437.835	103.75
438.057	117.75
438.278	122.75
438.5	109.75
438.721	115.75
438.943	97.75
439.165	93.75
439.386	84.75
439.608	102.75
439.829	111.75
440.05	121.75
440.272	136.75
440.493	88.75
440.715	93.75
440.936	86.75
441.158	102.75
441.379	85.75
441.6	90.75
441.822	78.75
442.043	95.75
442.264	113.75
442.486	103.75
442.707	94.75
442.928	109.75
443.149	132.75
443.371	114.75
443.592	98.75
443.813	115.75
444.034	110.75
444.255	98.75
444.476	87.75
444.698	94.75
444.919	88.75
445.14	124.75
445.361	136.75
445.582	130.75
445.803	131.75
446.024	136.75
446.245	133.75
446.466	120.75
446.687	90.75
446.908	68.75
447.129	96.75
447.35	74.75
447.571	98.75
447.792	101.75
448.013	110.75
448.234	112.75
448.455	96.75
448.675	118.75
448.896	105.75
449.117	102.75
449.338	96.75
449.559	118.75
449.779	128.75
450	111.75
450.221	93.75
450.442	109.75
450.662	99.75
450.883	109.75
451.104	111.75
451.324	90.75
451.545	85.75
451.766	103.75
451.986	87.75
452.207	98.75
452.428	101.75
452.648	92.75
452.869	91.75
453.089	117.75
453.31	125.75
453.53	100.75
453.751	99.75
453.971	102.75
454.192	98.75
454.412	102.75
454.633	80.75
454.853	90.75
455.073	107.75
455.294	102.75
455.514	89.75
455.734	93.75
455.955	84.75
456.175	106.75
456.395	89.75
456.616	100.75
456.836	76.75
457.056	80.75
457.276	84.75
457.497	90.75
457.717	81.75
457.937	94.75
458.157	77.75
458.377	95.75
458.598	116.75
458.818	135.75
459.038	156.75
459.258	127.75
459.478	94.75
459.698	91.75
459.918	84.75
460.138	88.75
460.358	90.75
460.578	78.75
460.798	94.75
461.018	68.75
461.238	88.75
461.458	94.75
461.678	94.75
461.898	104.75
462.118	82.75
462.338	86.75
462.558	82.75
462.777	88.75
462.997	80.75
463.217	83.75
463.437	81.75
463.657	99.75
463.876	95.75
464.096	84.75
464.316	92.75
464.536	91.75
464.755	100.75
464.975	98.75
465.195	172.75
465.414	152.75
465.634	90.75
465.854	90.75
466.073	89.75
466.293	87.75
466.512	93.75
466.732	83.75
466.951	96.75
467.171	114.75
467.391	94.75
467.61	88.75
467.829	113.75
468.049	90.75
468.268	87.75
468.488	96.75
468.707	93.75
468.927	91.75
469.146	75.75
469.365	86.75
469.585	92.75
469.804	101.75
470.023	85.75
470.243	92.75
470.462	119.75
470.681	115.75
470.901	82.75
471.12	82.75
471.339	92.75
471.558	94.75
471.777	80.75
471.997	86.75
472.216	88.75
472.435	95.75
472.654	101.75
472.873	100.75
473.092	84.75
473.311	100.75
473.53	87.75
473.749	89.75
473.968	97.75
474.187	94.75
474.406	102.75
474.625	93.75
474.844	92.75
475.063	89.75
475.282	82.75
475.501	90.75
475.72	94.75
475.939	81.75
476.158	80.75
476.377	91.75
476.596	84.75
476.814	92.75
477.033	102.75
477.252	88.75
477.471	94.75
477.69	89.75
477.908	98.75
478.127	107.75
478.346	89.75
478.564	87.75
478.783	96.75
479.002	104.75
479.22	100.75
479.439	103.75
479.658	85.75
479.876	100.75
480.095	94.75
480.313	100.75
480.532	74.75
480.751	84.75
480.969	96.75
481.188	128.75
481.406	122.75
481.624	91.75
481.843	93.75
482.061	98.75
482.28	88.75
482.498	92.75
482.717	101.75
482.935	90.75
483.153	79.75
483.372	99.75
483.59	100.75
483.808	89.75
484.027	89.75
484.245	85.75
484.463	81.75
484.681	104.75
484.9	88.75
485.118	94.75
485.336	111.75
485.554	107.75
485.772	107.75
485.99	102.75
486.209	107.75
486.427	93.75
486.645	104.75
486.863	115.75
487.081	106.75
487.299	110.75
487.517	98.75
487.735	97.75
487.953	94.75
488.171	99.75
488.389	99.75
488.607	85.75
488.825	86.75
489.043	84.75
489.261	98.75
489.479	103.75
489.696	92.75
489.914	86.75
490.132	90.75
490.35	105.75
490.568	95.75
490.786	91.75
491.003	100.75
491.221	97.75
491.439	99.75
491.657	109.75
491.874	101.75
492.092	92.75
492.31	89.75
492.527	88.75
492.745	89.75
492.963	86.75
493.18	90.75
493.398	98.75
493.615	96.75
493.833	94.75
494.05	86.75
494.268	85.75
494.485	85.75
494.703	101.75
494.92	73.75
495.138	100.75
495.355	100.75
495.573	96.75
495.79	97.75
496.008	94.75
496.225	99.75
496.442	91.75
496.66	105.75
496.877	89.75
497.094	89.75
497.312	91.75
497.529	99.75
497.746	88.75
497.963	81.75
498.181	94.75
498.398	103.75
498.615	103.75
498.832	97.75
499.049	94.75
499.267	105.75
499.484	103.75
499.701	93.75
499.918	99.75
500.135	95.75
500.352	94.75
500.569	98.75
500.786	93.75
501.003	91.75
501.22	89.75
501.437	99.75
501.654	107.75
501.871	114.75
502.088	91.75
502.305	98.75
502.522	100.75
502.739	80.75
502.956	100.75
503.172	92.75
503.389	103.75
503.606	105.75
503.823	95.75
504.04	94.75
504.256	93.75
504.473	99.75
504.69	99.75
504.907	99.75
505.123	104.75
505.34	103.75
505.557	93.75
505.773	89.75
505.99	75.75
506.207	91.75
506.423	82.75
506.64	82.75
506.856	101.75
507.073	105.75
507.289	97.75
507.506	104.75
507.722	123.75
507.939	112.75
508.155	97.75
508.372	88.75
508.588	92.75
508.805	101.75
509.021	96.75
509.238	92.75
509.454	93.75
509.67	107.75
509.887	129.75
510.103	148.75
510.319	222.75
510.536	841.75
510.752	2620.75
510.968	750.75
511.184	183.75
511.401	115.75
511.617	88.75
511.833	99.75
512.049	112.75
512.265	95.75
512.481	90.75
512.698	94.75
512.914	97.75
513.13	93.75
513.346	72.75
513.562	101.75
513.778	102.75
513.994	111.75
