Data from Uncirc_2004_H10_HRD10591_00085.txt Node
Date: Wed Jan 03 10:32:29 EST 2024
User: Yrep
Spectrometer: HR+D1059
Trigger mode: 1
Integration Time (sec): 1.000000E-1
Scans to average: 1
Electric dark correction enabled: true
Nonlinearity correction enabled: false
Boxcar width: 0
XAxis mode: Wavelengths
Number of Pixels in Spectrum: 2048
>>>>>Begin Spectral Data<<<<<
223.165	-21.75
223.4	-21.75
223.635	-21.75
223.869	-8.75
224.104	-13.75
224.338	-5.75
224.573	-17.75
224.808	-17.75
225.042	1.25
225.277	-10.75
225.511	-8.75
225.746	3.25
225.98	6.25
226.215	7.25
226.449	20.25
226.683	9.25
226.918	26.25
227.152	31.25
227.387	31.25
227.621	30.25
227.856	55.25
228.09	51.25
228.324	49.25
228.559	57.25
228.793	56.25
229.027	63.25
229.262	83.25
229.496	83.25
229.73	83.25
229.964	90.25
230.199	70.25
230.433	76.25
230.667	83.25
230.901	97.25
231.136	70.25
231.37	84.25
231.604	87.25
231.838	75.25
232.072	74.25
232.306	77.25
232.541	84.25
232.775	85.25
233.009	91.25
233.243	89.25
233.477	76.25
233.711	83.25
233.945	77.25
234.179	102.25
234.413	89.25
234.647	78.25
234.881	81.25
235.115	87.25
235.349	86.25
235.583	71.25
235.817	73.25
236.051	69.25
236.285	96.25
236.519	85.25
236.753	77.25
236.987	73.25
237.221	96.25
237.455	90.25
237.689	82.25
237.922	80.25
238.156	85.25
238.39	84.25
238.624	72.25
238.858	70.25
239.091	81.25
239.325	86.25
239.559	86.25
239.793	69.25
240.027	82.25
240.26	67.25
240.494	89.25
240.728	80.25
240.961	75.25
241.195	80.25
241.429	88.25
241.662	65.25
241.896	85.25
242.13	80.25
242.363	71.25
242.597	77.25
242.83	77.25
243.064	74.25
243.298	87.25
243.531	73.25
243.765	76.25
243.998	73.25
244.232	94.25
244.465	88.25
244.699	73.25
244.932	73.25
245.166	82.25
245.399	96.25
245.633	70.25
245.866	77.25
246.099	92.25
246.333	92.25
246.566	66.25
246.8	80.25
247.033	65.25
247.266	74.25
247.5	93.25
247.733	85.25
247.966	89.25
248.2	75.25
248.433	94.25
248.666	82.25
248.899	90.25
249.133	86.25
249.366	99.25
249.599	89.25
249.832	72.25
250.066	84.25
250.299	87.25
250.532	92.25
250.765	70.25
250.998	85.25
251.231	82.25
251.465	88.25
251.698	79.25
251.931	71.25
252.164	95.25
252.397	80.25
252.63	79.25
252.863	88.25
253.096	72.25
253.329	73.25
253.562	88.25
253.795	89.25
254.028	87.25
254.261	88.25
254.494	79.25
254.727	89.25
254.96	87.25
255.193	82.25
255.426	76.25
255.659	86.25
255.892	82.25
256.124	78.25
256.357	93.25
256.59	87.25
256.823	73.25
257.056	94.25
257.289	78.25
257.521	74.25
257.754	98.25
257.987	88.25
258.22	75.25
258.452	70.25
258.685	94.25
258.918	92.25
259.151	82.25
259.383	89.25
259.616	75.25
259.849	82.25
260.081	89.25
260.314	72.25
260.547	89.25
260.779	67.25
261.012	82.25
261.244	85.25
261.477	98.25
261.71	105.25
261.942	98.25
262.175	111.25
262.407	97.25
262.64	86.25
262.872	75.25
263.105	81.25
263.337	94.25
263.57	78.25
263.802	85.25
264.035	86.25
264.267	85.25
264.499	71.25
264.732	93.25
264.964	79.25
265.197	96.25
265.429	91.25
265.661	77.25
265.894	72.25
266.126	77.25
266.358	78.25
266.591	70.25
266.823	85.25
267.055	86.25
267.287	88.25
267.52	75.25
267.752	76.25
267.984	77.25
268.216	78.25
268.448	90.25
268.681	87.25
268.913	77.25
269.145	83.25
269.377	80.25
269.609	77.25
269.841	75.25
270.073	87.25
270.306	85.25
270.538	85.25
270.77	91.25
271.002	87.25
271.234	83.25
271.466	96.25
271.698	90.25
271.93	81.25
272.162	77.25
272.394	94.25
272.626	91.25
272.858	79.25
273.09	86.25
273.322	83.25
273.553	80.25
273.785	79.25
274.017	79.25
274.249	81.25
274.481	76.25
274.713	67.25
274.945	75.25
275.176	82.25
275.408	83.25
275.64	95.25
275.872	81.25
276.104	89.25
276.335	86.25
276.567	95.25
276.799	105.25
277.031	113.25
277.262	76.25
277.494	87.25
277.726	91.25
277.957	73.25
278.189	84.25
278.421	77.25
278.652	93.25
278.884	87.25
279.115	83.25
279.347	91.25
279.579	88.25
279.81	71.25
280.042	83.25
280.273	75.25
280.505	94.25
280.736	85.25
280.968	78.25
281.199	91.25
281.431	96.25
281.662	84.25
281.894	87.25
282.125	99.25
282.356	101.25
282.588	149.25
282.819	104.25
283.051	88.25
283.282	91.25
283.513	88.25
283.745	78.25
283.976	77.25
284.207	92.25
284.439	88.25
284.67	89.25
284.901	98.25
285.132	83.25
285.364	78.25
285.595	85.25
285.826	86.25
286.057	93.25
286.288	80.25
286.52	89.25
286.751	82.25
286.982	77.25
287.213	85.25
287.444	97.25
287.675	88.25
287.906	101.25
288.138	87.25
288.369	95.25
288.6	105.25
288.831	78.25
289.062	99.25
289.293	92.25
289.524	104.25
289.755	82.25
289.986	70.25
290.217	88.25
290.448	90.25
290.679	83.25
290.91	104.25
291.141	95.25
291.371	81.25
291.602	85.25
291.833	96.25
292.064	93.25
292.295	88.25
292.526	85.25
292.757	82.25
292.987	93.25
293.218	92.25
293.449	94.25
293.68	80.25
293.91	93.25
294.141	86.25
294.372	79.25
294.603	78.25
294.833	90.25
295.064	82.25
295.295	82.25
295.525	97.25
295.756	99.25
295.987	111.25
296.217	143.25
296.448	118.25
296.679	86.25
296.909	80.25
297.14	93.25
297.37	81.25
297.601	90.25
297.831	84.25
298.062	87.25
298.292	96.25
298.523	83.25
298.753	105.25
298.984	87.25
299.214	104.25
299.445	103.25
299.675	89.25
299.905	105.25
300.136	87.25
300.366	89.25
300.597	77.25
300.827	79.25
301.057	120.25
301.288	103.25
301.518	90.25
301.748	95.25
301.979	90.25
302.209	96.25
302.439	85.25
302.669	98.25
302.9	89.25
303.13	82.25
303.36	93.25
303.59	103.25
303.82	105.25
304.051	86.25
304.281	83.25
304.511	96.25
304.741	94.25
304.971	84.25
305.201	96.25
305.431	108.25
305.661	94.25
305.891	87.25
306.121	98.25
306.352	96.25
306.582	96.25
306.812	83.25
307.042	87.25
307.272	97.25
307.502	98.25
307.731	98.25
307.961	78.25
308.191	83.25
308.421	84.25
308.651	93.25
308.881	88.25
309.111	99.25
309.341	85.25
309.571	103.25
309.8	87.25
310.03	94.25
310.26	102.25
310.49	100.25
310.72	101.25
310.949	92.25
311.179	100.25
311.409	96.25
311.639	99.25
311.868	90.25
312.098	95.25
312.328	110.25
312.557	104.25
312.787	103.25
313.017	97.25
313.246	84.25
313.476	103.25
313.706	112.25
313.935	100.25
314.165	89.25
314.394	100.25
314.624	95.25
314.853	83.25
315.083	78.25
315.312	104.25
315.542	91.25
315.771	96.25
316.001	95.25
316.23	90.25
316.46	92.25
316.689	79.25
316.919	96.25
317.148	105.25
317.377	90.25
317.607	101.25
317.836	93.25
318.065	85.25
318.295	79.25
318.524	77.25
318.753	104.25
318.983	88.25
319.212	93.25
319.441	99.25
319.67	101.25
319.9	90.25
320.129	81.25
320.358	95.25
320.587	90.25
320.816	101.25
321.046	102.25
321.275	106.25
321.504	98.25
321.733	109.25
321.962	91.25
322.191	95.25
322.42	114.25
322.649	92.25
322.878	106.25
323.108	111.25
323.337	127.25
323.566	134.25
323.795	153.25
324.024	209.25
324.253	395.25
324.482	831.25
324.71	1696.25
324.939	2167.25
325.168	819.25
325.397	242.25
325.626	158.25
325.855	148.25
326.084	123.25
326.313	128.25
326.542	141.25
326.77	226.25
326.999	456.25
327.228	931.25
327.457	1673.25
327.686	1311.25
327.914	373.25
328.143	189.25
328.372	145.25
328.6	133.25
328.829	117.25
329.058	130.25
329.287	118.25
329.515	104.25
329.744	104.25
329.972	97.25
330.201	99.25
330.43	119.25
330.658	118.25
330.887	139.25
331.115	103.25
331.344	97.25
331.572	121.25
331.801	106.25
332.03	104.25
332.258	107.25
332.486	90.25
332.715	102.25
332.943	89.25
333.172	87.25
333.4	107.25
333.629	94.25
333.857	109.25
334.085	112.25
334.314	90.25
334.542	97.25
334.771	100.25
334.999	105.25
335.227	102.25
335.455	95.25
335.684	109.25
335.912	85.25
336.14	98.25
336.369	86.25
336.597	91.25
336.825	102.25
337.053	109.25
337.281	111.25
337.51	90.25
337.738	108.25
337.966	89.25
338.194	85.25
338.422	99.25
338.65	109.25
338.878	91.25
339.106	101.25
339.334	90.25
339.562	83.25
339.79	99.25
340.018	90.25
340.246	99.25
340.474	102.25
340.702	90.25
340.93	84.25
341.158	91.25
341.386	108.25
341.614	107.25
341.842	94.25
342.07	87.25
342.298	102.25
342.526	88.25
342.754	111.25
342.981	110.25
343.209	96.25
343.437	104.25
343.665	81.25
343.893	102.25
344.12	95.25
344.348	91.25
344.576	92.25
344.804	101.25
345.031	88.25
345.259	96.25
345.487	84.25
345.714	90.25
345.942	110.25
346.17	86.25
346.397	99.25
346.625	109.25
346.853	91.25
347.08	100.25
347.308	86.25
347.535	101.25
347.763	91.25
347.99	89.25
348.218	113.25
348.445	98.25
348.673	101.25
348.9	78.25
349.128	84.25
349.355	85.25
349.583	89.25
349.81	94.25
350.037	97.25
350.265	81.25
350.492	102.25
350.72	101.25
350.947	104.25
351.174	106.25
351.402	106.25
351.629	99.25
351.856	102.25
352.083	93.25
352.311	113.25
352.538	109.25
352.765	118.25
352.992	112.25
353.22	106.25
353.447	99.25
353.674	90.25
353.901	90.25
354.128	104.25
354.355	110.25
354.583	104.25
354.81	97.25
355.037	100.25
355.264	109.25
355.491	107.25
355.718	104.25
355.945	96.25
356.172	94.25
356.399	105.25
356.626	83.25
356.853	89.25
357.08	85.25
357.307	82.25
357.534	96.25
357.761	103.25
357.988	91.25
358.215	90.25
358.441	95.25
358.668	101.25
358.895	84.25
359.122	84.25
359.349	91.25
359.576	93.25
359.802	99.25
360.029	106.25
360.256	88.25
360.483	102.25
360.709	95.25
360.936	107.25
361.163	88.25
361.39	107.25
361.616	95.25
361.843	89.25
362.07	85.25
362.296	103.25
362.523	101.25
362.749	87.25
362.976	83.25
363.203	81.25
363.429	80.25
363.656	99.25
363.882	88.25
364.109	95.25
364.335	99.25
364.562	87.25
364.788	95.25
365.015	91.25
365.241	106.25
365.468	108.25
365.694	102.25
365.92	105.25
366.147	93.25
366.373	95.25
366.599	91.25
366.826	96.25
367.052	102.25
367.278	100.25
367.505	87.25
367.731	77.25
367.957	98.25
368.184	89.25
368.41	110.25
368.636	101.25
368.862	123.25
369.089	98.25
369.315	87.25
369.541	82.25
369.767	85.25
369.993	102.25
370.219	102.25
370.445	104.25
370.672	102.25
370.898	81.25
371.124	93.25
371.35	73.25
371.576	76.25
371.802	90.25
372.028	79.25
372.254	83.25
372.48	94.25
372.706	89.25
372.932	81.25
373.158	92.25
373.384	98.25
373.61	98.25
373.835	102.25
374.061	90.25
374.287	91.25
374.513	99.25
374.739	89.25
374.965	83.25
375.191	87.25
375.416	93.25
375.642	104.25
375.868	81.25
376.094	89.25
376.319	96.25
376.545	109.25
376.771	87.25
376.997	88.25
377.222	75.25
377.448	92.25
377.674	98.25
377.899	84.25
378.125	99.25
378.35	109.25
378.576	103.25
378.802	77.25
379.027	111.25
379.253	77.25
379.478	91.25
379.704	89.25
379.929	107.25
380.155	95.25
380.38	92.25
380.606	95.25
380.831	89.25
381.057	99.25
381.282	99.25
381.507	104.25
381.733	105.25
381.958	110.25
382.184	103.25
382.409	93.25
382.634	93.25
382.86	97.25
383.085	102.25
383.31	103.25
383.535	109.25
383.761	104.25
383.986	101.25
384.211	89.25
384.436	98.25
384.662	95.25
384.887	99.25
385.112	107.25
385.337	96.25
385.562	87.25
385.787	103.25
386.013	106.25
386.238	107.25
386.463	100.25
386.688	108.25
386.913	105.25
387.138	106.25
387.363	102.25
387.588	116.25
387.813	103.25
388.038	106.25
388.263	119.25
388.488	126.25
388.713	98.25
388.938	97.25
389.163	109.25
389.387	103.25
389.612	90.25
389.837	94.25
390.062	86.25
390.287	88.25
390.512	81.25
390.736	83.25
390.961	89.25
391.186	92.25
391.411	86.25
391.636	86.25
391.86	94.25
392.085	98.25
392.31	79.25
392.534	100.25
392.759	68.25
392.984	106.25
393.208	97.25
393.433	101.25
393.658	88.25
393.882	106.25
394.107	91.25
394.331	90.25
394.556	88.25
394.78	84.25
395.005	84.25
395.229	87.25
395.454	103.25
395.678	91.25
395.903	84.25
396.127	92.25
396.352	75.25
396.576	83.25
396.801	83.25
397.025	89.25
397.249	106.25
397.474	90.25
397.698	87.25
397.922	96.25
398.147	85.25
398.371	103.25
398.595	94.25
398.82	90.25
399.044	88.25
399.268	84.25
399.492	97.25
399.717	104.25
399.941	88.25
400.165	91.25
400.389	98.25
400.613	88.25
400.837	88.25
401.062	91.25
401.286	96.25
401.51	87.25
401.734	87.25
401.958	89.25
402.182	126.25
402.406	159.25
402.63	118.25
402.854	97.25
403.078	91.25
403.302	98.25
403.526	96.25
403.75	99.25
403.974	92.25
404.198	96.25
404.422	86.25
404.645	87.25
404.869	88.25
405.093	93.25
405.317	94.25
405.541	99.25
405.765	98.25
405.988	133.25
406.212	173.25
406.436	209.25
406.66	146.25
406.883	113.25
407.107	91.25
407.331	105.25
407.555	96.25
407.778	96.25
408.002	90.25
408.226	95.25
408.449	88.25
408.673	68.25
408.896	102.25
409.12	98.25
409.344	86.25
409.567	97.25
409.791	105.25
410.014	106.25
410.238	86.25
410.461	94.25
410.685	92.25
410.908	96.25
411.132	99.25
411.355	98.25
411.578	87.25
411.802	107.25
412.025	98.25
412.249	98.25
412.472	87.25
412.695	96.25
412.919	95.25
413.142	89.25
413.365	101.25
413.589	88.25
413.812	92.25
414.035	99.25
414.258	91.25
414.482	96.25
414.705	86.25
414.928	83.25
415.151	95.25
415.374	100.25
415.597	103.25
415.821	102.25
416.044	95.25
416.267	85.25
416.49	90.25
416.713	94.25
416.936	88.25
417.159	88.25
417.382	100.25
417.605	95.25
417.828	108.25
418.051	88.25
418.274	82.25
418.497	82.25
418.72	81.25
418.943	88.25
419.166	102.25
419.389	91.25
419.611	88.25
419.834	89.25
420.057	89.25
420.28	87.25
420.503	88.25
420.726	95.25
420.948	91.25
421.171	102.25
421.394	95.25
421.617	109.25
421.839	81.25
422.062	97.25
422.285	95.25
422.507	94.25
422.73	86.25
422.953	89.25
423.175	85.25
423.398	94.25
423.621	97.25
423.843	100.25
424.066	79.25
424.288	93.25
424.511	89.25
424.733	98.25
424.956	116.25
425.178	101.25
425.401	112.25
425.623	106.25
425.846	96.25
426.068	97.25
426.291	89.25
426.513	102.25
426.735	113.25
426.958	100.25
427.18	111.25
427.402	143.25
427.625	171.25
427.847	135.25
428.069	115.25
428.292	90.25
428.514	95.25
428.736	93.25
428.958	89.25
429.181	100.25
429.403	101.25
429.625	81.25
429.847	88.25
430.069	102.25
430.292	99.25
430.514	87.25
430.736	94.25
430.958	88.25
431.18	86.25
431.402	97.25
431.624	75.25
431.846	91.25
432.068	84.25
432.29	94.25
432.512	94.25
432.734	92.25
432.956	88.25
433.178	98.25
433.4	112.25
433.622	91.25
433.844	100.25
434.066	100.25
434.287	105.25
434.509	78.25
434.731	89.25
434.953	103.25
435.175	95.25
435.397	96.25
435.618	99.25
435.84	102.25
436.062	118.25
436.284	109.25
436.505	98.25
436.727	101.25
436.949	106.25
437.17	98.25
437.392	83.25
437.614	97.25
437.835	96.25
438.057	105.25
438.278	112.25
438.5	98.25
438.721	121.25
438.943	98.25
439.165	97.25
439.386	94.25
439.608	103.25
439.829	99.25
440.05	122.25
440.272	129.25
440.493	99.25
440.715	104.25
440.936	89.25
441.158	70.25
441.379	101.25
441.6	100.25
441.822	89.25
442.043	90.25
442.264	106.25
442.486	87.25
442.707	101.25
442.928	113.25
443.149	122.25
443.371	127.25
443.592	107.25
443.813	110.25
444.034	110.25
444.255	104.25
444.476	105.25
444.698	83.25
444.919	91.25
445.14	146.25
445.361	124.25
445.582	111.25
445.803	115.25
446.024	133.25
446.245	136.25
446.466	121.25
446.687	90.25
446.908	90.25
447.129	85.25
447.35	96.25
447.571	82.25
447.792	95.25
448.013	121.25
448.234	115.25
448.455	98.25
448.675	116.25
448.896	115.25
449.117	104.25
449.338	98.25
449.559	132.25
449.779	121.25
450	103.25
450.221	100.25
450.442	86.25
450.662	98.25
450.883	93.25
451.104	114.25
451.324	98.25
451.545	103.25
451.766	80.25
451.986	80.25
452.207	93.25
452.428	96.25
452.648	101.25
452.869	118.25
453.089	116.25
453.31	113.25
453.53	107.25
453.751	104.25
453.971	119.25
454.192	100.25
454.412	88.25
454.633	83.25
454.853	90.25
455.073	86.25
455.294	88.25
455.514	91.25
455.734	77.25
455.955	101.25
456.175	92.25
456.395	86.25
456.616	94.25
456.836	91.25
457.056	73.25
457.276	82.25
457.497	86.25
457.717	91.25
457.937	92.25
458.157	78.25
458.377	90.25
458.598	114.25
458.818	131.25
459.038	136.25
459.258	125.25
459.478	91.25
459.698	101.25
459.918	91.25
460.138	89.25
460.358	82.25
460.578	99.25
460.798	90.25
461.018	113.25
461.238	103.25
461.458	91.25
461.678	90.25
461.898	89.25
462.118	103.25
462.338	91.25
462.558	82.25
462.777	89.25
462.997	93.25
463.217	94.25
463.437	79.25
463.657	75.25
463.876	95.25
464.096	91.25
464.316	85.25
464.536	99.25
464.755	98.25
464.975	117.25
465.195	167.25
465.414	157.25
465.634	94.25
465.854	96.25
466.073	83.25
466.293	85.25
466.512	92.25
466.732	74.25
466.951	86.25
467.171	98.25
467.391	95.25
467.61	96.25
467.829	106.25
468.049	95.25
468.268	80.25
468.488	83.25
468.707	94.25
468.927	91.25
469.146	93.25
469.365	83.25
469.585	86.25
469.804	100.25
470.023	96.25
470.243	92.25
470.462	106.25
470.681	109.25
470.901	90.25
471.12	97.25
471.339	86.25
471.558	94.25
471.777	84.25
471.997	92.25
472.216	97.25
472.435	103.25
472.654	101.25
472.873	87.25
473.092	98.25
473.311	93.25
473.53	70.25
473.749	98.25
473.968	104.25
474.187	98.25
474.406	96.25
474.625	97.25
474.844	92.25
475.063	94.25
475.282	85.25
475.501	99.25
475.72	96.25
475.939	92.25
476.158	93.25
476.377	79.25
476.596	103.25
476.814	99.25
477.033	104.25
477.252	104.25
477.471	91.25
477.69	79.25
477.908	96.25
478.127	89.25
478.346	91.25
478.564	87.25
478.783	113.25
479.002	86.25
479.22	102.25
479.439	108.25
479.658	97.25
479.876	93.25
480.095	97.25
480.313	84.25
480.532	102.25
480.751	108.25
480.969	92.25
481.188	109.25
481.406	113.25
481.624	102.25
481.843	85.25
482.061	92.25
482.28	93.25
482.498	93.25
482.717	89.25
482.935	101.25
483.153	85.25
483.372	82.25
483.59	108.25
483.808	95.25
484.027	81.25
484.245	84.25
484.463	101.25
484.681	106.25
484.9	102.25
485.118	91.25
485.336	91.25
485.554	104.25
485.772	110.25
485.99	97.25
486.209	104.25
486.427	106.25
486.645	112.25
486.863	106.25
487.081	100.25
487.299	98.25
487.517	102.25
487.735	90.25
487.953	84.25
488.171	84.25
488.389	93.25
488.607	108.25
488.825	95.25
489.043	85.25
489.261	85.25
489.479	85.25
489.696	90.25
489.914	91.25
490.132	100.25
490.35	88.25
490.568	85.25
490.786	86.25
491.003	93.25
491.221	92.25
491.439	80.25
491.657	88.25
491.874	95.25
492.092	99.25
492.31	88.25
492.527	85.25
492.745	77.25
492.963	78.25
493.18	97.25
493.398	92.25
493.615	104.25
493.833	96.25
494.05	104.25
494.268	87.25
494.485	108.25
494.703	95.25
494.92	95.25
495.138	115.25
495.355	103.25
495.573	106.25
495.79	95.25
496.008	97.25
496.225	98.25
496.442	96.25
496.66	98.25
496.877	90.25
497.094	111.25
497.312	95.25
497.529	91.25
497.746	100.25
497.963	93.25
498.181	92.25
498.398	86.25
498.615	104.25
498.832	96.25
499.049	104.25
499.267	104.25
499.484	87.25
499.701	99.25
499.918	84.25
500.135	96.25
500.352	88.25
500.569	82.25
500.786	86.25
501.003	97.25
501.22	95.25
501.437	87.25
501.654	90.25
501.871	99.25
502.088	98.25
502.305	86.25
502.522	89.25
502.739	84.25
502.956	104.25
503.172	94.25
503.389	102.25
503.606	107.25
503.823	103.25
504.04	109.25
504.256	98.25
504.473	106.25
504.69	94.25
504.907	95.25
505.123	107.25
505.34	93.25
505.557	96.25
505.773	105.25
505.99	71.25
506.207	95.25
506.423	100.25
506.64	89.25
506.856	85.25
507.073	92.25
507.289	98.25
507.506	106.25
507.722	115.25
507.939	113.25
508.155	96.25
508.372	101.25
508.588	92.25
508.805	105.25
509.021	84.25
509.238	98.25
509.454	89.25
509.67	93.25
509.887	107.25
510.103	138.25
510.319	215.25
510.536	780.25
510.752	2459.25
510.968	667.25
511.184	168.25
511.401	111.25
511.617	91.25
511.833	87.25
512.049	101.25
512.265	88.25
512.481	82.25
512.698	94.25
512.914	90.25
513.13	109.25
513.346	105.25
513.562	91.25
513.778	105.25
513.994	119.25
514.21	101.25
514.426	113.25
514.642	110.25
514.858	116.25
