Data from Uncirc_2004_H10_HRD10591_00078.txt Node
Date: Wed Jan 03 10:32:28 EST 2024
User: Yrep
Spectrometer: HR+D1059
Trigger mode: 1
Integration Time (sec): 1.000000E-1
Scans to average: 1
Electric dark correction enabled: true
Nonlinearity correction enabled: false
Boxcar width: 0
XAxis mode: Wavelengths
Number of Pixels in Spectrum: 2048
>>>>>Begin Spectral Data<<<<<
223.165	-11.31
223.4	-11.31
223.635	-11.31
223.869	-30.31
224.104	-6.31
224.338	-4.31
224.573	-21.31
224.808	-16.31
225.042	-6.31
225.277	-6.31
225.511	-6.31
225.746	-1.31
225.98	0.69
226.215	15.69
226.449	5.69
226.683	37.69
226.918	22.69
227.152	27.69
227.387	35.69
227.621	37.69
227.856	54.69
228.09	47.69
228.324	62.69
228.559	57.69
228.793	54.69
229.027	66.69
229.262	62.69
229.496	74.69
229.73	77.69
229.964	82.69
230.199	75.69
230.433	68.69
230.667	69.69
230.901	68.69
231.136	69.69
231.37	76.69
231.604	80.69
231.838	73.69
232.072	77.69
232.306	77.69
232.541	83.69
232.775	82.69
233.009	93.69
233.243	76.69
233.477	75.69
233.711	93.69
233.945	84.69
234.179	73.69
234.413	82.69
234.647	73.69
234.881	68.69
235.115	86.69
235.349	82.69
235.583	73.69
235.817	85.69
236.051	80.69
236.285	74.69
236.519	74.69
236.753	83.69
236.987	87.69
237.221	84.69
237.455	82.69
237.689	81.69
237.922	65.69
238.156	60.69
238.39	83.69
238.624	71.69
238.858	63.69
239.091	79.69
239.325	76.69
239.559	77.69
239.793	78.69
240.027	76.69
240.26	75.69
240.494	79.69
240.728	97.69
240.961	76.69
241.195	81.69
241.429	77.69
241.662	81.69
241.896	75.69
242.13	85.69
242.363	81.69
242.597	82.69
242.83	62.69
243.064	55.69
243.298	71.69
243.531	76.69
243.765	84.69
243.998	70.69
244.232	73.69
244.465	70.69
244.699	78.69
244.932	81.69
245.166	71.69
245.399	65.69
245.633	82.69
245.866	77.69
246.099	82.69
246.333	68.69
246.566	75.69
246.8	54.69
247.033	83.69
247.266	73.69
247.5	78.69
247.733	73.69
247.966	76.69
248.2	81.69
248.433	77.69
248.666	67.69
248.899	77.69
249.133	91.69
249.366	92.69
249.599	92.69
249.832	73.69
250.066	88.69
250.299	60.69
250.532	73.69
250.765	79.69
250.998	80.69
251.231	92.69
251.465	68.69
251.698	69.69
251.931	80.69
252.164	84.69
252.397	82.69
252.63	66.69
252.863	78.69
253.096	68.69
253.329	75.69
253.562	72.69
253.795	91.69
254.028	77.69
254.261	83.69
254.494	75.69
254.727	75.69
254.96	93.69
255.193	82.69
255.426	81.69
255.659	75.69
255.892	88.69
256.124	77.69
256.357	75.69
256.59	87.69
256.823	73.69
257.056	83.69
257.289	86.69
257.521	83.69
257.754	69.69
257.987	78.69
258.22	86.69
258.452	75.69
258.685	77.69
258.918	95.69
259.151	82.69
259.383	94.69
259.616	83.69
259.849	75.69
260.081	86.69
260.314	88.69
260.547	73.69
260.779	76.69
261.012	70.69
261.244	88.69
261.477	94.69
261.71	93.69
261.942	116.69
262.175	110.69
262.407	76.69
262.64	84.69
262.872	79.69
263.105	84.69
263.337	89.69
263.57	82.69
263.802	77.69
264.035	77.69
264.267	91.69
264.499	74.69
264.732	71.69
264.964	80.69
265.197	84.69
265.429	86.69
265.661	101.69
265.894	80.69
266.126	72.69
266.358	88.69
266.591	72.69
266.823	75.69
267.055	74.69
267.287	85.69
267.52	79.69
267.752	85.69
267.984	76.69
268.216	90.69
268.448	83.69
268.681	78.69
268.913	93.69
269.145	81.69
269.377	77.69
269.609	67.69
269.841	67.69
270.073	81.69
270.306	94.69
270.538	70.69
270.77	88.69
271.002	84.69
271.234	83.69
271.466	85.69
271.698	84.69
271.93	85.69
272.162	99.69
272.394	75.69
272.626	81.69
272.858	71.69
273.09	83.69
273.322	83.69
273.553	85.69
273.785	90.69
274.017	75.69
274.249	95.69
274.481	82.69
274.713	77.69
274.945	79.69
275.176	71.69
275.408	99.69
275.64	89.69
275.872	77.69
276.104	87.69
276.335	100.69
276.567	95.69
276.799	92.69
277.031	98.69
277.262	102.69
277.494	85.69
277.726	88.69
277.957	81.69
278.189	83.69
278.421	85.69
278.652	96.69
278.884	77.69
279.115	87.69
279.347	86.69
279.579	68.69
279.81	96.69
280.042	90.69
280.273	85.69
280.505	78.69
280.736	76.69
280.968	62.69
281.199	73.69
281.431	86.69
281.662	78.69
281.894	80.69
282.125	84.69
282.356	109.69
282.588	128.69
282.819	123.69
283.051	77.69
283.282	81.69
283.513	93.69
283.745	95.69
283.976	99.69
284.207	96.69
284.439	77.69
284.67	84.69
284.901	83.69
285.132	75.69
285.364	88.69
285.595	79.69
285.826	72.69
286.057	94.69
286.288	78.69
286.52	80.69
286.751	93.69
286.982	83.69
287.213	89.69
287.444	94.69
287.675	79.69
287.906	84.69
288.138	89.69
288.369	96.69
288.6	93.69
288.831	88.69
289.062	86.69
289.293	84.69
289.524	93.69
289.755	95.69
289.986	83.69
290.217	89.69
290.448	94.69
290.679	78.69
290.91	65.69
291.141	76.69
291.371	85.69
291.602	92.69
291.833	93.69
292.064	75.69
292.295	87.69
292.526	88.69
292.757	77.69
292.987	95.69
293.218	98.69
293.449	77.69
293.68	82.69
293.91	81.69
294.141	90.69
294.372	82.69
294.603	97.69
294.833	101.69
295.064	82.69
295.295	81.69
295.525	87.69
295.756	100.69
295.987	116.69
296.217	132.69
296.448	126.69
296.679	81.69
296.909	93.69
297.14	75.69
297.37	93.69
297.601	93.69
297.831	89.69
298.062	87.69
298.292	78.69
298.523	86.69
298.753	73.69
298.984	74.69
299.214	81.69
299.445	93.69
299.675	95.69
299.905	100.69
300.136	110.69
300.366	88.69
300.597	94.69
300.827	83.69
301.057	87.69
301.288	99.69
301.518	81.69
301.748	77.69
301.979	105.69
302.209	84.69
302.439	84.69
302.669	94.69
302.9	78.69
303.13	94.69
303.36	82.69
303.59	97.69
303.82	100.69
304.051	85.69
304.281	70.69
304.511	81.69
304.741	96.69
304.971	78.69
305.201	76.69
305.431	93.69
305.661	89.69
305.891	83.69
306.121	89.69
306.352	90.69
306.582	94.69
306.812	75.69
307.042	81.69
307.272	89.69
307.502	94.69
307.731	99.69
307.961	82.69
308.191	94.69
308.421	96.69
308.651	90.69
308.881	88.69
309.111	95.69
309.341	73.69
309.571	94.69
309.8	108.69
310.03	105.69
310.26	95.69
310.49	81.69
310.72	84.69
310.949	107.69
311.179	85.69
311.409	80.69
311.639	87.69
311.868	114.69
312.098	84.69
312.328	97.69
312.557	89.69
312.787	114.69
313.017	97.69
313.246	102.69
313.476	97.69
313.706	97.69
313.935	88.69
314.165	109.69
314.394	114.69
314.624	97.69
314.853	95.69
315.083	100.69
315.312	85.69
315.542	87.69
315.771	98.69
316.001	89.69
316.23	92.69
316.46	84.69
316.689	86.69
316.919	87.69
317.148	86.69
317.377	91.69
317.607	86.69
317.836	78.69
318.065	90.69
318.295	94.69
318.524	94.69
318.753	96.69
318.983	89.69
319.212	94.69
319.441	102.69
319.67	101.69
319.9	97.69
320.129	83.69
320.358	81.69
320.587	82.69
320.816	93.69
321.046	77.69
321.275	100.69
321.504	109.69
321.733	95.69
321.962	107.69
322.191	87.69
322.42	114.69
322.649	112.69
322.878	106.69
323.108	115.69
323.337	125.69
323.566	152.69
323.795	162.69
324.024	214.69
324.253	393.69
324.482	827.69
324.71	1654.69
324.939	2155.69
325.168	783.69
325.397	250.69
325.626	160.69
325.855	109.69
326.084	121.69
326.313	125.69
326.542	154.69
326.77	221.69
326.999	466.69
327.228	945.69
327.457	1727.69
327.686	1325.69
327.914	357.69
328.143	188.69
328.372	136.69
328.6	132.69
328.829	109.69
329.058	123.69
329.287	118.69
329.515	99.69
329.744	103.69
329.972	104.69
330.201	97.69
330.43	108.69
330.658	121.69
330.887	115.69
331.115	116.69
331.344	102.69
331.572	86.69
331.801	89.69
332.03	93.69
332.258	86.69
332.486	84.69
332.715	91.69
332.943	93.69
333.172	88.69
333.4	87.69
333.629	109.69
333.857	108.69
334.085	93.69
334.314	97.69
334.542	103.69
334.771	103.69
334.999	90.69
335.227	84.69
335.455	98.69
335.684	103.69
335.912	94.69
336.14	82.69
336.369	83.69
336.597	85.69
336.825	97.69
337.053	86.69
337.281	83.69
337.51	103.69
337.738	99.69
337.966	83.69
338.194	88.69
338.422	99.69
338.65	89.69
338.878	76.69
339.106	87.69
339.334	74.69
339.562	87.69
339.79	82.69
340.018	85.69
340.246	85.69
340.474	100.69
340.702	76.69
340.93	93.69
341.158	90.69
341.386	94.69
341.614	92.69
341.842	86.69
342.07	90.69
342.298	93.69
342.526	89.69
342.754	80.69
342.981	87.69
343.209	80.69
343.437	94.69
343.665	91.69
343.893	98.69
344.12	90.69
344.348	79.69
344.576	97.69
344.804	95.69
345.031	103.69
345.259	96.69
345.487	95.69
345.714	85.69
345.942	88.69
346.17	85.69
346.397	100.69
346.625	86.69
346.853	88.69
347.08	92.69
347.308	84.69
347.535	98.69
347.763	95.69
347.99	98.69
348.218	95.69
348.445	97.69
348.673	93.69
348.9	87.69
349.128	99.69
349.355	93.69
349.583	99.69
349.81	98.69
350.037	92.69
350.265	85.69
350.492	97.69
350.72	81.69
350.947	89.69
351.174	106.69
351.402	110.69
351.629	99.69
351.856	103.69
352.083	91.69
352.311	107.69
352.538	102.69
352.765	112.69
352.992	106.69
353.22	109.69
353.447	98.69
353.674	98.69
353.901	101.69
354.128	91.69
354.355	93.69
354.583	108.69
354.81	99.69
355.037	96.69
355.264	80.69
355.491	102.69
355.718	98.69
355.945	96.69
356.172	99.69
356.399	96.69
356.626	96.69
356.853	88.69
357.08	95.69
357.307	108.69
357.534	93.69
357.761	97.69
357.988	91.69
358.215	88.69
358.441	95.69
358.668	82.69
358.895	86.69
359.122	84.69
359.349	75.69
359.576	90.69
359.802	98.69
360.029	98.69
360.256	114.69
360.483	94.69
360.709	77.69
360.936	101.69
361.163	86.69
361.39	90.69
361.616	94.69
361.843	74.69
362.07	79.69
362.296	71.69
362.523	97.69
362.749	94.69
362.976	99.69
363.203	82.69
363.429	90.69
363.656	60.69
363.882	84.69
364.109	81.69
364.335	79.69
364.562	90.69
364.788	89.69
365.015	98.69
365.241	103.69
365.468	102.69
365.694	103.69
365.92	98.69
366.147	81.69
366.373	94.69
366.599	83.69
366.826	93.69
367.052	86.69
367.278	91.69
367.505	89.69
367.731	81.69
367.957	103.69
368.184	102.69
368.41	99.69
368.636	97.69
368.862	108.69
369.089	102.69
369.315	89.69
369.541	86.69
369.767	89.69
369.993	89.69
370.219	94.69
370.445	79.69
370.672	82.69
370.898	97.69
371.124	89.69
371.35	76.69
371.576	81.69
371.802	86.69
372.028	83.69
372.254	82.69
372.48	77.69
372.706	92.69
372.932	92.69
373.158	91.69
373.384	84.69
373.61	95.69
373.835	91.69
374.061	100.69
374.287	90.69
374.513	91.69
374.739	88.69
374.965	77.69
375.191	87.69
375.416	78.69
375.642	93.69
375.868	89.69
376.094	77.69
376.319	82.69
376.545	81.69
376.771	97.69
376.997	84.69
377.222	77.69
377.448	83.69
377.674	84.69
377.899	108.69
378.125	97.69
378.35	84.69
378.576	78.69
378.802	74.69
379.027	88.69
379.253	89.69
379.478	96.69
379.704	85.69
379.929	104.69
380.155	99.69
380.38	88.69
380.606	90.69
380.831	97.69
381.057	101.69
381.282	96.69
381.507	78.69
381.733	100.69
381.958	101.69
382.184	97.69
382.409	92.69
382.634	85.69
382.86	81.69
383.085	91.69
383.31	107.69
383.535	103.69
383.761	92.69
383.986	90.69
384.211	90.69
384.436	94.69
384.662	98.69
384.887	109.69
385.112	95.69
385.337	90.69
385.562	104.69
385.787	97.69
386.013	109.69
386.238	121.69
386.463	102.69
386.688	97.69
386.913	97.69
387.138	90.69
387.363	105.69
387.588	96.69
387.813	90.69
388.038	108.69
388.263	104.69
388.488	108.69
388.713	84.69
388.938	104.69
389.163	99.69
389.387	75.69
389.612	106.69
389.837	83.69
390.062	85.69
390.287	94.69
390.512	98.69
390.736	88.69
390.961	96.69
391.186	103.69
391.411	89.69
391.636	90.69
391.86	64.69
392.085	81.69
392.31	84.69
392.534	83.69
392.759	70.69
392.984	83.69
393.208	85.69
393.433	82.69
393.658	78.69
393.882	73.69
394.107	82.69
394.331	90.69
394.556	90.69
394.78	79.69
395.005	87.69
395.229	77.69
395.454	85.69
395.678	87.69
395.903	81.69
396.127	102.69
396.352	99.69
396.576	80.69
396.801	99.69
397.025	78.69
397.249	95.69
397.474	82.69
397.698	92.69
397.922	76.69
398.147	79.69
398.371	93.69
398.595	97.69
398.82	96.69
399.044	80.69
399.268	78.69
399.492	79.69
399.717	86.69
399.941	95.69
400.165	76.69
400.389	82.69
400.613	77.69
400.837	70.69
401.062	85.69
401.286	101.69
401.51	106.69
401.734	85.69
401.958	84.69
402.182	134.69
402.406	145.69
402.63	122.69
402.854	95.69
403.078	87.69
403.302	87.69
403.526	87.69
403.75	81.69
403.974	89.69
404.198	80.69
404.422	91.69
404.645	85.69
404.869	85.69
405.093	85.69
405.317	90.69
405.541	73.69
405.765	92.69
405.988	100.69
406.212	161.69
406.436	209.69
406.66	150.69
406.883	93.69
407.107	84.69
407.331	95.69
407.555	97.69
407.778	98.69
408.002	94.69
408.226	98.69
408.449	93.69
408.673	90.69
408.896	91.69
409.12	93.69
409.344	82.69
409.567	91.69
409.791	94.69
410.014	100.69
410.238	95.69
410.461	95.69
410.685	103.69
410.908	102.69
411.132	100.69
411.355	96.69
411.578	100.69
411.802	91.69
412.025	67.69
412.249	94.69
412.472	94.69
412.695	89.69
412.919	74.69
413.142	77.69
413.365	77.69
413.589	79.69
413.812	85.69
414.035	99.69
414.258	95.69
414.482	89.69
414.705	90.69
414.928	79.69
415.151	98.69
415.374	81.69
415.597	78.69
415.821	82.69
416.044	82.69
416.267	88.69
416.49	101.69
416.713	86.69
416.936	76.69
417.159	81.69
417.382	86.69
417.605	92.69
417.828	95.69
418.051	93.69
418.274	65.69
418.497	85.69
418.72	62.69
418.943	75.69
419.166	105.69
419.389	100.69
419.611	94.69
419.834	91.69
420.057	77.69
420.28	82.69
420.503	82.69
420.726	76.69
420.948	102.69
421.171	83.69
421.394	85.69
421.617	93.69
421.839	95.69
422.062	90.69
422.285	97.69
422.507	107.69
422.73	84.69
422.953	99.69
423.175	87.69
423.398	99.69
423.621	84.69
423.843	85.69
424.066	77.69
424.288	76.69
424.511	100.69
424.733	92.69
424.956	100.69
425.178	94.69
425.401	92.69
425.623	94.69
425.846	84.69
426.068	77.69
426.291	82.69
426.513	111.69
426.735	94.69
426.958	102.69
427.18	93.69
427.402	144.69
427.625	169.69
427.847	115.69
428.069	106.69
428.292	82.69
428.514	99.69
428.736	92.69
428.958	92.69
429.181	78.69
429.403	78.69
429.625	75.69
429.847	99.69
430.069	97.69
430.292	75.69
430.514	102.69
430.736	81.69
430.958	91.69
431.18	73.69
431.402	87.69
431.624	75.69
431.846	93.69
432.068	91.69
432.29	94.69
432.512	81.69
432.734	92.69
432.956	95.69
433.178	91.69
433.4	94.69
433.622	97.69
433.844	90.69
434.066	87.69
434.287	77.69
434.509	89.69
434.731	92.69
434.953	95.69
435.175	79.69
435.397	82.69
435.618	84.69
435.84	88.69
436.062	109.69
436.284	103.69
436.505	96.69
436.727	98.69
436.949	102.69
437.17	100.69
437.392	92.69
437.614	94.69
437.835	108.69
438.057	109.69
438.278	98.69
438.5	92.69
438.721	108.69
438.943	92.69
439.165	90.69
439.386	84.69
439.608	78.69
439.829	106.69
440.05	118.69
440.272	121.69
440.493	81.69
440.715	82.69
440.936	87.69
441.158	86.69
441.379	102.69
441.6	95.69
441.822	88.69
442.043	87.69
442.264	81.69
442.486	94.69
442.707	97.69
442.928	97.69
443.149	109.69
443.371	136.69
443.592	99.69
443.813	100.69
444.034	99.69
444.255	97.69
444.476	87.69
444.698	86.69
444.919	103.69
445.14	134.69
445.361	122.69
445.582	114.69
445.803	123.69
446.024	125.69
446.245	117.69
446.466	110.69
446.687	91.69
446.908	106.69
447.129	85.69
447.35	86.69
447.571	91.69
447.792	88.69
448.013	90.69
448.234	99.69
448.455	107.69
448.675	105.69
448.896	119.69
449.117	97.69
449.338	110.69
449.559	130.69
449.779	145.69
450	87.69
450.221	69.69
450.442	79.69
450.662	96.69
450.883	108.69
451.104	102.69
451.324	77.69
451.545	80.69
451.766	85.69
451.986	82.69
452.207	94.69
452.428	90.69
452.648	82.69
452.869	111.69
453.089	114.69
453.31	98.69
453.53	89.69
453.751	92.69
453.971	98.69
454.192	96.69
454.412	82.69
454.633	86.69
454.853	87.69
455.073	85.69
455.294	84.69
455.514	85.69
455.734	86.69
455.955	87.69
456.175	77.69
456.395	88.69
456.616	89.69
456.836	71.69
457.056	85.69
457.276	82.69
457.497	85.69
457.717	80.69
457.937	81.69
458.157	78.69
458.377	90.69
458.598	104.69
458.818	140.69
459.038	151.69
459.258	94.69
459.478	91.69
459.698	96.69
459.918	91.69
460.138	79.69
460.358	90.69
460.578	66.69
460.798	84.69
461.018	86.69
461.238	75.69
461.458	83.69
461.678	98.69
461.898	105.69
462.118	86.69
462.338	80.69
462.558	79.69
462.777	73.69
462.997	76.69
463.217	75.69
463.437	79.69
463.657	91.69
463.876	87.69
464.096	77.69
464.316	85.69
464.536	103.69
464.755	90.69
464.975	106.69
465.195	151.69
465.414	143.69
465.634	105.69
465.854	92.69
466.073	82.69
466.293	96.69
466.512	66.69
466.732	88.69
466.951	83.69
467.171	91.69
467.391	82.69
467.61	106.69
467.829	82.69
468.049	88.69
468.268	93.69
468.488	83.69
468.707	87.69
468.927	92.69
469.146	85.69
469.365	85.69
469.585	81.69
469.804	115.69
470.023	86.69
470.243	95.69
470.462	85.69
470.681	102.69
470.901	86.69
471.12	95.69
471.339	79.69
471.558	91.69
471.777	73.69
471.997	81.69
472.216	105.69
472.435	87.69
472.654	86.69
472.873	87.69
473.092	85.69
473.311	93.69
473.53	75.69
473.749	84.69
473.968	97.69
474.187	85.69
474.406	82.69
474.625	95.69
474.844	92.69
475.063	94.69
475.282	86.69
475.501	85.69
475.72	65.69
475.939	88.69
476.158	77.69
476.377	76.69
476.596	88.69
476.814	77.69
477.033	69.69
477.252	98.69
477.471	93.69
477.69	87.69
477.908	97.69
478.127	80.69
478.346	73.69
478.564	83.69
478.783	96.69
479.002	100.69
479.22	105.69
479.439	91.69
479.658	96.69
479.876	94.69
480.095	87.69
480.313	76.69
480.532	97.69
480.751	93.69
480.969	86.69
481.188	125.69
481.406	107.69
481.624	78.69
481.843	78.69
482.061	63.69
482.28	94.69
482.498	91.69
482.717	100.69
482.935	83.69
483.153	94.69
483.372	102.69
483.59	78.69
483.808	80.69
484.027	92.69
484.245	77.69
484.463	88.69
484.681	93.69
484.9	90.69
485.118	96.69
485.336	97.69
485.554	84.69
485.772	86.69
485.99	87.69
486.209	99.69
486.427	95.69
486.645	103.69
486.863	112.69
487.081	97.69
487.299	93.69
487.517	80.69
487.735	81.69
487.953	94.69
488.171	102.69
488.389	91.69
488.607	85.69
488.825	87.69
489.043	85.69
489.261	92.69
489.479	93.69
489.696	102.69
489.914	81.69
490.132	86.69
490.35	89.69
490.568	80.69
490.786	94.69
491.003	80.69
491.221	87.69
491.439	97.69
491.657	99.69
491.874	87.69
492.092	80.69
492.31	99.69
492.527	98.69
492.745	73.69
492.963	82.69
493.18	88.69
493.398	84.69
493.615	83.69
493.833	88.69
494.05	80.69
494.268	96.69
494.485	88.69
494.703	78.69
494.92	90.69
495.138	79.69
495.355	96.69
495.573	89.69
495.79	97.69
496.008	101.69
496.225	95.69
496.442	99.69
496.66	91.69
496.877	90.69
497.094	79.69
497.312	95.69
497.529	84.69
497.746	79.69
497.963	81.69
498.181	92.69
498.398	92.69
498.615	110.69
498.832	103.69
499.049	86.69
499.267	90.69
499.484	88.69
499.701	102.69
499.918	103.69
500.135	97.69
500.352	85.69
500.569	81.69
500.786	85.69
501.003	91.69
501.22	78.69
501.437	91.69
501.654	100.69
501.871	103.69
502.088	86.69
502.305	85.69
502.522	94.69
502.739	85.69
502.956	100.69
503.172	91.69
503.389	93.69
503.606	99.69
503.823	87.69
504.04	97.69
504.256	83.69
504.473	72.69
504.69	84.69
504.907	93.69
505.123	75.69
505.34	94.69
505.557	90.69
505.773	90.69
505.99	94.69
506.207	83.69
506.423	90.69
506.64	90.69
506.856	76.69
507.073	87.69
507.289	105.69
507.506	93.69
507.722	112.69
507.939	102.69
508.155	110.69
508.372	94.69
508.588	93.69
508.805	97.69
509.021	91.69
509.238	95.69
509.454	104.69
509.67	99.69
509.887	108.69
510.103	129.69
510.319	205.69
510.536	802.69
510.752	2374.69
510.968	673.69
511.184	153.69
511.401	118.69
511.617	100.69
511.833	95.69
512.049	85.69
512.265	93.69
512.481	106.69
512.698	86.69
512.914	105.69
513.13	114.69
513.346	92.69
513.562	95.69
513.778	93.69
513.994	99.69
514.21	93.69
514.426	112.69
514.642	131.69
514.858	114.69
515.074	169.69
515.29	442.69
515.506	1470.69
515.721	547.69
515.937	142.69
516.153	107.69
516.369	100.69
516.585	97.69
