Data from Uncirc_2004_H10_HRD10591_00052.txt Node
Date: Wed Jan 03 10:32:23 EST 2024
User: Yrep
Spectrometer: HR+D1059
Trigger mode: 1
Integration Time (sec): 1.000000E-1
Scans to average: 1
Electric dark correction enabled: true
Nonlinearity correction enabled: false
Boxcar width: 0
XAxis mode: Wavelengths
Number of Pixels in Spectrum: 2048
>>>>>Begin Spectral Data<<<<<
223.165	-13.31
223.4	-13.31
223.635	-13.31
223.869	-30.31
224.104	-22.31
224.338	-20.31
224.573	-19.31
224.808	-25.31
225.042	-13.31
225.277	2.69
225.511	-6.31
225.746	10.69
225.98	15.69
226.215	21.69
226.449	14.69
226.683	23.69
226.918	33.69
227.152	27.69
227.387	34.69
227.621	36.69
227.856	36.69
228.09	37.69
228.324	50.69
228.559	69.69
228.793	56.69
229.027	42.69
229.262	62.69
229.496	53.69
229.73	69.69
229.964	86.69
230.199	82.69
230.433	69.69
230.667	70.69
230.901	67.69
231.136	59.69
231.37	75.69
231.604	82.69
231.838	66.69
232.072	74.69
232.306	78.69
232.541	71.69
232.775	82.69
233.009	66.69
233.243	82.69
233.477	80.69
233.711	85.69
233.945	74.69
234.179	74.69
234.413	74.69
234.647	80.69
234.881	69.69
235.115	67.69
235.349	87.69
235.583	75.69
235.817	78.69
236.051	77.69
236.285	69.69
236.519	77.69
236.753	74.69
236.987	69.69
237.221	62.69
237.455	77.69
237.689	73.69
237.922	70.69
238.156	87.69
238.39	70.69
238.624	65.69
238.858	62.69
239.091	70.69
239.325	57.69
239.559	73.69
239.793	87.69
240.027	84.69
240.26	76.69
240.494	92.69
240.728	78.69
240.961	67.69
241.195	73.69
241.429	67.69
241.662	86.69
241.896	78.69
242.13	69.69
242.363	81.69
242.597	78.69
242.83	74.69
243.064	74.69
243.298	74.69
243.531	75.69
243.765	60.69
243.998	83.69
244.232	58.69
244.465	68.69
244.699	83.69
244.932	77.69
245.166	76.69
245.399	79.69
245.633	70.69
245.866	81.69
246.099	85.69
246.333	55.69
246.566	63.69
246.8	73.69
247.033	73.69
247.266	81.69
247.5	63.69
247.733	69.69
247.966	81.69
248.2	89.69
248.433	83.69
248.666	86.69
248.899	68.69
249.133	77.69
249.366	96.69
249.599	101.69
249.832	86.69
250.066	83.69
250.299	79.69
250.532	79.69
250.765	76.69
250.998	73.69
251.231	79.69
251.465	81.69
251.698	78.69
251.931	84.69
252.164	84.69
252.397	63.69
252.63	83.69
252.863	80.69
253.096	58.69
253.329	79.69
253.562	63.69
253.795	85.69
254.028	84.69
254.261	85.69
254.494	79.69
254.727	78.69
254.96	75.69
255.193	78.69
255.426	74.69
255.659	65.69
255.892	81.69
256.124	73.69
256.357	91.69
256.59	86.69
256.823	76.69
257.056	72.69
257.289	80.69
257.521	70.69
257.754	67.69
257.987	82.69
258.22	75.69
258.452	85.69
258.685	81.69
258.918	71.69
259.151	59.69
259.383	78.69
259.616	74.69
259.849	77.69
260.081	86.69
260.314	82.69
260.547	71.69
260.779	80.69
261.012	87.69
261.244	73.69
261.477	80.69
261.71	85.69
261.942	113.69
262.175	109.69
262.407	84.69
262.64	81.69
262.872	68.69
263.105	90.69
263.337	86.69
263.57	84.69
263.802	70.69
264.035	77.69
264.267	85.69
264.499	78.69
264.732	74.69
264.964	77.69
265.197	79.69
265.429	74.69
265.661	74.69
265.894	72.69
266.126	81.69
266.358	78.69
266.591	89.69
266.823	69.69
267.055	68.69
267.287	85.69
267.52	85.69
267.752	66.69
267.984	70.69
268.216	65.69
268.448	76.69
268.681	85.69
268.913	77.69
269.145	71.69
269.377	79.69
269.609	69.69
269.841	81.69
270.073	95.69
270.306	78.69
270.538	77.69
270.77	74.69
271.002	92.69
271.234	94.69
271.466	84.69
271.698	85.69
271.93	83.69
272.162	89.69
272.394	93.69
272.626	82.69
272.858	83.69
273.09	86.69
273.322	89.69
273.553	85.69
273.785	79.69
274.017	87.69
274.249	76.69
274.481	82.69
274.713	84.69
274.945	86.69
275.176	87.69
275.408	87.69
275.64	84.69
275.872	82.69
276.104	79.69
276.335	87.69
276.567	94.69
276.799	108.69
277.031	93.69
277.262	90.69
277.494	87.69
277.726	66.69
277.957	84.69
278.189	95.69
278.421	88.69
278.652	90.69
278.884	90.69
279.115	78.69
279.347	83.69
279.579	69.69
279.81	69.69
280.042	87.69
280.273	82.69
280.505	78.69
280.736	86.69
280.968	90.69
281.199	83.69
281.431	75.69
281.662	93.69
281.894	93.69
282.125	83.69
282.356	115.69
282.588	111.69
282.819	90.69
283.051	80.69
283.282	82.69
283.513	83.69
283.745	86.69
283.976	81.69
284.207	74.69
284.439	84.69
284.67	89.69
284.901	95.69
285.132	75.69
285.364	74.69
285.595	86.69
285.826	83.69
286.057	78.69
286.288	90.69
286.52	83.69
286.751	73.69
286.982	75.69
287.213	92.69
287.444	68.69
287.675	83.69
287.906	74.69
288.138	81.69
288.369	73.69
288.6	83.69
288.831	89.69
289.062	83.69
289.293	87.69
289.524	78.69
289.755	74.69
289.986	90.69
290.217	82.69
290.448	70.69
290.679	77.69
290.91	79.69
291.141	79.69
291.371	75.69
291.602	74.69
291.833	82.69
292.064	78.69
292.295	93.69
292.526	82.69
292.757	89.69
292.987	90.69
293.218	103.69
293.449	81.69
293.68	79.69
293.91	85.69
294.141	82.69
294.372	85.69
294.603	81.69
294.833	85.69
295.064	94.69
295.295	99.69
295.525	91.69
295.756	90.69
295.987	104.69
296.217	130.69
296.448	129.69
296.679	95.69
296.909	94.69
297.14	73.69
297.37	80.69
297.601	74.69
297.831	94.69
298.062	90.69
298.292	89.69
298.523	95.69
298.753	86.69
298.984	85.69
299.214	80.69
299.445	76.69
299.675	84.69
299.905	80.69
300.136	78.69
300.366	81.69
300.597	79.69
300.827	97.69
301.057	98.69
301.288	95.69
301.518	85.69
301.748	94.69
301.979	97.69
302.209	80.69
302.439	72.69
302.669	74.69
302.9	88.69
303.13	91.69
303.36	95.69
303.59	94.69
303.82	107.69
304.051	102.69
304.281	87.69
304.511	93.69
304.741	75.69
304.971	66.69
305.201	89.69
305.431	96.69
305.661	93.69
305.891	78.69
306.121	92.69
306.352	91.69
306.582	107.69
306.812	103.69
307.042	84.69
307.272	76.69
307.502	91.69
307.731	91.69
307.961	85.69
308.191	84.69
308.421	99.69
308.651	70.69
308.881	86.69
309.111	94.69
309.341	83.69
309.571	91.69
309.8	95.69
310.03	87.69
310.26	95.69
310.49	87.69
310.72	88.69
310.949	105.69
311.179	87.69
311.409	81.69
311.639	83.69
311.868	88.69
312.098	91.69
312.328	91.69
312.557	98.69
312.787	100.69
313.017	90.69
313.246	95.69
313.476	75.69
313.706	84.69
313.935	94.69
314.165	98.69
314.394	94.69
314.624	85.69
314.853	87.69
315.083	100.69
315.312	100.69
315.542	83.69
315.771	92.69
316.001	86.69
316.23	80.69
316.46	86.69
316.689	95.69
316.919	86.69
317.148	80.69
317.377	80.69
317.607	91.69
317.836	92.69
318.065	94.69
318.295	92.69
318.524	100.69
318.753	99.69
318.983	99.69
319.212	88.69
319.441	97.69
319.67	105.69
319.9	100.69
320.129	78.69
320.358	100.69
320.587	99.69
320.816	96.69
321.046	90.69
321.275	90.69
321.504	86.69
321.733	86.69
321.962	84.69
322.191	80.69
322.42	91.69
322.649	116.69
322.878	97.69
323.108	109.69
323.337	110.69
323.566	117.69
323.795	145.69
324.024	183.69
324.253	369.69
324.482	812.69
324.71	1589.69
324.939	2120.69
325.168	783.69
325.397	211.69
325.626	137.69
325.855	126.69
326.084	106.69
326.313	130.69
326.542	144.69
326.77	201.69
326.999	443.69
327.228	918.69
327.457	1631.69
327.686	1291.69
327.914	365.69
328.143	164.69
328.372	146.69
328.6	123.69
328.829	113.69
329.058	124.69
329.287	127.69
329.515	115.69
329.744	103.69
329.972	103.69
330.201	112.69
330.43	120.69
330.658	107.69
330.887	115.69
331.115	106.69
331.344	102.69
331.572	91.69
331.801	89.69
332.03	101.69
332.258	92.69
332.486	97.69
332.715	68.69
332.943	98.69
333.172	96.69
333.4	97.69
333.629	93.69
333.857	116.69
334.085	100.69
334.314	117.69
334.542	98.69
334.771	107.69
334.999	111.69
335.227	105.69
335.455	92.69
335.684	84.69
335.912	77.69
336.14	91.69
336.369	86.69
336.597	96.69
336.825	91.69
337.053	87.69
337.281	85.69
337.51	92.69
337.738	84.69
337.966	86.69
338.194	104.69
338.422	83.69
338.65	85.69
338.878	87.69
339.106	87.69
339.334	105.69
339.562	86.69
339.79	94.69
340.018	82.69
340.246	87.69
340.474	95.69
340.702	83.69
340.93	87.69
341.158	94.69
341.386	102.69
341.614	88.69
341.842	102.69
342.07	92.69
342.298	95.69
342.526	80.69
342.754	93.69
342.981	84.69
343.209	85.69
343.437	107.69
343.665	82.69
343.893	83.69
344.12	88.69
344.348	102.69
344.576	84.69
344.804	99.69
345.031	86.69
345.259	97.69
345.487	86.69
345.714	88.69
345.942	84.69
346.17	82.69
346.397	95.69
346.625	92.69
346.853	102.69
347.08	111.69
347.308	92.69
347.535	83.69
347.763	86.69
347.99	99.69
348.218	106.69
348.445	97.69
348.673	100.69
348.9	82.69
349.128	97.69
349.355	80.69
349.583	83.69
349.81	77.69
350.037	84.69
350.265	97.69
350.492	80.69
350.72	75.69
350.947	99.69
351.174	98.69
351.402	102.69
351.629	95.69
351.856	94.69
352.083	85.69
352.311	118.69
352.538	111.69
352.765	100.69
352.992	108.69
353.22	103.69
353.447	99.69
353.674	98.69
353.901	98.69
354.128	89.69
354.355	81.69
354.583	83.69
354.81	87.69
355.037	100.69
355.264	77.69
355.491	87.69
355.718	83.69
355.945	90.69
356.172	98.69
356.399	99.69
356.626	90.69
356.853	85.69
357.08	95.69
357.307	84.69
357.534	93.69
357.761	106.69
357.988	102.69
358.215	99.69
358.441	92.69
358.668	93.69
358.895	86.69
359.122	85.69
359.349	81.69
359.576	93.69
359.802	101.69
360.029	115.69
360.256	73.69
360.483	93.69
360.709	83.69
360.936	78.69
361.163	82.69
361.39	103.69
361.616	94.69
361.843	86.69
362.07	91.69
362.296	95.69
362.523	81.69
362.749	91.69
362.976	84.69
363.203	72.69
363.429	95.69
363.656	82.69
363.882	85.69
364.109	79.69
364.335	85.69
364.562	87.69
364.788	93.69
365.015	89.69
365.241	97.69
365.468	114.69
365.694	90.69
365.92	95.69
366.147	90.69
366.373	84.69
366.599	105.69
366.826	96.69
367.052	92.69
367.278	80.69
367.505	88.69
367.731	90.69
367.957	87.69
368.184	90.69
368.41	89.69
368.636	101.69
368.862	109.69
369.089	106.69
369.315	98.69
369.541	93.69
369.767	104.69
369.993	73.69
370.219	73.69
370.445	85.69
370.672	89.69
370.898	77.69
371.124	78.69
371.35	85.69
371.576	87.69
371.802	80.69
372.028	69.69
372.254	92.69
372.48	84.69
372.706	76.69
372.932	94.69
373.158	87.69
373.384	91.69
373.61	84.69
373.835	95.69
374.061	86.69
374.287	101.69
374.513	86.69
374.739	97.69
374.965	75.69
375.191	84.69
375.416	91.69
375.642	81.69
375.868	93.69
376.094	90.69
376.319	75.69
376.545	91.69
376.771	90.69
376.997	90.69
377.222	87.69
377.448	88.69
377.674	99.69
377.899	69.69
378.125	75.69
378.35	83.69
378.576	113.69
378.802	91.69
379.027	98.69
379.253	92.69
379.478	101.69
379.704	89.69
379.929	92.69
380.155	87.69
380.38	87.69
380.606	98.69
380.831	81.69
381.057	97.69
381.282	108.69
381.507	92.69
381.733	90.69
381.958	93.69
382.184	98.69
382.409	101.69
382.634	105.69
382.86	93.69
383.085	81.69
383.31	82.69
383.535	101.69
383.761	93.69
383.986	88.69
384.211	99.69
384.436	90.69
384.662	82.69
384.887	100.69
385.112	102.69
385.337	108.69
385.562	103.69
385.787	114.69
386.013	91.69
386.238	117.69
386.463	103.69
386.688	101.69
386.913	95.69
387.138	93.69
387.363	93.69
387.588	91.69
387.813	89.69
388.038	102.69
388.263	101.69
388.488	102.69
388.713	108.69
388.938	91.69
389.163	95.69
389.387	87.69
389.612	101.69
389.837	83.69
390.062	82.69
390.287	79.69
390.512	83.69
390.736	81.69
390.961	91.69
391.186	79.69
391.411	99.69
391.636	102.69
391.86	81.69
392.085	75.69
392.31	93.69
392.534	72.69
392.759	74.69
392.984	86.69
393.208	83.69
393.433	86.69
393.658	82.69
393.882	83.69
394.107	95.69
394.331	101.69
394.556	80.69
394.78	90.69
395.005	80.69
395.229	78.69
395.454	92.69
395.678	89.69
395.903	83.69
396.127	78.69
396.352	77.69
396.576	81.69
396.801	93.69
397.025	70.69
397.249	98.69
397.474	83.69
397.698	83.69
397.922	90.69
398.147	84.69
398.371	84.69
398.595	62.69
398.82	74.69
399.044	80.69
399.268	74.69
399.492	83.69
399.717	80.69
399.941	93.69
400.165	96.69
400.389	84.69
400.613	81.69
400.837	86.69
401.062	86.69
401.286	89.69
401.51	84.69
401.734	77.69
401.958	94.69
402.182	117.69
402.406	137.69
402.63	110.69
402.854	82.69
403.078	82.69
403.302	77.69
403.526	70.69
403.75	92.69
403.974	82.69
404.198	96.69
404.422	93.69
404.645	77.69
404.869	97.69
405.093	86.69
405.317	84.69
405.541	83.69
405.765	89.69
405.988	102.69
406.212	157.69
406.436	204.69
406.66	139.69
406.883	93.69
407.107	97.69
407.331	70.69
407.555	94.69
407.778	89.69
408.002	86.69
408.226	78.69
408.449	97.69
408.673	77.69
408.896	85.69
409.12	91.69
409.344	77.69
409.567	82.69
409.791	89.69
410.014	111.69
410.238	112.69
410.461	92.69
410.685	70.69
410.908	95.69
411.132	85.69
411.355	86.69
411.578	97.69
411.802	91.69
412.025	69.69
412.249	89.69
412.472	95.69
412.695	86.69
412.919	94.69
413.142	84.69
413.365	93.69
413.589	99.69
413.812	94.69
414.035	97.69
414.258	84.69
414.482	92.69
414.705	99.69
414.928	93.69
415.151	99.69
415.374	98.69
415.597	80.69
415.821	82.69
416.044	85.69
416.267	86.69
416.49	84.69
416.713	74.69
416.936	82.69
417.159	72.69
417.382	94.69
417.605	87.69
417.828	79.69
418.051	89.69
418.274	75.69
418.497	84.69
418.72	79.69
418.943	89.69
419.166	97.69
419.389	85.69
419.611	79.69
419.834	82.69
420.057	80.69
420.28	95.69
420.503	81.69
420.726	93.69
420.948	82.69
421.171	103.69
421.394	92.69
421.617	102.69
421.839	84.69
422.062	76.69
422.285	89.69
422.507	82.69
422.73	98.69
422.953	87.69
423.175	99.69
423.398	87.69
423.621	85.69
423.843	79.69
424.066	77.69
424.288	94.69
424.511	90.69
424.733	99.69
424.956	90.69
425.178	81.69
425.401	88.69
425.623	107.69
425.846	90.69
426.068	96.69
426.291	87.69
426.513	91.69
426.735	88.69
426.958	87.69
427.18	98.69
427.402	117.69
427.625	134.69
427.847	123.69
428.069	98.69
428.292	86.69
428.514	84.69
428.736	74.69
428.958	73.69
429.181	86.69
429.403	83.69
429.625	77.69
429.847	89.69
430.069	99.69
430.292	86.69
430.514	78.69
430.736	83.69
430.958	75.69
431.18	88.69
431.402	76.69
431.624	81.69
431.846	85.69
432.068	86.69
432.29	74.69
432.512	91.69
432.734	86.69
432.956	78.69
433.178	93.69
433.4	90.69
433.622	88.69
433.844	90.69
434.066	91.69
434.287	90.69
434.509	87.69
434.731	89.69
434.953	84.69
435.175	94.69
435.397	81.69
435.618	79.69
435.84	88.69
436.062	123.69
436.284	113.69
436.505	109.69
436.727	98.69
436.949	95.69
437.17	107.69
437.392	84.69
437.614	90.69
437.835	99.69
438.057	119.69
438.278	99.69
438.5	101.69
438.721	112.69
438.943	84.69
439.165	86.69
439.386	97.69
439.608	81.69
439.829	98.69
440.05	115.69
440.272	131.69
440.493	102.69
440.715	70.69
440.936	96.69
441.158	73.69
441.379	80.69
441.6	89.69
441.822	89.69
442.043	81.69
442.264	91.69
442.486	90.69
442.707	94.69
442.928	100.69
443.149	109.69
443.371	129.69
443.592	108.69
443.813	107.69
444.034	103.69
444.255	107.69
444.476	80.69
444.698	85.69
444.919	90.69
445.14	123.69
445.361	129.69
445.582	92.69
445.803	124.69
446.024	110.69
446.245	129.69
446.466	102.69
446.687	88.69
446.908	95.69
447.129	81.69
447.35	83.69
447.571	94.69
447.792	87.69
448.013	117.69
448.234	105.69
448.455	94.69
448.675	97.69
448.896	114.69
449.117	91.69
449.338	98.69
449.559	114.69
449.779	102.69
450	95.69
450.221	78.69
450.442	94.69
450.662	103.69
450.883	105.69
451.104	110.69
451.324	82.69
451.545	93.69
451.766	89.69
451.986	92.69
452.207	86.69
452.428	89.69
452.648	110.69
452.869	90.69
453.089	110.69
453.31	110.69
453.53	76.69
453.751	86.69
453.971	102.69
454.192	100.69
454.412	94.69
454.633	86.69
454.853	89.69
455.073	82.69
455.294	93.69
455.514	101.69
455.734	86.69
455.955	85.69
456.175	81.69
456.395	91.69
456.616	68.69
456.836	93.69
457.056	84.69
457.276	78.69
457.497	93.69
457.717	85.69
457.937	83.69
458.157	85.69
458.377	85.69
458.598	101.69
458.818	144.69
459.038	142.69
459.258	108.69
459.478	87.69
459.698	95.69
459.918	78.69
460.138	86.69
460.358	77.69
460.578	89.69
460.798	87.69
461.018	93.69
461.238	87.69
461.458	90.69
461.678	74.69
461.898	91.69
462.118	89.69
462.338	82.69
462.558	101.69
462.777	87.69
462.997	78.69
463.217	79.69
463.437	91.69
463.657	75.69
463.876	91.69
464.096	93.69
464.316	85.69
464.536	95.69
464.755	93.69
464.975	101.69
465.195	148.69
465.414	141.69
465.634	87.69
465.854	97.69
466.073	83.69
466.293	80.69
466.512	75.69
466.732	81.69
466.951	75.69
467.171	85.69
467.391	85.69
467.61	93.69
467.829	87.69
468.049	82.69
468.268	88.69
468.488	78.69
468.707	87.69
468.927	80.69
469.146	73.69
469.365	93.69
469.585	75.69
469.804	87.69
470.023	96.69
470.243	85.69
470.462	103.69
470.681	108.69
470.901	94.69
471.12	81.69
471.339	86.69
471.558	105.69
471.777	88.69
471.997	90.69
472.216	93.69
472.435	99.69
472.654	91.69
472.873	88.69
473.092	73.69
473.311	95.69
473.53	83.69
473.749	81.69
473.968	97.69
474.187	100.69
474.406	79.69
474.625	83.69
474.844	77.69
475.063	82.69
475.282	82.69
475.501	82.69
475.72	89.69
475.939	85.69
476.158	84.69
476.377	75.69
476.596	84.69
476.814	90.69
477.033	83.69
477.252	92.69
477.471	98.69
477.69	89.69
477.908	78.69
478.127	107.69
478.346	83.69
478.564	88.69
478.783	106.69
479.002	84.69
479.22	100.69
479.439	101.69
479.658	115.69
479.876	97.69
480.095	74.69
480.313	82.69
480.532	103.69
480.751	86.69
480.969	103.69
481.188	103.69
481.406	92.69
481.624	101.69
481.843	87.69
482.061	86.69
482.28	88.69
482.498	86.69
482.717	81.69
482.935	95.69
483.153	65.69
483.372	86.69
483.59	85.69
483.808	89.69
484.027	83.69
484.245	93.69
484.463	92.69
484.681	100.69
484.9	78.69
485.118	99.69
485.336	89.69
485.554	86.69
485.772	70.69
485.99	105.69
486.209	101.69
486.427	99.69
486.645	116.69
486.863	107.69
487.081	84.69
487.299	84.69
487.517	98.69
487.735	85.69
487.953	89.69
488.171	86.69
488.389	99.69
488.607	85.69
488.825	87.69
489.043	90.69
489.261	101.69
489.479	79.69
489.696	80.69
489.914	83.69
490.132	78.69
490.35	103.69
490.568	93.69
490.786	98.69
491.003	95.69
491.221	92.69
491.439	90.69
491.657	90.69
491.874	99.69
492.092	88.69
492.31	97.69
492.527	92.69
492.745	87.69
492.963	85.69
493.18	86.69
493.398	91.69
493.615	99.69
493.833	88.69
494.05	77.69
494.268	88.69
494.485	88.69
494.703	82.69
494.92	97.69
495.138	87.69
495.355	93.69
495.573	96.69
495.79	105.69
496.008	102.69
496.225	103.69
496.442	88.69
496.66	91.69
496.877	96.69
497.094	84.69
497.312	92.69
497.529	69.69
497.746	104.69
497.963	89.69
498.181	96.69
498.398	94.69
498.615	110.69
498.832	105.69
499.049	83.69
499.267	103.69
499.484	93.69
499.701	90.69
499.918	82.69
500.135	95.69
500.352	100.69
500.569	76.69
500.786	91.69
501.003	76.69
501.22	84.69
501.437	104.69
501.654	85.69
501.871	86.69
502.088	94.69
502.305	86.69
502.522	92.69
502.739	89.69
502.956	96.69
503.172	88.69
503.389	87.69
503.606	98.69
503.823	89.69
504.04	92.69
504.256	95.69
504.473	92.69
504.69	84.69
504.907	81.69
505.123	83.69
505.34	77.69
505.557	95.69
505.773	86.69
505.99	97.69
506.207	96.69
506.423	86.69
506.64	98.69
506.856	94.69
507.073	98.69
507.289	100.69
507.506	100.69
507.722	112.69
507.939	102.69
508.155	79.69
508.372	82.69
508.588	91.69
508.805	100.69
509.021	88.69
509.238	89.69
509.454	110.69
509.67	90.69
509.887	107.69
510.103	141.69
510.319	217.69
510.536	774.69
510.752	2395.69
510.968	671.69
511.184	151.69
511.401	106.69
511.617	83.69
511.833	82.69
512.049	106.69
512.265	87.69
512.481	96.69
512.698	95.69
512.914	86.69
513.13	107.69
513.346	81.69
513.562	106.69
513.778	89.69
513.994	106.69
514.21	98.69
514.426	106.69
514.642	132.69
514.858	102.69
515.074	158.69
515.29	430.69
515.506	1423.69
515.721	530.69
515.937	148.69
516.153	108.69
516.369	87.69
516.585	100.69
516.801	91.69
