Data from Uncirc_2004_H10_HRD10591_00089.txt Node
Date: Wed Jan 03 10:32:30 EST 2024
User: Yrep
Spectrometer: HR+D1059
Trigger mode: 1
Integration Time (sec): 1.000000E-1
Scans to average: 1
Electric dark correction enabled: true
Nonlinearity correction enabled: false
Boxcar width: 0
XAxis mode: Wavelengths
Number of Pixels in Spectrum: 2048
>>>>>Begin Spectral Data<<<<<
223.165	-26.44
223.4	-26.44
223.635	-26.44
223.869	-20.44
224.104	-30.44
224.338	-17.44
224.573	-10.44
224.808	4.56
225.042	3.56
225.277	2.56
225.511	16.56
225.746	3.56
225.98	-2.44
226.215	3.56
226.449	1.56
226.683	12.56
226.918	35.56
227.152	23.56
227.387	29.56
227.621	35.56
227.856	53.56
228.09	55.56
228.324	46.56
228.559	59.56
228.793	61.56
229.027	59.56
229.262	73.56
229.496	82.56
229.73	73.56
229.964	82.56
230.199	72.56
230.433	61.56
230.667	69.56
230.901	85.56
231.136	90.56
231.37	84.56
231.604	74.56
231.838	74.56
232.072	63.56
232.306	84.56
232.541	82.56
232.775	83.56
233.009	78.56
233.243	75.56
233.477	78.56
233.711	80.56
233.945	89.56
234.179	86.56
234.413	62.56
234.647	67.56
234.881	75.56
235.115	85.56
235.349	87.56
235.583	74.56
235.817	73.56
236.051	71.56
236.285	71.56
236.519	66.56
236.753	83.56
236.987	69.56
237.221	68.56
237.455	76.56
237.689	67.56
237.922	84.56
238.156	67.56
238.39	85.56
238.624	77.56
238.858	75.56
239.091	71.56
239.325	70.56
239.559	71.56
239.793	71.56
240.027	83.56
240.26	74.56
240.494	84.56
240.728	63.56
240.961	89.56
241.195	69.56
241.429	75.56
241.662	68.56
241.896	81.56
242.13	65.56
242.363	75.56
242.597	67.56
242.83	67.56
243.064	79.56
243.298	79.56
243.531	71.56
243.765	77.56
243.998	65.56
244.232	70.56
244.465	81.56
244.699	78.56
244.932	67.56
245.166	79.56
245.399	73.56
245.633	85.56
245.866	84.56
246.099	75.56
246.333	80.56
246.566	82.56
246.8	80.56
247.033	76.56
247.266	80.56
247.5	69.56
247.733	79.56
247.966	86.56
248.2	72.56
248.433	80.56
248.666	81.56
248.899	93.56
249.133	69.56
249.366	91.56
249.599	105.56
249.832	81.56
250.066	74.56
250.299	76.56
250.532	93.56
250.765	86.56
250.998	78.56
251.231	73.56
251.465	74.56
251.698	71.56
251.931	78.56
252.164	86.56
252.397	73.56
252.63	85.56
252.863	75.56
253.096	68.56
253.329	90.56
253.562	79.56
253.795	75.56
254.028	71.56
254.261	73.56
254.494	80.56
254.727	92.56
254.96	76.56
255.193	74.56
255.426	81.56
255.659	77.56
255.892	98.56
256.124	79.56
256.357	77.56
256.59	84.56
256.823	80.56
257.056	77.56
257.289	69.56
257.521	62.56
257.754	67.56
257.987	63.56
258.22	77.56
258.452	85.56
258.685	67.56
258.918	83.56
259.151	75.56
259.383	74.56
259.616	75.56
259.849	74.56
260.081	90.56
260.314	71.56
260.547	75.56
260.779	75.56
261.012	70.56
261.244	77.56
261.477	87.56
261.71	91.56
261.942	112.56
262.175	99.56
262.407	89.56
262.64	86.56
262.872	75.56
263.105	81.56
263.337	74.56
263.57	76.56
263.802	97.56
264.035	81.56
264.267	75.56
264.499	67.56
264.732	87.56
264.964	66.56
265.197	73.56
265.429	84.56
265.661	77.56
265.894	75.56
266.126	89.56
266.358	80.56
266.591	75.56
266.823	66.56
267.055	88.56
267.287	77.56
267.52	86.56
267.752	79.56
267.984	85.56
268.216	90.56
268.448	68.56
268.681	77.56
268.913	86.56
269.145	72.56
269.377	90.56
269.609	85.56
269.841	75.56
270.073	82.56
270.306	79.56
270.538	73.56
270.77	84.56
271.002	77.56
271.234	83.56
271.466	75.56
271.698	74.56
271.93	88.56
272.162	78.56
272.394	94.56
272.626	89.56
272.858	68.56
273.09	80.56
273.322	78.56
273.553	67.56
273.785	67.56
274.017	76.56
274.249	84.56
274.481	87.56
274.713	72.56
274.945	77.56
275.176	95.56
275.408	76.56
275.64	78.56
275.872	85.56
276.104	81.56
276.335	95.56
276.567	99.56
276.799	96.56
277.031	84.56
277.262	80.56
277.494	97.56
277.726	77.56
277.957	80.56
278.189	79.56
278.421	77.56
278.652	92.56
278.884	88.56
279.115	83.56
279.347	87.56
279.579	90.56
279.81	93.56
280.042	82.56
280.273	98.56
280.505	85.56
280.736	81.56
280.968	93.56
281.199	77.56
281.431	87.56
281.662	83.56
281.894	88.56
282.125	87.56
282.356	116.56
282.588	128.56
282.819	107.56
283.051	76.56
283.282	85.56
283.513	61.56
283.745	90.56
283.976	84.56
284.207	81.56
284.439	77.56
284.67	94.56
284.901	81.56
285.132	69.56
285.364	91.56
285.595	87.56
285.826	86.56
286.057	76.56
286.288	80.56
286.52	90.56
286.751	76.56
286.982	73.56
287.213	84.56
287.444	81.56
287.675	78.56
287.906	90.56
288.138	85.56
288.369	77.56
288.6	87.56
288.831	70.56
289.062	74.56
289.293	90.56
289.524	78.56
289.755	87.56
289.986	87.56
290.217	94.56
290.448	75.56
290.679	86.56
290.91	88.56
291.141	88.56
291.371	91.56
291.602	82.56
291.833	91.56
292.064	85.56
292.295	91.56
292.526	91.56
292.757	90.56
292.987	90.56
293.218	86.56
293.449	77.56
293.68	86.56
293.91	76.56
294.141	82.56
294.372	84.56
294.603	82.56
294.833	87.56
295.064	85.56
295.295	98.56
295.525	91.56
295.756	90.56
295.987	113.56
296.217	123.56
296.448	124.56
296.679	91.56
296.909	73.56
297.14	87.56
297.37	84.56
297.601	82.56
297.831	86.56
298.062	82.56
298.292	78.56
298.523	95.56
298.753	95.56
298.984	83.56
299.214	77.56
299.445	87.56
299.675	81.56
299.905	82.56
300.136	100.56
300.366	93.56
300.597	90.56
300.827	98.56
301.057	88.56
301.288	105.56
301.518	79.56
301.748	86.56
301.979	109.56
302.209	93.56
302.439	72.56
302.669	84.56
302.9	95.56
303.13	81.56
303.36	89.56
303.59	107.56
303.82	111.56
304.051	108.56
304.281	92.56
304.511	85.56
304.741	95.56
304.971	76.56
305.201	81.56
305.431	73.56
305.661	79.56
305.891	100.56
306.121	94.56
306.352	99.56
306.582	99.56
306.812	80.56
307.042	84.56
307.272	93.56
307.502	86.56
307.731	112.56
307.961	98.56
308.191	93.56
308.421	78.56
308.651	85.56
308.881	85.56
309.111	98.56
309.341	90.56
309.571	101.56
309.8	95.56
310.03	95.56
310.26	94.56
310.49	89.56
310.72	95.56
310.949	94.56
311.179	81.56
311.409	77.56
311.639	96.56
311.868	100.56
312.098	90.56
312.328	84.56
312.557	94.56
312.787	110.56
313.017	98.56
313.246	104.56
313.476	108.56
313.706	77.56
313.935	85.56
314.165	94.56
314.394	95.56
314.624	101.56
314.853	99.56
315.083	78.56
315.312	81.56
315.542	82.56
315.771	104.56
316.001	86.56
316.23	96.56
316.46	110.56
316.689	57.56
316.919	89.56
317.148	98.56
317.377	85.56
317.607	81.56
317.836	91.56
318.065	93.56
318.295	77.56
318.524	89.56
318.753	97.56
318.983	95.56
319.212	109.56
319.441	105.56
319.67	116.56
319.9	100.56
320.129	81.56
320.358	94.56
320.587	86.56
320.816	90.56
321.046	96.56
321.275	90.56
321.504	98.56
321.733	101.56
321.962	103.56
322.191	98.56
322.42	83.56
322.649	117.56
322.878	112.56
323.108	114.56
323.337	120.56
323.566	125.56
323.795	145.56
324.024	179.56
324.253	395.56
324.482	783.56
324.71	1620.56
324.939	2055.56
325.168	751.56
325.397	252.56
325.626	159.56
325.855	128.56
326.084	105.56
326.313	131.56
326.542	141.56
326.77	235.56
326.999	434.56
327.228	895.56
327.457	1607.56
327.686	1245.56
327.914	343.56
328.143	176.56
328.372	158.56
328.6	118.56
328.829	110.56
329.058	126.56
329.287	114.56
329.515	103.56
329.744	99.56
329.972	93.56
330.201	91.56
330.43	108.56
330.658	120.56
330.887	141.56
331.115	118.56
331.344	103.56
331.572	102.56
331.801	103.56
332.03	97.56
332.258	99.56
332.486	86.56
332.715	93.56
332.943	87.56
333.172	79.56
333.4	80.56
333.629	97.56
333.857	115.56
334.085	103.56
334.314	91.56
334.542	107.56
334.771	106.56
334.999	92.56
335.227	96.56
335.455	103.56
335.684	78.56
335.912	103.56
336.14	90.56
336.369	83.56
336.597	93.56
336.825	84.56
337.053	81.56
337.281	97.56
337.51	88.56
337.738	81.56
337.966	86.56
338.194	73.56
338.422	91.56
338.65	98.56
338.878	84.56
339.106	96.56
339.334	108.56
339.562	97.56
339.79	89.56
340.018	100.56
340.246	105.56
340.474	85.56
340.702	85.56
340.93	83.56
341.158	92.56
341.386	80.56
341.614	84.56
341.842	86.56
342.07	85.56
342.298	82.56
342.526	84.56
342.754	83.56
342.981	82.56
343.209	82.56
343.437	94.56
343.665	84.56
343.893	86.56
344.12	85.56
344.348	74.56
344.576	104.56
344.804	95.56
345.031	99.56
345.259	84.56
345.487	90.56
345.714	85.56
345.942	86.56
346.17	76.56
346.397	90.56
346.625	79.56
346.853	102.56
347.08	95.56
347.308	98.56
347.535	95.56
347.763	98.56
347.99	84.56
348.218	105.56
348.445	95.56
348.673	97.56
348.9	98.56
349.128	87.56
349.355	93.56
349.583	79.56
349.81	91.56
350.037	87.56
350.265	93.56
350.492	93.56
350.72	89.56
350.947	87.56
351.174	110.56
351.402	120.56
351.629	100.56
351.856	108.56
352.083	99.56
352.311	98.56
352.538	115.56
352.765	94.56
352.992	95.56
353.22	111.56
353.447	97.56
353.674	90.56
353.901	106.56
354.128	87.56
354.355	87.56
354.583	96.56
354.81	106.56
355.037	107.56
355.264	84.56
355.491	86.56
355.718	77.56
355.945	79.56
356.172	95.56
356.399	92.56
356.626	100.56
356.853	102.56
357.08	93.56
357.307	97.56
357.534	90.56
357.761	85.56
357.988	85.56
358.215	84.56
358.441	74.56
358.668	89.56
358.895	94.56
359.122	91.56
359.349	81.56
359.576	100.56
359.802	105.56
360.029	102.56
360.256	114.56
360.483	94.56
360.709	92.56
360.936	98.56
361.163	96.56
361.39	90.56
361.616	89.56
361.843	86.56
362.07	94.56
362.296	95.56
362.523	90.56
362.749	91.56
362.976	99.56
363.203	97.56
363.429	97.56
363.656	84.56
363.882	94.56
364.109	99.56
364.335	85.56
364.562	98.56
364.788	91.56
365.015	113.56
365.241	109.56
365.468	105.56
365.694	96.56
365.92	100.56
366.147	80.56
366.373	92.56
366.599	82.56
366.826	89.56
367.052	84.56
367.278	77.56
367.505	93.56
367.731	82.56
367.957	75.56
368.184	78.56
368.41	97.56
368.636	104.56
368.862	110.56
369.089	93.56
369.315	77.56
369.541	94.56
369.767	89.56
369.993	82.56
370.219	93.56
370.445	90.56
370.672	86.56
370.898	78.56
371.124	88.56
371.35	81.56
371.576	94.56
371.802	88.56
372.028	93.56
372.254	85.56
372.48	78.56
372.706	97.56
372.932	97.56
373.158	101.56
373.384	90.56
373.61	84.56
373.835	69.56
374.061	89.56
374.287	83.56
374.513	82.56
374.739	78.56
374.965	97.56
375.191	81.56
375.416	90.56
375.642	90.56
375.868	82.56
376.094	94.56
376.319	85.56
376.545	85.56
376.771	67.56
376.997	77.56
377.222	83.56
377.448	71.56
377.674	86.56
377.899	97.56
378.125	95.56
378.35	80.56
378.576	87.56
378.802	86.56
379.027	87.56
379.253	86.56
379.478	78.56
379.704	91.56
379.929	75.56
380.155	98.56
380.38	92.56
380.606	95.56
380.831	81.56
381.057	101.56
381.282	84.56
381.507	95.56
381.733	98.56
381.958	94.56
382.184	94.56
382.409	83.56
382.634	99.56
382.86	81.56
383.085	108.56
383.31	94.56
383.535	72.56
383.761	97.56
383.986	102.56
384.211	100.56
384.436	93.56
384.662	98.56
384.887	98.56
385.112	91.56
385.337	101.56
385.562	110.56
385.787	95.56
386.013	118.56
386.238	103.56
386.463	98.56
386.688	123.56
386.913	95.56
387.138	102.56
387.363	106.56
387.588	103.56
387.813	102.56
388.038	97.56
388.263	106.56
388.488	107.56
388.713	92.56
388.938	81.56
389.163	93.56
389.387	103.56
389.612	88.56
389.837	78.56
390.062	102.56
390.287	95.56
390.512	92.56
390.736	101.56
390.961	99.56
391.186	89.56
391.411	89.56
391.636	87.56
391.86	93.56
392.085	78.56
392.31	89.56
392.534	89.56
392.759	85.56
392.984	86.56
393.208	83.56
393.433	98.56
393.658	89.56
393.882	91.56
394.107	69.56
394.331	87.56
394.556	92.56
394.78	89.56
395.005	87.56
395.229	75.56
395.454	82.56
395.678	79.56
395.903	83.56
396.127	80.56
396.352	87.56
396.576	82.56
396.801	79.56
397.025	82.56
397.249	84.56
397.474	93.56
397.698	81.56
397.922	93.56
398.147	90.56
398.371	79.56
398.595	89.56
398.82	76.56
399.044	93.56
399.268	82.56
399.492	85.56
399.717	83.56
399.941	78.56
400.165	87.56
400.389	92.56
400.613	86.56
400.837	89.56
401.062	82.56
401.286	89.56
401.51	91.56
401.734	77.56
401.958	84.56
402.182	130.56
402.406	165.56
402.63	121.56
402.854	87.56
403.078	73.56
403.302	83.56
403.526	94.56
403.75	82.56
403.974	80.56
404.198	101.56
404.422	81.56
404.645	81.56
404.869	89.56
405.093	95.56
405.317	92.56
405.541	95.56
405.765	96.56
405.988	123.56
406.212	164.56
406.436	222.56
406.66	127.56
406.883	99.56
407.107	90.56
407.331	77.56
407.555	99.56
407.778	90.56
408.002	93.56
408.226	82.56
408.449	81.56
408.673	85.56
408.896	89.56
409.12	83.56
409.344	92.56
409.567	91.56
409.791	81.56
410.014	78.56
410.238	97.56
410.461	87.56
410.685	73.56
410.908	102.56
411.132	114.56
411.355	87.56
411.578	95.56
411.802	77.56
412.025	98.56
412.249	89.56
412.472	97.56
412.695	94.56
412.919	91.56
413.142	87.56
413.365	82.56
413.589	75.56
413.812	84.56
414.035	85.56
414.258	85.56
414.482	95.56
414.705	91.56
414.928	93.56
415.151	94.56
415.374	105.56
415.597	86.56
415.821	98.56
416.044	80.56
416.267	97.56
416.49	86.56
416.713	99.56
416.936	91.56
417.159	83.56
417.382	102.56
417.605	82.56
417.828	82.56
418.051	86.56
418.274	91.56
418.497	90.56
418.72	82.56
418.943	89.56
419.166	87.56
419.389	78.56
419.611	76.56
419.834	77.56
420.057	93.56
420.28	93.56
420.503	88.56
420.726	83.56
420.948	80.56
421.171	88.56
421.394	84.56
421.617	97.56
421.839	101.56
422.062	79.56
422.285	86.56
422.507	84.56
422.73	84.56
422.953	88.56
423.175	76.56
423.398	92.56
423.621	93.56
423.843	93.56
424.066	84.56
424.288	87.56
424.511	89.56
424.733	88.56
424.956	95.56
425.178	106.56
425.401	91.56
425.623	100.56
425.846	87.56
426.068	92.56
426.291	83.56
426.513	97.56
426.735	95.56
426.958	94.56
427.18	81.56
427.402	118.56
427.625	151.56
427.847	128.56
428.069	100.56
428.292	79.56
428.514	89.56
428.736	89.56
428.958	85.56
429.181	86.56
429.403	80.56
429.625	96.56
429.847	94.56
430.069	94.56
430.292	88.56
430.514	75.56
430.736	79.56
430.958	102.56
431.18	87.56
431.402	64.56
431.624	77.56
431.846	98.56
432.068	86.56
432.29	78.56
432.512	83.56
432.734	86.56
432.956	92.56
433.178	99.56
433.4	90.56
433.622	75.56
433.844	106.56
434.066	80.56
434.287	101.56
434.509	93.56
434.731	91.56
434.953	91.56
435.175	84.56
435.397	80.56
435.618	93.56
435.84	112.56
436.062	105.56
436.284	106.56
436.505	100.56
436.727	108.56
436.949	88.56
437.17	95.56
437.392	92.56
437.614	92.56
437.835	99.56
438.057	96.56
438.278	96.56
438.5	87.56
438.721	114.56
438.943	95.56
439.165	99.56
439.386	86.56
439.608	76.56
439.829	88.56
440.05	103.56
440.272	121.56
440.493	86.56
440.715	78.56
440.936	99.56
441.158	79.56
441.379	76.56
441.6	84.56
441.822	92.56
442.043	91.56
442.264	108.56
442.486	97.56
442.707	100.56
442.928	91.56
443.149	125.56
443.371	125.56
443.592	110.56
443.813	106.56
444.034	104.56
444.255	87.56
444.476	78.56
444.698	87.56
444.919	89.56
445.14	123.56
445.361	115.56
445.582	101.56
445.803	121.56
446.024	134.56
446.245	135.56
446.466	87.56
446.687	82.56
446.908	86.56
447.129	92.56
447.35	87.56
447.571	89.56
447.792	85.56
448.013	102.56
448.234	101.56
448.455	100.56
448.675	105.56
448.896	109.56
449.117	86.56
449.338	96.56
449.559	109.56
449.779	122.56
450	77.56
450.221	93.56
450.442	85.56
450.662	88.56
450.883	79.56
451.104	102.56
451.324	92.56
451.545	82.56
451.766	82.56
451.986	78.56
452.207	87.56
452.428	93.56
452.648	91.56
452.869	92.56
453.089	101.56
453.31	111.56
453.53	94.56
453.751	84.56
453.971	79.56
454.192	106.56
454.412	85.56
454.633	97.56
454.853	94.56
455.073	75.56
455.294	87.56
455.514	101.56
455.734	82.56
455.955	92.56
456.175	84.56
456.395	63.56
456.616	82.56
456.836	82.56
457.056	78.56
457.276	81.56
457.497	75.56
457.717	86.56
457.937	80.56
458.157	79.56
458.377	87.56
458.598	96.56
458.818	143.56
459.038	145.56
459.258	110.56
459.478	93.56
459.698	91.56
459.918	90.56
460.138	82.56
460.358	86.56
460.578	71.56
460.798	97.56
461.018	86.56
461.238	85.56
461.458	98.56
461.678	89.56
461.898	70.56
462.118	77.56
462.338	76.56
462.558	82.56
462.777	85.56
462.997	80.56
463.217	70.56
463.437	75.56
463.657	91.56
463.876	89.56
464.096	91.56
464.316	84.56
464.536	92.56
464.755	90.56
464.975	100.56
465.195	157.56
465.414	147.56
465.634	100.56
465.854	79.56
466.073	97.56
466.293	78.56
466.512	81.56
466.732	71.56
466.951	81.56
467.171	85.56
467.391	100.56
467.61	109.56
467.829	94.56
468.049	79.56
468.268	81.56
468.488	86.56
468.707	85.56
468.927	76.56
469.146	74.56
469.365	82.56
469.585	84.56
469.804	105.56
470.023	80.56
470.243	91.56
470.462	99.56
470.681	114.56
470.901	90.56
471.12	99.56
471.339	86.56
471.558	79.56
471.777	96.56
471.997	86.56
472.216	85.56
472.435	88.56
472.654	89.56
472.873	87.56
473.092	87.56
473.311	75.56
473.53	104.56
473.749	84.56
473.968	91.56
474.187	98.56
474.406	98.56
474.625	74.56
474.844	80.56
475.063	85.56
475.282	82.56
475.501	89.56
475.72	84.56
475.939	77.56
476.158	89.56
476.377	81.56
476.596	92.56
476.814	82.56
477.033	91.56
477.252	93.56
477.471	91.56
477.69	97.56
477.908	82.56
478.127	82.56
478.346	94.56
478.564	85.56
478.783	83.56
479.002	93.56
479.22	95.56
479.439	100.56
479.658	115.56
479.876	94.56
480.095	90.56
480.313	98.56
480.532	88.56
480.751	89.56
480.969	91.56
481.188	117.56
481.406	95.56
481.624	81.56
481.843	97.56
482.061	84.56
482.28	95.56
482.498	68.56
482.717	71.56
482.935	78.56
483.153	81.56
483.372	90.56
483.59	88.56
483.808	81.56
484.027	103.56
484.245	89.56
484.463	90.56
484.681	94.56
484.9	91.56
485.118	87.56
485.336	97.56
485.554	103.56
485.772	87.56
485.99	98.56
486.209	108.56
486.427	103.56
486.645	104.56
486.863	97.56
487.081	102.56
487.299	97.56
487.517	89.56
487.735	85.56
487.953	82.56
488.171	77.56
488.389	97.56
488.607	102.56
488.825	91.56
489.043	85.56
489.261	90.56
489.479	86.56
489.696	87.56
489.914	85.56
490.132	99.56
490.35	92.56
490.568	93.56
490.786	79.56
491.003	69.56
491.221	73.56
491.439	89.56
491.657	95.56
491.874	90.56
492.092	91.56
492.31	84.56
492.527	97.56
492.745	92.56
492.963	94.56
493.18	84.56
493.398	75.56
493.615	103.56
493.833	97.56
494.05	85.56
494.268	94.56
494.485	96.56
494.703	98.56
494.92	94.56
495.138	96.56
495.355	83.56
495.573	79.56
495.79	84.56
496.008	72.56
496.225	95.56
496.442	91.56
496.66	89.56
496.877	73.56
497.094	93.56
497.312	84.56
497.529	91.56
497.746	96.56
497.963	78.56
498.181	85.56
498.398	88.56
498.615	105.56
498.832	89.56
499.049	84.56
499.267	88.56
499.484	85.56
499.701	79.56
499.918	88.56
500.135	101.56
500.352	93.56
500.569	76.56
500.786	93.56
501.003	90.56
501.22	90.56
501.437	82.56
501.654	85.56
501.871	106.56
502.088	84.56
502.305	84.56
502.522	86.56
502.739	87.56
502.956	91.56
503.172	98.56
503.389	87.56
503.606	89.56
503.823	97.56
504.04	86.56
504.256	95.56
504.473	80.56
504.69	81.56
504.907	89.56
505.123	86.56
505.34	82.56
505.557	84.56
505.773	88.56
505.99	85.56
506.207	82.56
506.423	92.56
506.64	86.56
506.856	81.56
507.073	98.56
507.289	97.56
507.506	90.56
507.722	112.56
507.939	86.56
508.155	86.56
508.372	80.56
508.588	89.56
508.805	91.56
509.021	97.56
509.238	100.56
509.454	95.56
509.67	106.56
509.887	107.56
510.103	128.56
510.319	218.56
510.536	761.56
510.752	2421.56
510.968	681.56
511.184	151.56
511.401	108.56
511.617	101.56
511.833	80.56
512.049	99.56
512.265	85.56
512.481	91.56
512.698	89.56
512.914	98.56
513.13	96.56
513.346	76.56
513.562	94.56
513.778	90.56
513.994	92.56
514.21	91.56
514.426	108.56
514.642	120.56
514.858	112.56
515.074	161.56
515.29	438.56
515.506	1398.56
515.721	527.56
515.937	129.56
516.153	103.56
516.369	96.56
516.585	100.56
516.801	78.56
517.016	106.56
