Data from Uncirc_2004_H10_HRD10591_00042.txt Node
Date: Wed Jan 03 10:32:21 EST 2024
User: Yrep
Spectrometer: HR+D1059
Trigger mode: 1
Integration Time (sec): 1.000000E-1
Scans to average: 1
Electric dark correction enabled: true
Nonlinearity correction enabled: false
Boxcar width: 0
XAxis mode: Wavelengths
Number of Pixels in Spectrum: 2048
>>>>>Begin Spectral Data<<<<<
223.165	-13.69
223.4	-13.69
223.635	-13.69
223.869	-19.69
224.104	-16.69
224.338	-14.69
224.573	-14.69
224.808	6.31
225.042	-8.69
225.277	-10.69
225.511	0.31
225.746	-4.69
225.98	0.31
226.215	18.31
226.449	22.31
226.683	18.31
226.918	10.31
227.152	27.31
227.387	32.31
227.621	28.31
227.856	39.31
228.09	43.31
228.324	54.31
228.559	45.31
228.793	52.31
229.027	67.31
229.262	63.31
229.496	62.31
229.73	81.31
229.964	87.31
230.199	73.31
230.433	86.31
230.667	70.31
230.901	70.31
231.136	71.31
231.37	72.31
231.604	87.31
231.838	79.31
232.072	73.31
232.306	81.31
232.541	70.31
232.775	78.31
233.009	80.31
233.243	65.31
233.477	67.31
233.711	85.31
233.945	82.31
234.179	74.31
234.413	84.31
234.647	70.31
234.881	58.31
235.115	90.31
235.349	75.31
235.583	72.31
235.817	85.31
236.051	72.31
236.285	78.31
236.519	71.31
236.753	73.31
236.987	77.31
237.221	97.31
237.455	65.31
237.689	69.31
237.922	70.31
238.156	70.31
238.39	80.31
238.624	74.31
238.858	73.31
239.091	70.31
239.325	81.31
239.559	79.31
239.793	83.31
240.027	86.31
240.26	82.31
240.494	92.31
240.728	71.31
240.961	79.31
241.195	74.31
241.429	81.31
241.662	79.31
241.896	82.31
242.13	62.31
242.363	66.31
242.597	53.31
242.83	69.31
243.064	88.31
243.298	83.31
243.531	73.31
243.765	81.31
243.998	87.31
244.232	70.31
244.465	83.31
244.699	78.31
244.932	65.31
245.166	76.31
245.399	75.31
245.633	78.31
245.866	68.31
246.099	62.31
246.333	64.31
246.566	68.31
246.8	66.31
247.033	67.31
247.266	74.31
247.5	75.31
247.733	86.31
247.966	74.31
248.2	78.31
248.433	76.31
248.666	79.31
248.899	78.31
249.133	80.31
249.366	90.31
249.599	97.31
249.832	75.31
250.066	61.31
250.299	66.31
250.532	77.31
250.765	74.31
250.998	58.31
251.231	59.31
251.465	78.31
251.698	83.31
251.931	70.31
252.164	69.31
252.397	82.31
252.63	83.31
252.863	81.31
253.096	69.31
253.329	83.31
253.562	80.31
253.795	79.31
254.028	70.31
254.261	81.31
254.494	71.31
254.727	81.31
254.96	78.31
255.193	73.31
255.426	73.31
255.659	83.31
255.892	82.31
256.124	73.31
256.357	70.31
256.59	79.31
256.823	78.31
257.056	73.31
257.289	73.31
257.521	79.31
257.754	67.31
257.987	76.31
258.22	76.31
258.452	85.31
258.685	85.31
258.918	85.31
259.151	85.31
259.383	86.31
259.616	78.31
259.849	84.31
260.081	83.31
260.314	91.31
260.547	83.31
260.779	81.31
261.012	75.31
261.244	76.31
261.477	90.31
261.71	84.31
261.942	109.31
262.175	101.31
262.407	95.31
262.64	84.31
262.872	85.31
263.105	64.31
263.337	84.31
263.57	81.31
263.802	77.31
264.035	83.31
264.267	77.31
264.499	78.31
264.732	82.31
264.964	75.31
265.197	80.31
265.429	88.31
265.661	79.31
265.894	73.31
266.126	87.31
266.358	78.31
266.591	73.31
266.823	82.31
267.055	82.31
267.287	83.31
267.52	77.31
267.752	85.31
267.984	77.31
268.216	63.31
268.448	91.31
268.681	86.31
268.913	78.31
269.145	70.31
269.377	85.31
269.609	93.31
269.841	88.31
270.073	85.31
270.306	98.31
270.538	76.31
270.77	68.31
271.002	76.31
271.234	81.31
271.466	77.31
271.698	81.31
271.93	83.31
272.162	84.31
272.394	85.31
272.626	82.31
272.858	92.31
273.09	69.31
273.322	87.31
273.553	83.31
273.785	79.31
274.017	94.31
274.249	82.31
274.481	85.31
274.713	87.31
274.945	86.31
275.176	71.31
275.408	73.31
275.64	71.31
275.872	84.31
276.104	93.31
276.335	85.31
276.567	87.31
276.799	106.31
277.031	87.31
277.262	89.31
277.494	84.31
277.726	97.31
277.957	75.31
278.189	81.31
278.421	76.31
278.652	81.31
278.884	77.31
279.115	60.31
279.347	86.31
279.579	65.31
279.81	89.31
280.042	79.31
280.273	85.31
280.505	79.31
280.736	88.31
280.968	81.31
281.199	80.31
281.431	72.31
281.662	87.31
281.894	85.31
282.125	85.31
282.356	113.31
282.588	128.31
282.819	99.31
283.051	62.31
283.282	83.31
283.513	92.31
283.745	87.31
283.976	79.31
284.207	78.31
284.439	97.31
284.67	77.31
284.901	68.31
285.132	87.31
285.364	86.31
285.595	83.31
285.826	92.31
286.057	83.31
286.288	75.31
286.52	97.31
286.751	71.31
286.982	66.31
287.213	90.31
287.444	94.31
287.675	84.31
287.906	70.31
288.138	92.31
288.369	83.31
288.6	84.31
288.831	77.31
289.062	76.31
289.293	80.31
289.524	93.31
289.755	71.31
289.986	85.31
290.217	82.31
290.448	74.31
290.679	79.31
290.91	80.31
291.141	69.31
291.371	81.31
291.602	88.31
291.833	81.31
292.064	84.31
292.295	90.31
292.526	87.31
292.757	86.31
292.987	73.31
293.218	85.31
293.449	86.31
293.68	79.31
293.91	83.31
294.141	86.31
294.372	90.31
294.603	82.31
294.833	72.31
295.064	78.31
295.295	91.31
295.525	85.31
295.756	98.31
295.987	94.31
296.217	111.31
296.448	101.31
296.679	91.31
296.909	93.31
297.14	76.31
297.37	92.31
297.601	86.31
297.831	78.31
298.062	91.31
298.292	88.31
298.523	99.31
298.753	105.31
298.984	90.31
299.214	81.31
299.445	101.31
299.675	83.31
299.905	79.31
300.136	82.31
300.366	81.31
300.597	88.31
300.827	79.31
301.057	90.31
301.288	85.31
301.518	91.31
301.748	80.31
301.979	98.31
302.209	76.31
302.439	87.31
302.669	79.31
302.9	82.31
303.13	74.31
303.36	88.31
303.59	96.31
303.82	89.31
304.051	88.31
304.281	82.31
304.511	83.31
304.741	81.31
304.971	90.31
305.201	87.31
305.431	91.31
305.661	93.31
305.891	95.31
306.121	94.31
306.352	108.31
306.582	91.31
306.812	87.31
307.042	78.31
307.272	84.31
307.502	88.31
307.731	93.31
307.961	101.31
308.191	73.31
308.421	90.31
308.651	67.31
308.881	81.31
309.111	88.31
309.341	83.31
309.571	97.31
309.8	107.31
310.03	94.31
310.26	94.31
310.49	96.31
310.72	115.31
310.949	100.31
311.179	95.31
311.409	99.31
311.639	79.31
311.868	96.31
312.098	96.31
312.328	97.31
312.557	88.31
312.787	102.31
313.017	84.31
313.246	83.31
313.476	90.31
313.706	90.31
313.935	99.31
314.165	92.31
314.394	102.31
314.624	93.31
314.853	92.31
315.083	94.31
315.312	77.31
315.542	84.31
315.771	94.31
316.001	77.31
316.23	79.31
316.46	85.31
316.689	81.31
316.919	95.31
317.148	86.31
317.377	84.31
317.607	78.31
317.836	88.31
318.065	78.31
318.295	77.31
318.524	84.31
318.753	74.31
318.983	93.31
319.212	89.31
319.441	99.31
319.67	103.31
319.9	79.31
320.129	91.31
320.358	99.31
320.587	102.31
320.816	98.31
321.046	88.31
321.275	97.31
321.504	91.31
321.733	86.31
321.962	101.31
322.191	86.31
322.42	110.31
322.649	93.31
322.878	75.31
323.108	106.31
323.337	115.31
323.566	123.31
323.795	154.31
324.024	187.31
324.253	355.31
324.482	736.31
324.71	1483.31
324.939	1957.31
325.168	694.31
325.397	227.31
325.626	123.31
325.855	126.31
326.084	113.31
326.313	121.31
326.542	135.31
326.77	234.31
326.999	390.31
327.228	862.31
327.457	1553.31
327.686	1202.31
327.914	340.31
328.143	180.31
328.372	128.31
328.6	112.31
328.829	97.31
329.058	121.31
329.287	126.31
329.515	106.31
329.744	101.31
329.972	89.31
330.201	106.31
330.43	106.31
330.658	118.31
330.887	131.31
331.115	116.31
331.344	97.31
331.572	89.31
331.801	102.31
332.03	90.31
332.258	92.31
332.486	73.31
332.715	88.31
332.943	90.31
333.172	91.31
333.4	100.31
333.629	98.31
333.857	106.31
334.085	95.31
334.314	87.31
334.542	99.31
334.771	111.31
334.999	103.31
335.227	96.31
335.455	93.31
335.684	87.31
335.912	102.31
336.14	93.31
336.369	88.31
336.597	95.31
336.825	89.31
337.053	91.31
337.281	85.31
337.51	92.31
337.738	98.31
337.966	93.31
338.194	93.31
338.422	88.31
338.65	75.31
338.878	103.31
339.106	94.31
339.334	79.31
339.562	89.31
339.79	92.31
340.018	98.31
340.246	74.31
340.474	86.31
340.702	79.31
340.93	84.31
341.158	98.31
341.386	93.31
341.614	89.31
341.842	93.31
342.07	96.31
342.298	91.31
342.526	85.31
342.754	89.31
342.981	86.31
343.209	80.31
343.437	100.31
343.665	98.31
343.893	84.31
344.12	91.31
344.348	82.31
344.576	86.31
344.804	83.31
345.031	82.31
345.259	92.31
345.487	71.31
345.714	93.31
345.942	111.31
346.17	78.31
346.397	81.31
346.625	101.31
346.853	78.31
347.08	92.31
347.308	88.31
347.535	85.31
347.763	93.31
347.99	87.31
348.218	84.31
348.445	108.31
348.673	90.31
348.9	104.31
349.128	98.31
349.355	81.31
349.583	101.31
349.81	103.31
350.037	77.31
350.265	95.31
350.492	99.31
350.72	92.31
350.947	85.31
351.174	108.31
351.402	101.31
351.629	88.31
351.856	95.31
352.083	87.31
352.311	100.31
352.538	91.31
352.765	108.31
352.992	111.31
353.22	100.31
353.447	110.31
353.674	102.31
353.901	105.31
354.128	90.31
354.355	92.31
354.583	100.31
354.81	100.31
355.037	81.31
355.264	89.31
355.491	101.31
355.718	95.31
355.945	88.31
356.172	90.31
356.399	101.31
356.626	95.31
356.853	88.31
357.08	91.31
357.307	114.31
357.534	105.31
357.761	98.31
357.988	99.31
358.215	106.31
358.441	86.31
358.668	87.31
358.895	89.31
359.122	89.31
359.349	73.31
359.576	91.31
359.802	78.31
360.029	103.31
360.256	115.31
360.483	100.31
360.709	86.31
360.936	94.31
361.163	90.31
361.39	86.31
361.616	101.31
361.843	86.31
362.07	86.31
362.296	87.31
362.523	91.31
362.749	95.31
362.976	85.31
363.203	80.31
363.429	83.31
363.656	100.31
363.882	90.31
364.109	93.31
364.335	86.31
364.562	96.31
364.788	84.31
365.015	93.31
365.241	94.31
365.468	89.31
365.694	107.31
365.92	91.31
366.147	89.31
366.373	89.31
366.599	95.31
366.826	86.31
367.052	99.31
367.278	83.31
367.505	92.31
367.731	102.31
367.957	80.31
368.184	88.31
368.41	112.31
368.636	110.31
368.862	108.31
369.089	100.31
369.315	101.31
369.541	100.31
369.767	90.31
369.993	78.31
370.219	71.31
370.445	78.31
370.672	79.31
370.898	82.31
371.124	83.31
371.35	80.31
371.576	82.31
371.802	85.31
372.028	84.31
372.254	87.31
372.48	82.31
372.706	98.31
372.932	96.31
373.158	95.31
373.384	96.31
373.61	91.31
373.835	84.31
374.061	65.31
374.287	84.31
374.513	91.31
374.739	90.31
374.965	68.31
375.191	91.31
375.416	97.31
375.642	76.31
375.868	83.31
376.094	75.31
376.319	91.31
376.545	77.31
376.771	74.31
376.997	90.31
377.222	94.31
377.448	105.31
377.674	94.31
377.899	91.31
378.125	82.31
378.35	75.31
378.576	78.31
378.802	99.31
379.027	94.31
379.253	89.31
379.478	92.31
379.704	103.31
379.929	74.31
380.155	100.31
380.38	96.31
380.606	103.31
380.831	86.31
381.057	98.31
381.282	100.31
381.507	90.31
381.733	73.31
381.958	93.31
382.184	88.31
382.409	94.31
382.634	106.31
382.86	97.31
383.085	110.31
383.31	100.31
383.535	111.31
383.761	94.31
383.986	94.31
384.211	98.31
384.436	99.31
384.662	100.31
384.887	106.31
385.112	101.31
385.337	97.31
385.562	104.31
385.787	117.31
386.013	94.31
386.238	118.31
386.463	97.31
386.688	95.31
386.913	95.31
387.138	99.31
387.363	102.31
387.588	116.31
387.813	92.31
388.038	115.31
388.263	98.31
388.488	104.31
388.713	97.31
388.938	93.31
389.163	101.31
389.387	104.31
389.612	93.31
389.837	91.31
390.062	94.31
390.287	83.31
390.512	83.31
390.736	99.31
390.961	89.31
391.186	86.31
391.411	98.31
391.636	93.31
391.86	97.31
392.085	92.31
392.31	109.31
392.534	94.31
392.759	90.31
392.984	83.31
393.208	70.31
393.433	88.31
393.658	70.31
393.882	83.31
394.107	84.31
394.331	79.31
394.556	75.31
394.78	100.31
395.005	86.31
395.229	84.31
395.454	100.31
395.678	91.31
395.903	94.31
396.127	101.31
396.352	82.31
396.576	74.31
396.801	89.31
397.025	95.31
397.249	85.31
397.474	94.31
397.698	92.31
397.922	87.31
398.147	82.31
398.371	91.31
398.595	89.31
398.82	85.31
399.044	75.31
399.268	80.31
399.492	87.31
399.717	85.31
399.941	85.31
400.165	84.31
400.389	81.31
400.613	82.31
400.837	84.31
401.062	87.31
401.286	87.31
401.51	99.31
401.734	89.31
401.958	95.31
402.182	121.31
402.406	140.31
402.63	120.31
402.854	97.31
403.078	94.31
403.302	91.31
403.526	89.31
403.75	78.31
403.974	75.31
404.198	91.31
404.422	90.31
404.645	93.31
404.869	76.31
405.093	87.31
405.317	106.31
405.541	99.31
405.765	107.31
405.988	108.31
406.212	149.31
406.436	193.31
406.66	131.31
406.883	107.31
407.107	80.31
407.331	91.31
407.555	98.31
407.778	106.31
408.002	94.31
408.226	79.31
408.449	85.31
408.673	93.31
408.896	96.31
409.12	86.31
409.344	80.31
409.567	91.31
409.791	86.31
410.014	85.31
410.238	92.31
410.461	90.31
410.685	79.31
410.908	87.31
411.132	107.31
411.355	97.31
411.578	80.31
411.802	83.31
412.025	84.31
412.249	78.31
412.472	97.31
412.695	94.31
412.919	86.31
413.142	85.31
413.365	87.31
413.589	81.31
413.812	75.31
414.035	95.31
414.258	70.31
414.482	87.31
414.705	80.31
414.928	83.31
415.151	96.31
415.374	109.31
415.597	93.31
415.821	77.31
416.044	76.31
416.267	86.31
416.49	78.31
416.713	82.31
416.936	87.31
417.159	83.31
417.382	93.31
417.605	78.31
417.828	81.31
418.051	86.31
418.274	70.31
418.497	82.31
418.72	77.31
418.943	65.31
419.166	91.31
419.389	87.31
419.611	80.31
419.834	94.31
420.057	100.31
420.28	86.31
420.503	91.31
420.726	87.31
420.948	83.31
421.171	85.31
421.394	94.31
421.617	96.31
421.839	80.31
422.062	95.31
422.285	94.31
422.507	93.31
422.73	98.31
422.953	96.31
423.175	83.31
423.398	93.31
423.621	86.31
423.843	81.31
424.066	77.31
424.288	65.31
424.511	91.31
424.733	95.31
424.956	96.31
425.178	99.31
425.401	100.31
425.623	85.31
425.846	91.31
426.068	96.31
426.291	82.31
426.513	78.31
426.735	80.31
426.958	73.31
427.18	80.31
427.402	122.31
427.625	145.31
427.847	119.31
428.069	95.31
428.292	90.31
428.514	87.31
428.736	92.31
428.958	94.31
429.181	96.31
429.403	99.31
429.625	88.31
429.847	94.31
430.069	81.31
430.292	86.31
430.514	72.31
430.736	85.31
430.958	84.31
431.18	94.31
431.402	81.31
431.624	88.31
431.846	82.31
432.068	87.31
432.29	90.31
432.512	91.31
432.734	74.31
432.956	90.31
433.178	87.31
433.4	88.31
433.622	93.31
433.844	100.31
434.066	92.31
434.287	98.31
434.509	85.31
434.731	87.31
434.953	93.31
435.175	77.31
435.397	95.31
435.618	103.31
435.84	96.31
436.062	107.31
436.284	110.31
436.505	94.31
436.727	96.31
436.949	91.31
437.17	87.31
437.392	74.31
437.614	95.31
437.835	112.31
438.057	99.31
438.278	104.31
438.5	100.31
438.721	104.31
438.943	83.31
439.165	72.31
439.386	72.31
439.608	80.31
439.829	89.31
440.05	87.31
440.272	143.31
440.493	99.31
440.715	101.31
440.936	82.31
441.158	85.31
441.379	73.31
441.6	87.31
441.822	107.31
442.043	85.31
442.264	87.31
442.486	103.31
442.707	89.31
442.928	100.31
443.149	132.31
443.371	118.31
443.592	94.31
443.813	108.31
444.034	93.31
444.255	87.31
444.476	85.31
444.698	84.31
444.919	106.31
445.14	137.31
445.361	115.31
445.582	90.31
445.803	110.31
446.024	122.31
446.245	119.31
446.466	106.31
446.687	86.31
446.908	99.31
447.129	93.31
447.35	91.31
447.571	90.31
447.792	91.31
448.013	101.31
448.234	110.31
448.455	104.31
448.675	98.31
448.896	100.31
449.117	108.31
449.338	100.31
449.559	117.31
449.779	113.31
450	100.31
450.221	73.31
450.442	82.31
450.662	99.31
450.883	102.31
451.104	106.31
451.324	82.31
451.545	84.31
451.766	82.31
451.986	93.31
452.207	78.31
452.428	83.31
452.648	103.31
452.869	109.31
453.089	106.31
453.31	107.31
453.53	86.31
453.751	79.31
453.971	91.31
454.192	94.31
454.412	104.31
454.633	87.31
454.853	79.31
455.073	76.31
455.294	80.31
455.514	83.31
455.734	81.31
455.955	90.31
456.175	90.31
456.395	81.31
456.616	81.31
456.836	86.31
457.056	72.31
457.276	83.31
457.497	81.31
457.717	83.31
457.937	78.31
458.157	83.31
458.377	83.31
458.598	92.31
458.818	139.31
459.038	152.31
459.258	117.31
459.478	79.31
459.698	78.31
459.918	83.31
460.138	94.31
460.358	87.31
460.578	88.31
460.798	87.31
461.018	87.31
461.238	101.31
461.458	79.31
461.678	88.31
461.898	82.31
462.118	83.31
462.338	104.31
462.558	83.31
462.777	94.31
462.997	69.31
463.217	76.31
463.437	84.31
463.657	76.31
463.876	85.31
464.096	85.31
464.316	85.31
464.536	94.31
464.755	92.31
464.975	101.31
465.195	123.31
465.414	130.31
465.634	88.31
465.854	78.31
466.073	83.31
466.293	79.31
466.512	81.31
466.732	90.31
466.951	82.31
467.171	97.31
467.391	96.31
467.61	109.31
467.829	84.31
468.049	94.31
468.268	84.31
468.488	85.31
468.707	83.31
468.927	94.31
469.146	80.31
469.365	84.31
469.585	77.31
469.804	99.31
470.023	80.31
470.243	87.31
470.462	97.31
470.681	109.31
470.901	94.31
471.12	75.31
471.339	82.31
471.558	75.31
471.777	88.31
471.997	83.31
472.216	87.31
472.435	106.31
472.654	83.31
472.873	92.31
473.092	91.31
473.311	85.31
473.53	77.31
473.749	79.31
473.968	89.31
474.187	79.31
474.406	86.31
474.625	85.31
474.844	93.31
475.063	82.31
475.282	83.31
475.501	82.31
475.72	94.31
475.939	76.31
476.158	87.31
476.377	84.31
476.596	89.31
476.814	91.31
477.033	91.31
477.252	85.31
477.471	96.31
477.69	77.31
477.908	81.31
478.127	85.31
478.346	54.31
478.564	89.31
478.783	89.31
479.002	84.31
479.22	84.31
479.439	91.31
479.658	95.31
479.876	93.31
480.095	82.31
480.313	99.31
480.532	77.31
480.751	94.31
480.969	100.31
481.188	111.31
481.406	96.31
481.624	90.31
481.843	79.31
482.061	83.31
482.28	87.31
482.498	81.31
482.717	101.31
482.935	88.31
483.153	78.31
483.372	92.31
483.59	81.31
483.808	86.31
484.027	81.31
484.245	86.31
484.463	86.31
484.681	104.31
484.9	98.31
485.118	86.31
485.336	101.31
485.554	94.31
485.772	72.31
485.99	94.31
486.209	105.31
486.427	93.31
486.645	112.31
486.863	95.31
487.081	86.31
487.299	98.31
487.517	97.31
487.735	82.31
487.953	87.31
488.171	76.31
488.389	96.31
488.607	85.31
488.825	100.31
489.043	99.31
489.261	77.31
489.479	84.31
489.696	85.31
489.914	85.31
490.132	91.31
490.35	95.31
490.568	79.31
490.786	82.31
491.003	87.31
491.221	83.31
491.439	85.31
491.657	82.31
491.874	91.31
492.092	73.31
492.31	81.31
492.527	80.31
492.745	81.31
492.963	92.31
493.18	90.31
493.398	93.31
493.615	92.31
493.833	94.31
494.05	91.31
494.268	97.31
494.485	102.31
494.703	77.31
494.92	94.31
495.138	93.31
495.355	83.31
495.573	82.31
495.79	82.31
496.008	84.31
496.225	80.31
496.442	83.31
496.66	92.31
496.877	91.31
497.094	95.31
497.312	91.31
497.529	84.31
497.746	100.31
497.963	93.31
498.181	74.31
498.398	79.31
498.615	96.31
498.832	108.31
499.049	84.31
499.267	79.31
499.484	93.31
499.701	91.31
499.918	78.31
500.135	86.31
500.352	88.31
500.569	83.31
500.786	92.31
501.003	86.31
501.22	88.31
501.437	83.31
501.654	81.31
501.871	106.31
502.088	90.31
502.305	86.31
502.522	99.31
502.739	85.31
502.956	87.31
503.172	95.31
503.389	102.31
503.606	102.31
503.823	85.31
504.04	92.31
504.256	87.31
504.473	76.31
504.69	95.31
504.907	93.31
505.123	91.31
505.34	85.31
505.557	90.31
505.773	90.31
505.99	71.31
506.207	99.31
506.423	85.31
506.64	97.31
506.856	108.31
507.073	84.31
507.289	78.31
507.506	86.31
507.722	86.31
507.939	99.31
508.155	91.31
508.372	83.31
508.588	82.31
508.805	88.31
509.021	95.31
509.238	85.31
509.454	97.31
509.67	88.31
509.887	110.31
510.103	124.31
510.319	188.31
510.536	703.31
510.752	2206.31
510.968	639.31
511.184	158.31
511.401	102.31
511.617	97.31
511.833	89.31
512.049	95.31
512.265	89.31
512.481	100.31
512.698	85.31
512.914	94.31
513.13	107.31
513.346	110.31
513.562	71.31
513.778	106.31
513.994	91.31
514.21	87.31
514.426	121.31
514.642	115.31
514.858	116.31
515.074	139.31
515.29	385.31
515.506	1263.31
515.721	479.31
515.937	138.31
516.153	111.31
516.369	98.31
516.585	82.31
516.801	86.31
