Data from Uncirc_2004_H10_HRD10591_00069.txt Node
Date: Wed Jan 03 10:32:26 EST 2024
User: Yrep
Spectrometer: HR+D1059
Trigger mode: 1
Integration Time (sec): 1.000000E-1
Scans to average: 1
Electric dark correction enabled: true
Nonlinearity correction enabled: false
Boxcar width: 0
XAxis mode: Wavelengths
Number of Pixels in Spectrum: 2048
>>>>>Begin Spectral Data<<<<<
223.165	-21.69
223.4	-21.69
223.635	-21.69
223.869	-12.69
224.104	-12.69
224.338	-24.69
224.573	-10.69
224.808	-11.69
225.042	-6.69
225.277	-5.69
225.511	4.31
225.746	7.31
225.98	4.31
226.215	7.31
226.449	11.31
226.683	20.31
226.918	24.31
227.152	27.31
227.387	39.31
227.621	17.31
227.856	53.31
228.09	59.31
228.324	47.31
228.559	58.31
228.793	68.31
229.027	49.31
229.262	66.31
229.496	70.31
229.73	80.31
229.964	85.31
230.199	63.31
230.433	67.31
230.667	76.31
230.901	82.31
231.136	95.31
231.37	71.31
231.604	77.31
231.838	101.31
232.072	77.31
232.306	79.31
232.541	87.31
232.775	95.31
233.009	75.31
233.243	87.31
233.477	86.31
233.711	74.31
233.945	77.31
234.179	85.31
234.413	89.31
234.647	94.31
234.881	80.31
235.115	95.31
235.349	78.31
235.583	84.31
235.817	76.31
236.051	95.31
236.285	72.31
236.519	76.31
236.753	66.31
236.987	81.31
237.221	93.31
237.455	77.31
237.689	71.31
237.922	76.31
238.156	67.31
238.39	69.31
238.624	75.31
238.858	79.31
239.091	80.31
239.325	73.31
239.559	73.31
239.793	96.31
240.027	84.31
240.26	73.31
240.494	74.31
240.728	76.31
240.961	94.31
241.195	84.31
241.429	79.31
241.662	80.31
241.896	79.31
242.13	79.31
242.363	81.31
242.597	79.31
242.83	94.31
243.064	79.31
243.298	71.31
243.531	73.31
243.765	65.31
243.998	72.31
244.232	80.31
244.465	75.31
244.699	79.31
244.932	82.31
245.166	94.31
245.399	69.31
245.633	83.31
245.866	72.31
246.099	78.31
246.333	78.31
246.566	80.31
246.8	85.31
247.033	81.31
247.266	86.31
247.5	84.31
247.733	71.31
247.966	65.31
248.2	77.31
248.433	89.31
248.666	68.31
248.899	80.31
249.133	90.31
249.366	89.31
249.599	107.31
249.832	85.31
250.066	89.31
250.299	74.31
250.532	83.31
250.765	72.31
250.998	71.31
251.231	86.31
251.465	74.31
251.698	93.31
251.931	85.31
252.164	62.31
252.397	73.31
252.63	70.31
252.863	79.31
253.096	83.31
253.329	81.31
253.562	74.31
253.795	81.31
254.028	78.31
254.261	82.31
254.494	69.31
254.727	69.31
254.96	76.31
255.193	90.31
255.426	72.31
255.659	76.31
255.892	82.31
256.124	84.31
256.357	91.31
256.59	77.31
256.823	81.31
257.056	77.31
257.289	77.31
257.521	95.31
257.754	97.31
257.987	76.31
258.22	99.31
258.452	95.31
258.685	73.31
258.918	79.31
259.151	78.31
259.383	91.31
259.616	80.31
259.849	79.31
260.081	77.31
260.314	75.31
260.547	82.31
260.779	92.31
261.012	75.31
261.244	90.31
261.477	91.31
261.71	104.31
261.942	111.31
262.175	115.31
262.407	100.31
262.64	70.31
262.872	73.31
263.105	91.31
263.337	84.31
263.57	86.31
263.802	81.31
264.035	98.31
264.267	94.31
264.499	90.31
264.732	90.31
264.964	80.31
265.197	87.31
265.429	94.31
265.661	81.31
265.894	77.31
266.126	79.31
266.358	87.31
266.591	90.31
266.823	91.31
267.055	99.31
267.287	90.31
267.52	88.31
267.752	70.31
267.984	88.31
268.216	91.31
268.448	84.31
268.681	84.31
268.913	87.31
269.145	91.31
269.377	86.31
269.609	74.31
269.841	91.31
270.073	77.31
270.306	93.31
270.538	96.31
270.77	89.31
271.002	73.31
271.234	79.31
271.466	79.31
271.698	86.31
271.93	87.31
272.162	82.31
272.394	105.31
272.626	83.31
272.858	93.31
273.09	83.31
273.322	88.31
273.553	80.31
273.785	67.31
274.017	91.31
274.249	90.31
274.481	91.31
274.713	94.31
274.945	97.31
275.176	95.31
275.408	91.31
275.64	82.31
275.872	83.31
276.104	98.31
276.335	89.31
276.567	89.31
276.799	119.31
277.031	102.31
277.262	88.31
277.494	88.31
277.726	90.31
277.957	81.31
278.189	78.31
278.421	89.31
278.652	74.31
278.884	92.31
279.115	99.31
279.347	86.31
279.579	83.31
279.81	93.31
280.042	67.31
280.273	98.31
280.505	85.31
280.736	73.31
280.968	90.31
281.199	93.31
281.431	90.31
281.662	90.31
281.894	92.31
282.125	106.31
282.356	114.31
282.588	146.31
282.819	112.31
283.051	93.31
283.282	86.31
283.513	77.31
283.745	91.31
283.976	79.31
284.207	91.31
284.439	89.31
284.67	85.31
284.901	102.31
285.132	76.31
285.364	76.31
285.595	86.31
285.826	93.31
286.057	91.31
286.288	89.31
286.52	94.31
286.751	95.31
286.982	79.31
287.213	86.31
287.444	90.31
287.675	88.31
287.906	84.31
288.138	87.31
288.369	103.31
288.6	88.31
288.831	86.31
289.062	81.31
289.293	89.31
289.524	91.31
289.755	88.31
289.986	109.31
290.217	95.31
290.448	82.31
290.679	89.31
290.91	78.31
291.141	75.31
291.371	95.31
291.602	91.31
291.833	87.31
292.064	94.31
292.295	84.31
292.526	88.31
292.757	81.31
292.987	85.31
293.218	84.31
293.449	84.31
293.68	81.31
293.91	86.31
294.141	82.31
294.372	84.31
294.603	96.31
294.833	98.31
295.064	80.31
295.295	97.31
295.525	87.31
295.756	111.31
295.987	140.31
296.217	155.31
296.448	125.31
296.679	94.31
296.909	87.31
297.14	97.31
297.37	84.31
297.601	91.31
297.831	104.31
298.062	91.31
298.292	83.31
298.523	93.31
298.753	104.31
298.984	78.31
299.214	100.31
299.445	83.31
299.675	83.31
299.905	84.31
300.136	97.31
300.366	95.31
300.597	93.31
300.827	91.31
301.057	95.31
301.288	102.31
301.518	91.31
301.748	105.31
301.979	105.31
302.209	88.31
302.439	100.31
302.669	86.31
302.9	101.31
303.13	89.31
303.36	110.31
303.59	101.31
303.82	114.31
304.051	93.31
304.281	84.31
304.511	93.31
304.741	85.31
304.971	89.31
305.201	91.31
305.431	87.31
305.661	103.31
305.891	82.31
306.121	102.31
306.352	105.31
306.582	101.31
306.812	85.31
307.042	92.31
307.272	72.31
307.502	91.31
307.731	94.31
307.961	99.31
308.191	84.31
308.421	95.31
308.651	75.31
308.881	101.31
309.111	90.31
309.341	82.31
309.571	87.31
309.8	90.31
310.03	101.31
310.26	85.31
310.49	105.31
310.72	103.31
310.949	106.31
311.179	95.31
311.409	95.31
311.639	97.31
311.868	106.31
312.098	98.31
312.328	86.31
312.557	89.31
312.787	103.31
313.017	111.31
313.246	94.31
313.476	91.31
313.706	95.31
313.935	95.31
314.165	90.31
314.394	100.31
314.624	99.31
314.853	91.31
315.083	96.31
315.312	85.31
315.542	89.31
315.771	105.31
316.001	108.31
316.23	102.31
316.46	91.31
316.689	90.31
316.919	76.31
317.148	98.31
317.377	94.31
317.607	101.31
317.836	94.31
318.065	88.31
318.295	84.31
318.524	81.31
318.753	73.31
318.983	76.31
319.212	102.31
319.441	88.31
319.67	94.31
319.9	99.31
320.129	94.31
320.358	93.31
320.587	98.31
320.816	88.31
321.046	98.31
321.275	95.31
321.504	95.31
321.733	111.31
321.962	96.31
322.191	97.31
322.42	109.31
322.649	110.31
322.878	110.31
323.108	116.31
323.337	115.31
323.566	137.31
323.795	154.31
324.024	202.31
324.253	397.31
324.482	836.31
324.71	1710.31
324.939	2215.31
325.168	813.31
325.397	245.31
325.626	149.31
325.855	124.31
326.084	123.31
326.313	131.31
326.542	137.31
326.77	248.31
326.999	469.31
327.228	950.31
327.457	1686.31
327.686	1353.31
327.914	363.31
328.143	187.31
328.372	131.31
328.6	131.31
328.829	114.31
329.058	127.31
329.287	129.31
329.515	104.31
329.744	115.31
329.972	101.31
330.201	113.31
330.43	115.31
330.658	125.31
330.887	157.31
331.115	119.31
331.344	102.31
331.572	102.31
331.801	91.31
332.03	100.31
332.258	103.31
332.486	97.31
332.715	99.31
332.943	96.31
333.172	88.31
333.4	105.31
333.629	99.31
333.857	107.31
334.085	106.31
334.314	107.31
334.542	105.31
334.771	110.31
334.999	100.31
335.227	92.31
335.455	89.31
335.684	98.31
335.912	88.31
336.14	96.31
336.369	99.31
336.597	97.31
336.825	101.31
337.053	88.31
337.281	106.31
337.51	100.31
337.738	83.31
337.966	103.31
338.194	86.31
338.422	102.31
338.65	100.31
338.878	94.31
339.106	81.31
339.334	101.31
339.562	89.31
339.79	92.31
340.018	90.31
340.246	85.31
340.474	103.31
340.702	91.31
340.93	102.31
341.158	91.31
341.386	102.31
341.614	98.31
341.842	96.31
342.07	92.31
342.298	101.31
342.526	89.31
342.754	102.31
342.981	85.31
343.209	82.31
343.437	97.31
343.665	94.31
343.893	77.31
344.12	86.31
344.348	92.31
344.576	78.31
344.804	93.31
345.031	87.31
345.259	91.31
345.487	97.31
345.714	91.31
345.942	90.31
346.17	78.31
346.397	92.31
346.625	77.31
346.853	101.31
347.08	90.31
347.308	79.31
347.535	98.31
347.763	101.31
347.99	102.31
348.218	104.31
348.445	104.31
348.673	95.31
348.9	99.31
349.128	110.31
349.355	89.31
349.583	97.31
349.81	95.31
350.037	88.31
350.265	91.31
350.492	90.31
350.72	97.31
350.947	100.31
351.174	98.31
351.402	112.31
351.629	105.31
351.856	109.31
352.083	103.31
352.311	116.31
352.538	111.31
352.765	113.31
352.992	103.31
353.22	116.31
353.447	101.31
353.674	111.31
353.901	98.31
354.128	93.31
354.355	91.31
354.583	109.31
354.81	98.31
355.037	102.31
355.264	94.31
355.491	92.31
355.718	96.31
355.945	99.31
356.172	94.31
356.399	93.31
356.626	91.31
356.853	102.31
357.08	91.31
357.307	87.31
357.534	87.31
357.761	102.31
357.988	94.31
358.215	86.31
358.441	99.31
358.668	79.31
358.895	85.31
359.122	87.31
359.349	102.31
359.576	97.31
359.802	101.31
360.029	113.31
360.256	103.31
360.483	109.31
360.709	104.31
360.936	99.31
361.163	103.31
361.39	88.31
361.616	91.31
361.843	108.31
362.07	103.31
362.296	103.31
362.523	89.31
362.749	79.31
362.976	102.31
363.203	93.31
363.429	90.31
363.656	88.31
363.882	96.31
364.109	72.31
364.335	74.31
364.562	86.31
364.788	94.31
365.015	101.31
365.241	103.31
365.468	97.31
365.694	95.31
365.92	97.31
366.147	86.31
366.373	91.31
366.599	89.31
366.826	97.31
367.052	86.31
367.278	95.31
367.505	87.31
367.731	82.31
367.957	95.31
368.184	85.31
368.41	107.31
368.636	111.31
368.862	118.31
369.089	111.31
369.315	93.31
369.541	84.31
369.767	100.31
369.993	100.31
370.219	93.31
370.445	90.31
370.672	93.31
370.898	95.31
371.124	87.31
371.35	93.31
371.576	88.31
371.802	81.31
372.028	102.31
372.254	83.31
372.48	104.31
372.706	89.31
372.932	91.31
373.158	91.31
373.384	79.31
373.61	78.31
373.835	88.31
374.061	81.31
374.287	85.31
374.513	92.31
374.739	77.31
374.965	81.31
375.191	97.31
375.416	84.31
375.642	91.31
375.868	90.31
376.094	90.31
376.319	96.31
376.545	100.31
376.771	78.31
376.997	97.31
377.222	89.31
377.448	92.31
377.674	79.31
377.899	86.31
378.125	94.31
378.35	101.31
378.576	90.31
378.802	95.31
379.027	90.31
379.253	89.31
379.478	95.31
379.704	96.31
379.929	91.31
380.155	96.31
380.38	102.31
380.606	97.31
380.831	91.31
381.057	96.31
381.282	107.31
381.507	110.31
381.733	110.31
381.958	95.31
382.184	92.31
382.409	88.31
382.634	90.31
382.86	100.31
383.085	106.31
383.31	97.31
383.535	100.31
383.761	93.31
383.986	102.31
384.211	101.31
384.436	97.31
384.662	103.31
384.887	102.31
385.112	112.31
385.337	102.31
385.562	114.31
385.787	100.31
386.013	109.31
386.238	106.31
386.463	106.31
386.688	115.31
386.913	108.31
387.138	96.31
387.363	108.31
387.588	94.31
387.813	94.31
388.038	99.31
388.263	120.31
388.488	112.31
388.713	110.31
388.938	95.31
389.163	97.31
389.387	93.31
389.612	89.31
389.837	100.31
390.062	112.31
390.287	98.31
390.512	88.31
390.736	95.31
390.961	103.31
391.186	106.31
391.411	93.31
391.636	101.31
391.86	94.31
392.085	92.31
392.31	92.31
392.534	76.31
392.759	80.31
392.984	91.31
393.208	97.31
393.433	98.31
393.658	86.31
393.882	88.31
394.107	90.31
394.331	89.31
394.556	94.31
394.78	101.31
395.005	81.31
395.229	69.31
395.454	90.31
395.678	88.31
395.903	93.31
396.127	85.31
396.352	78.31
396.576	70.31
396.801	91.31
397.025	80.31
397.249	82.31
397.474	90.31
397.698	85.31
397.922	89.31
398.147	92.31
398.371	78.31
398.595	77.31
398.82	85.31
399.044	93.31
399.268	93.31
399.492	94.31
399.717	92.31
399.941	90.31
400.165	96.31
400.389	91.31
400.613	97.31
400.837	89.31
401.062	84.31
401.286	68.31
401.51	87.31
401.734	96.31
401.958	87.31
402.182	129.31
402.406	172.31
402.63	109.31
402.854	92.31
403.078	92.31
403.302	82.31
403.526	81.31
403.75	92.31
403.974	69.31
404.198	86.31
404.422	81.31
404.645	77.31
404.869	86.31
405.093	97.31
405.317	88.31
405.541	90.31
405.765	102.31
405.988	121.31
406.212	193.31
406.436	238.31
406.66	137.31
406.883	87.31
407.107	93.31
407.331	90.31
407.555	114.31
407.778	95.31
408.002	96.31
408.226	97.31
408.449	87.31
408.673	88.31
408.896	102.31
409.12	106.31
409.344	90.31
409.567	94.31
409.791	91.31
410.014	96.31
410.238	82.31
410.461	88.31
410.685	94.31
410.908	86.31
411.132	110.31
411.355	105.31
411.578	91.31
411.802	94.31
412.025	104.31
412.249	81.31
412.472	94.31
412.695	85.31
412.919	90.31
413.142	77.31
413.365	94.31
413.589	78.31
413.812	83.31
414.035	94.31
414.258	84.31
414.482	96.31
414.705	91.31
414.928	94.31
415.151	93.31
415.374	84.31
415.597	94.31
415.821	91.31
416.044	93.31
416.267	89.31
416.49	96.31
416.713	102.31
416.936	93.31
417.159	85.31
417.382	83.31
417.605	97.31
417.828	90.31
418.051	89.31
418.274	99.31
418.497	93.31
418.72	97.31
418.943	93.31
419.166	90.31
419.389	83.31
419.611	96.31
419.834	93.31
420.057	85.31
420.28	81.31
420.503	67.31
420.726	89.31
420.948	83.31
421.171	83.31
421.394	82.31
421.617	87.31
421.839	98.31
422.062	103.31
422.285	98.31
422.507	94.31
422.73	107.31
422.953	83.31
423.175	97.31
423.398	91.31
423.621	91.31
423.843	94.31
424.066	89.31
424.288	91.31
424.511	91.31
424.733	93.31
424.956	98.31
425.178	91.31
425.401	109.31
425.623	94.31
425.846	86.31
426.068	103.31
426.291	85.31
426.513	82.31
426.735	90.31
426.958	109.31
427.18	108.31
427.402	126.31
427.625	161.31
427.847	130.31
428.069	98.31
428.292	92.31
428.514	75.31
428.736	104.31
428.958	93.31
429.181	97.31
429.403	94.31
429.625	82.31
429.847	85.31
430.069	98.31
430.292	87.31
430.514	88.31
430.736	95.31
430.958	67.31
431.18	81.31
431.402	87.31
431.624	84.31
431.846	94.31
432.068	86.31
432.29	95.31
432.512	96.31
432.734	100.31
432.956	105.31
433.178	115.31
433.4	95.31
433.622	102.31
433.844	103.31
434.066	100.31
434.287	99.31
434.509	88.31
434.731	75.31
434.953	88.31
435.175	92.31
435.397	100.31
435.618	74.31
435.84	99.31
436.062	129.31
436.284	130.31
436.505	99.31
436.727	94.31
436.949	82.31
437.17	96.31
437.392	84.31
437.614	85.31
437.835	115.31
438.057	110.31
438.278	95.31
438.5	106.31
438.721	114.31
438.943	94.31
439.165	94.31
439.386	95.31
439.608	82.31
439.829	111.31
440.05	110.31
440.272	140.31
440.493	96.31
440.715	89.31
440.936	93.31
441.158	95.31
441.379	105.31
441.6	88.31
441.822	104.31
442.043	93.31
442.264	84.31
442.486	100.31
442.707	94.31
442.928	112.31
443.149	137.31
443.371	114.31
443.592	103.31
443.813	105.31
444.034	116.31
444.255	97.31
444.476	100.31
444.698	99.31
444.919	87.31
445.14	142.31
445.361	125.31
445.582	112.31
445.803	131.31
446.024	130.31
446.245	128.31
446.466	106.31
446.687	89.31
446.908	81.31
447.129	92.31
447.35	89.31
447.571	94.31
447.792	77.31
448.013	87.31
448.234	119.31
448.455	96.31
448.675	114.31
448.896	115.31
449.117	105.31
449.338	109.31
449.559	143.31
449.779	124.31
450	89.31
450.221	86.31
450.442	94.31
450.662	83.31
450.883	104.31
451.104	110.31
451.324	95.31
451.545	92.31
451.766	87.31
451.986	75.31
452.207	98.31
452.428	95.31
452.648	95.31
452.869	97.31
453.089	110.31
453.31	120.31
453.53	91.31
453.751	77.31
453.971	111.31
454.192	100.31
454.412	86.31
454.633	86.31
454.853	100.31
455.073	78.31
455.294	91.31
455.514	109.31
455.734	102.31
455.955	102.31
456.175	87.31
456.395	90.31
456.616	74.31
456.836	91.31
457.056	79.31
457.276	84.31
457.497	73.31
457.717	85.31
457.937	89.31
458.157	83.31
458.377	82.31
458.598	107.31
458.818	165.31
459.038	170.31
459.258	115.31
459.478	95.31
459.698	79.31
459.918	76.31
460.138	85.31
460.358	96.31
460.578	73.31
460.798	83.31
461.018	99.31
461.238	87.31
461.458	94.31
461.678	92.31
461.898	86.31
462.118	87.31
462.338	77.31
462.558	89.31
462.777	91.31
462.997	88.31
463.217	79.31
463.437	91.31
463.657	82.31
463.876	84.31
464.096	87.31
464.316	82.31
464.536	90.31
464.755	103.31
464.975	111.31
465.195	170.31
465.414	165.31
465.634	101.31
465.854	93.31
466.073	92.31
466.293	95.31
466.512	80.31
466.732	81.31
466.951	93.31
467.171	97.31
467.391	105.31
467.61	110.31
467.829	86.31
468.049	95.31
468.268	101.31
468.488	96.31
468.707	91.31
468.927	101.31
469.146	105.31
469.365	88.31
469.585	96.31
469.804	96.31
470.023	98.31
470.243	105.31
470.462	96.31
470.681	109.31
470.901	95.31
471.12	96.31
471.339	78.31
471.558	90.31
471.777	91.31
471.997	87.31
472.216	86.31
472.435	90.31
472.654	92.31
472.873	98.31
473.092	96.31
473.311	93.31
473.53	73.31
473.749	86.31
473.968	100.31
474.187	94.31
474.406	102.31
474.625	90.31
474.844	94.31
475.063	95.31
475.282	92.31
475.501	93.31
475.72	110.31
475.939	77.31
476.158	85.31
476.377	87.31
476.596	91.31
476.814	79.31
477.033	84.31
477.252	85.31
477.471	95.31
477.69	107.31
477.908	91.31
478.127	89.31
478.346	101.31
478.564	82.31
478.783	91.31
479.002	110.31
479.22	97.31
479.439	116.31
479.658	94.31
479.876	93.31
480.095	97.31
480.313	83.31
480.532	85.31
480.751	96.31
480.969	99.31
481.188	108.31
481.406	115.31
481.624	101.31
481.843	73.31
482.061	83.31
482.28	91.31
482.498	68.31
482.717	83.31
482.935	103.31
483.153	82.31
483.372	87.31
483.59	103.31
483.808	99.31
484.027	92.31
484.245	88.31
484.463	77.31
484.681	92.31
484.9	92.31
485.118	91.31
485.336	97.31
485.554	83.31
485.772	81.31
485.99	104.31
486.209	110.31
486.427	121.31
486.645	109.31
486.863	99.31
487.081	95.31
487.299	102.31
487.517	101.31
487.735	82.31
487.953	96.31
488.171	98.31
488.389	84.31
488.607	103.31
488.825	81.31
489.043	82.31
489.261	89.31
489.479	87.31
489.696	75.31
489.914	91.31
490.132	98.31
490.35	84.31
490.568	81.31
490.786	91.31
491.003	91.31
491.221	88.31
491.439	97.31
491.657	99.31
491.874	105.31
492.092	89.31
492.31	82.31
492.527	99.31
492.745	94.31
492.963	96.31
493.18	81.31
493.398	100.31
493.615	101.31
493.833	100.31
494.05	94.31
494.268	97.31
494.485	90.31
494.703	90.31
494.92	94.31
495.138	85.31
495.355	88.31
495.573	85.31
495.79	86.31
496.008	97.31
496.225	99.31
496.442	97.31
496.66	82.31
496.877	86.31
497.094	111.31
497.312	93.31
497.529	96.31
497.746	96.31
497.963	91.31
498.181	102.31
498.398	94.31
498.615	97.31
498.832	107.31
499.049	103.31
499.267	97.31
499.484	86.31
499.701	104.31
499.918	89.31
500.135	89.31
500.352	87.31
500.569	93.31
500.786	91.31
501.003	96.31
501.22	86.31
501.437	98.31
501.654	87.31
501.871	110.31
502.088	85.31
502.305	93.31
502.522	101.31
502.739	94.31
502.956	91.31
503.172	86.31
503.389	102.31
503.606	98.31
503.823	104.31
504.04	98.31
504.256	93.31
504.473	95.31
504.69	92.31
504.907	91.31
505.123	112.31
505.34	95.31
505.557	93.31
505.773	98.31
505.99	88.31
506.207	92.31
506.423	87.31
506.64	107.31
506.856	106.31
507.073	94.31
507.289	110.31
507.506	93.31
507.722	104.31
507.939	90.31
508.155	88.31
508.372	94.31
508.588	117.31
508.805	101.31
509.021	90.31
509.238	98.31
509.454	86.31
509.67	98.31
509.887	108.31
510.103	141.31
510.319	206.31
510.536	806.31
510.752	2558.31
510.968	709.31
511.184	175.31
511.401	102.31
511.617	113.31
511.833	87.31
512.049	94.31
512.265	91.31
512.481	103.31
512.698	115.31
512.914	103.31
513.13	99.31
513.346	92.31
513.562	96.31
513.778	106.31
513.994	92.31
514.21	107.31
514.426	111.31
514.642	133.31
514.858	122.31
515.074	155.31
515.29	494.31
