Data from Uncirc_2004_H10_HRD10591_00023.txt Node
Date: Wed Jan 03 10:32:17 EST 2024
User: Yrep
Spectrometer: HR+D1059
Trigger mode: 1
Integration Time (sec): 1.000000E-1
Scans to average: 1
Electric dark correction enabled: true
Nonlinearity correction enabled: false
Boxcar width: 0
XAxis mode: Wavelengths
Number of Pixels in Spectrum: 2048
>>>>>Begin Spectral Data<<<<<
223.165	-8.25
223.4	-8.25
223.635	-8.25
223.869	-20.25
224.104	-18.25
224.338	-23.25
224.573	-7.25
224.808	-7.25
225.042	-18.25
225.277	-17.25
225.511	6.75
225.746	8.75
225.98	-4.25
226.215	10.75
226.449	10.75
226.683	19.75
226.918	31.75
227.152	35.75
227.387	29.75
227.621	45.75
227.856	47.75
228.09	36.75
228.324	36.75
228.559	50.75
228.793	57.75
229.027	43.75
229.262	56.75
229.496	81.75
229.73	70.75
229.964	73.75
230.199	76.75
230.433	71.75
230.667	90.75
230.901	66.75
231.136	66.75
231.37	66.75
231.604	87.75
231.838	84.75
232.072	87.75
232.306	81.75
232.541	81.75
232.775	84.75
233.009	78.75
233.243	79.75
233.477	67.75
233.711	77.75
233.945	71.75
234.179	85.75
234.413	84.75
234.647	83.75
234.881	87.75
235.115	71.75
235.349	68.75
235.583	76.75
235.817	87.75
236.051	76.75
236.285	90.75
236.519	83.75
236.753	71.75
236.987	90.75
237.221	86.75
237.455	83.75
237.689	87.75
237.922	80.75
238.156	61.75
238.39	60.75
238.624	71.75
238.858	81.75
239.091	87.75
239.325	83.75
239.559	78.75
239.793	78.75
240.027	70.75
240.26	80.75
240.494	80.75
240.728	84.75
240.961	55.75
241.195	75.75
241.429	68.75
241.662	67.75
241.896	73.75
242.13	66.75
242.363	68.75
242.597	66.75
242.83	86.75
243.064	81.75
243.298	76.75
243.531	83.75
243.765	74.75
243.998	78.75
244.232	87.75
244.465	76.75
244.699	74.75
244.932	76.75
245.166	83.75
245.399	82.75
245.633	78.75
245.866	68.75
246.099	85.75
246.333	85.75
246.566	73.75
246.8	84.75
247.033	83.75
247.266	65.75
247.5	88.75
247.733	88.75
247.966	82.75
248.2	80.75
248.433	71.75
248.666	74.75
248.899	85.75
249.133	74.75
249.366	83.75
249.599	96.75
249.832	85.75
250.066	82.75
250.299	83.75
250.532	65.75
250.765	86.75
250.998	80.75
251.231	78.75
251.465	69.75
251.698	79.75
251.931	82.75
252.164	74.75
252.397	66.75
252.63	79.75
252.863	84.75
253.096	80.75
253.329	88.75
253.562	91.75
253.795	80.75
254.028	85.75
254.261	78.75
254.494	87.75
254.727	98.75
254.96	88.75
255.193	73.75
255.426	78.75
255.659	79.75
255.892	77.75
256.124	94.75
256.357	83.75
256.59	85.75
256.823	81.75
257.056	57.75
257.289	94.75
257.521	83.75
257.754	77.75
257.987	79.75
258.22	51.75
258.452	81.75
258.685	74.75
258.918	93.75
259.151	78.75
259.383	84.75
259.616	82.75
259.849	64.75
260.081	85.75
260.314	76.75
260.547	76.75
260.779	71.75
261.012	89.75
261.244	90.75
261.477	85.75
261.71	85.75
261.942	110.75
262.175	106.75
262.407	80.75
262.64	85.75
262.872	94.75
263.105	83.75
263.337	88.75
263.57	69.75
263.802	78.75
264.035	78.75
264.267	81.75
264.499	81.75
264.732	84.75
264.964	73.75
265.197	80.75
265.429	94.75
265.661	77.75
265.894	83.75
266.126	85.75
266.358	78.75
266.591	70.75
266.823	81.75
267.055	85.75
267.287	72.75
267.52	78.75
267.752	80.75
267.984	85.75
268.216	79.75
268.448	86.75
268.681	77.75
268.913	78.75
269.145	84.75
269.377	79.75
269.609	85.75
269.841	94.75
270.073	73.75
270.306	82.75
270.538	79.75
270.77	87.75
271.002	94.75
271.234	95.75
271.466	86.75
271.698	76.75
271.93	71.75
272.162	72.75
272.394	86.75
272.626	75.75
272.858	86.75
273.09	87.75
273.322	71.75
273.553	85.75
273.785	71.75
274.017	95.75
274.249	76.75
274.481	84.75
274.713	98.75
274.945	87.75
275.176	78.75
275.408	88.75
275.64	72.75
275.872	82.75
276.104	92.75
276.335	99.75
276.567	94.75
276.799	109.75
277.031	103.75
277.262	96.75
277.494	79.75
277.726	85.75
277.957	83.75
278.189	85.75
278.421	82.75
278.652	87.75
278.884	88.75
279.115	101.75
279.347	75.75
279.579	80.75
279.81	72.75
280.042	90.75
280.273	82.75
280.505	79.75
280.736	72.75
280.968	84.75
281.199	108.75
281.431	84.75
281.662	93.75
281.894	102.75
282.125	93.75
282.356	118.75
282.588	124.75
282.819	106.75
283.051	92.75
283.282	94.75
283.513	80.75
283.745	88.75
283.976	83.75
284.207	74.75
284.439	94.75
284.67	90.75
284.901	97.75
285.132	85.75
285.364	90.75
285.595	92.75
285.826	83.75
286.057	80.75
286.288	89.75
286.52	92.75
286.751	98.75
286.982	86.75
287.213	95.75
287.444	94.75
287.675	89.75
287.906	83.75
288.138	89.75
288.369	88.75
288.6	81.75
288.831	90.75
289.062	82.75
289.293	75.75
289.524	88.75
289.755	98.75
289.986	76.75
290.217	92.75
290.448	77.75
290.679	82.75
290.91	78.75
291.141	74.75
291.371	85.75
291.602	95.75
291.833	74.75
292.064	81.75
292.295	76.75
292.526	90.75
292.757	86.75
292.987	87.75
293.218	88.75
293.449	85.75
293.68	94.75
293.91	94.75
294.141	93.75
294.372	91.75
294.603	86.75
294.833	99.75
295.064	103.75
295.295	102.75
295.525	89.75
295.756	102.75
295.987	116.75
296.217	138.75
296.448	109.75
296.679	80.75
296.909	84.75
297.14	99.75
297.37	83.75
297.601	82.75
297.831	78.75
298.062	100.75
298.292	88.75
298.523	95.75
298.753	75.75
298.984	90.75
299.214	88.75
299.445	98.75
299.675	93.75
299.905	102.75
300.136	97.75
300.366	92.75
300.597	82.75
300.827	85.75
301.057	87.75
301.288	105.75
301.518	90.75
301.748	86.75
301.979	95.75
302.209	87.75
302.439	86.75
302.669	82.75
302.9	75.75
303.13	89.75
303.36	98.75
303.59	111.75
303.82	90.75
304.051	94.75
304.281	89.75
304.511	83.75
304.741	87.75
304.971	85.75
305.201	89.75
305.431	77.75
305.661	86.75
305.891	82.75
306.121	101.75
306.352	87.75
306.582	99.75
306.812	93.75
307.042	93.75
307.272	92.75
307.502	94.75
307.731	88.75
307.961	81.75
308.191	97.75
308.421	88.75
308.651	85.75
308.881	94.75
309.111	96.75
309.341	98.75
309.571	101.75
309.8	97.75
310.03	89.75
310.26	89.75
310.49	93.75
310.72	84.75
310.949	85.75
311.179	98.75
311.409	77.75
311.639	84.75
311.868	77.75
312.098	91.75
312.328	94.75
312.557	96.75
312.787	97.75
313.017	87.75
313.246	84.75
313.476	103.75
313.706	84.75
313.935	87.75
314.165	108.75
314.394	104.75
314.624	95.75
314.853	88.75
315.083	88.75
315.312	86.75
315.542	89.75
315.771	103.75
316.001	92.75
316.23	81.75
316.46	81.75
316.689	101.75
316.919	67.75
317.148	104.75
317.377	90.75
317.607	89.75
317.836	93.75
318.065	84.75
318.295	84.75
318.524	92.75
318.753	86.75
318.983	92.75
319.212	111.75
319.441	116.75
319.67	104.75
319.9	101.75
320.129	85.75
320.358	80.75
320.587	90.75
320.816	92.75
321.046	108.75
321.275	108.75
321.504	97.75
321.733	82.75
321.962	96.75
322.191	104.75
322.42	103.75
322.649	106.75
322.878	108.75
323.108	124.75
323.337	140.75
323.566	139.75
323.795	165.75
324.024	220.75
324.253	433.75
324.482	917.75
324.71	1897.75
324.939	2518.75
325.168	890.75
325.397	260.75
325.626	148.75
325.855	135.75
326.084	118.75
326.313	140.75
326.542	156.75
326.77	258.75
326.999	507.75
327.228	1072.75
327.457	1903.75
327.686	1517.75
327.914	412.75
328.143	192.75
328.372	146.75
328.6	127.75
328.829	114.75
329.058	128.75
329.287	123.75
329.515	109.75
329.744	105.75
329.972	97.75
330.201	99.75
330.43	118.75
330.658	117.75
330.887	136.75
331.115	126.75
331.344	108.75
331.572	107.75
331.801	98.75
332.03	90.75
332.258	89.75
332.486	90.75
332.715	94.75
332.943	95.75
333.172	93.75
333.4	96.75
333.629	112.75
333.857	110.75
334.085	93.75
334.314	88.75
334.542	112.75
334.771	104.75
334.999	99.75
335.227	89.75
335.455	96.75
335.684	89.75
335.912	87.75
336.14	102.75
336.369	90.75
336.597	98.75
336.825	100.75
337.053	104.75
337.281	89.75
337.51	82.75
337.738	99.75
337.966	103.75
338.194	105.75
338.422	90.75
338.65	102.75
338.878	95.75
339.106	89.75
339.334	82.75
339.562	101.75
339.79	95.75
340.018	100.75
340.246	83.75
340.474	92.75
340.702	87.75
340.93	87.75
341.158	100.75
341.386	97.75
341.614	106.75
341.842	89.75
342.07	87.75
342.298	87.75
342.526	79.75
342.754	88.75
342.981	97.75
343.209	87.75
343.437	100.75
343.665	90.75
343.893	100.75
344.12	82.75
344.348	80.75
344.576	99.75
344.804	98.75
345.031	102.75
345.259	102.75
345.487	96.75
345.714	101.75
345.942	99.75
346.17	99.75
346.397	88.75
346.625	93.75
346.853	94.75
347.08	94.75
347.308	103.75
347.535	104.75
347.763	114.75
347.99	113.75
348.218	96.75
348.445	104.75
348.673	99.75
348.9	93.75
349.128	103.75
349.355	102.75
349.583	111.75
349.81	97.75
350.037	99.75
350.265	95.75
350.492	109.75
350.72	104.75
350.947	109.75
351.174	100.75
351.402	100.75
351.629	108.75
351.856	108.75
352.083	101.75
352.311	111.75
352.538	117.75
352.765	118.75
352.992	116.75
353.22	110.75
353.447	112.75
353.674	96.75
353.901	90.75
354.128	87.75
354.355	101.75
354.583	89.75
354.81	88.75
355.037	96.75
355.264	82.75
355.491	94.75
355.718	98.75
355.945	83.75
356.172	87.75
356.399	110.75
356.626	88.75
356.853	96.75
357.08	102.75
357.307	97.75
357.534	86.75
357.761	109.75
357.988	103.75
358.215	83.75
358.441	102.75
358.668	86.75
358.895	79.75
359.122	83.75
359.349	97.75
359.576	103.75
359.802	100.75
360.029	100.75
360.256	120.75
360.483	90.75
360.709	90.75
360.936	93.75
361.163	87.75
361.39	98.75
361.616	88.75
361.843	92.75
362.07	88.75
362.296	91.75
362.523	74.75
362.749	88.75
362.976	93.75
363.203	89.75
363.429	83.75
363.656	89.75
363.882	87.75
364.109	81.75
364.335	68.75
364.562	86.75
364.788	102.75
365.015	110.75
365.241	99.75
365.468	111.75
365.694	109.75
365.92	91.75
366.147	76.75
366.373	89.75
366.599	82.75
366.826	98.75
367.052	90.75
367.278	85.75
367.505	82.75
367.731	98.75
367.957	82.75
368.184	87.75
368.41	97.75
368.636	110.75
368.862	112.75
369.089	111.75
369.315	95.75
369.541	78.75
369.767	82.75
369.993	91.75
370.219	80.75
370.445	74.75
370.672	97.75
370.898	98.75
371.124	93.75
371.35	84.75
371.576	95.75
371.802	82.75
372.028	93.75
372.254	87.75
372.48	90.75
372.706	95.75
372.932	87.75
373.158	84.75
373.384	96.75
373.61	92.75
373.835	99.75
374.061	80.75
374.287	100.75
374.513	100.75
374.739	76.75
374.965	92.75
375.191	100.75
375.416	92.75
375.642	88.75
375.868	94.75
376.094	84.75
376.319	98.75
376.545	97.75
376.771	89.75
376.997	99.75
377.222	94.75
377.448	95.75
377.674	92.75
377.899	85.75
378.125	78.75
378.35	109.75
378.576	102.75
378.802	99.75
379.027	93.75
379.253	96.75
379.478	85.75
379.704	88.75
379.929	116.75
380.155	98.75
380.38	104.75
380.606	83.75
380.831	102.75
381.057	109.75
381.282	100.75
381.507	99.75
381.733	91.75
381.958	94.75
382.184	100.75
382.409	113.75
382.634	103.75
382.86	98.75
383.085	104.75
383.31	97.75
383.535	94.75
383.761	94.75
383.986	98.75
384.211	109.75
384.436	100.75
384.662	106.75
384.887	113.75
385.112	114.75
385.337	116.75
385.562	97.75
385.787	106.75
386.013	106.75
386.238	112.75
386.463	116.75
386.688	111.75
386.913	90.75
387.138	112.75
387.363	117.75
387.588	107.75
387.813	93.75
388.038	106.75
388.263	116.75
388.488	112.75
388.713	105.75
388.938	101.75
389.163	102.75
389.387	109.75
389.612	97.75
389.837	93.75
390.062	93.75
390.287	106.75
390.512	84.75
390.736	86.75
390.961	97.75
391.186	73.75
391.411	106.75
391.636	103.75
391.86	87.75
392.085	80.75
392.31	86.75
392.534	80.75
392.759	94.75
392.984	85.75
393.208	100.75
393.433	100.75
393.658	92.75
393.882	88.75
394.107	68.75
394.331	82.75
394.556	88.75
394.78	96.75
395.005	87.75
395.229	83.75
395.454	97.75
395.678	90.75
395.903	96.75
396.127	81.75
396.352	88.75
396.576	87.75
396.801	94.75
397.025	97.75
397.249	101.75
397.474	93.75
397.698	81.75
397.922	93.75
398.147	81.75
398.371	94.75
398.595	99.75
398.82	89.75
399.044	81.75
399.268	80.75
399.492	96.75
399.717	91.75
399.941	91.75
400.165	96.75
400.389	96.75
400.613	100.75
400.837	77.75
401.062	103.75
401.286	80.75
401.51	84.75
401.734	92.75
401.958	101.75
402.182	144.75
402.406	152.75
402.63	101.75
402.854	101.75
403.078	82.75
403.302	97.75
403.526	89.75
403.75	68.75
403.974	94.75
404.198	110.75
404.422	89.75
404.645	77.75
404.869	85.75
405.093	104.75
405.317	102.75
405.541	108.75
405.765	105.75
405.988	130.75
406.212	182.75
406.436	242.75
406.66	144.75
406.883	107.75
407.107	101.75
407.331	110.75
407.555	102.75
407.778	100.75
408.002	93.75
408.226	82.75
408.449	82.75
408.673	94.75
408.896	84.75
409.12	101.75
409.344	73.75
409.567	93.75
409.791	94.75
410.014	95.75
410.238	88.75
410.461	94.75
410.685	98.75
410.908	103.75
411.132	110.75
411.355	113.75
411.578	96.75
411.802	87.75
412.025	90.75
412.249	85.75
412.472	82.75
412.695	88.75
412.919	100.75
413.142	76.75
413.365	93.75
413.589	94.75
413.812	89.75
414.035	94.75
414.258	89.75
414.482	79.75
414.705	101.75
414.928	88.75
415.151	86.75
415.374	93.75
415.597	94.75
415.821	102.75
416.044	90.75
416.267	82.75
416.49	85.75
416.713	102.75
416.936	93.75
417.159	85.75
417.382	83.75
417.605	92.75
417.828	93.75
418.051	99.75
418.274	83.75
418.497	84.75
418.72	78.75
418.943	87.75
419.166	84.75
419.389	92.75
419.611	90.75
419.834	90.75
420.057	92.75
420.28	104.75
420.503	97.75
420.726	93.75
420.948	88.75
421.171	72.75
421.394	92.75
421.617	101.75
421.839	86.75
422.062	93.75
422.285	99.75
422.507	102.75
422.73	99.75
422.953	104.75
423.175	97.75
423.398	104.75
423.621	112.75
423.843	83.75
424.066	92.75
424.288	91.75
424.511	93.75
424.733	87.75
424.956	105.75
425.178	102.75
425.401	108.75
425.623	100.75
425.846	85.75
426.068	96.75
426.291	82.75
426.513	99.75
426.735	93.75
426.958	99.75
427.18	101.75
427.402	133.75
427.625	172.75
427.847	128.75
428.069	100.75
428.292	92.75
428.514	96.75
428.736	95.75
428.958	87.75
429.181	97.75
429.403	88.75
429.625	92.75
429.847	102.75
430.069	99.75
430.292	96.75
430.514	82.75
430.736	90.75
430.958	89.75
431.18	95.75
431.402	87.75
431.624	89.75
431.846	73.75
432.068	76.75
432.29	88.75
432.512	94.75
432.734	94.75
432.956	103.75
433.178	102.75
433.4	108.75
433.622	89.75
433.844	81.75
434.066	81.75
434.287	85.75
434.509	100.75
434.731	88.75
434.953	80.75
435.175	95.75
435.397	81.75
435.618	89.75
435.84	101.75
436.062	131.75
436.284	114.75
436.505	90.75
436.727	104.75
436.949	106.75
437.17	82.75
437.392	83.75
437.614	78.75
437.835	97.75
438.057	116.75
438.278	106.75
438.5	97.75
438.721	111.75
438.943	92.75
439.165	90.75
439.386	84.75
439.608	93.75
439.829	108.75
440.05	118.75
440.272	143.75
440.493	103.75
440.715	95.75
440.936	86.75
441.158	89.75
441.379	102.75
441.6	90.75
441.822	84.75
442.043	85.75
442.264	93.75
442.486	85.75
442.707	100.75
442.928	102.75
443.149	135.75
443.371	112.75
443.592	107.75
443.813	97.75
444.034	125.75
444.255	95.75
444.476	94.75
444.698	94.75
444.919	96.75
445.14	134.75
445.361	126.75
445.582	103.75
445.803	130.75
446.024	150.75
446.245	144.75
446.466	103.75
446.687	79.75
446.908	74.75
447.129	95.75
447.35	81.75
447.571	90.75
447.792	100.75
448.013	96.75
448.234	110.75
448.455	102.75
448.675	109.75
448.896	104.75
449.117	103.75
449.338	94.75
449.559	134.75
449.779	131.75
450	106.75
450.221	98.75
450.442	101.75
450.662	85.75
450.883	92.75
451.104	100.75
451.324	95.75
451.545	76.75
451.766	84.75
451.986	87.75
452.207	85.75
452.428	87.75
452.648	105.75
452.869	119.75
453.089	111.75
453.31	125.75
453.53	110.75
453.751	93.75
453.971	98.75
454.192	107.75
454.412	88.75
454.633	98.75
454.853	89.75
455.073	80.75
455.294	81.75
455.514	97.75
455.734	88.75
455.955	71.75
456.175	88.75
456.395	73.75
456.616	95.75
456.836	88.75
457.056	73.75
457.276	93.75
457.497	94.75
457.717	84.75
457.937	81.75
458.157	89.75
458.377	77.75
458.598	111.75
458.818	160.75
459.038	160.75
459.258	117.75
459.478	97.75
459.698	100.75
459.918	85.75
460.138	83.75
460.358	88.75
460.578	69.75
460.798	84.75
461.018	94.75
461.238	93.75
461.458	84.75
461.678	69.75
461.898	83.75
462.118	88.75
462.338	90.75
462.558	78.75
462.777	76.75
462.997	89.75
463.217	89.75
463.437	75.75
463.657	87.75
463.876	98.75
464.096	105.75
464.316	101.75
464.536	81.75
464.755	111.75
464.975	108.75
465.195	166.75
465.414	153.75
465.634	105.75
465.854	81.75
466.073	73.75
466.293	97.75
466.512	92.75
466.732	89.75
466.951	94.75
467.171	107.75
467.391	89.75
467.61	107.75
467.829	80.75
468.049	90.75
468.268	94.75
468.488	80.75
468.707	82.75
468.927	94.75
469.146	107.75
469.365	86.75
469.585	88.75
469.804	93.75
470.023	96.75
470.243	111.75
470.462	104.75
470.681	109.75
470.901	87.75
471.12	90.75
471.339	82.75
471.558	89.75
471.777	94.75
471.997	87.75
472.216	100.75
472.435	99.75
472.654	94.75
472.873	90.75
473.092	88.75
473.311	79.75
473.53	74.75
473.749	93.75
473.968	88.75
474.187	93.75
474.406	93.75
474.625	90.75
474.844	96.75
475.063	67.75
475.282	87.75
475.501	89.75
475.72	84.75
475.939	86.75
476.158	81.75
476.377	90.75
476.596	93.75
476.814	86.75
477.033	87.75
477.252	90.75
477.471	88.75
477.69	101.75
477.908	93.75
478.127	87.75
478.346	97.75
478.564	106.75
478.783	103.75
479.002	91.75
479.22	85.75
479.439	94.75
479.658	103.75
479.876	82.75
480.095	93.75
480.313	77.75
480.532	90.75
480.751	92.75
480.969	99.75
481.188	125.75
481.406	112.75
481.624	86.75
481.843	100.75
482.061	90.75
482.28	91.75
482.498	97.75
482.717	96.75
482.935	88.75
483.153	88.75
483.372	97.75
483.59	78.75
483.808	89.75
484.027	90.75
484.245	96.75
484.463	96.75
484.681	93.75
484.9	88.75
485.118	96.75
485.336	92.75
485.554	86.75
485.772	92.75
485.99	106.75
486.209	116.75
486.427	104.75
486.645	113.75
486.863	126.75
487.081	101.75
487.299	99.75
487.517	93.75
487.735	81.75
487.953	78.75
488.171	100.75
488.389	98.75
488.607	93.75
488.825	87.75
489.043	86.75
489.261	98.75
489.479	94.75
489.696	97.75
489.914	82.75
490.132	85.75
490.35	104.75
490.568	84.75
490.786	106.75
491.003	86.75
491.221	97.75
491.439	99.75
491.657	95.75
491.874	101.75
492.092	95.75
492.31	95.75
492.527	100.75
492.745	94.75
492.963	89.75
493.18	93.75
493.398	96.75
493.615	103.75
493.833	85.75
494.05	67.75
494.268	101.75
494.485	94.75
494.703	100.75
494.92	92.75
495.138	84.75
495.355	93.75
495.573	82.75
495.79	92.75
496.008	99.75
496.225	91.75
496.442	98.75
496.66	81.75
496.877	83.75
497.094	111.75
497.312	86.75
497.529	72.75
497.746	90.75
497.963	89.75
498.181	90.75
498.398	106.75
498.615	106.75
498.832	91.75
499.049	95.75
499.267	82.75
499.484	81.75
499.701	85.75
499.918	104.75
500.135	92.75
500.352	76.75
500.569	86.75
500.786	96.75
501.003	82.75
501.22	106.75
501.437	83.75
501.654	100.75
501.871	109.75
502.088	93.75
502.305	104.75
502.522	89.75
502.739	101.75
502.956	88.75
503.172	105.75
503.389	95.75
503.606	106.75
503.823	101.75
504.04	100.75
504.256	88.75
504.473	95.75
504.69	94.75
504.907	102.75
505.123	89.75
505.34	106.75
505.557	88.75
505.773	86.75
505.99	81.75
506.207	94.75
506.423	100.75
506.64	90.75
506.856	94.75
507.073	92.75
507.289	85.75
507.506	96.75
507.722	101.75
507.939	108.75
508.155	102.75
508.372	93.75
508.588	94.75
508.805	101.75
509.021	105.75
509.238	116.75
509.454	100.75
509.67	100.75
509.887	117.75
510.103	142.75
510.319	239.75
510.536	862.75
510.752	2677.75
510.968	738.75
511.184	174.75
511.401	113.75
511.617	93.75
511.833	88.75
512.049	98.75
512.265	86.75
512.481	97.75
512.698	82.75
512.914	85.75
513.13	82.75
513.346	88.75
513.562	95.75
513.778	82.75
513.994	113.75
514.21	118.75
514.426	121.75
514.642	140.75
514.858	137.75
515.074	183.75
515.29	495.75
