Data from Uncirc_2004_H10_HRD10591_00003.txt Node
Date: Wed Jan 03 10:32:13 EST 2024
User: Yrep
Spectrometer: HR+D1059
Trigger mode: 1
Integration Time (sec): 1.000000E-1
Scans to average: 1
Electric dark correction enabled: true
Nonlinearity correction enabled: false
Boxcar width: 0
XAxis mode: Wavelengths
Number of Pixels in Spectrum: 2048
>>>>>Begin Spectral Data<<<<<
223.165	-12.06
223.4	-12.06
223.635	-12.06
223.869	-18.06
224.104	-13.06
224.338	-25.06
224.573	-23.06
224.808	-9.06
225.042	-3.06
225.277	-10.06
225.511	2.94
225.746	1.94
225.98	8.94
226.215	13.94
226.449	5.94
226.683	18.94
226.918	25.94
227.152	34.94
227.387	26.94
227.621	43.94
227.856	35.94
228.09	28.94
228.324	31.94
228.559	52.94
228.793	56.94
229.027	50.94
229.262	59.94
229.496	70.94
229.73	72.94
229.964	76.94
230.199	71.94
230.433	74.94
230.667	73.94
230.901	82.94
231.136	71.94
231.37	56.94
231.604	66.94
231.838	72.94
232.072	63.94
232.306	84.94
232.541	90.94
232.775	67.94
233.009	85.94
233.243	75.94
233.477	79.94
233.711	71.94
233.945	77.94
234.179	51.94
234.413	76.94
234.647	69.94
234.881	70.94
235.115	88.94
235.349	82.94
235.583	73.94
235.817	69.94
236.051	71.94
236.285	89.94
236.519	74.94
236.753	76.94
236.987	73.94
237.221	75.94
237.455	77.94
237.689	90.94
237.922	64.94
238.156	66.94
238.39	66.94
238.624	64.94
238.858	81.94
239.091	65.94
239.325	82.94
239.559	77.94
239.793	72.94
240.027	75.94
240.26	56.94
240.494	60.94
240.728	78.94
240.961	70.94
241.195	66.94
241.429	58.94
241.662	72.94
241.896	81.94
242.13	73.94
242.363	74.94
242.597	68.94
242.83	67.94
243.064	85.94
243.298	61.94
243.531	62.94
243.765	81.94
243.998	78.94
244.232	73.94
244.465	67.94
244.699	66.94
244.932	67.94
245.166	67.94
245.399	68.94
245.633	73.94
245.866	88.94
246.099	82.94
246.333	74.94
246.566	73.94
246.8	58.94
247.033	66.94
247.266	70.94
247.5	74.94
247.733	69.94
247.966	82.94
248.2	74.94
248.433	68.94
248.666	81.94
248.899	82.94
249.133	72.94
249.366	81.94
249.599	75.94
249.832	86.94
250.066	77.94
250.299	67.94
250.532	61.94
250.765	75.94
250.998	69.94
251.231	73.94
251.465	82.94
251.698	68.94
251.931	70.94
252.164	66.94
252.397	59.94
252.63	63.94
252.863	79.94
253.096	79.94
253.329	66.94
253.562	81.94
253.795	81.94
254.028	72.94
254.261	75.94
254.494	77.94
254.727	63.94
254.96	85.94
255.193	62.94
255.426	80.94
255.659	66.94
255.892	85.94
256.124	80.94
256.357	66.94
256.59	82.94
256.823	85.94
257.056	82.94
257.289	78.94
257.521	80.94
257.754	74.94
257.987	75.94
258.22	73.94
258.452	74.94
258.685	68.94
258.918	74.94
259.151	89.94
259.383	65.94
259.616	73.94
259.849	66.94
260.081	74.94
260.314	71.94
260.547	74.94
260.779	70.94
261.012	68.94
261.244	71.94
261.477	81.94
261.71	88.94
261.942	76.94
262.175	93.94
262.407	90.94
262.64	79.94
262.872	71.94
263.105	73.94
263.337	85.94
263.57	75.94
263.802	73.94
264.035	76.94
264.267	69.94
264.499	82.94
264.732	85.94
264.964	87.94
265.197	66.94
265.429	81.94
265.661	83.94
265.894	71.94
266.126	73.94
266.358	68.94
266.591	71.94
266.823	77.94
267.055	89.94
267.287	93.94
267.52	73.94
267.752	92.94
267.984	94.94
268.216	80.94
268.448	78.94
268.681	70.94
268.913	88.94
269.145	70.94
269.377	81.94
269.609	72.94
269.841	89.94
270.073	88.94
270.306	80.94
270.538	70.94
270.77	71.94
271.002	83.94
271.234	78.94
271.466	73.94
271.698	73.94
271.93	81.94
272.162	96.94
272.394	83.94
272.626	87.94
272.858	77.94
273.09	78.94
273.322	79.94
273.553	79.94
273.785	69.94
274.017	50.94
274.249	85.94
274.481	66.94
274.713	86.94
274.945	77.94
275.176	81.94
275.408	79.94
275.64	82.94
275.872	75.94
276.104	70.94
276.335	71.94
276.567	72.94
276.799	96.94
277.031	85.94
277.262	81.94
277.494	85.94
277.726	75.94
277.957	83.94
278.189	68.94
278.421	77.94
278.652	81.94
278.884	81.94
279.115	71.94
279.347	76.94
279.579	83.94
279.81	85.94
280.042	77.94
280.273	104.94
280.505	80.94
280.736	85.94
280.968	78.94
281.199	67.94
281.431	74.94
281.662	86.94
281.894	88.94
282.125	92.94
282.356	89.94
282.588	113.94
282.819	82.94
283.051	89.94
283.282	81.94
283.513	75.94
283.745	77.94
283.976	73.94
284.207	92.94
284.439	77.94
284.67	90.94
284.901	82.94
285.132	78.94
285.364	81.94
285.595	88.94
285.826	89.94
286.057	91.94
286.288	76.94
286.52	72.94
286.751	74.94
286.982	92.94
287.213	74.94
287.444	71.94
287.675	89.94
287.906	100.94
288.138	88.94
288.369	84.94
288.6	66.94
288.831	81.94
289.062	84.94
289.293	84.94
289.524	80.94
289.755	81.94
289.986	81.94
290.217	82.94
290.448	81.94
290.679	93.94
290.91	96.94
291.141	78.94
291.371	81.94
291.602	82.94
291.833	76.94
292.064	71.94
292.295	85.94
292.526	80.94
292.757	77.94
292.987	83.94
293.218	88.94
293.449	92.94
293.68	77.94
293.91	73.94
294.141	88.94
294.372	89.94
294.603	78.94
294.833	90.94
295.064	98.94
295.295	90.94
295.525	86.94
295.756	77.94
295.987	92.94
296.217	116.94
296.448	98.94
296.679	85.94
296.909	67.94
297.14	90.94
297.37	91.94
297.601	85.94
297.831	76.94
298.062	86.94
298.292	80.94
298.523	72.94
298.753	80.94
298.984	87.94
299.214	99.94
299.445	92.94
299.675	84.94
299.905	102.94
300.136	89.94
300.366	81.94
300.597	69.94
300.827	73.94
301.057	82.94
301.288	83.94
301.518	84.94
301.748	81.94
301.979	106.94
302.209	84.94
302.439	79.94
302.669	91.94
302.9	83.94
303.13	77.94
303.36	85.94
303.59	91.94
303.82	84.94
304.051	79.94
304.281	83.94
304.511	95.94
304.741	79.94
304.971	81.94
305.201	85.94
305.431	77.94
305.661	83.94
305.891	78.94
306.121	71.94
306.352	98.94
306.582	95.94
306.812	76.94
307.042	77.94
307.272	74.94
307.502	82.94
307.731	79.94
307.961	84.94
308.191	83.94
308.421	97.94
308.651	88.94
308.881	78.94
309.111	72.94
309.341	71.94
309.571	92.94
309.8	87.94
310.03	90.94
310.26	80.94
310.49	83.94
310.72	85.94
310.949	96.94
311.179	96.94
311.409	97.94
311.639	96.94
311.868	83.94
312.098	105.94
312.328	86.94
312.557	95.94
312.787	90.94
313.017	91.94
313.246	101.94
313.476	89.94
313.706	76.94
313.935	78.94
314.165	88.94
314.394	98.94
314.624	81.94
314.853	76.94
315.083	90.94
315.312	89.94
315.542	93.94
315.771	84.94
316.001	84.94
316.23	84.94
316.46	76.94
316.689	84.94
316.919	85.94
317.148	68.94
317.377	99.94
317.607	86.94
317.836	77.94
318.065	97.94
318.295	83.94
318.524	87.94
318.753	80.94
318.983	92.94
319.212	94.94
319.441	90.94
319.67	96.94
319.9	92.94
320.129	97.94
320.358	77.94
320.587	73.94
320.816	89.94
321.046	83.94
321.275	91.94
321.504	93.94
321.733	97.94
321.962	81.94
322.191	105.94
322.42	101.94
322.649	102.94
322.878	107.94
323.108	117.94
323.337	115.94
323.566	112.94
323.795	127.94
324.024	177.94
324.253	307.94
324.482	656.94
324.71	1248.94
324.939	1673.94
325.168	597.94
325.397	192.94
325.626	138.94
325.855	106.94
326.084	107.94
326.313	102.94
326.542	138.94
326.77	176.94
326.999	380.94
327.228	742.94
327.457	1308.94
327.686	1018.94
327.914	300.94
328.143	159.94
328.372	107.94
328.6	106.94
328.829	107.94
329.058	90.94
329.287	104.94
329.515	106.94
329.744	101.94
329.972	97.94
330.201	92.94
330.43	109.94
330.658	92.94
330.887	113.94
331.115	107.94
331.344	96.94
331.572	96.94
331.801	82.94
332.03	89.94
332.258	86.94
332.486	86.94
332.715	87.94
332.943	101.94
333.172	80.94
333.4	107.94
333.629	89.94
333.857	91.94
334.085	93.94
334.314	95.94
334.542	87.94
334.771	83.94
334.999	86.94
335.227	85.94
335.455	83.94
335.684	96.94
335.912	86.94
336.14	97.94
336.369	85.94
336.597	88.94
336.825	98.94
337.053	91.94
337.281	82.94
337.51	98.94
337.738	94.94
337.966	80.94
338.194	90.94
338.422	92.94
338.65	84.94
338.878	87.94
339.106	79.94
339.334	79.94
339.562	83.94
339.79	86.94
340.018	85.94
340.246	81.94
340.474	89.94
340.702	85.94
340.93	92.94
341.158	93.94
341.386	93.94
341.614	87.94
341.842	88.94
342.07	88.94
342.298	84.94
342.526	81.94
342.754	85.94
342.981	95.94
343.209	85.94
343.437	106.94
343.665	92.94
343.893	90.94
344.12	93.94
344.348	70.94
344.576	80.94
344.804	85.94
345.031	90.94
345.259	92.94
345.487	80.94
345.714	93.94
345.942	81.94
346.17	82.94
346.397	86.94
346.625	74.94
346.853	78.94
347.08	70.94
347.308	91.94
347.535	98.94
347.763	89.94
347.99	92.94
348.218	90.94
348.445	99.94
348.673	92.94
348.9	102.94
349.128	97.94
349.355	80.94
349.583	85.94
349.81	76.94
350.037	98.94
350.265	88.94
350.492	83.94
350.72	96.94
350.947	85.94
351.174	105.94
351.402	87.94
351.629	81.94
351.856	91.94
352.083	96.94
352.311	103.94
352.538	96.94
352.765	91.94
352.992	122.94
353.22	99.94
353.447	103.94
353.674	106.94
353.901	97.94
354.128	99.94
354.355	86.94
354.583	84.94
354.81	99.94
355.037	92.94
355.264	88.94
355.491	97.94
355.718	98.94
355.945	94.94
356.172	100.94
356.399	92.94
356.626	94.94
356.853	102.94
357.08	91.94
357.307	92.94
357.534	95.94
357.761	89.94
357.988	97.94
358.215	92.94
358.441	100.94
358.668	104.94
358.895	82.94
359.122	93.94
359.349	84.94
359.576	86.94
359.802	90.94
360.029	97.94
360.256	88.94
360.483	84.94
360.709	89.94
360.936	89.94
361.163	91.94
361.39	96.94
361.616	78.94
361.843	85.94
362.07	87.94
362.296	90.94
362.523	74.94
362.749	63.94
362.976	91.94
363.203	81.94
363.429	81.94
363.656	78.94
363.882	59.94
364.109	69.94
364.335	79.94
364.562	83.94
364.788	75.94
365.015	80.94
365.241	107.94
365.468	104.94
365.694	85.94
365.92	90.94
366.147	80.94
366.373	94.94
366.599	80.94
366.826	84.94
367.052	85.94
367.278	93.94
367.505	75.94
367.731	95.94
367.957	93.94
368.184	84.94
368.41	89.94
368.636	78.94
368.862	101.94
369.089	98.94
369.315	83.94
369.541	87.94
369.767	74.94
369.993	86.94
370.219	97.94
370.445	80.94
370.672	80.94
370.898	87.94
371.124	88.94
371.35	91.94
371.576	88.94
371.802	81.94
372.028	83.94
372.254	86.94
372.48	79.94
372.706	84.94
372.932	86.94
373.158	74.94
373.384	74.94
373.61	88.94
373.835	86.94
374.061	73.94
374.287	77.94
374.513	73.94
374.739	86.94
374.965	82.94
375.191	81.94
375.416	85.94
375.642	85.94
375.868	91.94
376.094	82.94
376.319	85.94
376.545	91.94
376.771	87.94
376.997	98.94
377.222	86.94
377.448	98.94
377.674	90.94
377.899	89.94
378.125	96.94
378.35	97.94
378.576	85.94
378.802	91.94
379.027	86.94
379.253	93.94
379.478	104.94
379.704	101.94
379.929	97.94
380.155	106.94
380.38	92.94
380.606	89.94
380.831	90.94
381.057	92.94
381.282	87.94
381.507	89.94
381.733	95.94
381.958	89.94
382.184	109.94
382.409	121.94
382.634	106.94
382.86	93.94
383.085	113.94
383.31	116.94
383.535	114.94
383.761	99.94
383.986	83.94
384.211	108.94
384.436	103.94
384.662	96.94
384.887	113.94
385.112	123.94
385.337	101.94
385.562	112.94
385.787	133.94
386.013	108.94
386.238	133.94
386.463	98.94
386.688	121.94
386.913	116.94
387.138	125.94
387.363	113.94
387.588	102.94
387.813	93.94
388.038	128.94
388.263	129.94
388.488	130.94
388.713	101.94
388.938	101.94
389.163	98.94
389.387	81.94
389.612	85.94
389.837	92.94
390.062	85.94
390.287	94.94
390.512	96.94
390.736	86.94
390.961	98.94
391.186	94.94
391.411	90.94
391.636	87.94
391.86	87.94
392.085	87.94
392.31	74.94
392.534	87.94
392.759	77.94
392.984	82.94
393.208	89.94
393.433	108.94
393.658	98.94
393.882	89.94
394.107	79.94
394.331	71.94
394.556	93.94
394.78	83.94
395.005	73.94
395.229	82.94
395.454	93.94
395.678	75.94
395.903	77.94
396.127	80.94
396.352	83.94
396.576	92.94
396.801	77.94
397.025	83.94
397.249	76.94
397.474	90.94
397.698	74.94
397.922	88.94
398.147	80.94
398.371	69.94
398.595	72.94
398.82	79.94
399.044	72.94
399.268	84.94
399.492	88.94
399.717	79.94
399.941	78.94
400.165	96.94
400.389	85.94
400.613	85.94
400.837	77.94
401.062	85.94
401.286	91.94
401.51	78.94
401.734	89.94
401.958	99.94
402.182	107.94
402.406	125.94
402.63	117.94
402.854	112.94
403.078	90.94
403.302	85.94
403.526	78.94
403.75	96.94
403.974	84.94
404.198	81.94
404.422	90.94
404.645	86.94
404.869	79.94
405.093	84.94
405.317	82.94
405.541	99.94
405.765	92.94
405.988	93.94
406.212	139.94
406.436	158.94
406.66	116.94
406.883	102.94
407.107	92.94
407.331	88.94
407.555	96.94
407.778	77.94
408.002	94.94
408.226	79.94
408.449	74.94
408.673	87.94
408.896	86.94
409.12	96.94
409.344	86.94
409.567	85.94
409.791	99.94
410.014	97.94
410.238	79.94
410.461	88.94
410.685	91.94
410.908	100.94
411.132	99.94
411.355	101.94
411.578	98.94
411.802	84.94
412.025	82.94
412.249	85.94
412.472	100.94
412.695	82.94
412.919	83.94
413.142	92.94
413.365	86.94
413.589	79.94
413.812	90.94
414.035	86.94
414.258	85.94
414.482	87.94
414.705	83.94
414.928	92.94
415.151	95.94
415.374	93.94
415.597	88.94
415.821	92.94
416.044	84.94
416.267	85.94
416.49	104.94
416.713	90.94
416.936	96.94
417.159	90.94
417.382	82.94
417.605	84.94
417.828	82.94
418.051	93.94
418.274	92.94
418.497	95.94
418.72	83.94
418.943	89.94
419.166	92.94
419.389	85.94
419.611	84.94
419.834	90.94
420.057	84.94
420.28	85.94
420.503	85.94
420.726	86.94
420.948	73.94
421.171	97.94
421.394	87.94
421.617	92.94
421.839	90.94
422.062	100.94
422.285	80.94
422.507	89.94
422.73	88.94
422.953	92.94
423.175	78.94
423.398	75.94
423.621	86.94
423.843	104.94
424.066	91.94
424.288	75.94
424.511	89.94
424.733	69.94
424.956	104.94
425.178	81.94
425.401	95.94
425.623	104.94
425.846	79.94
426.068	84.94
426.291	71.94
426.513	84.94
426.735	75.94
426.958	99.94
427.18	93.94
427.402	123.94
427.625	135.94
427.847	102.94
428.069	83.94
428.292	91.94
428.514	100.94
428.736	78.94
428.958	99.94
429.181	75.94
429.403	82.94
429.625	94.94
429.847	93.94
430.069	101.94
430.292	89.94
430.514	83.94
430.736	83.94
430.958	92.94
431.18	77.94
431.402	84.94
431.624	97.94
431.846	93.94
432.068	91.94
432.29	80.94
432.512	77.94
432.734	93.94
432.956	84.94
433.178	99.94
433.4	99.94
433.622	85.94
433.844	74.94
434.066	81.94
434.287	83.94
434.509	106.94
434.731	86.94
434.953	85.94
435.175	85.94
435.397	79.94
435.618	91.94
435.84	106.94
436.062	106.94
436.284	114.94
436.505	92.94
436.727	96.94
436.949	87.94
437.17	87.94
437.392	70.94
437.614	80.94
437.835	91.94
438.057	105.94
438.278	97.94
438.5	97.94
438.721	113.94
438.943	88.94
439.165	69.94
439.386	74.94
439.608	89.94
439.829	89.94
440.05	109.94
440.272	113.94
440.493	85.94
440.715	88.94
440.936	69.94
441.158	78.94
441.379	81.94
441.6	82.94
441.822	78.94
442.043	65.94
442.264	91.94
442.486	96.94
442.707	82.94
442.928	83.94
443.149	110.94
443.371	104.94
443.592	97.94
443.813	97.94
444.034	98.94
444.255	92.94
444.476	79.94
444.698	90.94
444.919	82.94
445.14	119.94
445.361	108.94
445.582	118.94
445.803	123.94
446.024	116.94
446.245	116.94
446.466	110.94
446.687	87.94
446.908	75.94
447.129	75.94
447.35	73.94
447.571	88.94
447.792	90.94
448.013	92.94
448.234	94.94
448.455	84.94
448.675	98.94
448.896	93.94
449.117	86.94
449.338	77.94
449.559	116.94
449.779	120.94
450	79.94
450.221	82.94
450.442	102.94
450.662	85.94
450.883	88.94
451.104	114.94
451.324	76.94
451.545	86.94
451.766	73.94
451.986	85.94
452.207	88.94
452.428	82.94
452.648	96.94
452.869	106.94
453.089	109.94
453.31	87.94
453.53	101.94
453.751	86.94
453.971	82.94
454.192	86.94
454.412	80.94
454.633	91.94
454.853	89.94
455.073	84.94
455.294	95.94
455.514	98.94
455.734	109.94
455.955	75.94
456.175	88.94
456.395	79.94
456.616	93.94
456.836	77.94
457.056	78.94
457.276	81.94
457.497	81.94
457.717	82.94
457.937	91.94
458.157	85.94
458.377	89.94
458.598	93.94
458.818	133.94
459.038	121.94
459.258	104.94
459.478	88.94
459.698	72.94
459.918	80.94
460.138	72.94
460.358	90.94
460.578	79.94
460.798	77.94
461.018	90.94
461.238	90.94
461.458	84.94
461.678	94.94
461.898	85.94
462.118	78.94
462.338	68.94
462.558	85.94
462.777	76.94
462.997	95.94
463.217	73.94
463.437	96.94
463.657	72.94
463.876	87.94
464.096	92.94
464.316	90.94
464.536	101.94
464.755	84.94
464.975	86.94
465.195	136.94
465.414	129.94
465.634	85.94
465.854	91.94
466.073	78.94
466.293	80.94
466.512	85.94
466.732	77.94
466.951	67.94
467.171	77.94
467.391	84.94
467.61	85.94
467.829	97.94
468.049	83.94
468.268	82.94
468.488	77.94
468.707	83.94
468.927	69.94
469.146	92.94
469.365	72.94
469.585	88.94
469.804	96.94
470.023	81.94
470.243	62.94
470.462	84.94
470.681	99.94
470.901	96.94
471.12	81.94
471.339	94.94
471.558	72.94
471.777	82.94
471.997	97.94
472.216	98.94
472.435	101.94
472.654	90.94
472.873	86.94
473.092	77.94
473.311	88.94
473.53	86.94
473.749	74.94
473.968	90.94
474.187	88.94
474.406	76.94
474.625	83.94
474.844	90.94
475.063	77.94
475.282	95.94
475.501	81.94
475.72	88.94
475.939	83.94
476.158	88.94
476.377	74.94
476.596	74.94
476.814	87.94
477.033	77.94
477.252	77.94
477.471	82.94
477.69	89.94
477.908	93.94
478.127	92.94
478.346	75.94
478.564	106.94
478.783	90.94
479.002	73.94
479.22	83.94
479.439	105.94
479.658	95.94
479.876	98.94
480.095	82.94
480.313	90.94
480.532	93.94
480.751	103.94
480.969	87.94
481.188	108.94
481.406	91.94
481.624	80.94
481.843	84.94
482.061	70.94
482.28	84.94
482.498	92.94
482.717	91.94
482.935	88.94
483.153	83.94
483.372	82.94
483.59	87.94
483.808	84.94
484.027	89.94
484.245	80.94
484.463	91.94
484.681	80.94
484.9	90.94
485.118	96.94
485.336	85.94
485.554	97.94
485.772	97.94
485.99	109.94
486.209	104.94
486.427	96.94
486.645	97.94
486.863	109.94
487.081	102.94
487.299	93.94
487.517	89.94
487.735	103.94
487.953	84.94
488.171	77.94
488.389	80.94
488.607	93.94
488.825	88.94
489.043	85.94
489.261	102.94
489.479	96.94
489.696	72.94
489.914	81.94
490.132	85.94
490.35	79.94
490.568	91.94
490.786	89.94
491.003	73.94
491.221	87.94
491.439	80.94
491.657	88.94
491.874	97.94
492.092	94.94
492.31	83.94
492.527	91.94
492.745	92.94
492.963	86.94
493.18	92.94
493.398	74.94
493.615	84.94
493.833	94.94
494.05	84.94
494.268	87.94
494.485	73.94
494.703	72.94
494.92	83.94
495.138	81.94
495.355	83.94
495.573	94.94
495.79	81.94
496.008	92.94
496.225	81.94
496.442	78.94
496.66	99.94
496.877	80.94
497.094	88.94
497.312	87.94
497.529	81.94
497.746	96.94
497.963	88.94
498.181	98.94
498.398	89.94
498.615	81.94
498.832	97.94
499.049	88.94
499.267	88.94
499.484	88.94
499.701	82.94
499.918	62.94
500.135	86.94
500.352	91.94
500.569	85.94
500.786	91.94
501.003	90.94
501.22	83.94
501.437	87.94
501.654	97.94
501.871	88.94
502.088	79.94
502.305	61.94
502.522	86.94
502.739	79.94
502.956	82.94
503.172	78.94
503.389	99.94
503.606	95.94
503.823	103.94
504.04	89.94
504.256	98.94
504.473	86.94
504.69	74.94
504.907	93.94
505.123	78.94
505.34	84.94
505.557	68.94
505.773	104.94
505.99	80.94
506.207	72.94
506.423	81.94
506.64	76.94
506.856	85.94
507.073	82.94
507.289	95.94
507.506	83.94
507.722	108.94
507.939	77.94
508.155	75.94
508.372	77.94
508.588	86.94
508.805	91.94
509.021	89.94
509.238	86.94
509.454	82.94
509.67	77.94
509.887	87.94
510.103	104.94
510.319	156.94
510.536	587.94
510.752	1708.94
510.968	502.94
511.184	148.94
511.401	104.94
511.617	70.94
511.833	90.94
512.049	80.94
512.265	80.94
512.481	95.94
512.698	82.94
512.914	73.94
513.13	95.94
513.346	92.94
513.562	82.94
513.778	86.94
513.994	79.94
514.21	95.94
514.426	109.94
514.642	109.94
514.858	107.94
515.074	141.94
515.29	337.94
515.506	963.94
515.721	376.94
515.937	124.94
516.153	100.94
516.369	103.94
516.585	96.94
516.801	81.94
517.016	78.94
517.232	85.94
517.448	76.94
517.664	85.94
