Data from Uncirc_2004_H10_HRD10591_00022.txt Node
Date: Wed Jan 03 10:32:17 EST 2024
User: Yrep
Spectrometer: HR+D1059
Trigger mode: 1
Integration Time (sec): 1.000000E-1
Scans to average: 1
Electric dark correction enabled: true
Nonlinearity correction enabled: false
Boxcar width: 0
XAxis mode: Wavelengths
Number of Pixels in Spectrum: 2048
>>>>>Begin Spectral Data<<<<<
223.165	-25.25
223.4	-25.25
223.635	-25.25
223.869	-18.25
224.104	-27.25
224.338	-17.25
224.573	-7.25
224.808	-9.25
225.042	-1.25
225.277	-2.25
225.511	-4.25
225.746	2.75
225.98	10.75
226.215	2.75
226.449	22.75
226.683	29.75
226.918	20.75
227.152	22.75
227.387	39.75
227.621	37.75
227.856	38.75
228.09	53.75
228.324	46.75
228.559	59.75
228.793	63.75
229.027	64.75
229.262	55.75
229.496	65.75
229.73	91.75
229.964	82.75
230.199	75.75
230.433	70.75
230.667	89.75
230.901	73.75
231.136	64.75
231.37	87.75
231.604	84.75
231.838	83.75
232.072	87.75
232.306	102.75
232.541	91.75
232.775	77.75
233.009	73.75
233.243	77.75
233.477	78.75
233.711	97.75
233.945	90.75
234.179	79.75
234.413	78.75
234.647	72.75
234.881	85.75
235.115	74.75
235.349	69.75
235.583	71.75
235.817	91.75
236.051	81.75
236.285	73.75
236.519	80.75
236.753	70.75
236.987	83.75
237.221	74.75
237.455	84.75
237.689	71.75
237.922	78.75
238.156	65.75
238.39	79.75
238.624	95.75
238.858	85.75
239.091	78.75
239.325	69.75
239.559	77.75
239.793	82.75
240.027	82.75
240.26	68.75
240.494	77.75
240.728	83.75
240.961	73.75
241.195	74.75
241.429	73.75
241.662	74.75
241.896	76.75
242.13	85.75
242.363	74.75
242.597	80.75
242.83	81.75
243.064	81.75
243.298	70.75
243.531	76.75
243.765	96.75
243.998	83.75
244.232	78.75
244.465	87.75
244.699	85.75
244.932	71.75
245.166	75.75
245.399	78.75
245.633	85.75
245.866	84.75
246.099	76.75
246.333	63.75
246.566	86.75
246.8	81.75
247.033	84.75
247.266	77.75
247.5	68.75
247.733	83.75
247.966	90.75
248.2	74.75
248.433	79.75
248.666	91.75
248.899	91.75
249.133	80.75
249.366	94.75
249.599	80.75
249.832	68.75
250.066	80.75
250.299	76.75
250.532	82.75
250.765	84.75
250.998	77.75
251.231	77.75
251.465	93.75
251.698	71.75
251.931	80.75
252.164	82.75
252.397	75.75
252.63	88.75
252.863	86.75
253.096	85.75
253.329	73.75
253.562	86.75
253.795	82.75
254.028	88.75
254.261	94.75
254.494	95.75
254.727	83.75
254.96	71.75
255.193	84.75
255.426	77.75
255.659	83.75
255.892	71.75
256.124	85.75
256.357	87.75
256.59	67.75
256.823	83.75
257.056	81.75
257.289	94.75
257.521	57.75
257.754	87.75
257.987	69.75
258.22	80.75
258.452	86.75
258.685	87.75
258.918	63.75
259.151	80.75
259.383	86.75
259.616	78.75
259.849	77.75
260.081	77.75
260.314	86.75
260.547	78.75
260.779	87.75
261.012	83.75
261.244	96.75
261.477	84.75
261.71	82.75
261.942	99.75
262.175	115.75
262.407	88.75
262.64	77.75
262.872	96.75
263.105	85.75
263.337	82.75
263.57	89.75
263.802	80.75
264.035	71.75
264.267	68.75
264.499	72.75
264.732	92.75
264.964	83.75
265.197	84.75
265.429	77.75
265.661	72.75
265.894	82.75
266.126	87.75
266.358	92.75
266.591	92.75
266.823	67.75
267.055	77.75
267.287	85.75
267.52	70.75
267.752	81.75
267.984	88.75
268.216	85.75
268.448	95.75
268.681	78.75
268.913	63.75
269.145	88.75
269.377	85.75
269.609	80.75
269.841	87.75
270.073	85.75
270.306	88.75
270.538	84.75
270.77	83.75
271.002	79.75
271.234	83.75
271.466	80.75
271.698	78.75
271.93	81.75
272.162	83.75
272.394	82.75
272.626	81.75
272.858	87.75
273.09	83.75
273.322	91.75
273.553	79.75
273.785	79.75
274.017	87.75
274.249	88.75
274.481	82.75
274.713	89.75
274.945	86.75
275.176	93.75
275.408	86.75
275.64	72.75
275.872	84.75
276.104	81.75
276.335	96.75
276.567	100.75
276.799	102.75
277.031	89.75
277.262	78.75
277.494	91.75
277.726	83.75
277.957	76.75
278.189	94.75
278.421	84.75
278.652	91.75
278.884	83.75
279.115	84.75
279.347	84.75
279.579	86.75
279.81	80.75
280.042	99.75
280.273	93.75
280.505	97.75
280.736	86.75
280.968	83.75
281.199	69.75
281.431	91.75
281.662	78.75
281.894	72.75
282.125	93.75
282.356	98.75
282.588	132.75
282.819	100.75
283.051	102.75
283.282	84.75
283.513	80.75
283.745	96.75
283.976	107.75
284.207	94.75
284.439	93.75
284.67	94.75
284.901	99.75
285.132	79.75
285.364	82.75
285.595	88.75
285.826	71.75
286.057	84.75
286.288	86.75
286.52	86.75
286.751	77.75
286.982	80.75
287.213	79.75
287.444	77.75
287.675	89.75
287.906	87.75
288.138	90.75
288.369	108.75
288.6	81.75
288.831	80.75
289.062	97.75
289.293	91.75
289.524	82.75
289.755	92.75
289.986	81.75
290.217	85.75
290.448	78.75
290.679	79.75
290.91	89.75
291.141	69.75
291.371	90.75
291.602	88.75
291.833	95.75
292.064	73.75
292.295	95.75
292.526	86.75
292.757	95.75
292.987	89.75
293.218	80.75
293.449	85.75
293.68	90.75
293.91	100.75
294.141	91.75
294.372	90.75
294.603	89.75
294.833	100.75
295.064	88.75
295.295	86.75
295.525	86.75
295.756	103.75
295.987	117.75
296.217	128.75
296.448	100.75
296.679	90.75
296.909	99.75
297.14	86.75
297.37	92.75
297.601	92.75
297.831	102.75
298.062	96.75
298.292	77.75
298.523	89.75
298.753	82.75
298.984	99.75
299.214	96.75
299.445	86.75
299.675	96.75
299.905	93.75
300.136	106.75
300.366	98.75
300.597	90.75
300.827	95.75
301.057	96.75
301.288	97.75
301.518	96.75
301.748	87.75
301.979	95.75
302.209	92.75
302.439	98.75
302.669	90.75
302.9	79.75
303.13	85.75
303.36	96.75
303.59	95.75
303.82	89.75
304.051	99.75
304.281	106.75
304.511	94.75
304.741	95.75
304.971	105.75
305.201	79.75
305.431	86.75
305.661	74.75
305.891	84.75
306.121	102.75
306.352	101.75
306.582	91.75
306.812	70.75
307.042	99.75
307.272	94.75
307.502	83.75
307.731	79.75
307.961	77.75
308.191	83.75
308.421	79.75
308.651	99.75
308.881	107.75
309.111	84.75
309.341	88.75
309.571	94.75
309.8	88.75
310.03	83.75
310.26	91.75
310.49	96.75
310.72	103.75
310.949	95.75
311.179	81.75
311.409	94.75
311.639	92.75
311.868	101.75
312.098	101.75
312.328	102.75
312.557	103.75
312.787	105.75
313.017	94.75
313.246	88.75
313.476	77.75
313.706	87.75
313.935	95.75
314.165	81.75
314.394	97.75
314.624	87.75
314.853	100.75
315.083	88.75
315.312	96.75
315.542	79.75
315.771	92.75
316.001	91.75
316.23	110.75
316.46	93.75
316.689	88.75
316.919	91.75
317.148	91.75
317.377	94.75
317.607	102.75
317.836	104.75
318.065	92.75
318.295	83.75
318.524	90.75
318.753	85.75
318.983	97.75
319.212	109.75
319.441	105.75
319.67	117.75
319.9	95.75
320.129	82.75
320.358	72.75
320.587	101.75
320.816	108.75
321.046	101.75
321.275	92.75
321.504	82.75
321.733	93.75
321.962	98.75
322.191	102.75
322.42	96.75
322.649	104.75
322.878	100.75
323.108	109.75
323.337	115.75
323.566	125.75
323.795	143.75
324.024	211.75
324.253	408.75
324.482	812.75
324.71	1611.75
324.939	2063.75
325.168	767.75
325.397	236.75
325.626	144.75
325.855	113.75
326.084	127.75
326.313	112.75
326.542	168.75
326.77	243.75
326.999	440.75
327.228	937.75
327.457	1683.75
327.686	1285.75
327.914	347.75
328.143	169.75
328.372	130.75
328.6	108.75
328.829	116.75
329.058	105.75
329.287	113.75
329.515	100.75
329.744	106.75
329.972	109.75
330.201	107.75
330.43	108.75
330.658	111.75
330.887	110.75
331.115	108.75
331.344	93.75
331.572	108.75
331.801	99.75
332.03	96.75
332.258	92.75
332.486	104.75
332.715	92.75
332.943	108.75
333.172	73.75
333.4	101.75
333.629	107.75
333.857	112.75
334.085	93.75
334.314	95.75
334.542	110.75
334.771	110.75
334.999	105.75
335.227	87.75
335.455	85.75
335.684	91.75
335.912	103.75
336.14	89.75
336.369	99.75
336.597	96.75
336.825	108.75
337.053	93.75
337.281	82.75
337.51	101.75
337.738	93.75
337.966	91.75
338.194	92.75
338.422	98.75
338.65	93.75
338.878	82.75
339.106	84.75
339.334	71.75
339.562	98.75
339.79	77.75
340.018	87.75
340.246	99.75
340.474	84.75
340.702	83.75
340.93	77.75
341.158	91.75
341.386	97.75
341.614	80.75
341.842	111.75
342.07	92.75
342.298	96.75
342.526	103.75
342.754	81.75
342.981	76.75
343.209	97.75
343.437	98.75
343.665	92.75
343.893	94.75
344.12	83.75
344.348	76.75
344.576	88.75
344.804	100.75
345.031	88.75
345.259	98.75
345.487	102.75
345.714	97.75
345.942	91.75
346.17	98.75
346.397	100.75
346.625	93.75
346.853	100.75
347.08	103.75
347.308	92.75
347.535	81.75
347.763	91.75
347.99	96.75
348.218	98.75
348.445	111.75
348.673	102.75
348.9	98.75
349.128	100.75
349.355	90.75
349.583	85.75
349.81	88.75
350.037	92.75
350.265	95.75
350.492	93.75
350.72	97.75
350.947	98.75
351.174	108.75
351.402	117.75
351.629	101.75
351.856	98.75
352.083	108.75
352.311	107.75
352.538	107.75
352.765	112.75
352.992	104.75
353.22	102.75
353.447	95.75
353.674	97.75
353.901	111.75
354.128	99.75
354.355	92.75
354.583	106.75
354.81	96.75
355.037	102.75
355.264	85.75
355.491	107.75
355.718	99.75
355.945	97.75
356.172	96.75
356.399	99.75
356.626	101.75
356.853	96.75
357.08	93.75
357.307	79.75
357.534	90.75
357.761	94.75
357.988	91.75
358.215	99.75
358.441	98.75
358.668	91.75
358.895	86.75
359.122	99.75
359.349	91.75
359.576	106.75
359.802	93.75
360.029	113.75
360.256	103.75
360.483	101.75
360.709	99.75
360.936	72.75
361.163	103.75
361.39	86.75
361.616	94.75
361.843	81.75
362.07	95.75
362.296	94.75
362.523	83.75
362.749	86.75
362.976	95.75
363.203	96.75
363.429	85.75
363.656	84.75
363.882	81.75
364.109	93.75
364.335	94.75
364.562	86.75
364.788	99.75
365.015	100.75
365.241	110.75
365.468	108.75
365.694	107.75
365.92	92.75
366.147	75.75
366.373	98.75
366.599	76.75
366.826	91.75
367.052	82.75
367.278	95.75
367.505	99.75
367.731	98.75
367.957	78.75
368.184	96.75
368.41	96.75
368.636	99.75
368.862	124.75
369.089	102.75
369.315	95.75
369.541	89.75
369.767	96.75
369.993	89.75
370.219	92.75
370.445	88.75
370.672	87.75
370.898	71.75
371.124	70.75
371.35	83.75
371.576	82.75
371.802	78.75
372.028	94.75
372.254	69.75
372.48	70.75
372.706	87.75
372.932	82.75
373.158	79.75
373.384	86.75
373.61	92.75
373.835	84.75
374.061	79.75
374.287	92.75
374.513	85.75
374.739	85.75
374.965	88.75
375.191	83.75
375.416	84.75
375.642	102.75
375.868	92.75
376.094	105.75
376.319	97.75
376.545	88.75
376.771	91.75
376.997	83.75
377.222	92.75
377.448	96.75
377.674	92.75
377.899	101.75
378.125	101.75
378.35	88.75
378.576	86.75
378.802	95.75
379.027	91.75
379.253	99.75
379.478	83.75
379.704	95.75
379.929	81.75
380.155	87.75
380.38	84.75
380.606	86.75
380.831	97.75
381.057	110.75
381.282	105.75
381.507	112.75
381.733	87.75
381.958	108.75
382.184	102.75
382.409	104.75
382.634	113.75
382.86	96.75
383.085	99.75
383.31	103.75
383.535	101.75
383.761	97.75
383.986	88.75
384.211	96.75
384.436	98.75
384.662	96.75
384.887	106.75
385.112	110.75
385.337	103.75
385.562	97.75
385.787	99.75
386.013	124.75
386.238	125.75
386.463	101.75
386.688	121.75
386.913	105.75
387.138	128.75
387.363	104.75
387.588	113.75
387.813	96.75
388.038	109.75
388.263	119.75
388.488	105.75
388.713	106.75
388.938	94.75
389.163	80.75
389.387	94.75
389.612	97.75
389.837	91.75
390.062	92.75
390.287	88.75
390.512	91.75
390.736	88.75
390.961	91.75
391.186	106.75
391.411	85.75
391.636	96.75
391.86	85.75
392.085	75.75
392.31	77.75
392.534	84.75
392.759	84.75
392.984	108.75
393.208	91.75
393.433	99.75
393.658	96.75
393.882	92.75
394.107	95.75
394.331	91.75
394.556	81.75
394.78	78.75
395.005	76.75
395.229	101.75
395.454	90.75
395.678	107.75
395.903	83.75
396.127	75.75
396.352	93.75
396.576	91.75
396.801	102.75
397.025	92.75
397.249	89.75
397.474	83.75
397.698	91.75
397.922	89.75
398.147	91.75
398.371	99.75
398.595	100.75
398.82	72.75
399.044	87.75
399.268	92.75
399.492	95.75
399.717	92.75
399.941	95.75
400.165	90.75
400.389	87.75
400.613	77.75
400.837	100.75
401.062	95.75
401.286	83.75
401.51	76.75
401.734	92.75
401.958	105.75
402.182	112.75
402.406	138.75
402.63	113.75
402.854	91.75
403.078	89.75
403.302	93.75
403.526	89.75
403.75	83.75
403.974	86.75
404.198	93.75
404.422	88.75
404.645	85.75
404.869	94.75
405.093	114.75
405.317	94.75
405.541	99.75
405.765	69.75
405.988	119.75
406.212	146.75
406.436	211.75
406.66	129.75
406.883	103.75
407.107	104.75
407.331	86.75
407.555	102.75
407.778	97.75
408.002	79.75
408.226	83.75
408.449	78.75
408.673	97.75
408.896	93.75
409.12	96.75
409.344	74.75
409.567	90.75
409.791	86.75
410.014	90.75
410.238	98.75
410.461	99.75
410.685	90.75
410.908	87.75
411.132	102.75
411.355	96.75
411.578	82.75
411.802	87.75
412.025	94.75
412.249	79.75
412.472	95.75
412.695	88.75
412.919	97.75
413.142	86.75
413.365	71.75
413.589	99.75
413.812	85.75
414.035	93.75
414.258	74.75
414.482	89.75
414.705	83.75
414.928	103.75
415.151	86.75
415.374	100.75
415.597	86.75
415.821	73.75
416.044	85.75
416.267	86.75
416.49	95.75
416.713	100.75
416.936	83.75
417.159	93.75
417.382	94.75
417.605	102.75
417.828	86.75
418.051	85.75
418.274	91.75
418.497	90.75
418.72	81.75
418.943	88.75
419.166	87.75
419.389	89.75
419.611	99.75
419.834	95.75
420.057	86.75
420.28	89.75
420.503	93.75
420.726	87.75
420.948	99.75
421.171	75.75
421.394	89.75
421.617	94.75
421.839	99.75
422.062	97.75
422.285	94.75
422.507	99.75
422.73	97.75
422.953	92.75
423.175	107.75
423.398	92.75
423.621	93.75
423.843	79.75
424.066	77.75
424.288	95.75
424.511	107.75
424.733	88.75
424.956	95.75
425.178	96.75
425.401	84.75
425.623	110.75
425.846	85.75
426.068	95.75
426.291	84.75
426.513	93.75
426.735	83.75
426.958	76.75
427.18	90.75
427.402	123.75
427.625	160.75
427.847	108.75
428.069	99.75
428.292	87.75
428.514	94.75
428.736	68.75
428.958	69.75
429.181	91.75
429.403	85.75
429.625	101.75
429.847	79.75
430.069	89.75
430.292	85.75
430.514	86.75
430.736	85.75
430.958	81.75
431.18	80.75
431.402	84.75
431.624	104.75
431.846	87.75
432.068	79.75
432.29	86.75
432.512	86.75
432.734	82.75
432.956	70.75
433.178	99.75
433.4	94.75
433.622	75.75
433.844	89.75
434.066	93.75
434.287	89.75
434.509	88.75
434.731	98.75
434.953	84.75
435.175	109.75
435.397	88.75
435.618	85.75
435.84	100.75
436.062	106.75
436.284	101.75
436.505	94.75
436.727	87.75
436.949	100.75
437.17	91.75
437.392	83.75
437.614	90.75
437.835	97.75
438.057	110.75
438.278	98.75
438.5	100.75
438.721	121.75
438.943	91.75
439.165	86.75
439.386	90.75
439.608	79.75
439.829	92.75
440.05	111.75
440.272	126.75
440.493	89.75
440.715	90.75
440.936	79.75
441.158	78.75
441.379	86.75
441.6	93.75
441.822	109.75
442.043	92.75
442.264	81.75
442.486	85.75
442.707	87.75
442.928	94.75
443.149	117.75
443.371	119.75
443.592	101.75
443.813	110.75
444.034	105.75
444.255	94.75
444.476	86.75
444.698	86.75
444.919	78.75
445.14	112.75
445.361	111.75
445.582	100.75
445.803	119.75
446.024	114.75
446.245	139.75
446.466	105.75
446.687	83.75
446.908	74.75
447.129	86.75
447.35	88.75
447.571	87.75
447.792	100.75
448.013	94.75
448.234	108.75
448.455	94.75
448.675	114.75
448.896	115.75
449.117	88.75
449.338	92.75
449.559	125.75
449.779	117.75
450	98.75
450.221	89.75
450.442	97.75
450.662	102.75
450.883	88.75
451.104	112.75
451.324	76.75
451.545	87.75
451.766	79.75
451.986	73.75
452.207	91.75
452.428	91.75
452.648	87.75
452.869	99.75
453.089	97.75
453.31	112.75
453.53	95.75
453.751	96.75
453.971	88.75
454.192	107.75
454.412	95.75
454.633	83.75
454.853	104.75
455.073	78.75
455.294	82.75
455.514	87.75
455.734	73.75
455.955	69.75
456.175	86.75
456.395	89.75
456.616	86.75
456.836	81.75
457.056	81.75
457.276	68.75
457.497	81.75
457.717	93.75
457.937	81.75
458.157	96.75
458.377	77.75
458.598	99.75
458.818	119.75
459.038	137.75
459.258	110.75
459.478	96.75
459.698	91.75
459.918	104.75
460.138	93.75
460.358	85.75
460.578	95.75
460.798	91.75
461.018	81.75
461.238	89.75
461.458	72.75
461.678	86.75
461.898	82.75
462.118	95.75
462.338	76.75
462.558	87.75
462.777	83.75
462.997	95.75
463.217	84.75
463.437	98.75
463.657	86.75
463.876	86.75
464.096	84.75
464.316	79.75
464.536	93.75
464.755	91.75
464.975	111.75
465.195	152.75
465.414	143.75
465.634	87.75
465.854	96.75
466.073	76.75
466.293	87.75
466.512	88.75
466.732	92.75
466.951	83.75
467.171	92.75
467.391	72.75
467.61	100.75
467.829	97.75
468.049	79.75
468.268	91.75
468.488	93.75
468.707	100.75
468.927	69.75
469.146	89.75
469.365	79.75
469.585	93.75
469.804	101.75
470.023	96.75
470.243	95.75
470.462	95.75
470.681	113.75
470.901	92.75
471.12	82.75
471.339	83.75
471.558	85.75
471.777	93.75
471.997	84.75
472.216	96.75
472.435	104.75
472.654	76.75
472.873	87.75
473.092	90.75
473.311	72.75
473.53	87.75
473.749	80.75
473.968	96.75
474.187	100.75
474.406	103.75
474.625	92.75
474.844	83.75
475.063	82.75
475.282	88.75
475.501	88.75
475.72	96.75
475.939	86.75
476.158	93.75
476.377	87.75
476.596	89.75
476.814	85.75
477.033	85.75
477.252	85.75
477.471	84.75
477.69	89.75
477.908	92.75
478.127	95.75
478.346	82.75
478.564	80.75
478.783	98.75
479.002	101.75
479.22	98.75
479.439	84.75
479.658	101.75
479.876	91.75
480.095	86.75
480.313	85.75
480.532	89.75
480.751	97.75
480.969	100.75
481.188	114.75
481.406	103.75
481.624	91.75
481.843	92.75
482.061	99.75
482.28	86.75
482.498	102.75
482.717	92.75
482.935	75.75
483.153	91.75
483.372	93.75
483.59	97.75
483.808	85.75
484.027	82.75
484.245	96.75
484.463	80.75
484.681	91.75
484.9	95.75
485.118	99.75
485.336	114.75
485.554	112.75
485.772	91.75
485.99	96.75
486.209	105.75
486.427	103.75
486.645	110.75
486.863	114.75
487.081	110.75
487.299	98.75
487.517	82.75
487.735	80.75
487.953	96.75
488.171	87.75
488.389	94.75
488.607	94.75
488.825	94.75
489.043	97.75
489.261	95.75
489.479	81.75
489.696	88.75
489.914	91.75
490.132	83.75
490.35	86.75
490.568	87.75
490.786	87.75
491.003	91.75
491.221	95.75
491.439	95.75
491.657	105.75
491.874	89.75
492.092	92.75
492.31	96.75
492.527	92.75
492.745	98.75
492.963	86.75
493.18	90.75
493.398	97.75
493.615	84.75
493.833	99.75
494.05	96.75
494.268	98.75
494.485	93.75
494.703	82.75
494.92	96.75
495.138	83.75
495.355	106.75
495.573	97.75
495.79	94.75
496.008	95.75
496.225	77.75
496.442	99.75
496.66	92.75
496.877	100.75
497.094	87.75
497.312	89.75
497.529	68.75
497.746	94.75
497.963	82.75
498.181	76.75
498.398	79.75
498.615	100.75
498.832	92.75
499.049	95.75
499.267	100.75
499.484	91.75
499.701	85.75
499.918	103.75
500.135	81.75
500.352	97.75
500.569	88.75
500.786	84.75
501.003	95.75
501.22	87.75
501.437	85.75
501.654	83.75
501.871	106.75
502.088	92.75
502.305	86.75
502.522	91.75
502.739	101.75
502.956	96.75
503.172	80.75
503.389	109.75
503.606	105.75
503.823	101.75
504.04	95.75
504.256	83.75
504.473	99.75
504.69	102.75
504.907	96.75
505.123	96.75
505.34	89.75
505.557	92.75
505.773	93.75
505.99	94.75
506.207	95.75
506.423	91.75
506.64	89.75
506.856	94.75
507.073	87.75
507.289	95.75
507.506	94.75
507.722	107.75
507.939	109.75
508.155	92.75
508.372	84.75
508.588	103.75
508.805	88.75
509.021	91.75
509.238	102.75
509.454	89.75
509.67	110.75
509.887	117.75
510.103	124.75
510.319	214.75
510.536	736.75
510.752	2250.75
510.968	622.75
511.184	166.75
511.401	116.75
511.617	99.75
511.833	103.75
512.049	79.75
512.265	89.75
512.481	77.75
512.698	92.75
512.914	93.75
513.13	77.75
513.346	96.75
513.562	86.75
513.778	96.75
513.994	99.75
514.21	99.75
514.426	115.75
514.642	128.75
514.858	121.75
515.074	169.75
515.29	426.75
515.506	1368.75
515.721	505.75
515.937	140.75
516.153	111.75
