Data from Uncirc_2004_H10_HRD10591_00065.txt Node
Date: Wed Jan 03 10:32:25 EST 2024
User: Yrep
Spectrometer: HR+D1059
Trigger mode: 1
Integration Time (sec): 1.000000E-1
Scans to average: 1
Electric dark correction enabled: true
Nonlinearity correction enabled: false
Boxcar width: 0
XAxis mode: Wavelengths
Number of Pixels in Spectrum: 2048
>>>>>Begin Spectral Data<<<<<
223.165	-0.44
223.4	-0.44
223.635	-0.44
223.869	-8.44
224.104	-18.44
224.338	-13.44
224.573	-14.44
224.808	-25.44
225.042	-12.44
225.277	-2.44
225.511	-6.44
225.746	4.56
225.98	17.56
226.215	4.56
226.449	17.56
226.683	29.56
226.918	7.56
227.152	20.56
227.387	29.56
227.621	39.56
227.856	36.56
228.09	42.56
228.324	53.56
228.559	57.56
228.793	65.56
229.027	55.56
229.262	66.56
229.496	71.56
229.73	72.56
229.964	86.56
230.199	83.56
230.433	83.56
230.667	80.56
230.901	76.56
231.136	67.56
231.37	71.56
231.604	83.56
231.838	78.56
232.072	81.56
232.306	91.56
232.541	77.56
232.775	94.56
233.009	83.56
233.243	82.56
233.477	86.56
233.711	72.56
233.945	75.56
234.179	76.56
234.413	85.56
234.647	87.56
234.881	83.56
235.115	80.56
235.349	77.56
235.583	71.56
235.817	75.56
236.051	76.56
236.285	77.56
236.519	73.56
236.753	75.56
236.987	76.56
237.221	83.56
237.455	92.56
237.689	60.56
237.922	69.56
238.156	90.56
238.39	76.56
238.624	76.56
238.858	72.56
239.091	77.56
239.325	71.56
239.559	88.56
239.793	72.56
240.027	86.56
240.26	76.56
240.494	65.56
240.728	74.56
240.961	63.56
241.195	80.56
241.429	69.56
241.662	64.56
241.896	78.56
242.13	71.56
242.363	75.56
242.597	76.56
242.83	85.56
243.064	82.56
243.298	80.56
243.531	76.56
243.765	67.56
243.998	80.56
244.232	98.56
244.465	83.56
244.699	76.56
244.932	95.56
245.166	86.56
245.399	75.56
245.633	79.56
245.866	89.56
246.099	93.56
246.333	80.56
246.566	82.56
246.8	91.56
247.033	69.56
247.266	82.56
247.5	77.56
247.733	76.56
247.966	67.56
248.2	82.56
248.433	79.56
248.666	83.56
248.899	86.56
249.133	84.56
249.366	89.56
249.599	86.56
249.832	63.56
250.066	76.56
250.299	83.56
250.532	97.56
250.765	95.56
250.998	77.56
251.231	76.56
251.465	85.56
251.698	78.56
251.931	75.56
252.164	74.56
252.397	84.56
252.63	62.56
252.863	75.56
253.096	68.56
253.329	79.56
253.562	78.56
253.795	77.56
254.028	83.56
254.261	71.56
254.494	85.56
254.727	94.56
254.96	77.56
255.193	83.56
255.426	85.56
255.659	85.56
255.892	65.56
256.124	97.56
256.357	92.56
256.59	76.56
256.823	80.56
257.056	65.56
257.289	103.56
257.521	81.56
257.754	75.56
257.987	79.56
258.22	81.56
258.452	88.56
258.685	81.56
258.918	81.56
259.151	83.56
259.383	88.56
259.616	81.56
259.849	72.56
260.081	81.56
260.314	80.56
260.547	78.56
260.779	88.56
261.012	81.56
261.244	80.56
261.477	88.56
261.71	89.56
261.942	113.56
262.175	99.56
262.407	86.56
262.64	75.56
262.872	96.56
263.105	83.56
263.337	83.56
263.57	80.56
263.802	83.56
264.035	83.56
264.267	99.56
264.499	83.56
264.732	89.56
264.964	78.56
265.197	94.56
265.429	96.56
265.661	78.56
265.894	79.56
266.126	85.56
266.358	70.56
266.591	81.56
266.823	83.56
267.055	79.56
267.287	87.56
267.52	72.56
267.752	88.56
267.984	89.56
268.216	73.56
268.448	78.56
268.681	83.56
268.913	92.56
269.145	97.56
269.377	89.56
269.609	91.56
269.841	88.56
270.073	72.56
270.306	82.56
270.538	91.56
270.77	75.56
271.002	84.56
271.234	77.56
271.466	83.56
271.698	89.56
271.93	78.56
272.162	91.56
272.394	90.56
272.626	83.56
272.858	82.56
273.09	76.56
273.322	89.56
273.553	79.56
273.785	80.56
274.017	71.56
274.249	78.56
274.481	92.56
274.713	88.56
274.945	78.56
275.176	77.56
275.408	88.56
275.64	78.56
275.872	77.56
276.104	85.56
276.335	74.56
276.567	97.56
276.799	103.56
277.031	95.56
277.262	94.56
277.494	100.56
277.726	82.56
277.957	86.56
278.189	68.56
278.421	83.56
278.652	87.56
278.884	81.56
279.115	78.56
279.347	72.56
279.579	87.56
279.81	84.56
280.042	81.56
280.273	78.56
280.505	74.56
280.736	73.56
280.968	77.56
281.199	91.56
281.431	99.56
281.662	78.56
281.894	87.56
282.125	85.56
282.356	102.56
282.588	118.56
282.819	100.56
283.051	101.56
283.282	90.56
283.513	90.56
283.745	93.56
283.976	80.56
284.207	83.56
284.439	77.56
284.67	85.56
284.901	78.56
285.132	77.56
285.364	84.56
285.595	91.56
285.826	93.56
286.057	85.56
286.288	78.56
286.52	78.56
286.751	76.56
286.982	80.56
287.213	77.56
287.444	73.56
287.675	92.56
287.906	91.56
288.138	82.56
288.369	67.56
288.6	83.56
288.831	86.56
289.062	85.56
289.293	92.56
289.524	87.56
289.755	95.56
289.986	92.56
290.217	83.56
290.448	98.56
290.679	102.56
290.91	89.56
291.141	80.56
291.371	91.56
291.602	94.56
291.833	83.56
292.064	77.56
292.295	85.56
292.526	85.56
292.757	78.56
292.987	84.56
293.218	81.56
293.449	99.56
293.68	81.56
293.91	88.56
294.141	86.56
294.372	68.56
294.603	84.56
294.833	101.56
295.064	82.56
295.295	90.56
295.525	84.56
295.756	89.56
295.987	108.56
296.217	136.56
296.448	100.56
296.679	88.56
296.909	93.56
297.14	89.56
297.37	88.56
297.601	89.56
297.831	83.56
298.062	84.56
298.292	85.56
298.523	80.56
298.753	79.56
298.984	95.56
299.214	84.56
299.445	83.56
299.675	87.56
299.905	80.56
300.136	83.56
300.366	91.56
300.597	89.56
300.827	86.56
301.057	83.56
301.288	99.56
301.518	100.56
301.748	82.56
301.979	108.56
302.209	89.56
302.439	86.56
302.669	90.56
302.9	92.56
303.13	79.56
303.36	89.56
303.59	86.56
303.82	99.56
304.051	83.56
304.281	100.56
304.511	87.56
304.741	89.56
304.971	71.56
305.201	86.56
305.431	98.56
305.661	90.56
305.891	95.56
306.121	95.56
306.352	103.56
306.582	89.56
306.812	85.56
307.042	90.56
307.272	87.56
307.502	97.56
307.731	77.56
307.961	82.56
308.191	67.56
308.421	86.56
308.651	77.56
308.881	96.56
309.111	96.56
309.341	89.56
309.571	98.56
309.8	91.56
310.03	86.56
310.26	84.56
310.49	79.56
310.72	91.56
310.949	96.56
311.179	95.56
311.409	85.56
311.639	84.56
311.868	95.56
312.098	61.56
312.328	94.56
312.557	90.56
312.787	91.56
313.017	100.56
313.246	94.56
313.476	83.56
313.706	88.56
313.935	81.56
314.165	91.56
314.394	96.56
314.624	88.56
314.853	81.56
315.083	74.56
315.312	93.56
315.542	100.56
315.771	86.56
316.001	105.56
316.23	95.56
316.46	95.56
316.689	99.56
316.919	88.56
317.148	91.56
317.377	91.56
317.607	92.56
317.836	93.56
318.065	102.56
318.295	92.56
318.524	78.56
318.753	88.56
318.983	94.56
319.212	94.56
319.441	107.56
319.67	98.56
319.9	98.56
320.129	87.56
320.358	93.56
320.587	79.56
320.816	96.56
321.046	107.56
321.275	94.56
321.504	84.56
321.733	91.56
321.962	99.56
322.191	95.56
322.42	102.56
322.649	113.56
322.878	115.56
323.108	126.56
323.337	112.56
323.566	124.56
323.795	148.56
324.024	179.56
324.253	346.56
324.482	715.56
324.71	1488.56
324.939	1891.56
325.168	716.56
325.397	207.56
325.626	137.56
325.855	125.56
326.084	99.56
326.313	112.56
326.542	147.56
326.77	213.56
326.999	427.56
327.228	855.56
327.457	1525.56
327.686	1200.56
327.914	326.56
328.143	161.56
328.372	121.56
328.6	120.56
328.829	104.56
329.058	125.56
329.287	111.56
329.515	110.56
329.744	102.56
329.972	97.56
330.201	97.56
330.43	104.56
330.658	103.56
330.887	120.56
331.115	129.56
331.344	109.56
331.572	85.56
331.801	93.56
332.03	92.56
332.258	99.56
332.486	81.56
332.715	99.56
332.943	87.56
333.172	88.56
333.4	78.56
333.629	103.56
333.857	102.56
334.085	98.56
334.314	88.56
334.542	94.56
334.771	89.56
334.999	94.56
335.227	76.56
335.455	89.56
335.684	89.56
335.912	85.56
336.14	103.56
336.369	86.56
336.597	98.56
336.825	89.56
337.053	85.56
337.281	78.56
337.51	87.56
337.738	82.56
337.966	86.56
338.194	95.56
338.422	107.56
338.65	94.56
338.878	86.56
339.106	91.56
339.334	93.56
339.562	100.56
339.79	95.56
340.018	103.56
340.246	100.56
340.474	84.56
340.702	83.56
340.93	100.56
341.158	93.56
341.386	83.56
341.614	79.56
341.842	95.56
342.07	66.56
342.298	87.56
342.526	88.56
342.754	73.56
342.981	81.56
343.209	91.56
343.437	100.56
343.665	81.56
343.893	95.56
344.12	83.56
344.348	94.56
344.576	90.56
344.804	89.56
345.031	88.56
345.259	108.56
345.487	102.56
345.714	80.56
345.942	82.56
346.17	105.56
346.397	98.56
346.625	91.56
346.853	77.56
347.08	88.56
347.308	99.56
347.535	87.56
347.763	88.56
347.99	104.56
348.218	90.56
348.445	106.56
348.673	100.56
348.9	103.56
349.128	87.56
349.355	93.56
349.583	89.56
349.81	100.56
350.037	90.56
350.265	102.56
350.492	114.56
350.72	108.56
350.947	95.56
351.174	101.56
351.402	106.56
351.629	110.56
351.856	101.56
352.083	105.56
352.311	115.56
352.538	110.56
352.765	96.56
352.992	124.56
353.22	113.56
353.447	97.56
353.674	101.56
353.901	98.56
354.128	92.56
354.355	104.56
354.583	95.56
354.81	93.56
355.037	101.56
355.264	87.56
355.491	72.56
355.718	99.56
355.945	112.56
356.172	93.56
356.399	88.56
356.626	100.56
356.853	84.56
357.08	87.56
357.307	86.56
357.534	82.56
357.761	86.56
357.988	108.56
358.215	95.56
358.441	97.56
358.668	92.56
358.895	86.56
359.122	88.56
359.349	97.56
359.576	77.56
359.802	97.56
360.029	101.56
360.256	87.56
360.483	87.56
360.709	85.56
360.936	88.56
361.163	87.56
361.39	89.56
361.616	92.56
361.843	88.56
362.07	82.56
362.296	77.56
362.523	97.56
362.749	100.56
362.976	88.56
363.203	100.56
363.429	80.56
363.656	86.56
363.882	96.56
364.109	83.56
364.335	97.56
364.562	88.56
364.788	86.56
365.015	97.56
365.241	81.56
365.468	94.56
365.694	107.56
365.92	108.56
366.147	77.56
366.373	72.56
366.599	90.56
366.826	83.56
367.052	92.56
367.278	86.56
367.505	85.56
367.731	91.56
367.957	93.56
368.184	85.56
368.41	91.56
368.636	96.56
368.862	111.56
369.089	83.56
369.315	70.56
369.541	92.56
369.767	96.56
369.993	93.56
370.219	83.56
370.445	87.56
370.672	81.56
370.898	94.56
371.124	99.56
371.35	75.56
371.576	84.56
371.802	94.56
372.028	88.56
372.254	73.56
372.48	90.56
372.706	96.56
372.932	89.56
373.158	80.56
373.384	71.56
373.61	80.56
373.835	86.56
374.061	88.56
374.287	84.56
374.513	73.56
374.739	95.56
374.965	77.56
375.191	84.56
375.416	77.56
375.642	87.56
375.868	96.56
376.094	90.56
376.319	88.56
376.545	87.56
376.771	89.56
376.997	108.56
377.222	94.56
377.448	80.56
377.674	79.56
377.899	84.56
378.125	92.56
378.35	83.56
378.576	89.56
378.802	85.56
379.027	94.56
379.253	95.56
379.478	91.56
379.704	86.56
379.929	88.56
380.155	101.56
380.38	94.56
380.606	85.56
380.831	95.56
381.057	102.56
381.282	99.56
381.507	102.56
381.733	105.56
381.958	86.56
382.184	89.56
382.409	102.56
382.634	89.56
382.86	90.56
383.085	85.56
383.31	87.56
383.535	93.56
383.761	93.56
383.986	88.56
384.211	96.56
384.436	109.56
384.662	104.56
384.887	91.56
385.112	94.56
385.337	105.56
385.562	94.56
385.787	78.56
386.013	109.56
386.238	109.56
386.463	85.56
386.688	92.56
386.913	106.56
387.138	103.56
387.363	101.56
387.588	99.56
387.813	88.56
388.038	99.56
388.263	102.56
388.488	87.56
388.713	99.56
388.938	82.56
389.163	89.56
389.387	95.56
389.612	104.56
389.837	100.56
390.062	106.56
390.287	96.56
390.512	80.56
390.736	88.56
390.961	100.56
391.186	104.56
391.411	87.56
391.636	91.56
391.86	92.56
392.085	76.56
392.31	89.56
392.534	77.56
392.759	77.56
392.984	88.56
393.208	80.56
393.433	77.56
393.658	87.56
393.882	88.56
394.107	79.56
394.331	86.56
394.556	97.56
394.78	89.56
395.005	79.56
395.229	87.56
395.454	86.56
395.678	101.56
395.903	92.56
396.127	81.56
396.352	91.56
396.576	80.56
396.801	80.56
397.025	75.56
397.249	83.56
397.474	102.56
397.698	87.56
397.922	80.56
398.147	72.56
398.371	87.56
398.595	91.56
398.82	73.56
399.044	88.56
399.268	81.56
399.492	77.56
399.717	84.56
399.941	87.56
400.165	91.56
400.389	89.56
400.613	87.56
400.837	81.56
401.062	83.56
401.286	89.56
401.51	82.56
401.734	92.56
401.958	92.56
402.182	112.56
402.406	135.56
402.63	102.56
402.854	92.56
403.078	92.56
403.302	91.56
403.526	88.56
403.75	83.56
403.974	88.56
404.198	69.56
404.422	93.56
404.645	82.56
404.869	93.56
405.093	79.56
405.317	94.56
405.541	96.56
405.765	95.56
405.988	96.56
406.212	162.56
406.436	176.56
406.66	128.56
406.883	108.56
407.107	89.56
407.331	93.56
407.555	96.56
407.778	96.56
408.002	95.56
408.226	82.56
408.449	91.56
408.673	88.56
408.896	98.56
409.12	86.56
409.344	86.56
409.567	72.56
409.791	82.56
410.014	95.56
410.238	94.56
410.461	70.56
410.685	84.56
410.908	105.56
411.132	99.56
411.355	103.56
411.578	97.56
411.802	79.56
412.025	80.56
412.249	87.56
412.472	76.56
412.695	102.56
412.919	87.56
413.142	76.56
413.365	82.56
413.589	87.56
413.812	92.56
414.035	88.56
414.258	75.56
414.482	93.56
414.705	84.56
414.928	83.56
415.151	88.56
415.374	76.56
415.597	80.56
415.821	89.56
416.044	70.56
416.267	77.56
416.49	82.56
416.713	71.56
416.936	98.56
417.159	85.56
417.382	74.56
417.605	82.56
417.828	87.56
418.051	75.56
418.274	86.56
418.497	94.56
418.72	95.56
418.943	87.56
419.166	91.56
419.389	94.56
419.611	104.56
419.834	88.56
420.057	75.56
420.28	76.56
420.503	87.56
420.726	90.56
420.948	95.56
421.171	100.56
421.394	89.56
421.617	87.56
421.839	102.56
422.062	87.56
422.285	84.56
422.507	81.56
422.73	83.56
422.953	77.56
423.175	88.56
423.398	86.56
423.621	73.56
423.843	78.56
424.066	72.56
424.288	79.56
424.511	106.56
424.733	82.56
424.956	93.56
425.178	85.56
425.401	93.56
425.623	89.56
425.846	81.56
426.068	95.56
426.291	98.56
426.513	100.56
426.735	85.56
426.958	88.56
427.18	104.56
427.402	137.56
427.625	139.56
427.847	105.56
428.069	91.56
428.292	91.56
428.514	89.56
428.736	88.56
428.958	77.56
429.181	88.56
429.403	69.56
429.625	71.56
429.847	83.56
430.069	102.56
430.292	93.56
430.514	83.56
430.736	84.56
430.958	94.56
431.18	80.56
431.402	73.56
431.624	77.56
431.846	87.56
432.068	85.56
432.29	84.56
432.512	86.56
432.734	71.56
432.956	100.56
433.178	95.56
433.4	99.56
433.622	97.56
433.844	76.56
434.066	89.56
434.287	87.56
434.509	76.56
434.731	84.56
434.953	85.56
435.175	86.56
435.397	87.56
435.618	74.56
435.84	93.56
436.062	123.56
436.284	111.56
436.505	90.56
436.727	99.56
436.949	98.56
437.17	92.56
437.392	84.56
437.614	84.56
437.835	103.56
438.057	116.56
438.278	100.56
438.5	112.56
438.721	108.56
438.943	93.56
439.165	73.56
439.386	87.56
439.608	83.56
439.829	87.56
440.05	116.56
440.272	120.56
440.493	90.56
440.715	90.56
440.936	87.56
441.158	88.56
441.379	95.56
441.6	91.56
441.822	89.56
442.043	89.56
442.264	96.56
442.486	98.56
442.707	77.56
442.928	104.56
443.149	114.56
443.371	116.56
443.592	102.56
443.813	109.56
444.034	115.56
444.255	89.56
444.476	86.56
444.698	77.56
444.919	81.56
445.14	128.56
445.361	125.56
445.582	113.56
445.803	115.56
446.024	120.56
446.245	120.56
446.466	101.56
446.687	94.56
446.908	91.56
447.129	91.56
447.35	84.56
447.571	93.56
447.792	85.56
448.013	99.56
448.234	86.56
448.455	99.56
448.675	95.56
448.896	106.56
449.117	91.56
449.338	92.56
449.559	105.56
449.779	124.56
450	80.56
450.221	80.56
450.442	80.56
450.662	88.56
450.883	102.56
451.104	123.56
451.324	96.56
451.545	91.56
451.766	88.56
451.986	74.56
452.207	76.56
452.428	102.56
452.648	95.56
452.869	104.56
453.089	98.56
453.31	100.56
453.53	89.56
453.751	93.56
453.971	87.56
454.192	107.56
454.412	104.56
454.633	72.56
454.853	73.56
455.073	84.56
455.294	89.56
455.514	89.56
455.734	80.56
455.955	91.56
456.175	78.56
456.395	77.56
456.616	89.56
456.836	86.56
457.056	97.56
457.276	88.56
457.497	74.56
457.717	92.56
457.937	88.56
458.157	102.56
458.377	83.56
458.598	96.56
458.818	129.56
459.038	132.56
459.258	108.56
459.478	86.56
459.698	87.56
459.918	83.56
460.138	91.56
460.358	83.56
460.578	91.56
460.798	78.56
461.018	85.56
461.238	76.56
461.458	79.56
461.678	86.56
461.898	81.56
462.118	91.56
462.338	80.56
462.558	86.56
462.777	78.56
462.997	88.56
463.217	77.56
463.437	78.56
463.657	91.56
463.876	88.56
464.096	88.56
464.316	76.56
464.536	101.56
464.755	84.56
464.975	87.56
465.195	149.56
465.414	128.56
465.634	100.56
465.854	102.56
466.073	76.56
466.293	72.56
466.512	70.56
466.732	86.56
466.951	94.56
467.171	91.56
467.391	97.56
467.61	95.56
467.829	94.56
468.049	93.56
468.268	100.56
468.488	76.56
468.707	96.56
468.927	86.56
469.146	85.56
469.365	80.56
469.585	82.56
469.804	93.56
470.023	79.56
470.243	91.56
470.462	78.56
470.681	103.56
470.901	82.56
471.12	75.56
471.339	89.56
471.558	72.56
471.777	81.56
471.997	79.56
472.216	101.56
472.435	107.56
472.654	84.56
472.873	95.56
473.092	82.56
473.311	82.56
473.53	89.56
473.749	88.56
473.968	95.56
474.187	89.56
474.406	77.56
474.625	84.56
474.844	83.56
475.063	100.56
475.282	85.56
475.501	85.56
475.72	95.56
475.939	80.56
476.158	95.56
476.377	84.56
476.596	86.56
476.814	103.56
477.033	91.56
477.252	89.56
477.471	77.56
477.69	96.56
477.908	85.56
478.127	79.56
478.346	84.56
478.564	77.56
478.783	90.56
479.002	82.56
479.22	96.56
479.439	99.56
479.658	92.56
479.876	76.56
480.095	77.56
480.313	95.56
480.532	85.56
480.751	94.56
480.969	89.56
481.188	112.56
481.406	104.56
481.624	90.56
481.843	78.56
482.061	87.56
482.28	88.56
482.498	78.56
482.717	78.56
482.935	86.56
483.153	90.56
483.372	79.56
483.59	78.56
483.808	94.56
484.027	85.56
484.245	93.56
484.463	96.56
484.681	94.56
484.9	76.56
485.118	84.56
485.336	104.56
485.554	77.56
485.772	88.56
485.99	103.56
486.209	98.56
486.427	99.56
486.645	95.56
486.863	104.56
487.081	100.56
487.299	99.56
487.517	97.56
487.735	81.56
487.953	93.56
488.171	94.56
488.389	90.56
488.607	89.56
488.825	95.56
489.043	85.56
489.261	94.56
489.479	87.56
489.696	84.56
489.914	95.56
490.132	82.56
490.35	79.56
490.568	88.56
490.786	81.56
491.003	75.56
491.221	88.56
491.439	84.56
491.657	99.56
491.874	97.56
492.092	75.56
492.31	84.56
492.527	84.56
492.745	89.56
492.963	89.56
493.18	105.56
493.398	100.56
493.615	101.56
493.833	90.56
494.05	99.56
494.268	89.56
494.485	83.56
494.703	97.56
494.92	88.56
495.138	91.56
495.355	90.56
495.573	86.56
495.79	83.56
496.008	83.56
496.225	85.56
496.442	100.56
496.66	104.56
496.877	105.56
497.094	89.56
497.312	86.56
497.529	93.56
497.746	93.56
497.963	86.56
498.181	85.56
498.398	82.56
498.615	95.56
498.832	112.56
499.049	104.56
499.267	102.56
499.484	94.56
499.701	89.56
499.918	92.56
500.135	86.56
500.352	102.56
500.569	95.56
500.786	98.56
501.003	80.56
501.22	100.56
501.437	87.56
501.654	95.56
501.871	103.56
502.088	103.56
502.305	77.56
502.522	78.56
502.739	90.56
502.956	89.56
503.172	89.56
503.389	92.56
503.606	94.56
503.823	85.56
504.04	84.56
504.256	98.56
504.473	86.56
504.69	95.56
504.907	81.56
505.123	80.56
505.34	77.56
505.557	84.56
505.773	89.56
505.99	93.56
506.207	77.56
506.423	88.56
506.64	81.56
506.856	91.56
507.073	91.56
507.289	90.56
507.506	98.56
507.722	93.56
507.939	109.56
508.155	85.56
508.372	89.56
508.588	101.56
508.805	95.56
509.021	93.56
509.238	97.56
509.454	90.56
509.67	103.56
509.887	109.56
510.103	122.56
510.319	189.56
510.536	694.56
510.752	2057.56
510.968	576.56
511.184	155.56
511.401	106.56
511.617	94.56
511.833	78.56
512.049	89.56
512.265	93.56
512.481	102.56
512.698	89.56
512.914	102.56
513.13	88.56
513.346	106.56
513.562	85.56
513.778	85.56
513.994	105.56
514.21	105.56
514.426	111.56
514.642	116.56
514.858	145.56
515.074	153.56
515.29	381.56
515.506	1223.56
515.721	458.56
515.937	128.56
516.153	102.56
516.369	98.56
516.585	105.56
516.801	87.56
