Data from Uncirc_2004_H10_HRD10591_00070.txt Node
Date: Wed Jan 03 10:32:26 EST 2024
User: Yrep
Spectrometer: HR+D1059
Trigger mode: 1
Integration Time (sec): 1.000000E-1
Scans to average: 1
Electric dark correction enabled: true
Nonlinearity correction enabled: false
Boxcar width: 0
XAxis mode: Wavelengths
Number of Pixels in Spectrum: 2048
>>>>>Begin Spectral Data<<<<<
223.165	-19.94
223.4	-19.94
223.635	-19.94
223.869	-19.94
224.104	-18.94
224.338	-17.94
224.573	-26.94
224.808	-15.94
225.042	-14.94
225.277	-6.94
225.511	-2.94
225.746	7.06
225.98	9.06
226.215	20.06
226.449	11.06
226.683	27.06
226.918	39.06
227.152	31.06
227.387	37.06
227.621	33.06
227.856	34.06
228.09	33.06
228.324	54.06
228.559	53.06
228.793	68.06
229.027	61.06
229.262	79.06
229.496	77.06
229.73	62.06
229.964	82.06
230.199	77.06
230.433	62.06
230.667	75.06
230.901	77.06
231.136	62.06
231.37	83.06
231.604	79.06
231.838	87.06
232.072	71.06
232.306	66.06
232.541	84.06
232.775	83.06
233.009	71.06
233.243	77.06
233.477	71.06
233.711	72.06
233.945	76.06
234.179	78.06
234.413	80.06
234.647	70.06
234.881	68.06
235.115	80.06
235.349	77.06
235.583	62.06
235.817	70.06
236.051	73.06
236.285	89.06
236.519	74.06
236.753	89.06
236.987	67.06
237.221	81.06
237.455	75.06
237.689	65.06
237.922	74.06
238.156	71.06
238.39	80.06
238.624	79.06
238.858	74.06
239.091	81.06
239.325	76.06
239.559	66.06
239.793	75.06
240.027	72.06
240.26	68.06
240.494	70.06
240.728	70.06
240.961	76.06
241.195	64.06
241.429	77.06
241.662	77.06
241.896	77.06
242.13	76.06
242.363	67.06
242.597	85.06
242.83	85.06
243.064	72.06
243.298	73.06
243.531	73.06
243.765	71.06
243.998	83.06
244.232	86.06
244.465	82.06
244.699	81.06
244.932	78.06
245.166	70.06
245.399	84.06
245.633	76.06
245.866	90.06
246.099	52.06
246.333	79.06
246.566	83.06
246.8	68.06
247.033	83.06
247.266	86.06
247.5	72.06
247.733	75.06
247.966	75.06
248.2	75.06
248.433	89.06
248.666	82.06
248.899	73.06
249.133	92.06
249.366	90.06
249.599	93.06
249.832	84.06
250.066	97.06
250.299	88.06
250.532	70.06
250.765	65.06
250.998	80.06
251.231	75.06
251.465	76.06
251.698	75.06
251.931	66.06
252.164	79.06
252.397	65.06
252.63	70.06
252.863	86.06
253.096	87.06
253.329	83.06
253.562	78.06
253.795	88.06
254.028	80.06
254.261	82.06
254.494	73.06
254.727	87.06
254.96	79.06
255.193	73.06
255.426	75.06
255.659	79.06
255.892	89.06
256.124	74.06
256.357	85.06
256.59	73.06
256.823	76.06
257.056	77.06
257.289	86.06
257.521	92.06
257.754	86.06
257.987	87.06
258.22	71.06
258.452	72.06
258.685	83.06
258.918	90.06
259.151	77.06
259.383	84.06
259.616	70.06
259.849	75.06
260.081	75.06
260.314	80.06
260.547	77.06
260.779	89.06
261.012	79.06
261.244	80.06
261.477	84.06
261.71	91.06
261.942	110.06
262.175	106.06
262.407	81.06
262.64	72.06
262.872	90.06
263.105	94.06
263.337	95.06
263.57	89.06
263.802	85.06
264.035	69.06
264.267	82.06
264.499	82.06
264.732	82.06
264.964	79.06
265.197	94.06
265.429	85.06
265.661	81.06
265.894	78.06
266.126	92.06
266.358	77.06
266.591	80.06
266.823	79.06
267.055	89.06
267.287	75.06
267.52	78.06
267.752	71.06
267.984	75.06
268.216	79.06
268.448	83.06
268.681	84.06
268.913	80.06
269.145	66.06
269.377	86.06
269.609	84.06
269.841	84.06
270.073	76.06
270.306	79.06
270.538	78.06
270.77	92.06
271.002	70.06
271.234	76.06
271.466	92.06
271.698	79.06
271.93	62.06
272.162	83.06
272.394	91.06
272.626	87.06
272.858	99.06
273.09	86.06
273.322	84.06
273.553	88.06
273.785	92.06
274.017	97.06
274.249	85.06
274.481	83.06
274.713	79.06
274.945	78.06
275.176	82.06
275.408	90.06
275.64	82.06
275.872	86.06
276.104	96.06
276.335	70.06
276.567	93.06
276.799	87.06
277.031	98.06
277.262	91.06
277.494	78.06
277.726	89.06
277.957	85.06
278.189	85.06
278.421	70.06
278.652	86.06
278.884	96.06
279.115	79.06
279.347	74.06
279.579	84.06
279.81	80.06
280.042	88.06
280.273	71.06
280.505	80.06
280.736	83.06
280.968	86.06
281.199	93.06
281.431	68.06
281.662	87.06
281.894	90.06
282.125	91.06
282.356	110.06
282.588	136.06
282.819	123.06
283.051	81.06
283.282	87.06
283.513	83.06
283.745	66.06
283.976	69.06
284.207	85.06
284.439	80.06
284.67	92.06
284.901	93.06
285.132	80.06
285.364	89.06
285.595	85.06
285.826	87.06
286.057	78.06
286.288	83.06
286.52	96.06
286.751	89.06
286.982	87.06
287.213	91.06
287.444	77.06
287.675	71.06
287.906	80.06
288.138	87.06
288.369	101.06
288.6	86.06
288.831	74.06
289.062	80.06
289.293	90.06
289.524	78.06
289.755	87.06
289.986	90.06
290.217	84.06
290.448	69.06
290.679	85.06
290.91	80.06
291.141	82.06
291.371	81.06
291.602	78.06
291.833	81.06
292.064	74.06
292.295	91.06
292.526	93.06
292.757	78.06
292.987	77.06
293.218	88.06
293.449	79.06
293.68	94.06
293.91	84.06
294.141	97.06
294.372	84.06
294.603	81.06
294.833	92.06
295.064	85.06
295.295	92.06
295.525	91.06
295.756	100.06
295.987	100.06
296.217	131.06
296.448	111.06
296.679	87.06
296.909	90.06
297.14	80.06
297.37	70.06
297.601	95.06
297.831	92.06
298.062	78.06
298.292	91.06
298.523	90.06
298.753	76.06
298.984	93.06
299.214	83.06
299.445	93.06
299.675	89.06
299.905	94.06
300.136	88.06
300.366	83.06
300.597	85.06
300.827	103.06
301.057	92.06
301.288	109.06
301.518	79.06
301.748	86.06
301.979	100.06
302.209	79.06
302.439	88.06
302.669	83.06
302.9	83.06
303.13	87.06
303.36	93.06
303.59	94.06
303.82	107.06
304.051	90.06
304.281	82.06
304.511	77.06
304.741	83.06
304.971	83.06
305.201	88.06
305.431	101.06
305.661	92.06
305.891	86.06
306.121	87.06
306.352	109.06
306.582	103.06
306.812	89.06
307.042	65.06
307.272	94.06
307.502	82.06
307.731	98.06
307.961	84.06
308.191	79.06
308.421	87.06
308.651	87.06
308.881	98.06
309.111	74.06
309.341	86.06
309.571	90.06
309.8	99.06
310.03	97.06
310.26	87.06
310.49	92.06
310.72	99.06
310.949	98.06
311.179	95.06
311.409	85.06
311.639	82.06
311.868	90.06
312.098	84.06
312.328	81.06
312.557	93.06
312.787	123.06
313.017	113.06
313.246	77.06
313.476	90.06
313.706	99.06
313.935	87.06
314.165	96.06
314.394	95.06
314.624	104.06
314.853	86.06
315.083	91.06
315.312	91.06
315.542	87.06
315.771	101.06
316.001	80.06
316.23	91.06
316.46	94.06
316.689	86.06
316.919	93.06
317.148	110.06
317.377	101.06
317.607	106.06
317.836	100.06
318.065	83.06
318.295	90.06
318.524	96.06
318.753	81.06
318.983	93.06
319.212	95.06
319.441	110.06
319.67	116.06
319.9	97.06
320.129	96.06
320.358	100.06
320.587	105.06
320.816	94.06
321.046	91.06
321.275	93.06
321.504	90.06
321.733	106.06
321.962	100.06
322.191	105.06
322.42	100.06
322.649	97.06
322.878	102.06
323.108	125.06
323.337	131.06
323.566	123.06
323.795	146.06
324.024	192.06
324.253	385.06
324.482	793.06
324.71	1671.06
324.939	2150.06
325.168	777.06
325.397	232.06
325.626	139.06
325.855	137.06
326.084	132.06
326.313	139.06
326.542	169.06
326.77	235.06
326.999	461.06
327.228	958.06
327.457	1687.06
327.686	1305.06
327.914	361.06
328.143	170.06
328.372	155.06
328.6	115.06
328.829	111.06
329.058	121.06
329.287	130.06
329.515	102.06
329.744	99.06
329.972	92.06
330.201	102.06
330.43	108.06
330.658	102.06
330.887	119.06
331.115	98.06
331.344	98.06
331.572	106.06
331.801	102.06
332.03	97.06
332.258	87.06
332.486	95.06
332.715	86.06
332.943	91.06
333.172	97.06
333.4	84.06
333.629	86.06
333.857	125.06
334.085	102.06
334.314	97.06
334.542	97.06
334.771	98.06
334.999	99.06
335.227	105.06
335.455	88.06
335.684	95.06
335.912	91.06
336.14	87.06
336.369	99.06
336.597	102.06
336.825	89.06
337.053	90.06
337.281	93.06
337.51	81.06
337.738	96.06
337.966	76.06
338.194	103.06
338.422	101.06
338.65	103.06
338.878	85.06
339.106	101.06
339.334	68.06
339.562	98.06
339.79	97.06
340.018	78.06
340.246	81.06
340.474	93.06
340.702	91.06
340.93	82.06
341.158	89.06
341.386	92.06
341.614	81.06
341.842	83.06
342.07	94.06
342.298	101.06
342.526	96.06
342.754	85.06
342.981	90.06
343.209	82.06
343.437	100.06
343.665	110.06
343.893	78.06
344.12	86.06
344.348	81.06
344.576	93.06
344.804	63.06
345.031	93.06
345.259	95.06
345.487	100.06
345.714	97.06
345.942	95.06
346.17	90.06
346.397	105.06
346.625	96.06
346.853	102.06
347.08	93.06
347.308	79.06
347.535	95.06
347.763	78.06
347.99	101.06
348.218	96.06
348.445	107.06
348.673	91.06
348.9	83.06
349.128	82.06
349.355	94.06
349.583	95.06
349.81	98.06
350.037	91.06
350.265	91.06
350.492	88.06
350.72	106.06
350.947	91.06
351.174	108.06
351.402	99.06
351.629	96.06
351.856	94.06
352.083	98.06
352.311	111.06
352.538	100.06
352.765	96.06
352.992	114.06
353.22	114.06
353.447	106.06
353.674	97.06
353.901	102.06
354.128	98.06
354.355	78.06
354.583	96.06
354.81	90.06
355.037	97.06
355.264	99.06
355.491	90.06
355.718	87.06
355.945	88.06
356.172	79.06
356.399	101.06
356.626	94.06
356.853	102.06
357.08	94.06
357.307	80.06
357.534	85.06
357.761	89.06
357.988	83.06
358.215	100.06
358.441	85.06
358.668	86.06
358.895	91.06
359.122	84.06
359.349	86.06
359.576	85.06
359.802	98.06
360.029	100.06
360.256	111.06
360.483	97.06
360.709	84.06
360.936	92.06
361.163	77.06
361.39	91.06
361.616	90.06
361.843	89.06
362.07	78.06
362.296	101.06
362.523	81.06
362.749	101.06
362.976	71.06
363.203	87.06
363.429	89.06
363.656	77.06
363.882	74.06
364.109	98.06
364.335	86.06
364.562	83.06
364.788	89.06
365.015	94.06
365.241	100.06
365.468	96.06
365.694	104.06
365.92	106.06
366.147	91.06
366.373	83.06
366.599	94.06
366.826	95.06
367.052	79.06
367.278	68.06
367.505	81.06
367.731	95.06
367.957	97.06
368.184	80.06
368.41	97.06
368.636	101.06
368.862	103.06
369.089	106.06
369.315	84.06
369.541	88.06
369.767	82.06
369.993	98.06
370.219	87.06
370.445	92.06
370.672	83.06
370.898	91.06
371.124	76.06
371.35	78.06
371.576	77.06
371.802	74.06
372.028	93.06
372.254	83.06
372.48	82.06
372.706	84.06
372.932	101.06
373.158	79.06
373.384	91.06
373.61	96.06
373.835	80.06
374.061	93.06
374.287	85.06
374.513	75.06
374.739	81.06
374.965	79.06
375.191	84.06
375.416	68.06
375.642	71.06
375.868	70.06
376.094	94.06
376.319	77.06
376.545	79.06
376.771	75.06
376.997	91.06
377.222	82.06
377.448	73.06
377.674	88.06
377.899	84.06
378.125	91.06
378.35	90.06
378.576	84.06
378.802	78.06
379.027	86.06
379.253	86.06
379.478	90.06
379.704	95.06
379.929	81.06
380.155	94.06
380.38	89.06
380.606	76.06
380.831	91.06
381.057	98.06
381.282	93.06
381.507	99.06
381.733	106.06
381.958	101.06
382.184	101.06
382.409	95.06
382.634	99.06
382.86	87.06
383.085	91.06
383.31	101.06
383.535	106.06
383.761	102.06
383.986	112.06
384.211	94.06
384.436	100.06
384.662	97.06
384.887	115.06
385.112	94.06
385.337	97.06
385.562	93.06
385.787	111.06
386.013	116.06
386.238	106.06
386.463	104.06
386.688	98.06
386.913	94.06
387.138	84.06
387.363	100.06
387.588	94.06
387.813	95.06
388.038	97.06
388.263	104.06
388.488	103.06
388.713	101.06
388.938	98.06
389.163	85.06
389.387	92.06
389.612	98.06
389.837	84.06
390.062	94.06
390.287	94.06
390.512	93.06
390.736	90.06
390.961	80.06
391.186	91.06
391.411	93.06
391.636	88.06
391.86	86.06
392.085	87.06
392.31	77.06
392.534	75.06
392.759	71.06
392.984	91.06
393.208	81.06
393.433	99.06
393.658	93.06
393.882	86.06
394.107	71.06
394.331	70.06
394.556	75.06
394.78	82.06
395.005	84.06
395.229	93.06
395.454	86.06
395.678	86.06
395.903	93.06
396.127	72.06
396.352	83.06
396.576	80.06
396.801	76.06
397.025	82.06
397.249	92.06
397.474	89.06
397.698	83.06
397.922	87.06
398.147	77.06
398.371	85.06
398.595	64.06
398.82	84.06
399.044	74.06
399.268	87.06
399.492	88.06
399.717	77.06
399.941	98.06
400.165	78.06
400.389	91.06
400.613	78.06
400.837	78.06
401.062	83.06
401.286	82.06
401.51	97.06
401.734	101.06
401.958	105.06
402.182	122.06
402.406	151.06
402.63	117.06
402.854	70.06
403.078	87.06
403.302	82.06
403.526	87.06
403.75	83.06
403.974	88.06
404.198	94.06
404.422	79.06
404.645	82.06
404.869	88.06
405.093	94.06
405.317	77.06
405.541	100.06
405.765	87.06
405.988	135.06
406.212	180.06
406.436	214.06
406.66	142.06
406.883	102.06
407.107	81.06
407.331	85.06
407.555	97.06
407.778	93.06
408.002	89.06
408.226	85.06
408.449	66.06
408.673	91.06
408.896	97.06
409.12	82.06
409.344	88.06
409.567	80.06
409.791	85.06
410.014	102.06
410.238	94.06
410.461	99.06
410.685	94.06
410.908	102.06
411.132	102.06
411.355	92.06
411.578	84.06
411.802	91.06
412.025	83.06
412.249	79.06
412.472	97.06
412.695	84.06
412.919	79.06
413.142	82.06
413.365	90.06
413.589	87.06
413.812	89.06
414.035	83.06
414.258	99.06
414.482	86.06
414.705	95.06
414.928	96.06
415.151	81.06
415.374	84.06
415.597	87.06
415.821	92.06
416.044	74.06
416.267	71.06
416.49	82.06
416.713	97.06
416.936	87.06
417.159	86.06
417.382	91.06
417.605	79.06
417.828	86.06
418.051	98.06
418.274	85.06
418.497	77.06
418.72	82.06
418.943	85.06
419.166	90.06
419.389	71.06
419.611	93.06
419.834	94.06
420.057	74.06
420.28	86.06
420.503	108.06
420.726	78.06
420.948	83.06
421.171	101.06
421.394	100.06
421.617	72.06
421.839	81.06
422.062	85.06
422.285	86.06
422.507	96.06
422.73	95.06
422.953	93.06
423.175	97.06
423.398	93.06
423.621	84.06
423.843	87.06
424.066	78.06
424.288	78.06
424.511	101.06
424.733	94.06
424.956	107.06
425.178	80.06
425.401	97.06
425.623	85.06
425.846	93.06
426.068	98.06
426.291	91.06
426.513	90.06
426.735	81.06
426.958	87.06
427.18	92.06
427.402	124.06
427.625	153.06
427.847	122.06
428.069	85.06
428.292	98.06
428.514	81.06
428.736	91.06
428.958	82.06
429.181	91.06
429.403	85.06
429.625	83.06
429.847	93.06
430.069	98.06
430.292	91.06
430.514	81.06
430.736	76.06
430.958	89.06
431.18	79.06
431.402	81.06
431.624	80.06
431.846	79.06
432.068	81.06
432.29	79.06
432.512	89.06
432.734	91.06
432.956	87.06
433.178	86.06
433.4	81.06
433.622	96.06
433.844	96.06
434.066	95.06
434.287	73.06
434.509	79.06
434.731	85.06
434.953	91.06
435.175	78.06
435.397	94.06
435.618	98.06
435.84	107.06
436.062	115.06
436.284	107.06
436.505	97.06
436.727	97.06
436.949	74.06
437.17	82.06
437.392	78.06
437.614	86.06
437.835	87.06
438.057	110.06
438.278	91.06
438.5	87.06
438.721	102.06
438.943	89.06
439.165	73.06
439.386	87.06
439.608	95.06
439.829	97.06
440.05	130.06
440.272	142.06
440.493	91.06
440.715	92.06
440.936	88.06
441.158	83.06
441.379	69.06
441.6	84.06
441.822	90.06
442.043	93.06
442.264	96.06
442.486	90.06
442.707	85.06
442.928	103.06
443.149	119.06
443.371	127.06
443.592	106.06
443.813	100.06
444.034	95.06
444.255	95.06
444.476	90.06
444.698	89.06
444.919	92.06
445.14	123.06
445.361	116.06
445.582	100.06
445.803	124.06
446.024	115.06
446.245	111.06
446.466	90.06
446.687	93.06
446.908	86.06
447.129	71.06
447.35	76.06
447.571	84.06
447.792	76.06
448.013	93.06
448.234	109.06
448.455	99.06
448.675	87.06
448.896	108.06
449.117	103.06
449.338	97.06
449.559	107.06
449.779	107.06
450	100.06
450.221	100.06
450.442	94.06
450.662	86.06
450.883	104.06
451.104	101.06
451.324	84.06
451.545	83.06
451.766	74.06
451.986	77.06
452.207	82.06
452.428	90.06
452.648	98.06
452.869	92.06
453.089	108.06
453.31	108.06
453.53	99.06
453.751	83.06
453.971	98.06
454.192	97.06
454.412	80.06
454.633	81.06
454.853	66.06
455.073	93.06
455.294	89.06
455.514	98.06
455.734	92.06
455.955	96.06
456.175	85.06
456.395	70.06
456.616	70.06
456.836	92.06
457.056	97.06
457.276	84.06
457.497	85.06
457.717	77.06
457.937	89.06
458.157	85.06
458.377	83.06
458.598	93.06
458.818	132.06
459.038	147.06
459.258	113.06
459.478	84.06
459.698	85.06
459.918	88.06
460.138	80.06
460.358	82.06
460.578	96.06
460.798	88.06
461.018	82.06
461.238	80.06
461.458	75.06
461.678	92.06
461.898	82.06
462.118	77.06
462.338	77.06
462.558	86.06
462.777	91.06
462.997	86.06
463.217	67.06
463.437	81.06
463.657	73.06
463.876	88.06
464.096	92.06
464.316	90.06
464.536	93.06
464.755	82.06
464.975	94.06
465.195	153.06
465.414	149.06
465.634	74.06
465.854	80.06
466.073	90.06
466.293	94.06
466.512	84.06
466.732	83.06
466.951	74.06
467.171	80.06
467.391	82.06
467.61	99.06
467.829	91.06
468.049	75.06
468.268	87.06
468.488	90.06
468.707	71.06
468.927	91.06
469.146	100.06
469.365	67.06
469.585	80.06
469.804	80.06
470.023	98.06
470.243	89.06
470.462	100.06
470.681	117.06
470.901	98.06
471.12	100.06
471.339	87.06
471.558	89.06
471.777	86.06
471.997	85.06
472.216	84.06
472.435	112.06
472.654	81.06
472.873	87.06
473.092	70.06
473.311	91.06
473.53	88.06
473.749	75.06
473.968	94.06
474.187	98.06
474.406	81.06
474.625	88.06
474.844	71.06
475.063	97.06
475.282	90.06
475.501	82.06
475.72	83.06
475.939	89.06
476.158	75.06
476.377	86.06
476.596	90.06
476.814	79.06
477.033	93.06
477.252	87.06
477.471	87.06
477.69	91.06
477.908	84.06
478.127	85.06
478.346	86.06
478.564	93.06
478.783	98.06
479.002	76.06
479.22	82.06
479.439	88.06
479.658	99.06
479.876	85.06
480.095	101.06
480.313	74.06
480.532	93.06
480.751	89.06
480.969	89.06
481.188	103.06
481.406	116.06
481.624	85.06
481.843	81.06
482.061	89.06
482.28	91.06
482.498	87.06
482.717	86.06
482.935	83.06
483.153	87.06
483.372	99.06
483.59	76.06
483.808	90.06
484.027	101.06
484.245	79.06
484.463	90.06
484.681	96.06
484.9	92.06
485.118	91.06
485.336	103.06
485.554	91.06
485.772	110.06
485.99	99.06
486.209	92.06
486.427	97.06
486.645	100.06
486.863	101.06
487.081	101.06
487.299	95.06
487.517	107.06
487.735	100.06
487.953	102.06
488.171	92.06
488.389	91.06
488.607	101.06
488.825	80.06
489.043	86.06
489.261	94.06
489.479	91.06
489.696	101.06
489.914	81.06
490.132	87.06
490.35	89.06
490.568	89.06
490.786	94.06
491.003	91.06
491.221	87.06
491.439	86.06
491.657	105.06
491.874	86.06
492.092	90.06
492.31	87.06
492.527	99.06
492.745	92.06
492.963	86.06
493.18	93.06
493.398	90.06
493.615	88.06
493.833	100.06
494.05	83.06
494.268	90.06
494.485	92.06
494.703	77.06
494.92	91.06
495.138	91.06
495.355	97.06
495.573	99.06
495.79	91.06
496.008	92.06
496.225	89.06
496.442	92.06
496.66	92.06
496.877	97.06
497.094	82.06
497.312	86.06
497.529	98.06
497.746	92.06
497.963	90.06
498.181	95.06
498.398	84.06
498.615	102.06
498.832	92.06
499.049	87.06
499.267	92.06
499.484	84.06
499.701	94.06
499.918	83.06
500.135	83.06
500.352	84.06
500.569	91.06
500.786	83.06
501.003	78.06
501.22	75.06
501.437	94.06
501.654	104.06
501.871	95.06
502.088	100.06
502.305	89.06
502.522	91.06
502.739	95.06
502.956	97.06
503.172	86.06
503.389	101.06
503.606	94.06
503.823	90.06
504.04	83.06
504.256	102.06
504.473	96.06
504.69	92.06
504.907	93.06
505.123	88.06
505.34	75.06
505.557	85.06
505.773	100.06
505.99	82.06
506.207	101.06
506.423	91.06
506.64	93.06
506.856	93.06
507.073	93.06
507.289	73.06
507.506	91.06
507.722	115.06
507.939	114.06
508.155	89.06
508.372	98.06
508.588	107.06
508.805	93.06
509.021	89.06
509.238	88.06
509.454	102.06
509.67	115.06
509.887	98.06
510.103	132.06
510.319	218.06
510.536	804.06
510.752	2471.06
510.968	684.06
511.184	149.06
511.401	107.06
511.617	100.06
511.833	91.06
512.049	98.06
512.265	92.06
512.481	100.06
512.698	90.06
512.914	86.06
513.13	90.06
513.346	95.06
513.562	81.06
513.778	82.06
513.994	102.06
514.21	101.06
514.426	113.06
514.642	132.06
514.858	111.06
515.074	163.06
515.29	441.06
515.506	1487.06
515.721	546.06
515.937	170.06
516.153	92.06
516.369	107.06
516.585	95.06
516.801	99.06
