Data from Uncirc_2004_H10_HRD10591_00028.txt Node
Date: Wed Jan 03 10:32:18 EST 2024
User: Yrep
Spectrometer: HR+D1059
Trigger mode: 1
Integration Time (sec): 1.000000E-1
Scans to average: 1
Electric dark correction enabled: true
Nonlinearity correction enabled: false
Boxcar width: 0
XAxis mode: Wavelengths
Number of Pixels in Spectrum: 2048
>>>>>Begin Spectral Data<<<<<
223.165	-12.69
223.4	-12.69
223.635	-12.69
223.869	-16.69
224.104	-12.69
224.338	-30.69
224.573	-2.69
224.808	-13.69
225.042	-9.69
225.277	-9.69
225.511	7.31
225.746	5.31
225.98	5.31
226.215	4.31
226.449	2.31
226.683	16.31
226.918	30.31
227.152	37.31
227.387	44.31
227.621	43.31
227.856	43.31
228.09	43.31
228.324	48.31
228.559	49.31
228.793	68.31
229.027	47.31
229.262	61.31
229.496	75.31
229.73	72.31
229.964	71.31
230.199	54.31
230.433	79.31
230.667	73.31
230.901	78.31
231.136	85.31
231.37	75.31
231.604	74.31
231.838	74.31
232.072	76.31
232.306	89.31
232.541	77.31
232.775	78.31
233.009	79.31
233.243	74.31
233.477	80.31
233.711	79.31
233.945	89.31
234.179	76.31
234.413	70.31
234.647	84.31
234.881	70.31
235.115	76.31
235.349	70.31
235.583	77.31
235.817	81.31
236.051	73.31
236.285	84.31
236.519	58.31
236.753	63.31
236.987	71.31
237.221	76.31
237.455	85.31
237.689	79.31
237.922	84.31
238.156	74.31
238.39	74.31
238.624	76.31
238.858	90.31
239.091	57.31
239.325	79.31
239.559	86.31
239.793	91.31
240.027	77.31
240.26	76.31
240.494	61.31
240.728	85.31
240.961	83.31
241.195	83.31
241.429	67.31
241.662	82.31
241.896	89.31
242.13	64.31
242.363	67.31
242.597	69.31
242.83	78.31
243.064	73.31
243.298	76.31
243.531	78.31
243.765	72.31
243.998	77.31
244.232	67.31
244.465	78.31
244.699	72.31
244.932	83.31
245.166	81.31
245.399	71.31
245.633	73.31
245.866	69.31
246.099	67.31
246.333	59.31
246.566	74.31
246.8	75.31
247.033	75.31
247.266	84.31
247.5	54.31
247.733	75.31
247.966	68.31
248.2	69.31
248.433	79.31
248.666	73.31
248.899	75.31
249.133	86.31
249.366	79.31
249.599	95.31
249.832	85.31
250.066	81.31
250.299	78.31
250.532	77.31
250.765	73.31
250.998	74.31
251.231	73.31
251.465	71.31
251.698	71.31
251.931	67.31
252.164	70.31
252.397	73.31
252.63	77.31
252.863	76.31
253.096	71.31
253.329	70.31
253.562	80.31
253.795	80.31
254.028	80.31
254.261	67.31
254.494	65.31
254.727	75.31
254.96	66.31
255.193	83.31
255.426	77.31
255.659	81.31
255.892	82.31
256.124	78.31
256.357	77.31
256.59	84.31
256.823	69.31
257.056	80.31
257.289	94.31
257.521	81.31
257.754	84.31
257.987	89.31
258.22	85.31
258.452	79.31
258.685	68.31
258.918	87.31
259.151	88.31
259.383	81.31
259.616	76.31
259.849	71.31
260.081	84.31
260.314	62.31
260.547	63.31
260.779	69.31
261.012	69.31
261.244	75.31
261.477	83.31
261.71	96.31
261.942	108.31
262.175	97.31
262.407	89.31
262.64	74.31
262.872	76.31
263.105	84.31
263.337	90.31
263.57	70.31
263.802	76.31
264.035	77.31
264.267	76.31
264.499	70.31
264.732	74.31
264.964	86.31
265.197	95.31
265.429	86.31
265.661	75.31
265.894	78.31
266.126	84.31
266.358	99.31
266.591	67.31
266.823	76.31
267.055	74.31
267.287	88.31
267.52	83.31
267.752	75.31
267.984	77.31
268.216	79.31
268.448	78.31
268.681	80.31
268.913	89.31
269.145	66.31
269.377	83.31
269.609	80.31
269.841	80.31
270.073	85.31
270.306	69.31
270.538	79.31
270.77	81.31
271.002	78.31
271.234	87.31
271.466	72.31
271.698	76.31
271.93	63.31
272.162	86.31
272.394	89.31
272.626	89.31
272.858	71.31
273.09	83.31
273.322	77.31
273.553	80.31
273.785	77.31
274.017	83.31
274.249	76.31
274.481	72.31
274.713	67.31
274.945	71.31
275.176	74.31
275.408	92.31
275.64	79.31
275.872	65.31
276.104	91.31
276.335	83.31
276.567	84.31
276.799	96.31
277.031	86.31
277.262	87.31
277.494	91.31
277.726	91.31
277.957	84.31
278.189	82.31
278.421	77.31
278.652	78.31
278.884	68.31
279.115	77.31
279.347	80.31
279.579	73.31
279.81	77.31
280.042	81.31
280.273	81.31
280.505	89.31
280.736	83.31
280.968	82.31
281.199	75.31
281.431	81.31
281.662	78.31
281.894	88.31
282.125	105.31
282.356	97.31
282.588	138.31
282.819	119.31
283.051	76.31
283.282	84.31
283.513	82.31
283.745	85.31
283.976	80.31
284.207	75.31
284.439	92.31
284.67	73.31
284.901	91.31
285.132	75.31
285.364	91.31
285.595	80.31
285.826	65.31
286.057	85.31
286.288	78.31
286.52	69.31
286.751	87.31
286.982	73.31
287.213	69.31
287.444	83.31
287.675	95.31
287.906	89.31
288.138	84.31
288.369	89.31
288.6	71.31
288.831	85.31
289.062	79.31
289.293	98.31
289.524	86.31
289.755	94.31
289.986	84.31
290.217	95.31
290.448	82.31
290.679	74.31
290.91	94.31
291.141	70.31
291.371	83.31
291.602	76.31
291.833	86.31
292.064	91.31
292.295	80.31
292.526	90.31
292.757	74.31
292.987	79.31
293.218	81.31
293.449	78.31
293.68	83.31
293.91	76.31
294.141	84.31
294.372	81.31
294.603	80.31
294.833	96.31
295.064	78.31
295.295	76.31
295.525	92.31
295.756	107.31
295.987	113.31
296.217	117.31
296.448	122.31
296.679	79.31
296.909	81.31
297.14	89.31
297.37	85.31
297.601	88.31
297.831	97.31
298.062	84.31
298.292	75.31
298.523	64.31
298.753	88.31
298.984	77.31
299.214	94.31
299.445	81.31
299.675	91.31
299.905	102.31
300.136	89.31
300.366	85.31
300.597	92.31
300.827	83.31
301.057	101.31
301.288	92.31
301.518	90.31
301.748	111.31
301.979	102.31
302.209	99.31
302.439	84.31
302.669	74.31
302.9	92.31
303.13	94.31
303.36	86.31
303.59	95.31
303.82	101.31
304.051	86.31
304.281	94.31
304.511	83.31
304.741	86.31
304.971	83.31
305.201	76.31
305.431	88.31
305.661	91.31
305.891	95.31
306.121	89.31
306.352	97.31
306.582	97.31
306.812	92.31
307.042	82.31
307.272	87.31
307.502	94.31
307.731	81.31
307.961	93.31
308.191	91.31
308.421	77.31
308.651	76.31
308.881	85.31
309.111	89.31
309.341	100.31
309.571	104.31
309.8	100.31
310.03	86.31
310.26	101.31
310.49	90.31
310.72	92.31
310.949	101.31
311.179	100.31
311.409	95.31
311.639	87.31
311.868	100.31
312.098	85.31
312.328	85.31
312.557	90.31
312.787	99.31
313.017	98.31
313.246	93.31
313.476	95.31
313.706	91.31
313.935	85.31
314.165	98.31
314.394	98.31
314.624	90.31
314.853	105.31
315.083	87.31
315.312	102.31
315.542	95.31
315.771	95.31
316.001	88.31
316.23	73.31
316.46	82.31
316.689	78.31
316.919	87.31
317.148	96.31
317.377	94.31
317.607	95.31
317.836	84.31
318.065	73.31
318.295	83.31
318.524	90.31
318.753	82.31
318.983	93.31
319.212	93.31
319.441	90.31
319.67	89.31
319.9	83.31
320.129	87.31
320.358	91.31
320.587	89.31
320.816	95.31
321.046	90.31
321.275	94.31
321.504	102.31
321.733	94.31
321.962	98.31
322.191	89.31
322.42	88.31
322.649	104.31
322.878	114.31
323.108	110.31
323.337	122.31
323.566	138.31
323.795	130.31
324.024	198.31
324.253	404.31
324.482	805.31
324.71	1651.31
324.939	2142.31
325.168	766.31
325.397	230.31
325.626	143.31
325.855	121.31
326.084	112.31
326.313	127.31
326.542	159.31
326.77	240.31
326.999	445.31
327.228	927.31
327.457	1652.31
327.686	1294.31
327.914	353.31
328.143	188.31
328.372	139.31
328.6	106.31
328.829	101.31
329.058	116.31
329.287	127.31
329.515	95.31
329.744	95.31
329.972	113.31
330.201	110.31
330.43	113.31
330.658	107.31
330.887	141.31
331.115	121.31
331.344	101.31
331.572	102.31
331.801	94.31
332.03	104.31
332.258	101.31
332.486	95.31
332.715	85.31
332.943	93.31
333.172	101.31
333.4	98.31
333.629	101.31
333.857	97.31
334.085	95.31
334.314	89.31
334.542	95.31
334.771	94.31
334.999	92.31
335.227	97.31
335.455	80.31
335.684	104.31
335.912	111.31
336.14	85.31
336.369	97.31
336.597	86.31
336.825	93.31
337.053	82.31
337.281	100.31
337.51	90.31
337.738	88.31
337.966	85.31
338.194	89.31
338.422	93.31
338.65	101.31
338.878	87.31
339.106	87.31
339.334	94.31
339.562	99.31
339.79	87.31
340.018	80.31
340.246	95.31
340.474	86.31
340.702	80.31
340.93	82.31
341.158	94.31
341.386	106.31
341.614	107.31
341.842	86.31
342.07	85.31
342.298	99.31
342.526	85.31
342.754	84.31
342.981	90.31
343.209	73.31
343.437	99.31
343.665	105.31
343.893	93.31
344.12	106.31
344.348	83.31
344.576	83.31
344.804	83.31
345.031	93.31
345.259	94.31
345.487	96.31
345.714	95.31
345.942	92.31
346.17	91.31
346.397	99.31
346.625	85.31
346.853	87.31
347.08	94.31
347.308	96.31
347.535	92.31
347.763	93.31
347.99	101.31
348.218	87.31
348.445	90.31
348.673	94.31
348.9	98.31
349.128	87.31
349.355	90.31
349.583	81.31
349.81	92.31
350.037	92.31
350.265	86.31
350.492	96.31
350.72	111.31
350.947	100.31
351.174	94.31
351.402	109.31
351.629	106.31
351.856	89.31
352.083	93.31
352.311	99.31
352.538	97.31
352.765	111.31
352.992	107.31
353.22	106.31
353.447	110.31
353.674	112.31
353.901	99.31
354.128	102.31
354.355	100.31
354.583	94.31
354.81	95.31
355.037	99.31
355.264	93.31
355.491	83.31
355.718	99.31
355.945	90.31
356.172	89.31
356.399	89.31
356.626	106.31
356.853	104.31
357.08	99.31
357.307	79.31
357.534	96.31
357.761	98.31
357.988	86.31
358.215	103.31
358.441	101.31
358.668	101.31
358.895	98.31
359.122	76.31
359.349	85.31
359.576	86.31
359.802	99.31
360.029	102.31
360.256	104.31
360.483	83.31
360.709	79.31
360.936	81.31
361.163	85.31
361.39	107.31
361.616	96.31
361.843	92.31
362.07	83.31
362.296	81.31
362.523	72.31
362.749	91.31
362.976	78.31
363.203	97.31
363.429	90.31
363.656	100.31
363.882	83.31
364.109	92.31
364.335	99.31
364.562	87.31
364.788	85.31
365.015	89.31
365.241	78.31
365.468	100.31
365.694	89.31
365.92	89.31
366.147	99.31
366.373	93.31
366.599	80.31
366.826	95.31
367.052	85.31
367.278	82.31
367.505	85.31
367.731	84.31
367.957	90.31
368.184	87.31
368.41	94.31
368.636	102.31
368.862	107.31
369.089	103.31
369.315	81.31
369.541	86.31
369.767	76.31
369.993	79.31
370.219	70.31
370.445	84.31
370.672	95.31
370.898	91.31
371.124	86.31
371.35	93.31
371.576	81.31
371.802	91.31
372.028	83.31
372.254	88.31
372.48	81.31
372.706	73.31
372.932	84.31
373.158	87.31
373.384	93.31
373.61	93.31
373.835	78.31
374.061	94.31
374.287	80.31
374.513	97.31
374.739	77.31
374.965	103.31
375.191	82.31
375.416	81.31
375.642	68.31
375.868	78.31
376.094	86.31
376.319	87.31
376.545	74.31
376.771	88.31
376.997	101.31
377.222	90.31
377.448	96.31
377.674	100.31
377.899	95.31
378.125	81.31
378.35	87.31
378.576	89.31
378.802	87.31
379.027	89.31
379.253	106.31
379.478	83.31
379.704	96.31
379.929	87.31
380.155	104.31
380.38	97.31
380.606	98.31
380.831	70.31
381.057	83.31
381.282	80.31
381.507	103.31
381.733	94.31
381.958	90.31
382.184	87.31
382.409	98.31
382.634	101.31
382.86	95.31
383.085	115.31
383.31	93.31
383.535	91.31
383.761	92.31
383.986	93.31
384.211	97.31
384.436	93.31
384.662	96.31
384.887	98.31
385.112	96.31
385.337	108.31
385.562	101.31
385.787	99.31
386.013	131.31
386.238	126.31
386.463	109.31
386.688	135.31
386.913	103.31
387.138	95.31
387.363	105.31
387.588	99.31
387.813	105.31
388.038	115.31
388.263	114.31
388.488	109.31
388.713	94.31
388.938	93.31
389.163	87.31
389.387	109.31
389.612	100.31
389.837	95.31
390.062	94.31
390.287	93.31
390.512	88.31
390.736	106.31
390.961	96.31
391.186	85.31
391.411	90.31
391.636	82.31
391.86	69.31
392.085	79.31
392.31	85.31
392.534	86.31
392.759	78.31
392.984	84.31
393.208	78.31
393.433	93.31
393.658	99.31
393.882	85.31
394.107	71.31
394.331	82.31
394.556	83.31
394.78	97.31
395.005	86.31
395.229	84.31
395.454	98.31
395.678	81.31
395.903	86.31
396.127	77.31
396.352	91.31
396.576	94.31
396.801	82.31
397.025	87.31
397.249	83.31
397.474	79.31
397.698	80.31
397.922	73.31
398.147	89.31
398.371	84.31
398.595	78.31
398.82	67.31
399.044	85.31
399.268	82.31
399.492	83.31
399.717	75.31
399.941	81.31
400.165	83.31
400.389	93.31
400.613	91.31
400.837	89.31
401.062	87.31
401.286	85.31
401.51	89.31
401.734	85.31
401.958	102.31
402.182	133.31
402.406	146.31
402.63	97.31
402.854	70.31
403.078	77.31
403.302	77.31
403.526	81.31
403.75	73.31
403.974	80.31
404.198	83.31
404.422	81.31
404.645	75.31
404.869	89.31
405.093	93.31
405.317	91.31
405.541	85.31
405.765	100.31
405.988	103.31
406.212	165.31
406.436	204.31
406.66	141.31
406.883	80.31
407.107	92.31
407.331	91.31
407.555	97.31
407.778	83.31
408.002	86.31
408.226	83.31
408.449	83.31
408.673	72.31
408.896	84.31
409.12	88.31
409.344	86.31
409.567	86.31
409.791	94.31
410.014	85.31
410.238	87.31
410.461	88.31
410.685	86.31
410.908	85.31
411.132	86.31
411.355	98.31
411.578	100.31
411.802	84.31
412.025	103.31
412.249	83.31
412.472	84.31
412.695	82.31
412.919	74.31
413.142	87.31
413.365	86.31
413.589	85.31
413.812	90.31
414.035	104.31
414.258	87.31
414.482	83.31
414.705	86.31
414.928	86.31
415.151	90.31
415.374	94.31
415.597	87.31
415.821	91.31
416.044	91.31
416.267	87.31
416.49	82.31
416.713	89.31
416.936	87.31
417.159	69.31
417.382	92.31
417.605	84.31
417.828	79.31
418.051	89.31
418.274	91.31
418.497	76.31
418.72	93.31
418.943	87.31
419.166	94.31
419.389	91.31
419.611	75.31
419.834	79.31
420.057	92.31
420.28	77.31
420.503	91.31
420.726	93.31
420.948	81.31
421.171	79.31
421.394	84.31
421.617	87.31
421.839	72.31
422.062	82.31
422.285	92.31
422.507	102.31
422.73	101.31
422.953	89.31
423.175	83.31
423.398	88.31
423.621	93.31
423.843	80.31
424.066	76.31
424.288	87.31
424.511	97.31
424.733	85.31
424.956	110.31
425.178	86.31
425.401	97.31
425.623	107.31
425.846	79.31
426.068	75.31
426.291	102.31
426.513	84.31
426.735	85.31
426.958	96.31
427.18	100.31
427.402	122.31
427.625	151.31
427.847	109.31
428.069	109.31
428.292	90.31
428.514	82.31
428.736	81.31
428.958	78.31
429.181	83.31
429.403	80.31
429.625	91.31
429.847	92.31
430.069	81.31
430.292	79.31
430.514	87.31
430.736	78.31
430.958	75.31
431.18	84.31
431.402	67.31
431.624	79.31
431.846	61.31
432.068	92.31
432.29	88.31
432.512	90.31
432.734	101.31
432.956	102.31
433.178	94.31
433.4	97.31
433.622	87.31
433.844	89.31
434.066	73.31
434.287	95.31
434.509	92.31
434.731	68.31
434.953	72.31
435.175	84.31
435.397	89.31
435.618	98.31
435.84	93.31
436.062	111.31
436.284	107.31
436.505	114.31
436.727	95.31
436.949	90.31
437.17	98.31
437.392	84.31
437.614	94.31
437.835	86.31
438.057	107.31
438.278	109.31
438.5	102.31
438.721	129.31
438.943	104.31
439.165	76.31
439.386	93.31
439.608	79.31
439.829	93.31
440.05	117.31
440.272	128.31
440.493	101.31
440.715	87.31
440.936	80.31
441.158	85.31
441.379	91.31
441.6	83.31
441.822	91.31
442.043	86.31
442.264	108.31
442.486	92.31
442.707	87.31
442.928	96.31
443.149	116.31
443.371	117.31
443.592	107.31
443.813	92.31
444.034	111.31
444.255	86.31
444.476	87.31
444.698	82.31
444.919	80.31
445.14	125.31
445.361	116.31
445.582	104.31
445.803	114.31
446.024	135.31
446.245	127.31
446.466	79.31
446.687	81.31
446.908	79.31
447.129	86.31
447.35	96.31
447.571	74.31
447.792	95.31
448.013	100.31
448.234	115.31
448.455	91.31
448.675	91.31
448.896	116.31
449.117	94.31
449.338	104.31
449.559	117.31
449.779	138.31
450	84.31
450.221	80.31
450.442	94.31
450.662	95.31
450.883	87.31
451.104	98.31
451.324	100.31
451.545	83.31
451.766	82.31
451.986	95.31
452.207	96.31
452.428	81.31
452.648	96.31
452.869	111.31
453.089	95.31
453.31	102.31
453.53	91.31
453.751	90.31
453.971	93.31
454.192	99.31
454.412	84.31
454.633	85.31
454.853	97.31
455.073	74.31
455.294	69.31
455.514	87.31
455.734	87.31
455.955	87.31
456.175	90.31
456.395	81.31
456.616	65.31
456.836	85.31
457.056	85.31
457.276	73.31
457.497	85.31
457.717	86.31
457.937	79.31
458.157	87.31
458.377	91.31
458.598	96.31
458.818	129.31
459.038	145.31
459.258	108.31
459.478	87.31
459.698	98.31
459.918	84.31
460.138	82.31
460.358	95.31
460.578	91.31
460.798	85.31
461.018	88.31
461.238	75.31
461.458	92.31
461.678	83.31
461.898	79.31
462.118	90.31
462.338	94.31
462.558	79.31
462.777	85.31
462.997	73.31
463.217	76.31
463.437	85.31
463.657	84.31
463.876	76.31
464.096	94.31
464.316	87.31
464.536	87.31
464.755	99.31
464.975	111.31
465.195	134.31
465.414	143.31
465.634	78.31
465.854	70.31
466.073	82.31
466.293	85.31
466.512	90.31
466.732	81.31
466.951	84.31
467.171	95.31
467.391	85.31
467.61	96.31
467.829	89.31
468.049	83.31
468.268	73.31
468.488	64.31
468.707	79.31
468.927	84.31
469.146	97.31
469.365	80.31
469.585	98.31
469.804	85.31
470.023	97.31
470.243	101.31
470.462	98.31
470.681	82.31
470.901	86.31
471.12	78.31
471.339	90.31
471.558	85.31
471.777	73.31
471.997	69.31
472.216	93.31
472.435	107.31
472.654	89.31
472.873	97.31
473.092	91.31
473.311	73.31
473.53	78.31
473.749	87.31
473.968	78.31
474.187	93.31
474.406	85.31
474.625	71.31
474.844	86.31
475.063	85.31
475.282	92.31
475.501	81.31
475.72	80.31
475.939	70.31
476.158	76.31
476.377	83.31
476.596	89.31
476.814	93.31
477.033	80.31
477.252	76.31
477.471	87.31
477.69	93.31
477.908	83.31
478.127	73.31
478.346	76.31
478.564	81.31
478.783	92.31
479.002	77.31
479.22	101.31
479.439	91.31
479.658	93.31
479.876	91.31
480.095	89.31
480.313	86.31
480.532	91.31
480.751	77.31
480.969	102.31
481.188	114.31
481.406	99.31
481.624	93.31
481.843	85.31
482.061	88.31
482.28	89.31
482.498	84.31
482.717	79.31
482.935	83.31
483.153	86.31
483.372	79.31
483.59	79.31
483.808	94.31
484.027	91.31
484.245	93.31
484.463	90.31
484.681	96.31
484.9	83.31
485.118	89.31
485.336	105.31
485.554	93.31
485.772	89.31
485.99	86.31
486.209	88.31
486.427	95.31
486.645	91.31
486.863	97.31
487.081	89.31
487.299	90.31
487.517	77.31
487.735	91.31
487.953	89.31
488.171	89.31
488.389	90.31
488.607	94.31
488.825	92.31
489.043	87.31
489.261	98.31
489.479	85.31
489.696	78.31
489.914	89.31
490.132	82.31
490.35	86.31
490.568	89.31
490.786	110.31
491.003	92.31
491.221	84.31
491.439	88.31
491.657	100.31
491.874	98.31
492.092	80.31
492.31	92.31
492.527	92.31
492.745	94.31
492.963	100.31
493.18	85.31
493.398	87.31
493.615	99.31
493.833	77.31
494.05	83.31
494.268	76.31
494.485	81.31
494.703	83.31
494.92	87.31
495.138	67.31
495.355	88.31
495.573	89.31
495.79	92.31
496.008	89.31
496.225	99.31
496.442	76.31
496.66	94.31
496.877	75.31
497.094	85.31
497.312	85.31
497.529	87.31
497.746	88.31
497.963	89.31
498.181	69.31
498.398	76.31
498.615	102.31
498.832	105.31
499.049	105.31
499.267	82.31
499.484	84.31
499.701	79.31
499.918	74.31
500.135	85.31
500.352	82.31
500.569	64.31
500.786	82.31
501.003	81.31
501.22	78.31
501.437	89.31
501.654	93.31
501.871	119.31
502.088	106.31
502.305	85.31
502.522	89.31
502.739	84.31
502.956	75.31
503.172	84.31
503.389	102.31
503.606	100.31
503.823	81.31
504.04	86.31
504.256	86.31
504.473	78.31
504.69	99.31
504.907	85.31
505.123	86.31
505.34	105.31
505.557	87.31
505.773	85.31
505.99	68.31
506.207	94.31
506.423	84.31
506.64	91.31
506.856	84.31
507.073	91.31
507.289	89.31
507.506	107.31
507.722	99.31
507.939	104.31
508.155	90.31
508.372	88.31
508.588	99.31
508.805	96.31
509.021	92.31
509.238	79.31
509.454	83.31
509.67	110.31
509.887	93.31
510.103	127.31
510.319	204.31
510.536	756.31
510.752	2326.31
510.968	629.31
511.184	158.31
511.401	106.31
511.617	103.31
511.833	105.31
512.049	94.31
512.265	85.31
512.481	79.31
512.698	86.31
512.914	80.31
513.13	83.31
513.346	83.31
513.562	78.31
513.778	98.31
513.994	103.31
514.21	97.31
514.426	102.31
514.642	117.31
514.858	114.31
515.074	170.31
515.29	449.31
515.506	1389.31
515.721	510.31
515.937	139.31
516.153	106.31
516.369	90.31
516.585	86.31
516.801	76.31
517.016	85.31
