Data from Uncirc_2004_H10_HRD10591_00012.txt Node
Date: Wed Jan 03 10:32:15 EST 2024
User: Yrep
Spectrometer: HR+D1059
Trigger mode: 1
Integration Time (sec): 1.000000E-1
Scans to average: 1
Electric dark correction enabled: true
Nonlinearity correction enabled: false
Boxcar width: 0
XAxis mode: Wavelengths
Number of Pixels in Spectrum: 2048
>>>>>Begin Spectral Data<<<<<
223.165	-15.75
223.4	-15.75
223.635	-15.75
223.869	-21.75
224.104	-22.75
224.338	-28.75
224.573	-9.75
224.808	-10.75
225.042	-12.75
225.277	-12.75
225.511	1.25
225.746	15.25
225.98	0.25
226.215	8.25
226.449	9.25
226.683	26.25
226.918	33.25
227.152	41.25
227.387	22.25
227.621	47.25
227.856	41.25
228.09	57.25
228.324	58.25
228.559	65.25
228.793	51.25
229.027	56.25
229.262	67.25
229.496	53.25
229.73	77.25
229.964	93.25
230.199	85.25
230.433	72.25
230.667	66.25
230.901	78.25
231.136	79.25
231.37	75.25
231.604	79.25
231.838	78.25
232.072	88.25
232.306	80.25
232.541	81.25
232.775	87.25
233.009	75.25
233.243	74.25
233.477	81.25
233.711	70.25
233.945	83.25
234.179	87.25
234.413	78.25
234.647	76.25
234.881	78.25
235.115	90.25
235.349	78.25
235.583	87.25
235.817	81.25
236.051	85.25
236.285	84.25
236.519	77.25
236.753	86.25
236.987	76.25
237.221	75.25
237.455	91.25
237.689	71.25
237.922	69.25
238.156	85.25
238.39	64.25
238.624	73.25
238.858	77.25
239.091	79.25
239.325	87.25
239.559	85.25
239.793	81.25
240.027	75.25
240.26	56.25
240.494	67.25
240.728	65.25
240.961	94.25
241.195	61.25
241.429	72.25
241.662	78.25
241.896	72.25
242.13	83.25
242.363	84.25
242.597	72.25
242.83	78.25
243.064	89.25
243.298	97.25
243.531	92.25
243.765	81.25
243.998	81.25
244.232	87.25
244.465	84.25
244.699	67.25
244.932	77.25
245.166	64.25
245.399	85.25
245.633	79.25
245.866	75.25
246.099	76.25
246.333	83.25
246.566	65.25
246.8	70.25
247.033	78.25
247.266	75.25
247.5	73.25
247.733	84.25
247.966	80.25
248.2	89.25
248.433	96.25
248.666	70.25
248.899	87.25
249.133	74.25
249.366	93.25
249.599	86.25
249.832	90.25
250.066	78.25
250.299	84.25
250.532	88.25
250.765	75.25
250.998	70.25
251.231	81.25
251.465	90.25
251.698	83.25
251.931	89.25
252.164	83.25
252.397	73.25
252.63	93.25
252.863	84.25
253.096	77.25
253.329	79.25
253.562	80.25
253.795	86.25
254.028	81.25
254.261	77.25
254.494	69.25
254.727	72.25
254.96	75.25
255.193	81.25
255.426	80.25
255.659	71.25
255.892	81.25
256.124	88.25
256.357	71.25
256.59	92.25
256.823	86.25
257.056	71.25
257.289	80.25
257.521	78.25
257.754	93.25
257.987	80.25
258.22	77.25
258.452	72.25
258.685	79.25
258.918	69.25
259.151	87.25
259.383	87.25
259.616	94.25
259.849	87.25
260.081	96.25
260.314	84.25
260.547	83.25
260.779	68.25
261.012	87.25
261.244	97.25
261.477	85.25
261.71	90.25
261.942	99.25
262.175	94.25
262.407	87.25
262.64	69.25
262.872	89.25
263.105	70.25
263.337	74.25
263.57	85.25
263.802	75.25
264.035	88.25
264.267	78.25
264.499	92.25
264.732	81.25
264.964	83.25
265.197	87.25
265.429	76.25
265.661	72.25
265.894	77.25
266.126	88.25
266.358	74.25
266.591	93.25
266.823	88.25
267.055	71.25
267.287	77.25
267.52	81.25
267.752	88.25
267.984	77.25
268.216	81.25
268.448	93.25
268.681	78.25
268.913	96.25
269.145	93.25
269.377	71.25
269.609	71.25
269.841	87.25
270.073	89.25
270.306	79.25
270.538	86.25
270.77	83.25
271.002	80.25
271.234	82.25
271.466	93.25
271.698	88.25
271.93	88.25
272.162	80.25
272.394	84.25
272.626	83.25
272.858	70.25
273.09	83.25
273.322	93.25
273.553	81.25
273.785	85.25
274.017	81.25
274.249	77.25
274.481	79.25
274.713	95.25
274.945	61.25
275.176	83.25
275.408	72.25
275.64	75.25
275.872	87.25
276.104	88.25
276.335	83.25
276.567	93.25
276.799	98.25
277.031	102.25
277.262	83.25
277.494	85.25
277.726	79.25
277.957	86.25
278.189	77.25
278.421	89.25
278.652	87.25
278.884	85.25
279.115	66.25
279.347	81.25
279.579	87.25
279.81	80.25
280.042	96.25
280.273	87.25
280.505	81.25
280.736	79.25
280.968	87.25
281.199	79.25
281.431	73.25
281.662	72.25
281.894	77.25
282.125	96.25
282.356	106.25
282.588	134.25
282.819	116.25
283.051	90.25
283.282	79.25
283.513	79.25
283.745	95.25
283.976	86.25
284.207	88.25
284.439	99.25
284.67	86.25
284.901	84.25
285.132	75.25
285.364	91.25
285.595	92.25
285.826	80.25
286.057	99.25
286.288	66.25
286.52	79.25
286.751	93.25
286.982	75.25
287.213	86.25
287.444	88.25
287.675	87.25
287.906	90.25
288.138	89.25
288.369	86.25
288.6	95.25
288.831	87.25
289.062	96.25
289.293	87.25
289.524	104.25
289.755	83.25
289.986	95.25
290.217	100.25
290.448	94.25
290.679	95.25
290.91	108.25
291.141	88.25
291.371	70.25
291.602	87.25
291.833	82.25
292.064	91.25
292.295	96.25
292.526	94.25
292.757	75.25
292.987	98.25
293.218	100.25
293.449	76.25
293.68	88.25
293.91	82.25
294.141	96.25
294.372	101.25
294.603	95.25
294.833	80.25
295.064	91.25
295.295	97.25
295.525	106.25
295.756	108.25
295.987	111.25
296.217	132.25
296.448	117.25
296.679	91.25
296.909	87.25
297.14	86.25
297.37	90.25
297.601	96.25
297.831	105.25
298.062	87.25
298.292	90.25
298.523	97.25
298.753	83.25
298.984	73.25
299.214	81.25
299.445	114.25
299.675	92.25
299.905	87.25
300.136	95.25
300.366	94.25
300.597	86.25
300.827	84.25
301.057	83.25
301.288	97.25
301.518	89.25
301.748	79.25
301.979	94.25
302.209	104.25
302.439	83.25
302.669	84.25
302.9	81.25
303.13	87.25
303.36	112.25
303.59	95.25
303.82	101.25
304.051	88.25
304.281	111.25
304.511	99.25
304.741	89.25
304.971	95.25
305.201	93.25
305.431	88.25
305.661	81.25
305.891	86.25
306.121	85.25
306.352	100.25
306.582	100.25
306.812	88.25
307.042	69.25
307.272	92.25
307.502	110.25
307.731	101.25
307.961	98.25
308.191	89.25
308.421	88.25
308.651	82.25
308.881	89.25
309.111	86.25
309.341	90.25
309.571	84.25
309.8	93.25
310.03	85.25
310.26	94.25
310.49	87.25
310.72	106.25
310.949	86.25
311.179	105.25
311.409	100.25
311.639	96.25
311.868	96.25
312.098	94.25
312.328	97.25
312.557	109.25
312.787	104.25
313.017	85.25
313.246	88.25
313.476	94.25
313.706	99.25
313.935	95.25
314.165	97.25
314.394	102.25
314.624	103.25
314.853	95.25
315.083	100.25
315.312	96.25
315.542	97.25
315.771	89.25
316.001	103.25
316.23	96.25
316.46	103.25
316.689	91.25
316.919	84.25
317.148	97.25
317.377	84.25
317.607	103.25
317.836	93.25
318.065	96.25
318.295	92.25
318.524	88.25
318.753	88.25
318.983	94.25
319.212	95.25
319.441	95.25
319.67	105.25
319.9	100.25
320.129	87.25
320.358	85.25
320.587	101.25
320.816	98.25
321.046	88.25
321.275	110.25
321.504	89.25
321.733	88.25
321.962	101.25
322.191	96.25
322.42	95.25
322.649	105.25
322.878	100.25
323.108	112.25
323.337	126.25
323.566	120.25
323.795	137.25
324.024	208.25
324.253	380.25
324.482	819.25
324.71	1674.25
324.939	2129.25
325.168	795.25
325.397	239.25
325.626	149.25
325.855	123.25
326.084	125.25
326.313	133.25
326.542	139.25
326.77	233.25
326.999	453.25
327.228	943.25
327.457	1709.25
327.686	1333.25
327.914	365.25
328.143	183.25
328.372	142.25
328.6	99.25
328.829	108.25
329.058	120.25
329.287	108.25
329.515	116.25
329.744	109.25
329.972	99.25
330.201	106.25
330.43	110.25
330.658	121.25
330.887	127.25
331.115	120.25
331.344	100.25
331.572	102.25
331.801	111.25
332.03	89.25
332.258	102.25
332.486	94.25
332.715	91.25
332.943	88.25
333.172	95.25
333.4	97.25
333.629	98.25
333.857	115.25
334.085	105.25
334.314	94.25
334.542	114.25
334.771	99.25
334.999	98.25
335.227	98.25
335.455	108.25
335.684	93.25
335.912	99.25
336.14	104.25
336.369	84.25
336.597	92.25
336.825	89.25
337.053	83.25
337.281	89.25
337.51	77.25
337.738	94.25
337.966	94.25
338.194	95.25
338.422	105.25
338.65	98.25
338.878	106.25
339.106	92.25
339.334	90.25
339.562	92.25
339.79	101.25
340.018	89.25
340.246	89.25
340.474	89.25
340.702	89.25
340.93	106.25
341.158	91.25
341.386	104.25
341.614	100.25
341.842	98.25
342.07	94.25
342.298	75.25
342.526	86.25
342.754	96.25
342.981	88.25
343.209	92.25
343.437	104.25
343.665	89.25
343.893	90.25
344.12	81.25
344.348	97.25
344.576	80.25
344.804	69.25
345.031	82.25
345.259	97.25
345.487	85.25
345.714	99.25
345.942	87.25
346.17	118.25
346.397	76.25
346.625	92.25
346.853	91.25
347.08	88.25
347.308	102.25
347.535	101.25
347.763	107.25
347.99	91.25
348.218	104.25
348.445	110.25
348.673	103.25
348.9	95.25
349.128	101.25
349.355	101.25
349.583	93.25
349.81	95.25
350.037	72.25
350.265	82.25
350.492	97.25
350.72	97.25
350.947	92.25
351.174	101.25
351.402	109.25
351.629	91.25
351.856	104.25
352.083	94.25
352.311	98.25
352.538	108.25
352.765	104.25
352.992	123.25
353.22	111.25
353.447	115.25
353.674	108.25
353.901	81.25
354.128	84.25
354.355	96.25
354.583	102.25
354.81	85.25
355.037	101.25
355.264	86.25
355.491	93.25
355.718	89.25
355.945	102.25
356.172	104.25
356.399	91.25
356.626	92.25
356.853	92.25
357.08	103.25
357.307	83.25
357.534	97.25
357.761	88.25
357.988	95.25
358.215	96.25
358.441	98.25
358.668	89.25
358.895	97.25
359.122	79.25
359.349	76.25
359.576	103.25
359.802	97.25
360.029	103.25
360.256	112.25
360.483	104.25
360.709	66.25
360.936	93.25
361.163	91.25
361.39	89.25
361.616	93.25
361.843	85.25
362.07	97.25
362.296	99.25
362.523	81.25
362.749	83.25
362.976	101.25
363.203	103.25
363.429	90.25
363.656	96.25
363.882	91.25
364.109	92.25
364.335	77.25
364.562	103.25
364.788	92.25
365.015	93.25
365.241	99.25
365.468	89.25
365.694	97.25
365.92	92.25
366.147	95.25
366.373	91.25
366.599	93.25
366.826	98.25
367.052	102.25
367.278	95.25
367.505	88.25
367.731	81.25
367.957	91.25
368.184	77.25
368.41	94.25
368.636	115.25
368.862	111.25
369.089	93.25
369.315	95.25
369.541	85.25
369.767	99.25
369.993	95.25
370.219	77.25
370.445	91.25
370.672	78.25
370.898	94.25
371.124	92.25
371.35	88.25
371.576	85.25
371.802	89.25
372.028	80.25
372.254	84.25
372.48	99.25
372.706	91.25
372.932	93.25
373.158	78.25
373.384	95.25
373.61	81.25
373.835	99.25
374.061	88.25
374.287	85.25
374.513	94.25
374.739	77.25
374.965	87.25
375.191	82.25
375.416	86.25
375.642	99.25
375.868	97.25
376.094	109.25
376.319	87.25
376.545	100.25
376.771	102.25
376.997	97.25
377.222	85.25
377.448	97.25
377.674	87.25
377.899	80.25
378.125	89.25
378.35	109.25
378.576	86.25
378.802	95.25
379.027	106.25
379.253	95.25
379.478	94.25
379.704	106.25
379.929	79.25
380.155	79.25
380.38	94.25
380.606	97.25
380.831	99.25
381.057	110.25
381.282	103.25
381.507	103.25
381.733	88.25
381.958	104.25
382.184	92.25
382.409	96.25
382.634	114.25
382.86	101.25
383.085	106.25
383.31	107.25
383.535	102.25
383.761	112.25
383.986	101.25
384.211	84.25
384.436	101.25
384.662	98.25
384.887	119.25
385.112	103.25
385.337	103.25
385.562	111.25
385.787	97.25
386.013	103.25
386.238	118.25
386.463	115.25
386.688	106.25
386.913	112.25
387.138	110.25
387.363	96.25
387.588	104.25
387.813	107.25
388.038	115.25
388.263	116.25
388.488	120.25
388.713	101.25
388.938	99.25
389.163	89.25
389.387	103.25
389.612	76.25
389.837	109.25
390.062	87.25
390.287	100.25
390.512	101.25
390.736	84.25
390.961	99.25
391.186	88.25
391.411	92.25
391.636	84.25
391.86	102.25
392.085	82.25
392.31	80.25
392.534	80.25
392.759	80.25
392.984	88.25
393.208	93.25
393.433	95.25
393.658	95.25
393.882	76.25
394.107	93.25
394.331	71.25
394.556	85.25
394.78	100.25
395.005	90.25
395.229	81.25
395.454	96.25
395.678	81.25
395.903	94.25
396.127	94.25
396.352	97.25
396.576	100.25
396.801	102.25
397.025	94.25
397.249	92.25
397.474	95.25
397.698	75.25
397.922	94.25
398.147	88.25
398.371	100.25
398.595	83.25
398.82	89.25
399.044	89.25
399.268	84.25
399.492	89.25
399.717	82.25
399.941	73.25
400.165	97.25
400.389	79.25
400.613	79.25
400.837	75.25
401.062	94.25
401.286	87.25
401.51	86.25
401.734	99.25
401.958	109.25
402.182	121.25
402.406	146.25
402.63	112.25
402.854	84.25
403.078	81.25
403.302	81.25
403.526	82.25
403.75	83.25
403.974	87.25
404.198	105.25
404.422	86.25
404.645	76.25
404.869	80.25
405.093	99.25
405.317	95.25
405.541	102.25
405.765	113.25
405.988	118.25
406.212	161.25
406.436	231.25
406.66	136.25
406.883	80.25
407.107	97.25
407.331	93.25
407.555	86.25
407.778	85.25
408.002	99.25
408.226	84.25
408.449	82.25
408.673	88.25
408.896	99.25
409.12	97.25
409.344	95.25
409.567	79.25
409.791	83.25
410.014	100.25
410.238	82.25
410.461	100.25
410.685	94.25
410.908	97.25
411.132	102.25
411.355	102.25
411.578	82.25
411.802	100.25
412.025	88.25
412.249	104.25
412.472	84.25
412.695	92.25
412.919	90.25
413.142	88.25
413.365	85.25
413.589	90.25
413.812	70.25
414.035	96.25
414.258	99.25
414.482	94.25
414.705	100.25
414.928	85.25
415.151	96.25
415.374	87.25
415.597	86.25
415.821	75.25
416.044	92.25
416.267	92.25
416.49	80.25
416.713	84.25
416.936	85.25
417.159	94.25
417.382	94.25
417.605	88.25
417.828	93.25
418.051	86.25
418.274	85.25
418.497	74.25
418.72	80.25
418.943	79.25
419.166	95.25
419.389	86.25
419.611	79.25
419.834	90.25
420.057	88.25
420.28	77.25
420.503	83.25
420.726	92.25
420.948	90.25
421.171	87.25
421.394	99.25
421.617	96.25
421.839	96.25
422.062	86.25
422.285	82.25
422.507	95.25
422.73	93.25
422.953	93.25
423.175	87.25
423.398	85.25
423.621	91.25
423.843	86.25
424.066	74.25
424.288	85.25
424.511	95.25
424.733	91.25
424.956	96.25
425.178	99.25
425.401	95.25
425.623	100.25
425.846	104.25
426.068	92.25
426.291	77.25
426.513	79.25
426.735	87.25
426.958	100.25
427.18	110.25
427.402	144.25
427.625	142.25
427.847	112.25
428.069	104.25
428.292	87.25
428.514	88.25
428.736	81.25
428.958	93.25
429.181	82.25
429.403	93.25
429.625	89.25
429.847	84.25
430.069	92.25
430.292	83.25
430.514	81.25
430.736	77.25
430.958	96.25
431.18	83.25
431.402	83.25
431.624	92.25
431.846	84.25
432.068	62.25
432.29	82.25
432.512	98.25
432.734	86.25
432.956	84.25
433.178	114.25
433.4	96.25
433.622	92.25
433.844	100.25
434.066	94.25
434.287	90.25
434.509	98.25
434.731	83.25
434.953	99.25
435.175	93.25
435.397	89.25
435.618	94.25
435.84	91.25
436.062	92.25
436.284	97.25
436.505	96.25
436.727	92.25
436.949	97.25
437.17	89.25
437.392	83.25
437.614	85.25
437.835	107.25
438.057	119.25
438.278	99.25
438.5	107.25
438.721	120.25
438.943	107.25
439.165	85.25
439.386	89.25
439.608	75.25
439.829	100.25
440.05	105.25
440.272	126.25
440.493	98.25
440.715	83.25
440.936	101.25
441.158	87.25
441.379	81.25
441.6	93.25
441.822	92.25
442.043	97.25
442.264	99.25
442.486	88.25
442.707	97.25
442.928	89.25
443.149	121.25
443.371	112.25
443.592	103.25
443.813	113.25
444.034	101.25
444.255	85.25
444.476	95.25
444.698	80.25
444.919	89.25
445.14	148.25
445.361	108.25
445.582	109.25
445.803	137.25
446.024	117.25
446.245	116.25
446.466	126.25
446.687	87.25
446.908	82.25
447.129	103.25
447.35	80.25
447.571	102.25
447.792	104.25
448.013	99.25
448.234	105.25
448.455	101.25
448.675	99.25
448.896	102.25
449.117	96.25
449.338	94.25
449.559	123.25
449.779	121.25
450	93.25
450.221	108.25
450.442	99.25
450.662	89.25
450.883	104.25
451.104	96.25
451.324	95.25
451.545	79.25
451.766	96.25
451.986	68.25
452.207	89.25
452.428	81.25
452.648	97.25
452.869	98.25
453.089	100.25
453.31	115.25
453.53	87.25
453.751	86.25
453.971	102.25
454.192	103.25
454.412	87.25
454.633	79.25
454.853	94.25
455.073	87.25
455.294	83.25
455.514	92.25
455.734	80.25
455.955	69.25
456.175	82.25
456.395	96.25
456.616	86.25
456.836	77.25
457.056	79.25
457.276	87.25
457.497	96.25
457.717	75.25
457.937	85.25
458.157	99.25
458.377	94.25
458.598	116.25
458.818	128.25
459.038	125.25
459.258	97.25
459.478	84.25
459.698	80.25
459.918	89.25
460.138	95.25
460.358	87.25
460.578	77.25
460.798	87.25
461.018	86.25
461.238	83.25
461.458	94.25
461.678	87.25
461.898	85.25
462.118	93.25
462.338	97.25
462.558	86.25
462.777	93.25
462.997	79.25
463.217	86.25
463.437	81.25
463.657	75.25
463.876	86.25
464.096	88.25
464.316	102.25
464.536	93.25
464.755	93.25
464.975	108.25
465.195	150.25
465.414	150.25
465.634	107.25
465.854	88.25
466.073	93.25
466.293	92.25
466.512	88.25
466.732	90.25
466.951	86.25
467.171	97.25
467.391	101.25
467.61	103.25
467.829	111.25
468.049	95.25
468.268	89.25
468.488	71.25
468.707	73.25
468.927	87.25
469.146	82.25
469.365	75.25
469.585	99.25
469.804	81.25
470.023	94.25
470.243	95.25
470.462	82.25
470.681	114.25
470.901	95.25
471.12	75.25
471.339	82.25
471.558	88.25
471.777	77.25
471.997	94.25
472.216	75.25
472.435	92.25
472.654	87.25
472.873	83.25
473.092	84.25
473.311	83.25
473.53	80.25
473.749	91.25
473.968	91.25
474.187	99.25
474.406	96.25
474.625	93.25
474.844	92.25
475.063	75.25
475.282	84.25
475.501	93.25
475.72	99.25
475.939	78.25
476.158	84.25
476.377	80.25
476.596	85.25
476.814	99.25
477.033	107.25
477.252	94.25
477.471	86.25
477.69	81.25
477.908	89.25
478.127	97.25
478.346	89.25
478.564	97.25
478.783	94.25
479.002	92.25
479.22	80.25
479.439	101.25
479.658	97.25
479.876	99.25
480.095	104.25
480.313	100.25
480.532	81.25
480.751	84.25
480.969	109.25
481.188	127.25
481.406	99.25
481.624	84.25
481.843	71.25
482.061	86.25
482.28	84.25
482.498	88.25
482.717	89.25
482.935	81.25
483.153	82.25
483.372	78.25
483.59	86.25
483.808	90.25
484.027	101.25
484.245	97.25
484.463	92.25
484.681	97.25
484.9	96.25
485.118	107.25
485.336	98.25
485.554	92.25
485.772	92.25
485.99	90.25
486.209	115.25
486.427	102.25
486.645	92.25
486.863	107.25
487.081	88.25
487.299	82.25
487.517	98.25
487.735	98.25
487.953	78.25
488.171	98.25
488.389	90.25
488.607	96.25
488.825	87.25
489.043	78.25
489.261	84.25
489.479	92.25
489.696	87.25
489.914	95.25
490.132	88.25
490.35	80.25
490.568	78.25
490.786	95.25
491.003	101.25
491.221	84.25
491.439	97.25
491.657	91.25
491.874	93.25
492.092	77.25
492.31	102.25
492.527	84.25
492.745	86.25
492.963	104.25
493.18	93.25
493.398	84.25
493.615	104.25
493.833	87.25
494.05	87.25
494.268	70.25
494.485	87.25
494.703	99.25
494.92	84.25
495.138	96.25
495.355	98.25
495.573	89.25
495.79	104.25
496.008	109.25
496.225	92.25
496.442	95.25
496.66	80.25
496.877	91.25
497.094	91.25
497.312	98.25
497.529	89.25
497.746	100.25
497.963	93.25
498.181	93.25
498.398	107.25
498.615	107.25
498.832	95.25
499.049	100.25
499.267	95.25
499.484	94.25
499.701	95.25
499.918	90.25
500.135	84.25
500.352	98.25
500.569	82.25
500.786	104.25
501.003	97.25
501.22	89.25
501.437	90.25
501.654	101.25
501.871	97.25
502.088	104.25
502.305	88.25
502.522	82.25
502.739	97.25
502.956	97.25
503.172	91.25
503.389	94.25
503.606	100.25
503.823	94.25
504.04	102.25
504.256	81.25
504.473	73.25
504.69	92.25
504.907	95.25
505.123	95.25
505.34	88.25
505.557	91.25
505.773	103.25
505.99	78.25
506.207	101.25
506.423	75.25
506.64	97.25
506.856	89.25
507.073	86.25
507.289	93.25
507.506	102.25
507.722	117.25
507.939	106.25
508.155	93.25
508.372	93.25
508.588	100.25
508.805	80.25
509.021	95.25
509.238	100.25
509.454	98.25
509.67	94.25
509.887	110.25
510.103	119.25
510.319	209.25
510.536	778.25
510.752	2289.25
510.968	629.25
511.184	142.25
511.401	111.25
511.617	96.25
511.833	90.25
512.049	93.25
512.265	109.25
512.481	101.25
512.698	85.25
512.914	89.25
513.13	101.25
513.346	82.25
513.562	89.25
513.778	86.25
513.994	106.25
514.21	99.25
514.426	109.25
514.642	133.25
514.858	129.25
515.074	171.25
515.29	458.25
515.506	1377.25
515.721	486.25
515.937	145.25
