Data from Uncirc_2004_H10_HRD10591_00031.txt Node
Date: Wed Jan 03 10:32:19 EST 2024
User: Yrep
Spectrometer: HR+D1059
Trigger mode: 1
Integration Time (sec): 1.000000E-1
Scans to average: 1
Electric dark correction enabled: true
Nonlinearity correction enabled: false
Boxcar width: 0
XAxis mode: Wavelengths
Number of Pixels in Spectrum: 2048
>>>>>Begin Spectral Data<<<<<
223.165	-22.06
223.4	-22.06
223.635	-22.06
223.869	-9.06
224.104	-16.06
224.338	-27.06
224.573	-10.06
224.808	-13.06
225.042	-1.06
225.277	-8.06
225.511	-8.06
225.746	4.94
225.98	5.94
226.215	11.94
226.449	12.94
226.683	35.94
226.918	14.94
227.152	27.94
227.387	39.94
227.621	52.94
227.856	34.94
228.09	49.94
228.324	50.94
228.559	47.94
228.793	58.94
229.027	57.94
229.262	56.94
229.496	55.94
229.73	79.94
229.964	88.94
230.199	71.94
230.433	74.94
230.667	60.94
230.901	88.94
231.136	67.94
231.37	74.94
231.604	80.94
231.838	76.94
232.072	67.94
232.306	94.94
232.541	67.94
232.775	77.94
233.009	65.94
233.243	82.94
233.477	82.94
233.711	66.94
233.945	71.94
234.179	78.94
234.413	85.94
234.647	89.94
234.881	90.94
235.115	79.94
235.349	71.94
235.583	70.94
235.817	85.94
236.051	75.94
236.285	62.94
236.519	77.94
236.753	68.94
236.987	70.94
237.221	75.94
237.455	83.94
237.689	68.94
237.922	69.94
238.156	78.94
238.39	65.94
238.624	76.94
238.858	78.94
239.091	55.94
239.325	83.94
239.559	76.94
239.793	71.94
240.027	70.94
240.26	77.94
240.494	74.94
240.728	63.94
240.961	71.94
241.195	59.94
241.429	73.94
241.662	88.94
241.896	78.94
242.13	76.94
242.363	76.94
242.597	67.94
242.83	63.94
243.064	91.94
243.298	73.94
243.531	76.94
243.765	78.94
243.998	93.94
244.232	83.94
244.465	77.94
244.699	84.94
244.932	79.94
245.166	72.94
245.399	69.94
245.633	77.94
245.866	72.94
246.099	84.94
246.333	75.94
246.566	84.94
246.8	96.94
247.033	83.94
247.266	80.94
247.5	80.94
247.733	91.94
247.966	78.94
248.2	67.94
248.433	69.94
248.666	69.94
248.899	83.94
249.133	79.94
249.366	84.94
249.599	82.94
249.832	80.94
250.066	75.94
250.299	75.94
250.532	89.94
250.765	74.94
250.998	75.94
251.231	87.94
251.465	84.94
251.698	66.94
251.931	70.94
252.164	72.94
252.397	80.94
252.63	56.94
252.863	74.94
253.096	84.94
253.329	91.94
253.562	88.94
253.795	60.94
254.028	74.94
254.261	81.94
254.494	83.94
254.727	73.94
254.96	76.94
255.193	79.94
255.426	87.94
255.659	97.94
255.892	81.94
256.124	84.94
256.357	85.94
256.59	63.94
256.823	87.94
257.056	81.94
257.289	79.94
257.521	79.94
257.754	75.94
257.987	73.94
258.22	92.94
258.452	79.94
258.685	67.94
258.918	65.94
259.151	75.94
259.383	70.94
259.616	80.94
259.849	78.94
260.081	73.94
260.314	80.94
260.547	65.94
260.779	69.94
261.012	93.94
261.244	77.94
261.477	86.94
261.71	96.94
261.942	119.94
262.175	99.94
262.407	83.94
262.64	63.94
262.872	82.94
263.105	86.94
263.337	84.94
263.57	81.94
263.802	92.94
264.035	91.94
264.267	82.94
264.499	86.94
264.732	96.94
264.964	80.94
265.197	73.94
265.429	82.94
265.661	80.94
265.894	88.94
266.126	91.94
266.358	76.94
266.591	95.94
266.823	92.94
267.055	97.94
267.287	77.94
267.52	84.94
267.752	80.94
267.984	79.94
268.216	75.94
268.448	75.94
268.681	87.94
268.913	85.94
269.145	92.94
269.377	77.94
269.609	74.94
269.841	98.94
270.073	86.94
270.306	71.94
270.538	78.94
270.77	69.94
271.002	88.94
271.234	78.94
271.466	84.94
271.698	88.94
271.93	77.94
272.162	90.94
272.394	81.94
272.626	76.94
272.858	94.94
273.09	87.94
273.322	69.94
273.553	80.94
273.785	84.94
274.017	77.94
274.249	82.94
274.481	89.94
274.713	80.94
274.945	70.94
275.176	75.94
275.408	75.94
275.64	79.94
275.872	76.94
276.104	85.94
276.335	66.94
276.567	99.94
276.799	94.94
277.031	113.94
277.262	91.94
277.494	79.94
277.726	91.94
277.957	87.94
278.189	90.94
278.421	80.94
278.652	88.94
278.884	83.94
279.115	77.94
279.347	90.94
279.579	84.94
279.81	69.94
280.042	95.94
280.273	90.94
280.505	92.94
280.736	83.94
280.968	87.94
281.199	81.94
281.431	82.94
281.662	98.94
281.894	95.94
282.125	75.94
282.356	116.94
282.588	115.94
282.819	88.94
283.051	99.94
283.282	72.94
283.513	95.94
283.745	81.94
283.976	88.94
284.207	73.94
284.439	79.94
284.67	83.94
284.901	75.94
285.132	87.94
285.364	87.94
285.595	79.94
285.826	82.94
286.057	99.94
286.288	82.94
286.52	76.94
286.751	79.94
286.982	84.94
287.213	85.94
287.444	95.94
287.675	96.94
287.906	83.94
288.138	87.94
288.369	93.94
288.6	82.94
288.831	71.94
289.062	64.94
289.293	85.94
289.524	79.94
289.755	79.94
289.986	86.94
290.217	76.94
290.448	85.94
290.679	95.94
290.91	91.94
291.141	78.94
291.371	94.94
291.602	85.94
291.833	92.94
292.064	73.94
292.295	93.94
292.526	73.94
292.757	77.94
292.987	91.94
293.218	72.94
293.449	72.94
293.68	75.94
293.91	79.94
294.141	86.94
294.372	92.94
294.603	71.94
294.833	87.94
295.064	76.94
295.295	87.94
295.525	72.94
295.756	101.94
295.987	112.94
296.217	134.94
296.448	120.94
296.679	102.94
296.909	90.94
297.14	87.94
297.37	90.94
297.601	85.94
297.831	93.94
298.062	80.94
298.292	81.94
298.523	97.94
298.753	84.94
298.984	82.94
299.214	87.94
299.445	84.94
299.675	82.94
299.905	79.94
300.136	86.94
300.366	95.94
300.597	94.94
300.827	97.94
301.057	98.94
301.288	85.94
301.518	84.94
301.748	98.94
301.979	106.94
302.209	88.94
302.439	92.94
302.669	98.94
302.9	96.94
303.13	85.94
303.36	84.94
303.59	110.94
303.82	89.94
304.051	92.94
304.281	100.94
304.511	87.94
304.741	81.94
304.971	96.94
305.201	85.94
305.431	76.94
305.661	73.94
305.891	74.94
306.121	102.94
306.352	107.94
306.582	85.94
306.812	82.94
307.042	92.94
307.272	82.94
307.502	95.94
307.731	92.94
307.961	82.94
308.191	79.94
308.421	98.94
308.651	87.94
308.881	93.94
309.111	107.94
309.341	97.94
309.571	88.94
309.8	95.94
310.03	107.94
310.26	91.94
310.49	92.94
310.72	92.94
310.949	110.94
311.179	101.94
311.409	109.94
311.639	94.94
311.868	90.94
312.098	99.94
312.328	94.94
312.557	92.94
312.787	107.94
313.017	92.94
313.246	92.94
313.476	85.94
313.706	83.94
313.935	111.94
314.165	96.94
314.394	99.94
314.624	90.94
314.853	94.94
315.083	91.94
315.312	94.94
315.542	92.94
315.771	91.94
316.001	77.94
316.23	99.94
316.46	92.94
316.689	87.94
316.919	97.94
317.148	75.94
317.377	93.94
317.607	94.94
317.836	83.94
318.065	80.94
318.295	83.94
318.524	100.94
318.753	100.94
318.983	100.94
319.212	100.94
319.441	92.94
319.67	101.94
319.9	104.94
320.129	80.94
320.358	99.94
320.587	104.94
320.816	94.94
321.046	90.94
321.275	81.94
321.504	100.94
321.733	94.94
321.962	96.94
322.191	82.94
322.42	87.94
322.649	99.94
322.878	87.94
323.108	105.94
323.337	120.94
323.566	125.94
323.795	145.94
324.024	200.94
324.253	363.94
324.482	778.94
324.71	1570.94
324.939	2048.94
325.168	743.94
325.397	221.94
325.626	156.94
325.855	132.94
326.084	129.94
326.313	123.94
326.542	144.94
326.77	221.94
326.999	445.94
327.228	924.94
327.457	1604.94
327.686	1244.94
327.914	364.94
328.143	187.94
328.372	133.94
328.6	122.94
328.829	109.94
329.058	122.94
329.287	126.94
329.515	106.94
329.744	101.94
329.972	96.94
330.201	101.94
330.43	103.94
330.658	119.94
330.887	144.94
331.115	103.94
331.344	97.94
331.572	109.94
331.801	98.94
332.03	93.94
332.258	108.94
332.486	89.94
332.715	101.94
332.943	81.94
333.172	91.94
333.4	91.94
333.629	94.94
333.857	109.94
334.085	101.94
334.314	103.94
334.542	111.94
334.771	107.94
334.999	103.94
335.227	77.94
335.455	86.94
335.684	95.94
335.912	92.94
336.14	86.94
336.369	95.94
336.597	97.94
336.825	83.94
337.053	91.94
337.281	83.94
337.51	99.94
337.738	88.94
337.966	84.94
338.194	101.94
338.422	84.94
338.65	91.94
338.878	93.94
339.106	87.94
339.334	93.94
339.562	100.94
339.79	75.94
340.018	91.94
340.246	100.94
340.474	95.94
340.702	90.94
340.93	101.94
341.158	88.94
341.386	92.94
341.614	106.94
341.842	94.94
342.07	84.94
342.298	84.94
342.526	100.94
342.754	85.94
342.981	87.94
343.209	92.94
343.437	92.94
343.665	115.94
343.893	78.94
344.12	85.94
344.348	100.94
344.576	86.94
344.804	88.94
345.031	98.94
345.259	100.94
345.487	100.94
345.714	86.94
345.942	94.94
346.17	106.94
346.397	88.94
346.625	98.94
346.853	91.94
347.08	95.94
347.308	85.94
347.535	96.94
347.763	108.94
347.99	107.94
348.218	112.94
348.445	98.94
348.673	103.94
348.9	94.94
349.128	99.94
349.355	92.94
349.583	81.94
349.81	86.94
350.037	87.94
350.265	97.94
350.492	87.94
350.72	101.94
350.947	110.94
351.174	106.94
351.402	127.94
351.629	118.94
351.856	95.94
352.083	88.94
352.311	106.94
352.538	96.94
352.765	94.94
352.992	106.94
353.22	101.94
353.447	98.94
353.674	95.94
353.901	107.94
354.128	97.94
354.355	87.94
354.583	96.94
354.81	98.94
355.037	86.94
355.264	89.94
355.491	90.94
355.718	89.94
355.945	111.94
356.172	94.94
356.399	90.94
356.626	108.94
356.853	92.94
357.08	95.94
357.307	95.94
357.534	104.94
357.761	92.94
357.988	98.94
358.215	98.94
358.441	75.94
358.668	80.94
358.895	99.94
359.122	102.94
359.349	98.94
359.576	93.94
359.802	89.94
360.029	112.94
360.256	106.94
360.483	98.94
360.709	77.94
360.936	90.94
361.163	95.94
361.39	83.94
361.616	102.94
361.843	69.94
362.07	90.94
362.296	91.94
362.523	105.94
362.749	93.94
362.976	93.94
363.203	108.94
363.429	93.94
363.656	82.94
363.882	99.94
364.109	91.94
364.335	90.94
364.562	77.94
364.788	71.94
365.015	106.94
365.241	107.94
365.468	106.94
365.694	94.94
365.92	79.94
366.147	81.94
366.373	82.94
366.599	90.94
366.826	86.94
367.052	84.94
367.278	87.94
367.505	79.94
367.731	94.94
367.957	84.94
368.184	92.94
368.41	93.94
368.636	106.94
368.862	108.94
369.089	98.94
369.315	103.94
369.541	94.94
369.767	103.94
369.993	78.94
370.219	75.94
370.445	94.94
370.672	77.94
370.898	83.94
371.124	83.94
371.35	85.94
371.576	87.94
371.802	96.94
372.028	84.94
372.254	103.94
372.48	78.94
372.706	88.94
372.932	87.94
373.158	74.94
373.384	97.94
373.61	104.94
373.835	87.94
374.061	87.94
374.287	102.94
374.513	84.94
374.739	106.94
374.965	80.94
375.191	94.94
375.416	106.94
375.642	102.94
375.868	100.94
376.094	81.94
376.319	83.94
376.545	82.94
376.771	98.94
376.997	79.94
377.222	90.94
377.448	82.94
377.674	87.94
377.899	78.94
378.125	96.94
378.35	86.94
378.576	81.94
378.802	86.94
379.027	86.94
379.253	85.94
379.478	103.94
379.704	81.94
379.929	83.94
380.155	82.94
380.38	95.94
380.606	88.94
380.831	84.94
381.057	88.94
381.282	101.94
381.507	96.94
381.733	85.94
381.958	93.94
382.184	98.94
382.409	92.94
382.634	107.94
382.86	106.94
383.085	109.94
383.31	101.94
383.535	95.94
383.761	83.94
383.986	92.94
384.211	103.94
384.436	100.94
384.662	95.94
384.887	124.94
385.112	122.94
385.337	115.94
385.562	96.94
385.787	103.94
386.013	109.94
386.238	119.94
386.463	105.94
386.688	106.94
386.913	105.94
387.138	112.94
387.363	99.94
387.588	98.94
387.813	106.94
388.038	111.94
388.263	119.94
388.488	110.94
388.713	97.94
388.938	95.94
389.163	91.94
389.387	91.94
389.612	88.94
389.837	92.94
390.062	90.94
390.287	87.94
390.512	103.94
390.736	103.94
390.961	90.94
391.186	86.94
391.411	99.94
391.636	108.94
391.86	98.94
392.085	94.94
392.31	80.94
392.534	82.94
392.759	101.94
392.984	89.94
393.208	99.94
393.433	102.94
393.658	78.94
393.882	85.94
394.107	93.94
394.331	106.94
394.556	95.94
394.78	90.94
395.005	95.94
395.229	78.94
395.454	86.94
395.678	95.94
395.903	82.94
396.127	82.94
396.352	88.94
396.576	76.94
396.801	91.94
397.025	80.94
397.249	86.94
397.474	90.94
397.698	89.94
397.922	103.94
398.147	86.94
398.371	74.94
398.595	80.94
398.82	85.94
399.044	75.94
399.268	88.94
399.492	88.94
399.717	84.94
399.941	104.94
400.165	100.94
400.389	95.94
400.613	92.94
400.837	77.94
401.062	89.94
401.286	92.94
401.51	88.94
401.734	74.94
401.958	103.94
402.182	129.94
402.406	162.94
402.63	119.94
402.854	89.94
403.078	87.94
403.302	78.94
403.526	94.94
403.75	96.94
403.974	79.94
404.198	98.94
404.422	95.94
404.645	82.94
404.869	82.94
405.093	92.94
405.317	94.94
405.541	95.94
405.765	99.94
405.988	106.94
406.212	161.94
406.436	222.94
406.66	139.94
406.883	96.94
407.107	94.94
407.331	84.94
407.555	101.94
407.778	103.94
408.002	86.94
408.226	90.94
408.449	95.94
408.673	93.94
408.896	103.94
409.12	93.94
409.344	75.94
409.567	75.94
409.791	85.94
410.014	88.94
410.238	85.94
410.461	86.94
410.685	93.94
410.908	111.94
411.132	102.94
411.355	87.94
411.578	87.94
411.802	88.94
412.025	81.94
412.249	78.94
412.472	89.94
412.695	82.94
412.919	98.94
413.142	75.94
413.365	78.94
413.589	80.94
413.812	84.94
414.035	99.94
414.258	96.94
414.482	100.94
414.705	84.94
414.928	80.94
415.151	88.94
415.374	87.94
415.597	87.94
415.821	86.94
416.044	86.94
416.267	83.94
416.49	95.94
416.713	96.94
416.936	84.94
417.159	80.94
417.382	74.94
417.605	85.94
417.828	97.94
418.051	90.94
418.274	82.94
418.497	86.94
418.72	83.94
418.943	91.94
419.166	82.94
419.389	82.94
419.611	97.94
419.834	92.94
420.057	90.94
420.28	81.94
420.503	80.94
420.726	94.94
420.948	88.94
421.171	101.94
421.394	88.94
421.617	85.94
421.839	103.94
422.062	98.94
422.285	88.94
422.507	106.94
422.73	97.94
422.953	101.94
423.175	97.94
423.398	103.94
423.621	93.94
423.843	95.94
424.066	91.94
424.288	87.94
424.511	96.94
424.733	100.94
424.956	107.94
425.178	100.94
425.401	99.94
425.623	96.94
425.846	83.94
426.068	90.94
426.291	87.94
426.513	76.94
426.735	96.94
426.958	88.94
427.18	98.94
427.402	138.94
427.625	140.94
427.847	110.94
428.069	106.94
428.292	90.94
428.514	79.94
428.736	86.94
428.958	84.94
429.181	93.94
429.403	74.94
429.625	98.94
429.847	88.94
430.069	88.94
430.292	98.94
430.514	80.94
430.736	67.94
430.958	84.94
431.18	78.94
431.402	93.94
431.624	81.94
431.846	73.94
432.068	85.94
432.29	88.94
432.512	89.94
432.734	74.94
432.956	85.94
433.178	100.94
433.4	100.94
433.622	100.94
433.844	98.94
434.066	84.94
434.287	83.94
434.509	91.94
434.731	85.94
434.953	90.94
435.175	81.94
435.397	96.94
435.618	95.94
435.84	89.94
436.062	113.94
436.284	114.94
436.505	106.94
436.727	100.94
436.949	82.94
437.17	96.94
437.392	92.94
437.614	88.94
437.835	101.94
438.057	110.94
438.278	103.94
438.5	83.94
438.721	103.94
438.943	93.94
439.165	89.94
439.386	102.94
439.608	94.94
439.829	91.94
440.05	106.94
440.272	139.94
440.493	101.94
440.715	82.94
440.936	94.94
441.158	90.94
441.379	94.94
441.6	95.94
441.822	96.94
442.043	83.94
442.264	85.94
442.486	84.94
442.707	76.94
442.928	104.94
443.149	103.94
443.371	130.94
443.592	106.94
443.813	105.94
444.034	103.94
444.255	89.94
444.476	84.94
444.698	89.94
444.919	92.94
445.14	125.94
445.361	110.94
445.582	95.94
445.803	140.94
446.024	125.94
446.245	131.94
446.466	111.94
446.687	80.94
446.908	93.94
447.129	99.94
447.35	112.94
447.571	94.94
447.792	88.94
448.013	100.94
448.234	102.94
448.455	103.94
448.675	109.94
448.896	106.94
449.117	96.94
449.338	82.94
449.559	127.94
449.779	119.94
450	85.94
450.221	87.94
450.442	94.94
450.662	95.94
450.883	96.94
451.104	93.94
451.324	81.94
451.545	86.94
451.766	84.94
451.986	88.94
452.207	76.94
452.428	96.94
452.648	81.94
452.869	93.94
453.089	104.94
453.31	111.94
453.53	82.94
453.751	85.94
453.971	103.94
454.192	114.94
454.412	101.94
454.633	86.94
454.853	79.94
455.073	95.94
455.294	91.94
455.514	77.94
455.734	91.94
455.955	86.94
456.175	84.94
456.395	76.94
456.616	89.94
456.836	80.94
457.056	74.94
457.276	93.94
457.497	83.94
457.717	103.94
457.937	98.94
458.157	95.94
458.377	93.94
458.598	98.94
458.818	134.94
459.038	147.94
459.258	108.94
459.478	76.94
459.698	83.94
459.918	88.94
460.138	86.94
460.358	85.94
460.578	91.94
460.798	94.94
461.018	89.94
461.238	93.94
461.458	80.94
461.678	86.94
461.898	92.94
462.118	82.94
462.338	75.94
462.558	91.94
462.777	102.94
462.997	80.94
463.217	94.94
463.437	80.94
463.657	84.94
463.876	92.94
464.096	85.94
464.316	79.94
464.536	106.94
464.755	92.94
464.975	96.94
465.195	160.94
465.414	143.94
465.634	91.94
465.854	88.94
466.073	100.94
466.293	87.94
466.512	90.94
466.732	72.94
466.951	94.94
467.171	91.94
467.391	76.94
467.61	101.94
467.829	89.94
468.049	100.94
468.268	97.94
468.488	85.94
468.707	101.94
468.927	94.94
469.146	95.94
469.365	79.94
469.585	96.94
469.804	94.94
470.023	90.94
470.243	103.94
470.462	101.94
470.681	119.94
470.901	86.94
471.12	80.94
471.339	84.94
471.558	93.94
471.777	84.94
471.997	92.94
472.216	87.94
472.435	100.94
472.654	84.94
472.873	91.94
473.092	97.94
473.311	91.94
473.53	75.94
473.749	76.94
473.968	79.94
474.187	102.94
474.406	79.94
474.625	89.94
474.844	98.94
475.063	83.94
475.282	91.94
475.501	86.94
475.72	83.94
475.939	85.94
476.158	87.94
476.377	84.94
476.596	86.94
476.814	94.94
477.033	84.94
477.252	83.94
477.471	75.94
477.69	100.94
477.908	100.94
478.127	77.94
478.346	83.94
478.564	88.94
478.783	106.94
479.002	102.94
479.22	96.94
479.439	90.94
479.658	108.94
479.876	103.94
480.095	86.94
480.313	93.94
480.532	86.94
480.751	88.94
480.969	91.94
481.188	111.94
481.406	112.94
481.624	92.94
481.843	71.94
482.061	83.94
482.28	76.94
482.498	93.94
482.717	81.94
482.935	87.94
483.153	84.94
483.372	98.94
483.59	94.94
483.808	90.94
484.027	67.94
484.245	78.94
484.463	112.94
484.681	85.94
484.9	83.94
485.118	98.94
485.336	113.94
485.554	82.94
485.772	97.94
485.99	85.94
486.209	88.94
486.427	103.94
486.645	118.94
486.863	101.94
487.081	106.94
487.299	95.94
487.517	100.94
487.735	89.94
487.953	94.94
488.171	93.94
488.389	93.94
488.607	107.94
488.825	85.94
489.043	103.94
489.261	101.94
489.479	88.94
489.696	96.94
489.914	98.94
490.132	94.94
490.35	98.94
490.568	108.94
490.786	102.94
491.003	94.94
491.221	83.94
491.439	92.94
491.657	85.94
491.874	92.94
492.092	93.94
492.31	86.94
492.527	88.94
492.745	85.94
492.963	72.94
493.18	76.94
493.398	95.94
493.615	108.94
493.833	87.94
494.05	91.94
494.268	73.94
494.485	98.94
494.703	85.94
494.92	84.94
495.138	86.94
495.355	87.94
495.573	92.94
495.79	91.94
496.008	81.94
496.225	86.94
496.442	86.94
496.66	98.94
496.877	80.94
497.094	86.94
497.312	91.94
497.529	85.94
497.746	93.94
497.963	92.94
498.181	99.94
498.398	99.94
498.615	96.94
498.832	95.94
499.049	91.94
499.267	79.94
499.484	105.94
499.701	88.94
499.918	98.94
500.135	98.94
500.352	70.94
500.569	86.94
500.786	82.94
501.003	88.94
501.22	88.94
501.437	92.94
501.654	101.94
501.871	97.94
502.088	92.94
502.305	95.94
502.522	82.94
502.739	92.94
502.956	87.94
503.172	97.94
503.389	88.94
503.606	109.94
503.823	102.94
504.04	91.94
504.256	77.94
504.473	92.94
504.69	80.94
504.907	85.94
505.123	85.94
505.34	104.94
505.557	100.94
505.773	83.94
505.99	104.94
506.207	102.94
506.423	94.94
506.64	100.94
506.856	75.94
507.073	91.94
507.289	83.94
507.506	89.94
507.722	98.94
507.939	108.94
508.155	93.94
508.372	77.94
508.588	87.94
508.805	93.94
509.021	71.94
509.238	96.94
509.454	94.94
509.67	78.94
509.887	118.94
510.103	121.94
510.319	220.94
510.536	786.94
510.752	2357.94
510.968	654.94
511.184	174.94
511.401	106.94
511.617	100.94
511.833	88.94
512.049	83.94
512.265	92.94
512.481	83.94
512.698	80.94
512.914	96.94
513.13	98.94
513.346	106.94
513.562	106.94
513.778	95.94
513.994	97.94
514.21	100.94
514.426	102.94
514.642	130.94
514.858	112.94
515.074	154.94
515.29	418.94
515.506	1348.94
515.721	492.94
515.937	142.94
