Data from Uncirc_2004_H10_HRD10591_00064.txt Node
Date: Wed Jan 03 10:32:25 EST 2024
User: Yrep
Spectrometer: HR+D1059
Trigger mode: 1
Integration Time (sec): 1.000000E-1
Scans to average: 1
Electric dark correction enabled: true
Nonlinearity correction enabled: false
Boxcar width: 0
XAxis mode: Wavelengths
Number of Pixels in Spectrum: 2048
>>>>>Begin Spectral Data<<<<<
223.165	-18.94
223.4	-18.94
223.635	-18.94
223.869	-14.94
224.104	-12.94
224.338	-23.94
224.573	-12.94
224.808	-17.94
225.042	-4.94
225.277	2.06
225.511	7.06
225.746	6.06
225.98	-1.94
226.215	4.06
226.449	5.06
226.683	29.06
226.918	25.06
227.152	30.06
227.387	26.06
227.621	41.06
227.856	56.06
228.09	41.06
228.324	62.06
228.559	76.06
228.793	54.06
229.027	68.06
229.262	63.06
229.496	81.06
229.73	86.06
229.964	101.06
230.199	75.06
230.433	76.06
230.667	72.06
230.901	65.06
231.136	81.06
231.37	89.06
231.604	90.06
231.838	86.06
232.072	84.06
232.306	78.06
232.541	88.06
232.775	75.06
233.009	76.06
233.243	85.06
233.477	95.06
233.711	70.06
233.945	82.06
234.179	80.06
234.413	91.06
234.647	94.06
234.881	95.06
235.115	78.06
235.349	61.06
235.583	82.06
235.817	87.06
236.051	93.06
236.285	91.06
236.519	81.06
236.753	73.06
236.987	80.06
237.221	92.06
237.455	100.06
237.689	86.06
237.922	75.06
238.156	74.06
238.39	66.06
238.624	84.06
238.858	72.06
239.091	64.06
239.325	83.06
239.559	78.06
239.793	68.06
240.027	80.06
240.26	71.06
240.494	70.06
240.728	71.06
240.961	87.06
241.195	77.06
241.429	85.06
241.662	88.06
241.896	91.06
242.13	92.06
242.363	83.06
242.597	79.06
242.83	64.06
243.064	82.06
243.298	75.06
243.531	74.06
243.765	66.06
243.998	81.06
244.232	84.06
244.465	86.06
244.699	91.06
244.932	76.06
245.166	76.06
245.399	91.06
245.633	86.06
245.866	64.06
246.099	85.06
246.333	93.06
246.566	90.06
246.8	82.06
247.033	93.06
247.266	89.06
247.5	80.06
247.733	74.06
247.966	92.06
248.2	77.06
248.433	82.06
248.666	89.06
248.899	93.06
249.133	87.06
249.366	108.06
249.599	91.06
249.832	82.06
250.066	103.06
250.299	74.06
250.532	94.06
250.765	79.06
250.998	87.06
251.231	84.06
251.465	90.06
251.698	87.06
251.931	68.06
252.164	82.06
252.397	59.06
252.63	77.06
252.863	80.06
253.096	77.06
253.329	92.06
253.562	93.06
253.795	85.06
254.028	84.06
254.261	68.06
254.494	90.06
254.727	64.06
254.96	77.06
255.193	79.06
255.426	71.06
255.659	81.06
255.892	84.06
256.124	88.06
256.357	72.06
256.59	92.06
256.823	85.06
257.056	89.06
257.289	82.06
257.521	78.06
257.754	83.06
257.987	98.06
258.22	98.06
258.452	89.06
258.685	90.06
258.918	77.06
259.151	92.06
259.383	86.06
259.616	91.06
259.849	82.06
260.081	81.06
260.314	78.06
260.547	79.06
260.779	87.06
261.012	82.06
261.244	81.06
261.477	89.06
261.71	95.06
261.942	98.06
262.175	125.06
262.407	87.06
262.64	97.06
262.872	86.06
263.105	106.06
263.337	102.06
263.57	87.06
263.802	85.06
264.035	80.06
264.267	74.06
264.499	97.06
264.732	86.06
264.964	91.06
265.197	91.06
265.429	74.06
265.661	90.06
265.894	73.06
266.126	81.06
266.358	76.06
266.591	86.06
266.823	92.06
267.055	82.06
267.287	82.06
267.52	77.06
267.752	77.06
267.984	91.06
268.216	79.06
268.448	70.06
268.681	81.06
268.913	87.06
269.145	83.06
269.377	78.06
269.609	77.06
269.841	74.06
270.073	86.06
270.306	81.06
270.538	80.06
270.77	93.06
271.002	96.06
271.234	103.06
271.466	85.06
271.698	95.06
271.93	85.06
272.162	89.06
272.394	94.06
272.626	84.06
272.858	84.06
273.09	88.06
273.322	92.06
273.553	78.06
273.785	77.06
274.017	94.06
274.249	88.06
274.481	85.06
274.713	92.06
274.945	99.06
275.176	86.06
275.408	91.06
275.64	91.06
275.872	103.06
276.104	92.06
276.335	101.06
276.567	80.06
276.799	104.06
277.031	100.06
277.262	83.06
277.494	106.06
277.726	94.06
277.957	76.06
278.189	86.06
278.421	87.06
278.652	77.06
278.884	91.06
279.115	92.06
279.347	90.06
279.579	85.06
279.81	89.06
280.042	82.06
280.273	87.06
280.505	89.06
280.736	84.06
280.968	72.06
281.199	84.06
281.431	93.06
281.662	98.06
281.894	86.06
282.125	104.06
282.356	107.06
282.588	129.06
282.819	129.06
283.051	102.06
283.282	92.06
283.513	76.06
283.745	85.06
283.976	84.06
284.207	78.06
284.439	83.06
284.67	89.06
284.901	85.06
285.132	82.06
285.364	85.06
285.595	83.06
285.826	92.06
286.057	88.06
286.288	86.06
286.52	93.06
286.751	85.06
286.982	96.06
287.213	86.06
287.444	102.06
287.675	92.06
287.906	90.06
288.138	96.06
288.369	92.06
288.6	88.06
288.831	87.06
289.062	104.06
289.293	80.06
289.524	80.06
289.755	91.06
289.986	111.06
290.217	100.06
290.448	100.06
290.679	87.06
290.91	88.06
291.141	94.06
291.371	94.06
291.602	103.06
291.833	88.06
292.064	84.06
292.295	87.06
292.526	88.06
292.757	86.06
292.987	91.06
293.218	88.06
293.449	90.06
293.68	95.06
293.91	92.06
294.141	91.06
294.372	91.06
294.603	99.06
294.833	89.06
295.064	84.06
295.295	92.06
295.525	91.06
295.756	99.06
295.987	114.06
296.217	121.06
296.448	108.06
296.679	105.06
296.909	104.06
297.14	86.06
297.37	94.06
297.601	98.06
297.831	97.06
298.062	110.06
298.292	88.06
298.523	90.06
298.753	107.06
298.984	86.06
299.214	96.06
299.445	91.06
299.675	96.06
299.905	103.06
300.136	96.06
300.366	88.06
300.597	97.06
300.827	100.06
301.057	100.06
301.288	112.06
301.518	99.06
301.748	84.06
301.979	104.06
302.209	109.06
302.439	92.06
302.669	92.06
302.9	101.06
303.13	104.06
303.36	91.06
303.59	100.06
303.82	97.06
304.051	102.06
304.281	94.06
304.511	92.06
304.741	87.06
304.971	80.06
305.201	83.06
305.431	83.06
305.661	90.06
305.891	93.06
306.121	96.06
306.352	104.06
306.582	97.06
306.812	88.06
307.042	92.06
307.272	95.06
307.502	96.06
307.731	89.06
307.961	90.06
308.191	104.06
308.421	105.06
308.651	91.06
308.881	93.06
309.111	99.06
309.341	96.06
309.571	95.06
309.8	104.06
310.03	98.06
310.26	86.06
310.49	90.06
310.72	114.06
310.949	108.06
311.179	103.06
311.409	100.06
311.639	104.06
311.868	96.06
312.098	106.06
312.328	94.06
312.557	105.06
312.787	102.06
313.017	110.06
313.246	100.06
313.476	96.06
313.706	88.06
313.935	79.06
314.165	101.06
314.394	91.06
314.624	82.06
314.853	104.06
315.083	77.06
315.312	97.06
315.542	96.06
315.771	106.06
316.001	101.06
316.23	90.06
316.46	89.06
316.689	94.06
316.919	100.06
317.148	107.06
317.377	104.06
317.607	83.06
317.836	97.06
318.065	92.06
318.295	102.06
318.524	93.06
318.753	99.06
318.983	91.06
319.212	110.06
319.441	109.06
319.67	102.06
319.9	90.06
320.129	79.06
320.358	89.06
320.587	84.06
320.816	88.06
321.046	100.06
321.275	111.06
321.504	93.06
321.733	97.06
321.962	96.06
322.191	102.06
322.42	107.06
322.649	108.06
322.878	108.06
323.108	124.06
323.337	112.06
323.566	130.06
323.795	148.06
324.024	204.06
324.253	378.06
324.482	784.06
324.71	1674.06
324.939	2118.06
325.168	786.06
325.397	242.06
325.626	154.06
325.855	134.06
326.084	129.06
326.313	141.06
326.542	155.06
326.77	215.06
326.999	455.06
327.228	927.06
327.457	1649.06
327.686	1317.06
327.914	363.06
328.143	184.06
328.372	146.06
328.6	102.06
328.829	104.06
329.058	117.06
329.287	123.06
329.515	110.06
329.744	124.06
329.972	101.06
330.201	112.06
330.43	103.06
330.658	123.06
330.887	131.06
331.115	138.06
331.344	104.06
331.572	86.06
331.801	100.06
332.03	105.06
332.258	87.06
332.486	96.06
332.715	91.06
332.943	103.06
333.172	109.06
333.4	95.06
333.629	123.06
333.857	101.06
334.085	103.06
334.314	80.06
334.542	96.06
334.771	105.06
334.999	97.06
335.227	76.06
335.455	100.06
335.684	104.06
335.912	91.06
336.14	103.06
336.369	105.06
336.597	106.06
336.825	106.06
337.053	102.06
337.281	93.06
337.51	93.06
337.738	97.06
337.966	100.06
338.194	97.06
338.422	82.06
338.65	101.06
338.878	93.06
339.106	104.06
339.334	103.06
339.562	96.06
339.79	105.06
340.018	104.06
340.246	112.06
340.474	92.06
340.702	104.06
340.93	112.06
341.158	99.06
341.386	85.06
341.614	98.06
341.842	101.06
342.07	92.06
342.298	88.06
342.526	100.06
342.754	87.06
342.981	108.06
343.209	100.06
343.437	98.06
343.665	94.06
343.893	91.06
344.12	85.06
344.348	94.06
344.576	85.06
344.804	95.06
345.031	99.06
345.259	98.06
345.487	79.06
345.714	105.06
345.942	103.06
346.17	112.06
346.397	91.06
346.625	106.06
346.853	87.06
347.08	84.06
347.308	85.06
347.535	106.06
347.763	98.06
347.99	93.06
348.218	103.06
348.445	109.06
348.673	107.06
348.9	95.06
349.128	94.06
349.355	105.06
349.583	84.06
349.81	97.06
350.037	107.06
350.265	91.06
350.492	114.06
350.72	97.06
350.947	98.06
351.174	105.06
351.402	107.06
351.629	102.06
351.856	101.06
352.083	97.06
352.311	97.06
352.538	103.06
352.765	113.06
352.992	117.06
353.22	110.06
353.447	114.06
353.674	102.06
353.901	103.06
354.128	102.06
354.355	102.06
354.583	102.06
354.81	94.06
355.037	110.06
355.264	91.06
355.491	102.06
355.718	107.06
355.945	100.06
356.172	108.06
356.399	93.06
356.626	101.06
356.853	103.06
357.08	98.06
357.307	90.06
357.534	105.06
357.761	99.06
357.988	98.06
358.215	91.06
358.441	100.06
358.668	89.06
358.895	88.06
359.122	75.06
359.349	90.06
359.576	103.06
359.802	102.06
360.029	108.06
360.256	117.06
360.483	107.06
360.709	87.06
360.936	87.06
361.163	101.06
361.39	89.06
361.616	88.06
361.843	99.06
362.07	93.06
362.296	87.06
362.523	89.06
362.749	90.06
362.976	93.06
363.203	85.06
363.429	96.06
363.656	84.06
363.882	105.06
364.109	93.06
364.335	91.06
364.562	95.06
364.788	92.06
365.015	101.06
365.241	99.06
365.468	112.06
365.694	108.06
365.92	99.06
366.147	92.06
366.373	90.06
366.599	91.06
366.826	101.06
367.052	104.06
367.278	107.06
367.505	82.06
367.731	86.06
367.957	98.06
368.184	95.06
368.41	98.06
368.636	112.06
368.862	127.06
369.089	112.06
369.315	103.06
369.541	92.06
369.767	84.06
369.993	96.06
370.219	87.06
370.445	98.06
370.672	102.06
370.898	98.06
371.124	98.06
371.35	81.06
371.576	84.06
371.802	67.06
372.028	90.06
372.254	86.06
372.48	95.06
372.706	90.06
372.932	95.06
373.158	81.06
373.384	98.06
373.61	89.06
373.835	93.06
374.061	98.06
374.287	94.06
374.513	97.06
374.739	98.06
374.965	97.06
375.191	85.06
375.416	94.06
375.642	83.06
375.868	94.06
376.094	86.06
376.319	90.06
376.545	87.06
376.771	115.06
376.997	100.06
377.222	93.06
377.448	91.06
377.674	99.06
377.899	99.06
378.125	90.06
378.35	87.06
378.576	105.06
378.802	86.06
379.027	93.06
379.253	99.06
379.478	97.06
379.704	94.06
379.929	97.06
380.155	103.06
380.38	92.06
380.606	98.06
380.831	102.06
381.057	99.06
381.282	100.06
381.507	91.06
381.733	96.06
381.958	108.06
382.184	97.06
382.409	101.06
382.634	105.06
382.86	92.06
383.085	112.06
383.31	99.06
383.535	105.06
383.761	100.06
383.986	102.06
384.211	98.06
384.436	110.06
384.662	97.06
384.887	99.06
385.112	109.06
385.337	95.06
385.562	91.06
385.787	112.06
386.013	112.06
386.238	100.06
386.463	93.06
386.688	127.06
386.913	116.06
387.138	116.06
387.363	90.06
387.588	110.06
387.813	96.06
388.038	113.06
388.263	106.06
388.488	107.06
388.713	113.06
388.938	90.06
389.163	100.06
389.387	109.06
389.612	101.06
389.837	90.06
390.062	91.06
390.287	85.06
390.512	92.06
390.736	100.06
390.961	100.06
391.186	94.06
391.411	91.06
391.636	95.06
391.86	85.06
392.085	96.06
392.31	98.06
392.534	83.06
392.759	93.06
392.984	86.06
393.208	73.06
393.433	89.06
393.658	87.06
393.882	95.06
394.107	96.06
394.331	86.06
394.556	91.06
394.78	84.06
395.005	87.06
395.229	84.06
395.454	81.06
395.678	85.06
395.903	96.06
396.127	89.06
396.352	94.06
396.576	92.06
396.801	98.06
397.025	101.06
397.249	89.06
397.474	101.06
397.698	98.06
397.922	97.06
398.147	85.06
398.371	90.06
398.595	98.06
398.82	92.06
399.044	96.06
399.268	91.06
399.492	82.06
399.717	85.06
399.941	86.06
400.165	90.06
400.389	99.06
400.613	93.06
400.837	91.06
401.062	86.06
401.286	87.06
401.51	97.06
401.734	84.06
401.958	98.06
402.182	139.06
402.406	156.06
402.63	116.06
402.854	90.06
403.078	90.06
403.302	103.06
403.526	90.06
403.75	95.06
403.974	91.06
404.198	88.06
404.422	85.06
404.645	94.06
404.869	80.06
405.093	96.06
405.317	107.06
405.541	97.06
405.765	106.06
405.988	104.06
406.212	161.06
406.436	205.06
406.66	147.06
406.883	94.06
407.107	100.06
407.331	107.06
407.555	91.06
407.778	94.06
408.002	103.06
408.226	100.06
408.449	109.06
408.673	104.06
408.896	106.06
409.12	104.06
409.344	100.06
409.567	97.06
409.791	100.06
410.014	106.06
410.238	98.06
410.461	100.06
410.685	95.06
410.908	82.06
411.132	97.06
411.355	86.06
411.578	92.06
411.802	93.06
412.025	96.06
412.249	99.06
412.472	100.06
412.695	95.06
412.919	89.06
413.142	99.06
413.365	94.06
413.589	101.06
413.812	88.06
414.035	107.06
414.258	90.06
414.482	84.06
414.705	92.06
414.928	94.06
415.151	96.06
415.374	102.06
415.597	89.06
415.821	99.06
416.044	95.06
416.267	89.06
416.49	95.06
416.713	91.06
416.936	89.06
417.159	88.06
417.382	84.06
417.605	93.06
417.828	106.06
418.051	104.06
418.274	111.06
418.497	89.06
418.72	89.06
418.943	98.06
419.166	96.06
419.389	111.06
419.611	99.06
419.834	90.06
420.057	90.06
420.28	99.06
420.503	81.06
420.726	81.06
420.948	92.06
421.171	87.06
421.394	94.06
421.617	96.06
421.839	96.06
422.062	90.06
422.285	94.06
422.507	95.06
422.73	110.06
422.953	102.06
423.175	102.06
423.398	116.06
423.621	92.06
423.843	88.06
424.066	87.06
424.288	88.06
424.511	101.06
424.733	101.06
424.956	118.06
425.178	110.06
425.401	101.06
425.623	104.06
425.846	109.06
426.068	100.06
426.291	85.06
426.513	92.06
426.735	91.06
426.958	113.06
427.18	112.06
427.402	139.06
427.625	156.06
427.847	116.06
428.069	115.06
428.292	84.06
428.514	92.06
428.736	85.06
428.958	83.06
429.181	99.06
429.403	84.06
429.625	90.06
429.847	106.06
430.069	101.06
430.292	97.06
430.514	90.06
430.736	87.06
430.958	92.06
431.18	86.06
431.402	82.06
431.624	79.06
431.846	96.06
432.068	85.06
432.29	77.06
432.512	112.06
432.734	108.06
432.956	96.06
433.178	109.06
433.4	98.06
433.622	96.06
433.844	92.06
434.066	97.06
434.287	109.06
434.509	90.06
434.731	98.06
434.953	89.06
435.175	80.06
435.397	84.06
435.618	99.06
435.84	105.06
436.062	118.06
436.284	113.06
436.505	110.06
436.727	97.06
436.949	104.06
437.17	103.06
437.392	81.06
437.614	75.06
437.835	109.06
438.057	118.06
438.278	101.06
438.5	94.06
438.721	116.06
438.943	104.06
439.165	100.06
439.386	92.06
439.608	90.06
439.829	108.06
440.05	133.06
440.272	144.06
440.493	96.06
440.715	97.06
440.936	86.06
441.158	89.06
441.379	86.06
441.6	96.06
441.822	92.06
442.043	92.06
442.264	84.06
442.486	103.06
442.707	98.06
442.928	91.06
443.149	105.06
443.371	118.06
443.592	106.06
443.813	117.06
444.034	115.06
444.255	92.06
444.476	94.06
444.698	100.06
444.919	94.06
445.14	129.06
445.361	127.06
445.582	111.06
445.803	123.06
446.024	144.06
446.245	142.06
446.466	100.06
446.687	88.06
446.908	97.06
447.129	86.06
447.35	96.06
447.571	105.06
447.792	107.06
448.013	105.06
448.234	96.06
448.455	94.06
448.675	124.06
448.896	122.06
449.117	105.06
449.338	102.06
449.559	126.06
449.779	124.06
450	104.06
450.221	97.06
450.442	97.06
450.662	97.06
450.883	116.06
451.104	91.06
451.324	89.06
451.545	90.06
451.766	100.06
451.986	93.06
452.207	80.06
452.428	82.06
452.648	87.06
452.869	113.06
453.089	116.06
453.31	96.06
453.53	97.06
453.751	93.06
453.971	112.06
454.192	117.06
454.412	100.06
454.633	89.06
454.853	91.06
455.073	99.06
455.294	99.06
455.514	89.06
455.734	82.06
455.955	83.06
456.175	100.06
456.395	91.06
456.616	77.06
456.836	90.06
457.056	78.06
457.276	90.06
457.497	86.06
457.717	102.06
457.937	85.06
458.157	95.06
458.377	99.06
458.598	107.06
458.818	144.06
459.038	141.06
459.258	122.06
459.478	103.06
459.698	79.06
459.918	91.06
460.138	99.06
460.358	73.06
460.578	86.06
460.798	84.06
461.018	83.06
461.238	86.06
461.458	80.06
461.678	100.06
461.898	85.06
462.118	88.06
462.338	87.06
462.558	82.06
462.777	81.06
462.997	90.06
463.217	100.06
463.437	115.06
463.657	89.06
463.876	97.06
464.096	107.06
464.316	96.06
464.536	94.06
464.755	85.06
464.975	116.06
465.195	154.06
465.414	150.06
465.634	101.06
465.854	82.06
466.073	83.06
466.293	98.06
466.512	94.06
466.732	91.06
466.951	85.06
467.171	91.06
467.391	93.06
467.61	106.06
467.829	100.06
468.049	89.06
468.268	94.06
468.488	90.06
468.707	87.06
468.927	94.06
469.146	104.06
469.365	94.06
469.585	97.06
469.804	86.06
470.023	92.06
470.243	92.06
470.462	107.06
470.681	115.06
470.901	87.06
471.12	91.06
471.339	103.06
471.558	80.06
471.777	82.06
471.997	80.06
472.216	98.06
472.435	105.06
472.654	98.06
472.873	102.06
473.092	89.06
473.311	88.06
473.53	81.06
473.749	88.06
473.968	89.06
474.187	84.06
474.406	87.06
474.625	77.06
474.844	84.06
475.063	107.06
475.282	74.06
475.501	91.06
475.72	94.06
475.939	78.06
476.158	97.06
476.377	84.06
476.596	90.06
476.814	96.06
477.033	107.06
477.252	98.06
477.471	82.06
477.69	98.06
477.908	98.06
478.127	95.06
478.346	86.06
478.564	105.06
478.783	101.06
479.002	91.06
479.22	86.06
479.439	105.06
479.658	82.06
479.876	89.06
480.095	97.06
480.313	91.06
480.532	87.06
480.751	90.06
480.969	91.06
481.188	125.06
481.406	120.06
481.624	96.06
481.843	92.06
482.061	87.06
482.28	103.06
482.498	94.06
482.717	94.06
482.935	82.06
483.153	102.06
483.372	96.06
483.59	86.06
483.808	85.06
484.027	91.06
484.245	85.06
484.463	96.06
484.681	96.06
484.9	98.06
485.118	96.06
485.336	98.06
485.554	91.06
485.772	96.06
485.99	98.06
486.209	92.06
486.427	109.06
486.645	117.06
486.863	112.06
487.081	91.06
487.299	98.06
487.517	102.06
487.735	87.06
487.953	92.06
488.171	103.06
488.389	98.06
488.607	105.06
488.825	97.06
489.043	98.06
489.261	98.06
489.479	80.06
489.696	81.06
489.914	91.06
490.132	96.06
490.35	95.06
490.568	102.06
490.786	101.06
491.003	107.06
491.221	97.06
491.439	93.06
491.657	100.06
491.874	108.06
492.092	104.06
492.31	89.06
492.527	76.06
492.745	91.06
492.963	101.06
493.18	100.06
493.398	102.06
493.615	99.06
493.833	99.06
494.05	102.06
494.268	102.06
494.485	91.06
494.703	82.06
494.92	94.06
495.138	102.06
495.355	82.06
495.573	102.06
495.79	98.06
496.008	97.06
496.225	86.06
496.442	100.06
496.66	73.06
496.877	82.06
497.094	101.06
497.312	98.06
497.529	84.06
497.746	91.06
497.963	83.06
498.181	93.06
498.398	109.06
498.615	109.06
498.832	105.06
499.049	76.06
499.267	84.06
499.484	87.06
499.701	101.06
499.918	93.06
500.135	95.06
500.352	75.06
500.569	98.06
500.786	93.06
501.003	90.06
501.22	109.06
501.437	102.06
501.654	101.06
501.871	106.06
502.088	74.06
502.305	83.06
502.522	93.06
502.739	92.06
502.956	92.06
503.172	93.06
503.389	93.06
503.606	115.06
503.823	97.06
504.04	85.06
504.256	91.06
504.473	99.06
504.69	98.06
504.907	109.06
505.123	100.06
505.34	105.06
505.557	83.06
505.773	94.06
505.99	93.06
506.207	91.06
506.423	79.06
506.64	87.06
506.856	90.06
507.073	99.06
507.289	109.06
507.506	105.06
507.722	98.06
507.939	106.06
508.155	101.06
508.372	97.06
508.588	92.06
508.805	113.06
509.021	96.06
509.238	92.06
509.454	106.06
509.67	107.06
509.887	105.06
510.103	142.06
510.319	221.06
510.536	746.06
510.752	2448.06
510.968	676.06
511.184	156.06
511.401	111.06
511.617	104.06
511.833	92.06
512.049	92.06
512.265	92.06
512.481	84.06
512.698	90.06
512.914	98.06
513.13	102.06
513.346	99.06
513.562	97.06
513.778	104.06
513.994	105.06
514.21	115.06
