Data from Uncirc_2004_H10_HRD10591_00016.txt Node
Date: Wed Jan 03 10:32:16 EST 2024
User: Yrep
Spectrometer: HR+D1059
Trigger mode: 1
Integration Time (sec): 1.000000E-1
Scans to average: 1
Electric dark correction enabled: true
Nonlinearity correction enabled: false
Boxcar width: 0
XAxis mode: Wavelengths
Number of Pixels in Spectrum: 2048
>>>>>Begin Spectral Data<<<<<
223.165	-15.69
223.4	-15.69
223.635	-15.69
223.869	-26.69
224.104	-23.69
224.338	-16.69
224.573	-14.69
224.808	-20.69
225.042	-5.69
225.277	-10.69
225.511	-1.69
225.746	3.31
225.98	10.31
226.215	15.31
226.449	29.31
226.683	26.31
226.918	21.31
227.152	30.31
227.387	30.31
227.621	38.31
227.856	53.31
228.09	59.31
228.324	46.31
228.559	58.31
228.793	59.31
229.027	58.31
229.262	68.31
229.496	65.31
229.73	78.31
229.964	76.31
230.199	68.31
230.433	79.31
230.667	74.31
230.901	81.31
231.136	75.31
231.37	105.31
231.604	81.31
231.838	90.31
232.072	83.31
232.306	80.31
232.541	77.31
232.775	81.31
233.009	88.31
233.243	77.31
233.477	74.31
233.711	82.31
233.945	78.31
234.179	78.31
234.413	82.31
234.647	77.31
234.881	74.31
235.115	72.31
235.349	72.31
235.583	85.31
235.817	83.31
236.051	93.31
236.285	87.31
236.519	79.31
236.753	85.31
236.987	86.31
237.221	83.31
237.455	76.31
237.689	72.31
237.922	79.31
238.156	86.31
238.39	75.31
238.624	78.31
238.858	80.31
239.091	73.31
239.325	76.31
239.559	95.31
239.793	81.31
240.027	78.31
240.26	86.31
240.494	84.31
240.728	81.31
240.961	74.31
241.195	82.31
241.429	78.31
241.662	71.31
241.896	74.31
242.13	80.31
242.363	62.31
242.597	66.31
242.83	82.31
243.064	71.31
243.298	89.31
243.531	69.31
243.765	78.31
243.998	73.31
244.232	88.31
244.465	90.31
244.699	79.31
244.932	73.31
245.166	89.31
245.399	88.31
245.633	85.31
245.866	86.31
246.099	96.31
246.333	82.31
246.566	79.31
246.8	74.31
247.033	68.31
247.266	66.31
247.5	85.31
247.733	70.31
247.966	95.31
248.2	75.31
248.433	96.31
248.666	77.31
248.899	83.31
249.133	79.31
249.366	93.31
249.599	97.31
249.832	86.31
250.066	81.31
250.299	78.31
250.532	74.31
250.765	82.31
250.998	95.31
251.231	78.31
251.465	91.31
251.698	83.31
251.931	69.31
252.164	79.31
252.397	73.31
252.63	86.31
252.863	67.31
253.096	95.31
253.329	72.31
253.562	85.31
253.795	86.31
254.028	80.31
254.261	84.31
254.494	73.31
254.727	92.31
254.96	79.31
255.193	78.31
255.426	75.31
255.659	79.31
255.892	88.31
256.124	89.31
256.357	95.31
256.59	89.31
256.823	81.31
257.056	75.31
257.289	81.31
257.521	77.31
257.754	79.31
257.987	64.31
258.22	97.31
258.452	83.31
258.685	80.31
258.918	67.31
259.151	84.31
259.383	98.31
259.616	76.31
259.849	96.31
260.081	83.31
260.314	83.31
260.547	73.31
260.779	61.31
261.012	82.31
261.244	79.31
261.477	91.31
261.71	93.31
261.942	112.31
262.175	108.31
262.407	96.31
262.64	79.31
262.872	89.31
263.105	84.31
263.337	96.31
263.57	91.31
263.802	100.31
264.035	88.31
264.267	94.31
264.499	79.31
264.732	83.31
264.964	82.31
265.197	80.31
265.429	87.31
265.661	79.31
265.894	106.31
266.126	90.31
266.358	80.31
266.591	84.31
266.823	91.31
267.055	70.31
267.287	79.31
267.52	75.31
267.752	79.31
267.984	87.31
268.216	86.31
268.448	86.31
268.681	93.31
268.913	90.31
269.145	78.31
269.377	79.31
269.609	79.31
269.841	89.31
270.073	88.31
270.306	77.31
270.538	87.31
270.77	98.31
271.002	90.31
271.234	98.31
271.466	85.31
271.698	85.31
271.93	96.31
272.162	79.31
272.394	89.31
272.626	94.31
272.858	82.31
273.09	87.31
273.322	90.31
273.553	94.31
273.785	87.31
274.017	80.31
274.249	90.31
274.481	85.31
274.713	91.31
274.945	82.31
275.176	80.31
275.408	83.31
275.64	91.31
275.872	78.31
276.104	79.31
276.335	100.31
276.567	104.31
276.799	102.31
277.031	83.31
277.262	88.31
277.494	99.31
277.726	81.31
277.957	81.31
278.189	90.31
278.421	81.31
278.652	85.31
278.884	87.31
279.115	85.31
279.347	81.31
279.579	95.31
279.81	79.31
280.042	87.31
280.273	92.31
280.505	91.31
280.736	95.31
280.968	88.31
281.199	83.31
281.431	87.31
281.662	84.31
281.894	88.31
282.125	101.31
282.356	113.31
282.588	126.31
282.819	109.31
283.051	86.31
283.282	85.31
283.513	83.31
283.745	87.31
283.976	87.31
284.207	90.31
284.439	86.31
284.67	93.31
284.901	91.31
285.132	87.31
285.364	80.31
285.595	85.31
285.826	72.31
286.057	98.31
286.288	89.31
286.52	89.31
286.751	91.31
286.982	79.31
287.213	86.31
287.444	79.31
287.675	91.31
287.906	74.31
288.138	83.31
288.369	94.31
288.6	77.31
288.831	93.31
289.062	87.31
289.293	96.31
289.524	86.31
289.755	89.31
289.986	74.31
290.217	78.31
290.448	91.31
290.679	102.31
290.91	77.31
291.141	87.31
291.371	94.31
291.602	93.31
291.833	93.31
292.064	95.31
292.295	95.31
292.526	87.31
292.757	99.31
292.987	92.31
293.218	91.31
293.449	105.31
293.68	80.31
293.91	87.31
294.141	81.31
294.372	95.31
294.603	97.31
294.833	90.31
295.064	94.31
295.295	86.31
295.525	88.31
295.756	98.31
295.987	116.31
296.217	143.31
296.448	120.31
296.679	92.31
296.909	90.31
297.14	96.31
297.37	99.31
297.601	91.31
297.831	78.31
298.062	89.31
298.292	92.31
298.523	99.31
298.753	93.31
298.984	99.31
299.214	92.31
299.445	91.31
299.675	81.31
299.905	87.31
300.136	98.31
300.366	84.31
300.597	91.31
300.827	99.31
301.057	98.31
301.288	99.31
301.518	97.31
301.748	90.31
301.979	104.31
302.209	94.31
302.439	88.31
302.669	84.31
302.9	95.31
303.13	97.31
303.36	97.31
303.59	97.31
303.82	104.31
304.051	115.31
304.281	84.31
304.511	89.31
304.741	82.31
304.971	103.31
305.201	91.31
305.431	88.31
305.661	80.31
305.891	80.31
306.121	98.31
306.352	94.31
306.582	94.31
306.812	98.31
307.042	89.31
307.272	99.31
307.502	98.31
307.731	97.31
307.961	92.31
308.191	82.31
308.421	91.31
308.651	76.31
308.881	97.31
309.111	91.31
309.341	78.31
309.571	91.31
309.8	114.31
310.03	104.31
310.26	106.31
310.49	92.31
310.72	95.31
310.949	103.31
311.179	85.31
311.409	102.31
311.639	90.31
311.868	103.31
312.098	90.31
312.328	94.31
312.557	105.31
312.787	106.31
313.017	104.31
313.246	95.31
313.476	102.31
313.706	84.31
313.935	93.31
314.165	90.31
314.394	98.31
314.624	110.31
314.853	88.31
315.083	93.31
315.312	90.31
315.542	77.31
315.771	88.31
316.001	100.31
316.23	98.31
316.46	82.31
316.689	100.31
316.919	90.31
317.148	102.31
317.377	107.31
317.607	90.31
317.836	99.31
318.065	111.31
318.295	104.31
318.524	97.31
318.753	84.31
318.983	86.31
319.212	99.31
319.441	102.31
319.67	103.31
319.9	97.31
320.129	100.31
320.358	93.31
320.587	94.31
320.816	99.31
321.046	98.31
321.275	102.31
321.504	99.31
321.733	106.31
321.962	103.31
322.191	106.31
322.42	113.31
322.649	92.31
322.878	113.31
323.108	126.31
323.337	139.31
323.566	137.31
323.795	153.31
324.024	214.31
324.253	385.31
324.482	854.31
324.71	1775.31
324.939	2256.31
325.168	830.31
325.397	238.31
325.626	149.31
325.855	125.31
326.084	138.31
326.313	138.31
326.542	167.31
326.77	234.31
326.999	493.31
327.228	965.31
327.457	1814.31
327.686	1361.31
327.914	369.31
328.143	182.31
328.372	155.31
328.6	119.31
328.829	109.31
329.058	111.31
329.287	141.31
329.515	106.31
329.744	111.31
329.972	104.31
330.201	105.31
330.43	99.31
330.658	115.31
330.887	128.31
331.115	132.31
331.344	112.31
331.572	108.31
331.801	111.31
332.03	107.31
332.258	101.31
332.486	84.31
332.715	95.31
332.943	94.31
333.172	106.31
333.4	93.31
333.629	102.31
333.857	118.31
334.085	103.31
334.314	111.31
334.542	101.31
334.771	90.31
334.999	99.31
335.227	98.31
335.455	97.31
335.684	101.31
335.912	96.31
336.14	104.31
336.369	98.31
336.597	94.31
336.825	101.31
337.053	87.31
337.281	94.31
337.51	80.31
337.738	91.31
337.966	90.31
338.194	89.31
338.422	99.31
338.65	98.31
338.878	73.31
339.106	80.31
339.334	86.31
339.562	92.31
339.79	102.31
340.018	86.31
340.246	97.31
340.474	90.31
340.702	94.31
340.93	87.31
341.158	90.31
341.386	94.31
341.614	89.31
341.842	96.31
342.07	90.31
342.298	86.31
342.526	94.31
342.754	81.31
342.981	89.31
343.209	88.31
343.437	101.31
343.665	86.31
343.893	96.31
344.12	97.31
344.348	89.31
344.576	86.31
344.804	90.31
345.031	98.31
345.259	99.31
345.487	95.31
345.714	90.31
345.942	85.31
346.17	100.31
346.397	98.31
346.625	108.31
346.853	100.31
347.08	82.31
347.308	90.31
347.535	78.31
347.763	99.31
347.99	102.31
348.218	88.31
348.445	107.31
348.673	95.31
348.9	102.31
349.128	95.31
349.355	101.31
349.583	98.31
349.81	98.31
350.037	91.31
350.265	99.31
350.492	107.31
350.72	91.31
350.947	94.31
351.174	102.31
351.402	106.31
351.629	121.31
351.856	106.31
352.083	100.31
352.311	99.31
352.538	118.31
352.765	115.31
352.992	103.31
353.22	97.31
353.447	111.31
353.674	98.31
353.901	94.31
354.128	97.31
354.355	84.31
354.583	98.31
354.81	99.31
355.037	100.31
355.264	99.31
355.491	96.31
355.718	101.31
355.945	98.31
356.172	94.31
356.399	97.31
356.626	105.31
356.853	92.31
357.08	101.31
357.307	97.31
357.534	88.31
357.761	101.31
357.988	110.31
358.215	85.31
358.441	96.31
358.668	93.31
358.895	88.31
359.122	97.31
359.349	96.31
359.576	82.31
359.802	95.31
360.029	109.31
360.256	92.31
360.483	88.31
360.709	92.31
360.936	92.31
361.163	84.31
361.39	94.31
361.616	101.31
361.843	99.31
362.07	82.31
362.296	90.31
362.523	95.31
362.749	109.31
362.976	86.31
363.203	98.31
363.429	93.31
363.656	104.31
363.882	94.31
364.109	87.31
364.335	88.31
364.562	87.31
364.788	82.31
365.015	86.31
365.241	95.31
365.468	108.31
365.694	99.31
365.92	88.31
366.147	88.31
366.373	96.31
366.599	97.31
366.826	91.31
367.052	102.31
367.278	91.31
367.505	81.31
367.731	102.31
367.957	89.31
368.184	87.31
368.41	95.31
368.636	118.31
368.862	125.31
369.089	113.31
369.315	88.31
369.541	96.31
369.767	90.31
369.993	98.31
370.219	82.31
370.445	95.31
370.672	94.31
370.898	81.31
371.124	90.31
371.35	85.31
371.576	90.31
371.802	86.31
372.028	99.31
372.254	74.31
372.48	90.31
372.706	86.31
372.932	87.31
373.158	87.31
373.384	92.31
373.61	100.31
373.835	87.31
374.061	86.31
374.287	104.31
374.513	102.31
374.739	84.31
374.965	88.31
375.191	79.31
375.416	98.31
375.642	100.31
375.868	94.31
376.094	91.31
376.319	87.31
376.545	99.31
376.771	77.31
376.997	87.31
377.222	94.31
377.448	99.31
377.674	98.31
377.899	92.31
378.125	89.31
378.35	93.31
378.576	97.31
378.802	95.31
379.027	88.31
379.253	91.31
379.478	89.31
379.704	91.31
379.929	101.31
380.155	102.31
380.38	91.31
380.606	101.31
380.831	103.31
381.057	94.31
381.282	118.31
381.507	91.31
381.733	90.31
381.958	93.31
382.184	96.31
382.409	90.31
382.634	123.31
382.86	100.31
383.085	96.31
383.31	115.31
383.535	105.31
383.761	110.31
383.986	108.31
384.211	113.31
384.436	117.31
384.662	112.31
384.887	128.31
385.112	108.31
385.337	115.31
385.562	117.31
385.787	118.31
386.013	134.31
386.238	123.31
386.463	110.31
386.688	123.31
386.913	114.31
387.138	119.31
387.363	105.31
387.588	99.31
387.813	101.31
388.038	103.31
388.263	123.31
388.488	116.31
388.713	105.31
388.938	103.31
389.163	95.31
389.387	82.31
389.612	99.31
389.837	90.31
390.062	109.31
390.287	89.31
390.512	114.31
390.736	98.31
390.961	107.31
391.186	110.31
391.411	98.31
391.636	98.31
391.86	100.31
392.085	98.31
392.31	87.31
392.534	86.31
392.759	96.31
392.984	83.31
393.208	104.31
393.433	107.31
393.658	119.31
393.882	89.31
394.107	89.31
394.331	90.31
394.556	79.31
394.78	90.31
395.005	77.31
395.229	94.31
395.454	102.31
395.678	94.31
395.903	91.31
396.127	82.31
396.352	88.31
396.576	73.31
396.801	90.31
397.025	104.31
397.249	91.31
397.474	89.31
397.698	85.31
397.922	90.31
398.147	82.31
398.371	109.31
398.595	86.31
398.82	79.31
399.044	96.31
399.268	86.31
399.492	86.31
399.717	90.31
399.941	84.31
400.165	102.31
400.389	89.31
400.613	80.31
400.837	98.31
401.062	108.31
401.286	100.31
401.51	88.31
401.734	87.31
401.958	101.31
402.182	118.31
402.406	151.31
402.63	118.31
402.854	97.31
403.078	100.31
403.302	85.31
403.526	94.31
403.75	95.31
403.974	99.31
404.198	90.31
404.422	105.31
404.645	85.31
404.869	80.31
405.093	93.31
405.317	92.31
405.541	111.31
405.765	100.31
405.988	100.31
406.212	168.31
406.436	228.31
406.66	135.31
406.883	103.31
407.107	102.31
407.331	99.31
407.555	95.31
407.778	90.31
408.002	100.31
408.226	79.31
408.449	80.31
408.673	90.31
408.896	87.31
409.12	105.31
409.344	89.31
409.567	95.31
409.791	94.31
410.014	103.31
410.238	110.31
410.461	97.31
410.685	104.31
410.908	97.31
411.132	100.31
411.355	94.31
411.578	96.31
411.802	88.31
412.025	99.31
412.249	100.31
412.472	85.31
412.695	102.31
412.919	86.31
413.142	95.31
413.365	92.31
413.589	99.31
413.812	87.31
414.035	113.31
414.258	94.31
414.482	94.31
414.705	93.31
414.928	82.31
415.151	85.31
415.374	89.31
415.597	102.31
415.821	80.31
416.044	89.31
416.267	100.31
416.49	103.31
416.713	90.31
416.936	85.31
417.159	87.31
417.382	92.31
417.605	91.31
417.828	99.31
418.051	89.31
418.274	97.31
418.497	86.31
418.72	100.31
418.943	94.31
419.166	100.31
419.389	88.31
419.611	86.31
419.834	106.31
420.057	94.31
420.28	87.31
420.503	91.31
420.726	86.31
420.948	94.31
421.171	95.31
421.394	83.31
421.617	102.31
421.839	93.31
422.062	86.31
422.285	105.31
422.507	113.31
422.73	94.31
422.953	96.31
423.175	81.31
423.398	91.31
423.621	102.31
423.843	87.31
424.066	112.31
424.288	89.31
424.511	94.31
424.733	100.31
424.956	95.31
425.178	103.31
425.401	102.31
425.623	99.31
425.846	88.31
426.068	113.31
426.291	95.31
426.513	81.31
426.735	107.31
426.958	106.31
427.18	95.31
427.402	124.31
427.625	145.31
427.847	128.31
428.069	102.31
428.292	91.31
428.514	71.31
428.736	83.31
428.958	95.31
429.181	95.31
429.403	104.31
429.625	95.31
429.847	78.31
430.069	93.31
430.292	88.31
430.514	73.31
430.736	99.31
430.958	91.31
431.18	95.31
431.402	77.31
431.624	92.31
431.846	87.31
432.068	90.31
432.29	99.31
432.512	88.31
432.734	83.31
432.956	92.31
433.178	99.31
433.4	109.31
433.622	104.31
433.844	95.31
434.066	81.31
434.287	80.31
434.509	91.31
434.731	93.31
434.953	86.31
435.175	95.31
435.397	98.31
435.618	95.31
435.84	113.31
436.062	112.31
436.284	118.31
436.505	98.31
436.727	102.31
436.949	105.31
437.17	90.31
437.392	94.31
437.614	100.31
437.835	90.31
438.057	102.31
438.278	104.31
438.5	96.31
438.721	107.31
438.943	86.31
439.165	101.31
439.386	99.31
439.608	87.31
439.829	111.31
440.05	109.31
440.272	137.31
440.493	98.31
440.715	87.31
440.936	98.31
441.158	90.31
441.379	96.31
441.6	102.31
441.822	98.31
442.043	100.31
442.264	99.31
442.486	96.31
442.707	100.31
442.928	98.31
443.149	127.31
443.371	127.31
443.592	120.31
443.813	104.31
444.034	107.31
444.255	105.31
444.476	93.31
444.698	90.31
444.919	90.31
445.14	120.31
445.361	130.31
445.582	131.31
445.803	121.31
446.024	130.31
446.245	129.31
446.466	120.31
446.687	98.31
446.908	98.31
447.129	104.31
447.35	87.31
447.571	92.31
447.792	97.31
448.013	101.31
448.234	110.31
448.455	109.31
448.675	116.31
448.896	106.31
449.117	102.31
449.338	109.31
449.559	105.31
449.779	129.31
450	73.31
450.221	89.31
450.442	91.31
450.662	92.31
450.883	91.31
451.104	125.31
451.324	95.31
451.545	77.31
451.766	93.31
451.986	97.31
452.207	82.31
452.428	101.31
452.648	113.31
452.869	108.31
453.089	117.31
453.31	132.31
453.53	94.31
453.751	88.31
453.971	96.31
454.192	107.31
454.412	91.31
454.633	84.31
454.853	109.31
455.073	78.31
455.294	89.31
455.514	103.31
455.734	89.31
455.955	105.31
456.175	88.31
456.395	88.31
456.616	87.31
456.836	78.31
457.056	95.31
457.276	94.31
457.497	84.31
457.717	83.31
457.937	91.31
458.157	80.31
458.377	99.31
458.598	112.31
458.818	160.31
459.038	173.31
459.258	114.31
459.478	99.31
459.698	89.31
459.918	97.31
460.138	90.31
460.358	93.31
460.578	79.31
460.798	89.31
461.018	67.31
461.238	94.31
461.458	87.31
461.678	98.31
461.898	86.31
462.118	89.31
462.338	74.31
462.558	86.31
462.777	80.31
462.997	95.31
463.217	91.31
463.437	88.31
463.657	87.31
463.876	88.31
464.096	93.31
464.316	86.31
464.536	82.31
464.755	102.31
464.975	101.31
465.195	178.31
465.414	154.31
465.634	89.31
465.854	85.31
466.073	103.31
466.293	86.31
466.512	82.31
466.732	99.31
466.951	93.31
467.171	92.31
467.391	93.31
467.61	99.31
467.829	85.31
468.049	89.31
468.268	82.31
468.488	85.31
468.707	90.31
468.927	87.31
469.146	79.31
469.365	87.31
469.585	96.31
469.804	97.31
470.023	110.31
470.243	90.31
470.462	90.31
470.681	115.31
470.901	75.31
471.12	88.31
471.339	99.31
471.558	86.31
471.777	87.31
471.997	91.31
472.216	92.31
472.435	105.31
472.654	99.31
472.873	78.31
473.092	88.31
473.311	88.31
473.53	88.31
473.749	93.31
473.968	101.31
474.187	91.31
474.406	101.31
474.625	80.31
474.844	87.31
475.063	82.31
475.282	82.31
475.501	100.31
475.72	82.31
475.939	91.31
476.158	94.31
476.377	95.31
476.596	74.31
476.814	102.31
477.033	90.31
477.252	104.31
477.471	86.31
477.69	87.31
477.908	98.31
478.127	105.31
478.346	97.31
478.564	88.31
478.783	109.31
479.002	89.31
479.22	85.31
479.439	90.31
479.658	103.31
479.876	91.31
480.095	94.31
480.313	81.31
480.532	89.31
480.751	91.31
480.969	100.31
481.188	146.31
481.406	123.31
481.624	90.31
481.843	84.31
482.061	83.31
482.28	88.31
482.498	96.31
482.717	79.31
482.935	101.31
483.153	104.31
483.372	92.31
483.59	104.31
483.808	77.31
484.027	93.31
484.245	85.31
484.463	106.31
484.681	107.31
484.9	95.31
485.118	90.31
485.336	97.31
485.554	103.31
485.772	103.31
485.99	104.31
486.209	110.31
486.427	113.31
486.645	107.31
486.863	110.31
487.081	107.31
487.299	95.31
487.517	98.31
487.735	95.31
487.953	113.31
488.171	101.31
488.389	100.31
488.607	100.31
488.825	94.31
489.043	93.31
489.261	96.31
489.479	95.31
489.696	103.31
489.914	75.31
490.132	81.31
490.35	94.31
490.568	83.31
490.786	96.31
491.003	101.31
491.221	84.31
491.439	102.31
491.657	98.31
491.874	96.31
492.092	87.31
492.31	81.31
492.527	79.31
492.745	98.31
492.963	93.31
493.18	89.31
493.398	98.31
493.615	96.31
493.833	98.31
494.05	95.31
494.268	101.31
494.485	90.31
494.703	90.31
494.92	84.31
495.138	91.31
495.355	80.31
495.573	92.31
495.79	82.31
496.008	112.31
496.225	98.31
496.442	96.31
496.66	104.31
496.877	97.31
497.094	87.31
497.312	91.31
497.529	106.31
497.746	93.31
497.963	88.31
498.181	97.31
498.398	89.31
498.615	98.31
498.832	100.31
499.049	103.31
499.267	101.31
499.484	98.31
499.701	113.31
499.918	108.31
500.135	101.31
500.352	90.31
500.569	102.31
500.786	92.31
501.003	84.31
501.22	85.31
501.437	91.31
501.654	95.31
501.871	107.31
502.088	93.31
502.305	97.31
502.522	93.31
502.739	88.31
502.956	88.31
503.172	81.31
503.389	105.31
503.606	119.31
503.823	82.31
504.04	95.31
504.256	97.31
504.473	95.31
504.69	88.31
504.907	90.31
505.123	101.31
505.34	97.31
505.557	84.31
505.773	100.31
505.99	86.31
506.207	108.31
506.423	89.31
506.64	101.31
506.856	92.31
507.073	89.31
507.289	87.31
507.506	98.31
507.722	120.31
507.939	100.31
508.155	102.31
508.372	106.31
508.588	103.31
508.805	89.31
509.021	109.31
509.238	113.31
509.454	109.31
509.67	97.31
509.887	128.31
510.103	148.31
510.319	230.31
510.536	822.31
510.752	2550.31
510.968	718.31
511.184	163.31
511.401	107.31
511.617	106.31
511.833	109.31
512.049	111.31
512.265	77.31
512.481	96.31
512.698	77.31
512.914	79.31
513.13	86.31
513.346	94.31
513.562	95.31
513.778	99.31
513.994	106.31
514.21	94.31
514.426	119.31
514.642	137.31
514.858	125.31
