Data from Uncirc_2004_H10_HRD10591_00075.txt Node
Date: Wed Jan 03 10:32:27 EST 2024
User: Yrep
Spectrometer: HR+D1059
Trigger mode: 1
Integration Time (sec): 1.000000E-1
Scans to average: 1
Electric dark correction enabled: true
Nonlinearity correction enabled: false
Boxcar width: 0
XAxis mode: Wavelengths
Number of Pixels in Spectrum: 2048
>>>>>Begin Spectral Data<<<<<
223.165	-12.81
223.4	-12.81
223.635	-12.81
223.869	-26.81
224.104	-18.81
224.338	-20.81
224.573	-12.81
224.808	-18.81
225.042	4.19
225.277	-8.81
225.511	7.19
225.746	-7.81
225.98	13.19
226.215	1.19
226.449	14.19
226.683	24.19
226.918	32.19
227.152	31.19
227.387	34.19
227.621	23.19
227.856	41.19
228.09	43.19
228.324	47.19
228.559	61.19
228.793	151.19
229.027	452.19
229.262	518.19
229.496	601.19
229.73	793.19
229.964	805.19
230.199	517.19
230.433	460.19
230.667	484.19
230.901	471.19
231.136	440.19
231.37	445.19
231.604	459.19
231.838	446.19
232.072	443.19
232.306	483.19
232.541	468.19
232.775	455.19
233.009	456.19
233.243	455.19
233.477	481.19
233.711	480.19
233.945	500.19
234.179	511.19
234.413	523.19
234.647	505.19
234.881	514.19
235.115	539.19
235.349	538.19
235.583	556.19
235.817	576.19
236.051	609.19
236.285	608.19
236.519	584.19
236.753	675.19
236.987	925.19
237.221	1375.19
237.455	1503.19
237.689	932.19
237.922	731.19
238.156	696.19
238.39	670.19
238.624	630.19
238.858	640.19
239.091	655.19
239.325	629.19
239.559	691.19
239.793	677.19
240.027	755.19
240.26	884.19
240.494	958.19
240.728	942.19
240.961	901.19
241.195	805.19
241.429	790.19
241.662	760.19
241.896	751.19
242.13	776.19
242.363	750.19
242.597	797.19
242.83	795.19
243.064	812.19
243.298	823.19
243.531	800.19
243.765	803.19
243.998	854.19
244.232	857.19
244.465	867.19
244.699	887.19
244.932	923.19
245.166	891.19
245.399	878.19
245.633	913.19
245.866	891.19
246.099	935.19
246.333	940.19
246.566	967.19
246.8	996.19
247.033	999.19
247.266	1037.19
247.5	1066.19
247.733	1148.19
247.966	1128.19
248.2	1140.19
248.433	1133.19
248.666	1238.19
248.899	1336.19
249.133	1425.19
249.366	1406.19
249.599	1311.19
249.832	1207.19
250.066	1216.19
250.299	1302.19
250.532	1341.19
250.765	1499.19
250.998	1671.19
251.231	1660.19
251.465	1480.19
251.698	1405.19
251.931	1396.19
252.164	1396.19
252.397	1375.19
252.63	1455.19
252.863	1538.19
253.096	1686.19
253.329	1718.19
253.562	1667.19
253.795	1558.19
254.028	1550.19
254.261	1620.19
254.494	1818.19
254.727	2127.19
254.96	2221.19
255.193	1946.19
255.426	1750.19
255.659	1632.19
255.892	1577.19
256.124	1571.19
256.357	1514.19
256.59	1531.19
256.823	1485.19
257.056	1494.19
257.289	1522.19
257.521	1509.19
257.754	1525.19
257.987	1512.19
258.22	1509.19
258.452	1521.19
258.685	1512.19
258.918	1564.19
259.151	1576.19
259.383	1695.19
259.616	1683.19
259.849	1790.19
260.081	1942.19
260.314	2114.19
260.547	2013.19
260.779	1863.19
261.012	1766.19
261.244	1708.19
261.477	1645.19
261.71	1700.19
261.942	1748.19
262.175	1789.19
262.407	1693.19
262.64	1641.19
262.872	1656.19
263.105	1645.19
263.337	1604.19
263.57	1629.19
263.802	1620.19
264.035	1648.19
264.267	1683.19
264.499	1686.19
264.732	1686.19
264.964	1703.19
265.197	1714.19
265.429	1665.19
265.661	1683.19
265.894	1702.19
266.126	1739.19
266.358	1753.19
266.591	1790.19
266.823	1897.19
267.055	1877.19
267.287	1872.19
267.52	1816.19
267.752	1885.19
267.984	1902.19
268.216	1900.19
268.448	1918.19
268.681	2018.19
268.913	2124.19
269.145	2359.19
269.377	2390.19
269.609	2358.19
269.841	2284.19
270.073	2403.19
270.306	2647.19
270.538	2857.19
270.77	2684.19
271.002	2512.19
271.234	2519.19
271.466	2635.19
271.698	2697.19
271.93	2775.19
272.162	2796.19
272.394	2672.19
272.626	2519.19
272.858	2360.19
273.09	2303.19
273.322	2265.19
273.553	2235.19
273.785	2223.19
274.017	2208.19
274.249	2233.19
274.481	2266.19
274.713	2302.19
274.945	2302.19
275.176	2262.19
275.408	2250.19
275.64	2225.19
275.872	2231.19
276.104	2278.19
276.335	2333.19
276.567	2383.19
276.799	2544.19
277.031	2811.19
277.262	2932.19
277.494	2794.19
277.726	2601.19
277.957	2495.19
278.189	2471.19
278.421	2412.19
278.652	2382.19
278.884	2402.19
279.115	2309.19
279.347	2370.19
279.579	2323.19
279.81	2384.19
280.042	2355.19
280.273	2388.19
280.505	2420.19
280.736	2410.19
280.968	2453.19
281.199	2413.19
281.431	2441.19
281.662	2462.19
281.894	2511.19
282.125	2476.19
282.356	2666.19
282.588	2817.19
282.819	2676.19
283.051	2544.19
283.282	2534.19
283.513	2567.19
283.745	2676.19
283.976	2704.19
284.207	2663.19
284.439	2673.19
284.67	2633.19
284.901	2596.19
285.132	2700.19
285.364	2662.19
285.595	2623.19
285.826	2685.19
286.057	2621.19
286.288	2685.19
286.52	2685.19
286.751	2699.19
286.982	2723.19
287.213	2711.19
287.444	2800.19
287.675	2804.19
287.906	2910.19
288.138	2950.19
288.369	2923.19
288.6	2943.19
288.831	2870.19
289.062	2816.19
289.293	2851.19
289.524	2845.19
289.755	2815.19
289.986	2813.19
290.217	2847.19
290.448	2801.19
290.679	2888.19
290.91	2792.19
291.141	2812.19
291.371	2823.19
291.602	2857.19
291.833	2839.19
292.064	2793.19
292.295	2870.19
292.526	2852.19
292.757	2885.19
292.987	2845.19
293.218	2845.19
293.449	2866.19
293.68	2882.19
293.91	2852.19
294.141	2863.19
294.372	2851.19
294.603	2905.19
294.833	2908.19
295.064	2882.19
295.295	2919.19
295.525	2908.19
295.756	2989.19
295.987	3088.19
296.217	3236.19
296.448	3186.19
296.679	2922.19
296.909	2995.19
297.14	3005.19
297.37	3072.19
297.601	3110.19
297.831	3097.19
298.062	3126.19
298.292	3128.19
298.523	3151.19
298.753	3115.19
298.984	3126.19
299.214	3166.19
299.445	3142.19
299.675	3122.19
299.905	3149.19
300.136	3139.19
300.366	3183.19
300.597	3197.19
300.827	3253.19
301.057	3344.19
301.288	3367.19
301.518	3339.19
301.748	3356.19
301.979	3487.19
302.209	3346.19
302.439	3414.19
302.669	3371.19
302.9	3357.19
303.13	3297.19
303.36	3361.19
303.59	3416.19
303.82	3419.19
304.051	3388.19
304.281	3360.19
304.511	3354.19
304.741	3276.19
304.971	3295.19
305.201	3353.19
305.431	3301.19
305.661	3329.19
305.891	3298.19
306.121	3304.19
306.352	3383.19
306.582	3331.19
306.812	3288.19
307.042	3276.19
307.272	3287.19
307.502	3403.19
307.731	3353.19
307.961	3343.19
308.191	3304.19
308.421	3325.19
308.651	3400.19
308.881	3351.19
309.111	3431.19
309.341	3368.19
309.571	3494.19
309.8	3554.19
310.03	3669.19
310.26	3619.19
310.49	3609.19
310.72	3727.19
310.949	3808.19
311.179	3822.19
311.409	3658.19
311.639	3698.19
311.868	3724.19
312.098	3699.19
312.328	3801.19
312.557	3958.19
312.787	4020.19
313.017	3919.19
313.246	3873.19
313.476	3784.19
313.706	3841.19
313.935	3927.19
314.165	4001.19
314.394	3982.19
314.624	3983.19
314.853	3886.19
315.083	3833.19
315.312	3771.19
315.542	3769.19
315.771	3749.19
316.001	3747.19
316.23	3733.19
316.46	3683.19
316.689	3755.19
316.919	3817.19
317.148	3775.19
317.377	3800.19
317.607	3781.19
317.836	3779.19
318.065	3727.19
318.295	3696.19
318.524	3755.19
318.753	3621.19
318.983	3675.19
319.212	3721.19
319.441	3815.19
319.67	3751.19
319.9	3739.19
320.129	3798.19
320.358	3763.19
320.587	3838.19
320.816	3862.19
321.046	3836.19
321.275	3895.19
321.504	3904.19
321.733	3917.19
321.962	3960.19
322.191	4072.19
322.42	4084.19
322.649	4191.19
322.878	4230.19
323.108	4411.19
323.337	4554.19
323.566	4732.19
323.795	5032.19
324.024	5591.19
324.253	7412.19
324.482	11118.19
324.71	15322.19
324.939	15609.19
325.168	13075.19
325.397	6672.19
325.626	5289.19
325.855	4893.19
326.084	4838.19
326.313	4834.19
326.542	4928.19
326.77	5601.19
326.999	7181.19
327.228	10560.19
327.457	14452.19
327.686	13653.19
327.914	7372.19
328.143	5851.19
328.372	5477.19
328.6	5236.19
328.829	5247.19
329.058	5399.19
329.287	5367.19
329.515	5017.19
329.744	4855.19
329.972	4831.19
330.201	5031.19
330.43	5190.19
330.658	5521.19
330.887	5820.19
331.115	5375.19
331.344	5073.19
331.572	4911.19
331.801	5133.19
332.03	5158.19
332.258	4964.19
332.486	4995.19
332.715	5091.19
332.943	5241.19
333.172	5386.19
333.4	5558.19
333.629	5666.19
333.857	5750.19
334.085	5641.19
334.314	5637.19
334.542	5650.19
334.771	5500.19
334.999	5365.19
335.227	5234.19
335.455	5181.19
335.684	5098.19
335.912	5072.19
336.14	5054.19
336.369	5004.19
336.597	5042.19
336.825	4974.19
337.053	4918.19
337.281	4811.19
337.51	4769.19
337.738	4828.19
337.966	4763.19
338.194	4797.19
338.422	4772.19
338.65	4607.19
338.878	4572.19
339.106	4588.19
339.334	4577.19
339.562	4512.19
339.79	4433.19
340.018	4479.19
340.246	4429.19
340.474	4456.19
340.702	4485.19
340.93	4467.19
341.158	4504.19
341.386	4439.19
341.614	4539.19
341.842	4423.19
342.07	4423.19
342.298	4368.19
342.526	4349.19
342.754	4377.19
342.981	4334.19
343.209	4483.19
343.437	4731.19
343.665	5054.19
343.893	5219.19
344.12	5347.19
344.348	5093.19
344.576	4807.19
344.804	4818.19
345.031	4665.19
345.259	4616.19
345.487	4491.19
345.714	4397.19
345.942	4305.19
346.17	4243.19
346.397	4321.19
346.625	4303.19
346.853	4317.19
347.08	4260.19
347.308	4302.19
347.535	4364.19
347.763	4395.19
347.99	4341.19
348.218	4385.19
348.445	4393.19
348.673	4308.19
348.9	4204.19
349.128	4158.19
349.355	4177.19
349.583	4138.19
349.81	4112.19
350.037	4167.19
350.265	4099.19
350.492	4096.19
350.72	4114.19
350.947	4168.19
351.174	4247.19
351.402	4304.19
351.629	4272.19
351.856	4254.19
352.083	4339.19
352.311	4345.19
352.538	4295.19
352.765	4318.19
352.992	4246.19
353.22	4176.19
353.447	4172.19
353.674	4072.19
353.901	4103.19
354.128	4043.19
354.355	4059.19
354.583	4019.19
354.81	4051.19
355.037	4037.19
355.264	3968.19
355.491	4031.19
355.718	4004.19
355.945	4036.19
356.172	4036.19
356.399	4084.19
356.626	3993.19
356.853	4062.19
357.08	4035.19
357.307	4067.19
357.534	4008.19
357.761	4015.19
357.988	4115.19
358.215	4044.19
358.441	4091.19
358.668	4167.19
358.895	4192.19
359.122	4169.19
359.349	4213.19
359.576	4325.19
359.802	4578.19
360.029	4678.19
360.256	4691.19
360.483	4531.19
360.709	4256.19
360.936	4241.19
361.163	4257.19
361.39	4275.19
361.616	4368.19
361.843	4185.19
362.07	4297.19
362.296	4301.19
362.523	4178.19
362.749	4235.19
362.976	4137.19
363.203	4148.19
363.429	4077.19
363.656	4150.19
363.882	4146.19
364.109	4139.19
364.335	4099.19
364.562	4194.19
364.788	4141.19
365.015	4109.19
365.241	4109.19
365.468	4167.19
365.694	4195.19
365.92	4228.19
366.147	4070.19
366.373	4142.19
366.599	4132.19
366.826	4076.19
367.052	4072.19
367.278	4117.19
367.505	4133.19
367.731	4197.19
367.957	4157.19
368.184	4151.19
368.41	4250.19
368.636	4359.19
368.862	4328.19
369.089	4249.19
369.315	4221.19
369.541	4161.19
369.767	4248.19
369.993	4278.19
370.219	4283.19
370.445	4295.19
370.672	4265.19
370.898	4342.19
371.124	4317.19
371.35	4404.19
371.576	4363.19
371.802	4411.19
372.028	4390.19
372.254	4326.19
372.48	4491.19
372.706	4518.19
372.932	4561.19
373.158	4530.19
373.384	4414.19
373.61	4439.19
373.835	4412.19
374.061	4513.19
374.287	4496.19
374.513	4613.19
374.739	4708.19
374.965	4824.19
375.191	4854.19
375.416	4737.19
375.642	4651.19
375.868	4530.19
376.094	4557.19
376.319	4467.19
376.545	4505.19
376.771	4470.19
376.997	4465.19
377.222	4375.19
377.448	4454.19
377.674	4448.19
377.899	4370.19
378.125	4367.19
378.35	4378.19
378.576	4347.19
378.802	4383.19
379.027	4318.19
379.253	4357.19
379.478	4337.19
379.704	4320.19
379.929	4348.19
380.155	4417.19
380.38	4360.19
380.606	4413.19
380.831	4400.19
381.057	4385.19
381.282	4420.19
381.507	4441.19
381.733	4471.19
381.958	4509.19
382.184	4569.19
382.409	4623.19
382.634	4641.19
382.86	4664.19
383.085	4675.19
383.31	4788.19
383.535	4913.19
383.761	4882.19
383.986	4959.19
384.211	5041.19
384.436	5145.19
384.662	5231.19
384.887	5296.19
385.112	5301.19
385.337	5296.19
385.562	5307.19
385.787	5335.19
386.013	5517.19
386.238	5397.19
386.463	5448.19
386.688	5378.19
386.913	5273.19
387.138	5246.19
387.363	5293.19
387.588	5197.19
387.813	5255.19
388.038	5228.19
388.263	5315.19
388.488	5324.19
388.713	5235.19
388.938	5263.19
389.163	5293.19
389.387	5214.19
389.612	5134.19
389.837	5177.19
390.062	5145.19
390.287	5216.19
390.512	5126.19
390.736	5279.19
390.961	5385.19
391.186	5413.19
391.411	5664.19
391.636	5721.19
391.86	5869.19
392.085	5898.19
392.31	5880.19
392.534	5711.19
392.759	5687.19
392.984	5518.19
393.208	5490.19
393.433	5488.19
393.658	5441.19
393.882	5469.19
394.107	5537.19
394.331	5604.19
394.556	5563.19
394.78	5652.19
395.005	5642.19
395.229	5650.19
395.454	5840.19
395.678	5952.19
395.903	5932.19
396.127	6046.19
396.352	5786.19
396.576	5547.19
396.801	5652.19
397.025	5637.19
397.249	5846.19
397.474	5945.19
397.698	5974.19
397.922	6056.19
398.147	6179.19
398.371	6396.19
398.595	6505.19
398.82	6716.19
399.044	7368.19
399.268	8085.19
399.492	9256.19
399.717	9884.19
399.941	9637.19
400.165	8973.19
400.389	8305.19
400.613	7475.19
400.837	6989.19
401.062	6877.19
401.286	6718.19
401.51	6739.19
401.734	6656.19
401.958	6855.19
402.182	6924.19
402.406	7053.19
402.63	7067.19
402.854	7200.19
403.078	7226.19
403.302	7426.19
403.526	7512.19
403.75	7570.19
403.974	7643.19
404.198	7663.19
404.422	7707.19
404.645	7613.19
404.869	7522.19
405.093	7680.19
405.317	7831.19
405.541	7833.19
405.765	7405.19
405.988	7418.19
406.212	7544.19
406.436	7733.19
406.66	7926.19
406.883	7956.19
407.107	8521.19
407.331	9168.19
407.555	9552.19
407.778	9270.19
408.002	8461.19
408.226	8103.19
408.449	7991.19
408.673	7784.19
408.896	7981.19
409.12	8155.19
409.344	7740.19
409.567	7363.19
409.791	7315.19
410.014	7211.19
410.238	7214.19
410.461	7126.19
410.685	7175.19
410.908	7248.19
411.132	7556.19
411.355	7540.19
411.578	7169.19
411.802	6939.19
412.025	6919.19
412.249	6997.19
412.472	7052.19
412.695	6947.19
412.919	6765.19
413.142	6674.19
413.365	6666.19
413.589	6691.19
413.812	6516.19
414.035	6389.19
414.258	6535.19
414.482	6469.19
414.705	6622.19
414.928	6520.19
415.151	6615.19
415.374	6596.19
415.597	6591.19
415.821	6465.19
416.044	6442.19
416.267	6429.19
416.49	6367.19
416.713	6339.19
416.936	6439.19
417.159	6422.19
417.382	6508.19
417.605	6454.19
417.828	6614.19
418.051	6787.19
418.274	6685.19
418.497	6623.19
418.72	6723.19
418.943	6708.19
419.166	7077.19
419.389	7441.19
419.611	7310.19
419.834	7068.19
420.057	6955.19
420.28	6752.19
420.503	6541.19
420.726	6590.19
420.948	6795.19
421.171	7239.19
421.394	7243.19
421.617	6717.19
421.839	6760.19
422.062	6825.19
422.285	6987.19
422.507	7703.19
422.73	8133.19
422.953	7548.19
423.175	7142.19
423.398	7209.19
423.621	7228.19
423.843	7518.19
424.066	7337.19
424.288	7268.19
424.511	7581.19
424.733	8047.19
424.956	8443.19
425.178	7886.19
425.401	8123.19
425.623	7959.19
425.846	6964.19
426.068	6809.19
426.291	6661.19
426.513	6712.19
426.735	6841.19
426.958	7336.19
427.18	8047.19
427.402	9199.19
427.625	9287.19
427.847	7849.19
428.069	6914.19
428.292	6527.19
428.514	6199.19
428.736	6093.19
428.958	6167.19
429.181	5942.19
429.403	6005.19
429.625	6119.19
429.847	6507.19
430.069	6995.19
430.292	6453.19
430.514	5994.19
430.736	5981.19
430.958	5907.19
431.18	5856.19
431.402	5779.19
431.624	5857.19
431.846	5930.19
432.068	5821.19
432.29	5924.19
432.512	5905.19
432.734	6023.19
432.956	5904.19
433.178	6014.19
433.4	6031.19
433.622	5884.19
433.844	5891.19
434.066	5956.19
434.287	6095.19
434.509	6258.19
434.731	6488.19
434.953	6606.19
435.175	6717.19
435.397	6847.19
435.618	6837.19
435.84	7170.19
436.062	7999.19
436.284	7844.19
436.505	6755.19
436.727	6348.19
436.949	6117.19
437.17	6031.19
437.392	6048.19
437.614	6098.19
437.835	6596.19
438.057	7504.19
438.278	8152.19
438.5	8088.19
438.721	8852.19
438.943	7846.19
439.165	6614.19
439.386	6492.19
439.608	6466.19
439.829	6515.19
440.05	6872.19
440.272	7285.19
440.493	6636.19
440.715	6306.19
440.936	6277.19
441.158	6324.19
441.379	6508.19
441.6	6800.19
441.822	7022.19
442.043	7534.19
442.264	8302.19
442.486	7982.19
442.707	7180.19
442.928	6940.19
443.149	7127.19
443.371	7259.19
443.592	7933.19
443.813	8871.19
444.034	8786.19
444.255	7736.19
444.476	7571.19
444.698	7760.19
444.919	7806.19
445.14	7565.19
445.361	7500.19
445.582	7601.19
445.803	8081.19
446.024	8824.19
446.245	8509.19
446.466	7595.19
446.687	6611.19
446.908	6298.19
447.129	6002.19
447.35	5823.19
447.571	5846.19
447.792	5691.19
448.013	5733.19
448.234	6076.19
448.455	6715.19
448.675	7851.19
448.896	8312.19
449.117	6936.19
449.338	7142.19
449.559	8452.19
449.779	8609.19
450	6659.19
450.221	6009.19
450.442	5615.19
450.662	5594.19
450.883	5668.19
451.104	5778.19
451.324	5639.19
451.545	5423.19
451.766	5309.19
451.986	5179.19
452.207	5158.19
452.428	5167.19
452.648	5232.19
452.869	5232.19
453.089	5319.19
453.31	5383.19
453.53	5275.19
453.751	5103.19
453.971	5181.19
454.192	5269.19
454.412	5106.19
454.633	5013.19
454.853	5034.19
455.073	5090.19
455.294	5542.19
455.514	6034.19
455.734	5494.19
455.955	4944.19
456.175	4815.19
456.395	4838.19
456.616	4777.19
456.836	4767.19
457.056	4748.19
457.276	4693.19
457.497	4853.19
457.717	4887.19
457.937	4970.19
458.157	4998.19
458.377	5119.19
458.598	5364.19
458.818	6161.19
459.038	6830.19
459.258	6759.19
459.478	6130.19
459.698	5962.19
459.918	5996.19
460.138	6160.19
460.358	6450.19
460.578	6471.19
460.798	6513.19
461.018	6577.19
461.238	6481.19
461.458	6380.19
461.678	6354.19
461.898	6496.19
462.118	6560.19
462.338	6988.19
462.558	7075.19
462.777	7369.19
462.997	8023.19
463.217	8343.19
463.437	8187.19
463.657	7600.19
463.876	7251.19
464.096	7455.19
464.316	7487.19
464.536	7403.19
464.755	7163.19
464.975	6955.19
465.195	7185.19
465.414	7176.19
465.634	6321.19
465.854	6072.19
466.073	5780.19
466.293	5632.19
466.512	5486.19
466.732	5379.19
466.951	5384.19
467.171	5254.19
467.391	5508.19
467.61	5574.19
467.829	5472.19
468.049	5299.19
468.268	5217.19
468.488	5064.19
468.707	5059.19
468.927	5121.19
469.146	5062.19
469.365	5224.19
469.585	5197.19
469.804	5397.19
470.023	5649.19
470.243	5589.19
470.462	5632.19
470.681	5727.19
470.901	5644.19
471.12	5418.19
471.339	5383.19
471.558	5387.19
471.777	5310.19
471.997	5164.19
472.216	5230.19
472.435	5246.19
472.654	5093.19
472.873	5049.19
473.092	5069.19
473.311	5083.19
473.53	5098.19
473.749	5300.19
473.968	5809.19
474.187	6803.19
474.406	6407.19
474.625	5390.19
474.844	5204.19
475.063	5123.19
475.282	5059.19
475.501	5265.19
475.72	5243.19
475.939	5307.19
476.158	5287.19
476.377	5278.19
476.596	5261.19
476.814	5533.19
477.033	5536.19
477.252	5558.19
477.471	5706.19
477.69	5864.19
477.908	5922.19
478.127	6083.19
478.346	6110.19
478.564	6244.19
478.783	6351.19
479.002	6551.19
479.22	6459.19
479.439	6563.19
479.658	6771.19
479.876	6777.19
480.095	6991.19
480.313	7380.19
480.532	7202.19
480.751	7058.19
480.969	6952.19
481.188	6924.19
481.406	6749.19
481.624	6466.19
481.843	6258.19
482.061	6157.19
482.28	6070.19
482.498	6037.19
482.717	5964.19
482.935	6030.19
483.153	5954.19
483.372	5958.19
483.59	5955.19
483.808	5986.19
484.027	6082.19
484.245	6083.19
484.463	6101.19
484.681	6157.19
484.9	6155.19
485.118	6230.19
485.336	6321.19
485.554	6365.19
485.772	6448.19
485.99	6411.19
486.209	6476.19
486.427	6463.19
486.645	6534.19
486.863	6656.19
487.081	6549.19
487.299	6499.19
487.517	6527.19
487.735	6429.19
487.953	6412.19
