Data from Uncirc_2004_H10_HRD10591_00008.txt Node
Date: Wed Jan 03 10:32:14 EST 2024
User: Yrep
Spectrometer: HR+D1059
Trigger mode: 1
Integration Time (sec): 1.000000E-1
Scans to average: 1
Electric dark correction enabled: true
Nonlinearity correction enabled: false
Boxcar width: 0
XAxis mode: Wavelengths
Number of Pixels in Spectrum: 2048
>>>>>Begin Spectral Data<<<<<
223.165	-10.75
223.4	-10.75
223.635	-10.75
223.869	-19.75
224.104	-25.75
224.338	-3.75
224.573	-7.75
224.808	-10.75
225.042	-3.75
225.277	-12.75
225.511	4.25
225.746	-8.75
225.98	15.25
226.215	-2.75
226.449	17.25
226.683	18.25
226.918	29.25
227.152	22.25
227.387	50.25
227.621	58.25
227.856	51.25
228.09	70.25
228.324	59.25
228.559	58.25
228.793	67.25
229.027	77.25
229.262	73.25
229.496	69.25
229.73	93.25
229.964	69.25
230.199	87.25
230.433	82.25
230.667	79.25
230.901	87.25
231.136	79.25
231.37	90.25
231.604	89.25
231.838	93.25
232.072	83.25
232.306	91.25
232.541	70.25
232.775	77.25
233.009	78.25
233.243	92.25
233.477	74.25
233.711	97.25
233.945	82.25
234.179	90.25
234.413	83.25
234.647	85.25
234.881	66.25
235.115	101.25
235.349	75.25
235.583	69.25
235.817	85.25
236.051	79.25
236.285	78.25
236.519	90.25
236.753	74.25
236.987	67.25
237.221	76.25
237.455	88.25
237.689	78.25
237.922	81.25
238.156	81.25
238.39	74.25
238.624	78.25
238.858	78.25
239.091	71.25
239.325	79.25
239.559	87.25
239.793	68.25
240.027	87.25
240.26	85.25
240.494	78.25
240.728	92.25
240.961	78.25
241.195	77.25
241.429	90.25
241.662	73.25
241.896	74.25
242.13	72.25
242.363	75.25
242.597	82.25
242.83	78.25
243.064	80.25
243.298	75.25
243.531	90.25
243.765	90.25
243.998	84.25
244.232	89.25
244.465	74.25
244.699	84.25
244.932	82.25
245.166	80.25
245.399	60.25
245.633	69.25
245.866	88.25
246.099	88.25
246.333	87.25
246.566	90.25
246.8	88.25
247.033	87.25
247.266	79.25
247.5	98.25
247.733	89.25
247.966	88.25
248.2	90.25
248.433	81.25
248.666	94.25
248.899	77.25
249.133	93.25
249.366	91.25
249.599	90.25
249.832	100.25
250.066	92.25
250.299	93.25
250.532	88.25
250.765	74.25
250.998	81.25
251.231	91.25
251.465	86.25
251.698	97.25
251.931	89.25
252.164	88.25
252.397	83.25
252.63	68.25
252.863	77.25
253.096	87.25
253.329	85.25
253.562	100.25
253.795	89.25
254.028	93.25
254.261	85.25
254.494	85.25
254.727	79.25
254.96	94.25
255.193	85.25
255.426	88.25
255.659	78.25
255.892	88.25
256.124	85.25
256.357	103.25
256.59	101.25
256.823	99.25
257.056	92.25
257.289	78.25
257.521	73.25
257.754	84.25
257.987	85.25
258.22	86.25
258.452	77.25
258.685	83.25
258.918	102.25
259.151	85.25
259.383	105.25
259.616	98.25
259.849	82.25
260.081	78.25
260.314	89.25
260.547	90.25
260.779	94.25
261.012	88.25
261.244	90.25
261.477	84.25
261.71	94.25
261.942	93.25
262.175	113.25
262.407	93.25
262.64	92.25
262.872	90.25
263.105	93.25
263.337	85.25
263.57	85.25
263.802	97.25
264.035	80.25
264.267	83.25
264.499	89.25
264.732	78.25
264.964	86.25
265.197	78.25
265.429	91.25
265.661	93.25
265.894	100.25
266.126	103.25
266.358	79.25
266.591	95.25
266.823	75.25
267.055	86.25
267.287	95.25
267.52	94.25
267.752	92.25
267.984	79.25
268.216	78.25
268.448	76.25
268.681	101.25
268.913	90.25
269.145	78.25
269.377	94.25
269.609	93.25
269.841	84.25
270.073	100.25
270.306	93.25
270.538	78.25
270.77	95.25
271.002	91.25
271.234	90.25
271.466	91.25
271.698	102.25
271.93	100.25
272.162	93.25
272.394	93.25
272.626	87.25
272.858	77.25
273.09	99.25
273.322	91.25
273.553	92.25
273.785	105.25
274.017	81.25
274.249	89.25
274.481	87.25
274.713	89.25
274.945	95.25
275.176	93.25
275.408	86.25
275.64	100.25
275.872	93.25
276.104	103.25
276.335	96.25
276.567	105.25
276.799	99.25
277.031	98.25
277.262	101.25
277.494	102.25
277.726	97.25
277.957	79.25
278.189	100.25
278.421	99.25
278.652	93.25
278.884	93.25
279.115	93.25
279.347	87.25
279.579	78.25
279.81	79.25
280.042	94.25
280.273	97.25
280.505	78.25
280.736	103.25
280.968	87.25
281.199	108.25
281.431	87.25
281.662	100.25
281.894	92.25
282.125	94.25
282.356	114.25
282.588	135.25
282.819	106.25
283.051	85.25
283.282	93.25
283.513	97.25
283.745	88.25
283.976	95.25
284.207	105.25
284.439	91.25
284.67	95.25
284.901	76.25
285.132	90.25
285.364	86.25
285.595	92.25
285.826	78.25
286.057	78.25
286.288	90.25
286.52	84.25
286.751	100.25
286.982	99.25
287.213	96.25
287.444	86.25
287.675	86.25
287.906	94.25
288.138	97.25
288.369	95.25
288.6	84.25
288.831	89.25
289.062	105.25
289.293	95.25
289.524	101.25
289.755	90.25
289.986	90.25
290.217	85.25
290.448	98.25
290.679	90.25
290.91	93.25
291.141	97.25
291.371	98.25
291.602	93.25
291.833	89.25
292.064	94.25
292.295	88.25
292.526	91.25
292.757	86.25
292.987	91.25
293.218	87.25
293.449	105.25
293.68	89.25
293.91	96.25
294.141	94.25
294.372	78.25
294.603	91.25
294.833	100.25
295.064	76.25
295.295	91.25
295.525	90.25
295.756	101.25
295.987	117.25
296.217	134.25
296.448	133.25
296.679	90.25
296.909	78.25
297.14	87.25
297.37	103.25
297.601	84.25
297.831	102.25
298.062	96.25
298.292	91.25
298.523	99.25
298.753	87.25
298.984	93.25
299.214	83.25
299.445	83.25
299.675	102.25
299.905	96.25
300.136	103.25
300.366	94.25
300.597	90.25
300.827	87.25
301.057	101.25
301.288	108.25
301.518	103.25
301.748	91.25
301.979	116.25
302.209	105.25
302.439	108.25
302.669	82.25
302.9	93.25
303.13	99.25
303.36	103.25
303.59	91.25
303.82	99.25
304.051	110.25
304.281	109.25
304.511	100.25
304.741	91.25
304.971	112.25
305.201	102.25
305.431	95.25
305.661	99.25
305.891	100.25
306.121	101.25
306.352	104.25
306.582	110.25
306.812	103.25
307.042	89.25
307.272	95.25
307.502	90.25
307.731	104.25
307.961	104.25
308.191	86.25
308.421	110.25
308.651	105.25
308.881	96.25
309.111	99.25
309.341	92.25
309.571	101.25
309.8	102.25
310.03	107.25
310.26	92.25
310.49	89.25
310.72	109.25
310.949	100.25
311.179	100.25
311.409	106.25
311.639	109.25
311.868	97.25
312.098	85.25
312.328	93.25
312.557	112.25
312.787	105.25
313.017	102.25
313.246	101.25
313.476	98.25
313.706	90.25
313.935	107.25
314.165	103.25
314.394	94.25
314.624	93.25
314.853	114.25
315.083	95.25
315.312	102.25
315.542	103.25
315.771	90.25
316.001	120.25
316.23	88.25
316.46	104.25
316.689	88.25
316.919	90.25
317.148	97.25
317.377	108.25
317.607	93.25
317.836	76.25
318.065	87.25
318.295	96.25
318.524	89.25
318.753	88.25
318.983	86.25
319.212	91.25
319.441	110.25
319.67	99.25
319.9	95.25
320.129	105.25
320.358	77.25
320.587	105.25
320.816	115.25
321.046	109.25
321.275	114.25
321.504	110.25
321.733	113.25
321.962	100.25
322.191	110.25
322.42	102.25
322.649	116.25
322.878	131.25
323.108	126.25
323.337	148.25
323.566	133.25
323.795	150.25
324.024	210.25
324.253	391.25
324.482	817.25
324.71	1615.25
324.939	2094.25
325.168	763.25
325.397	235.25
325.626	155.25
325.855	118.25
326.084	108.25
326.313	141.25
326.542	157.25
326.77	242.25
326.999	464.25
327.228	908.25
327.457	1702.25
327.686	1315.25
327.914	366.25
328.143	171.25
328.372	131.25
328.6	130.25
328.829	116.25
329.058	110.25
329.287	120.25
329.515	111.25
329.744	122.25
329.972	106.25
330.201	106.25
330.43	111.25
330.658	114.25
330.887	141.25
331.115	111.25
331.344	117.25
331.572	124.25
331.801	101.25
332.03	107.25
332.258	95.25
332.486	94.25
332.715	100.25
332.943	98.25
333.172	94.25
333.4	94.25
333.629	92.25
333.857	117.25
334.085	109.25
334.314	103.25
334.542	106.25
334.771	105.25
334.999	99.25
335.227	101.25
335.455	105.25
335.684	103.25
335.912	109.25
336.14	101.25
336.369	95.25
336.597	97.25
336.825	108.25
337.053	89.25
337.281	92.25
337.51	88.25
337.738	97.25
337.966	87.25
338.194	94.25
338.422	103.25
338.65	95.25
338.878	101.25
339.106	93.25
339.334	91.25
339.562	90.25
339.79	95.25
340.018	90.25
340.246	94.25
340.474	90.25
340.702	95.25
340.93	93.25
341.158	106.25
341.386	98.25
341.614	98.25
341.842	83.25
342.07	94.25
342.298	87.25
342.526	105.25
342.754	94.25
342.981	95.25
343.209	106.25
343.437	109.25
343.665	94.25
343.893	99.25
344.12	101.25
344.348	87.25
344.576	105.25
344.804	87.25
345.031	102.25
345.259	97.25
345.487	99.25
345.714	94.25
345.942	100.25
346.17	92.25
346.397	93.25
346.625	97.25
346.853	99.25
347.08	95.25
347.308	103.25
347.535	94.25
347.763	100.25
347.99	104.25
348.218	104.25
348.445	112.25
348.673	103.25
348.9	103.25
349.128	99.25
349.355	101.25
349.583	90.25
349.81	79.25
350.037	100.25
350.265	107.25
350.492	95.25
350.72	116.25
350.947	114.25
351.174	93.25
351.402	115.25
351.629	104.25
351.856	104.25
352.083	116.25
352.311	114.25
352.538	116.25
352.765	113.25
352.992	102.25
353.22	113.25
353.447	107.25
353.674	106.25
353.901	98.25
354.128	113.25
354.355	94.25
354.583	102.25
354.81	106.25
355.037	111.25
355.264	96.25
355.491	98.25
355.718	92.25
355.945	93.25
356.172	103.25
356.399	102.25
356.626	96.25
356.853	113.25
357.08	106.25
357.307	108.25
357.534	94.25
357.761	94.25
357.988	117.25
358.215	109.25
358.441	102.25
358.668	95.25
358.895	91.25
359.122	102.25
359.349	92.25
359.576	93.25
359.802	108.25
360.029	100.25
360.256	104.25
360.483	107.25
360.709	88.25
360.936	95.25
361.163	80.25
361.39	101.25
361.616	115.25
361.843	106.25
362.07	97.25
362.296	95.25
362.523	99.25
362.749	95.25
362.976	93.25
363.203	88.25
363.429	89.25
363.656	93.25
363.882	78.25
364.109	97.25
364.335	100.25
364.562	103.25
364.788	103.25
365.015	82.25
365.241	94.25
365.468	105.25
365.694	103.25
365.92	94.25
366.147	94.25
366.373	90.25
366.599	93.25
366.826	96.25
367.052	81.25
367.278	78.25
367.505	95.25
367.731	91.25
367.957	100.25
368.184	95.25
368.41	93.25
368.636	114.25
368.862	119.25
369.089	103.25
369.315	103.25
369.541	88.25
369.767	83.25
369.993	99.25
370.219	101.25
370.445	101.25
370.672	108.25
370.898	84.25
371.124	90.25
371.35	91.25
371.576	102.25
371.802	95.25
372.028	85.25
372.254	93.25
372.48	89.25
372.706	94.25
372.932	95.25
373.158	86.25
373.384	92.25
373.61	95.25
373.835	109.25
374.061	84.25
374.287	107.25
374.513	105.25
374.739	93.25
374.965	105.25
375.191	91.25
375.416	105.25
375.642	105.25
375.868	112.25
376.094	90.25
376.319	93.25
376.545	90.25
376.771	92.25
376.997	80.25
377.222	107.25
377.448	95.25
377.674	93.25
377.899	94.25
378.125	86.25
378.35	103.25
378.576	84.25
378.802	105.25
379.027	85.25
379.253	92.25
379.478	101.25
379.704	109.25
379.929	97.25
380.155	109.25
380.38	97.25
380.606	116.25
380.831	111.25
381.057	106.25
381.282	101.25
381.507	103.25
381.733	93.25
381.958	106.25
382.184	108.25
382.409	108.25
382.634	110.25
382.86	115.25
383.085	107.25
383.31	107.25
383.535	122.25
383.761	110.25
383.986	110.25
384.211	101.25
384.436	111.25
384.662	113.25
384.887	121.25
385.112	126.25
385.337	122.25
385.562	122.25
385.787	125.25
386.013	117.25
386.238	129.25
386.463	124.25
386.688	124.25
386.913	127.25
387.138	137.25
387.363	120.25
387.588	112.25
387.813	117.25
388.038	126.25
388.263	142.25
388.488	130.25
388.713	111.25
388.938	114.25
389.163	104.25
389.387	91.25
389.612	103.25
389.837	90.25
390.062	99.25
390.287	111.25
390.512	88.25
390.736	102.25
390.961	114.25
391.186	104.25
391.411	101.25
391.636	99.25
391.86	91.25
392.085	100.25
392.31	97.25
392.534	93.25
392.759	92.25
392.984	92.25
393.208	101.25
393.433	92.25
393.658	109.25
393.882	102.25
394.107	78.25
394.331	85.25
394.556	92.25
394.78	110.25
395.005	99.25
395.229	89.25
395.454	96.25
395.678	95.25
395.903	83.25
396.127	83.25
396.352	84.25
396.576	94.25
396.801	104.25
397.025	99.25
397.249	85.25
397.474	85.25
397.698	90.25
397.922	86.25
398.147	82.25
398.371	95.25
398.595	101.25
398.82	78.25
399.044	91.25
399.268	81.25
399.492	97.25
399.717	106.25
399.941	103.25
400.165	88.25
400.389	86.25
400.613	90.25
400.837	81.25
401.062	91.25
401.286	94.25
401.51	95.25
401.734	91.25
401.958	117.25
402.182	126.25
402.406	145.25
402.63	124.25
402.854	99.25
403.078	91.25
403.302	92.25
403.526	86.25
403.75	88.25
403.974	92.25
404.198	95.25
404.422	90.25
404.645	84.25
404.869	96.25
405.093	91.25
405.317	99.25
405.541	95.25
405.765	94.25
405.988	110.25
406.212	159.25
406.436	188.25
406.66	132.25
406.883	108.25
407.107	95.25
407.331	103.25
407.555	128.25
407.778	94.25
408.002	95.25
408.226	105.25
408.449	85.25
408.673	103.25
408.896	91.25
409.12	94.25
409.344	79.25
409.567	98.25
409.791	108.25
410.014	97.25
410.238	97.25
410.461	91.25
410.685	92.25
410.908	102.25
411.132	116.25
411.355	101.25
411.578	104.25
411.802	89.25
412.025	79.25
412.249	100.25
412.472	86.25
412.695	95.25
412.919	95.25
413.142	88.25
413.365	99.25
413.589	99.25
413.812	97.25
414.035	106.25
414.258	96.25
414.482	86.25
414.705	89.25
414.928	95.25
415.151	95.25
415.374	92.25
415.597	84.25
415.821	99.25
416.044	100.25
416.267	103.25
416.49	100.25
416.713	89.25
416.936	98.25
417.159	93.25
417.382	74.25
417.605	78.25
417.828	102.25
418.051	101.25
418.274	95.25
418.497	98.25
418.72	105.25
418.943	97.25
419.166	94.25
419.389	89.25
419.611	102.25
419.834	107.25
420.057	88.25
420.28	90.25
420.503	82.25
420.726	87.25
420.948	84.25
421.171	97.25
421.394	96.25
421.617	103.25
421.839	86.25
422.062	101.25
422.285	84.25
422.507	98.25
422.73	98.25
422.953	102.25
423.175	101.25
423.398	109.25
423.621	98.25
423.843	104.25
424.066	102.25
424.288	93.25
424.511	104.25
424.733	96.25
424.956	98.25
425.178	92.25
425.401	93.25
425.623	92.25
425.846	87.25
426.068	106.25
426.291	86.25
426.513	82.25
426.735	97.25
426.958	103.25
427.18	105.25
427.402	148.25
427.625	160.25
427.847	116.25
428.069	107.25
428.292	85.25
428.514	79.25
428.736	90.25
428.958	90.25
429.181	93.25
429.403	110.25
429.625	105.25
429.847	94.25
430.069	106.25
430.292	103.25
430.514	85.25
430.736	93.25
430.958	99.25
431.18	80.25
431.402	98.25
431.624	107.25
431.846	77.25
432.068	89.25
432.29	94.25
432.512	85.25
432.734	81.25
432.956	113.25
433.178	87.25
433.4	100.25
433.622	80.25
433.844	85.25
434.066	95.25
434.287	101.25
434.509	106.25
434.731	95.25
434.953	92.25
435.175	83.25
435.397	101.25
435.618	81.25
435.84	93.25
436.062	129.25
436.284	110.25
436.505	99.25
436.727	96.25
436.949	89.25
437.17	101.25
437.392	81.25
437.614	93.25
437.835	94.25
438.057	96.25
438.278	109.25
438.5	108.25
438.721	100.25
438.943	103.25
439.165	89.25
439.386	80.25
439.608	98.25
439.829	91.25
440.05	104.25
440.272	141.25
440.493	115.25
440.715	98.25
440.936	109.25
441.158	91.25
441.379	91.25
441.6	91.25
441.822	90.25
442.043	100.25
442.264	111.25
442.486	105.25
442.707	92.25
442.928	105.25
443.149	118.25
443.371	114.25
443.592	110.25
443.813	97.25
444.034	100.25
444.255	97.25
444.476	95.25
444.698	98.25
444.919	85.25
445.14	136.25
445.361	111.25
445.582	118.25
445.803	116.25
446.024	136.25
446.245	135.25
446.466	104.25
446.687	92.25
446.908	96.25
447.129	95.25
447.35	70.25
447.571	99.25
447.792	90.25
448.013	95.25
448.234	108.25
448.455	101.25
448.675	120.25
448.896	109.25
449.117	113.25
449.338	109.25
449.559	135.25
449.779	136.25
450	118.25
450.221	97.25
450.442	92.25
450.662	87.25
450.883	104.25
451.104	110.25
451.324	99.25
451.545	89.25
451.766	88.25
451.986	87.25
452.207	92.25
452.428	95.25
452.648	85.25
452.869	106.25
453.089	105.25
453.31	103.25
453.53	93.25
453.751	96.25
453.971	113.25
454.192	110.25
454.412	101.25
454.633	87.25
454.853	110.25
455.073	94.25
455.294	104.25
455.514	101.25
455.734	98.25
455.955	87.25
456.175	91.25
456.395	94.25
456.616	85.25
456.836	97.25
457.056	100.25
457.276	83.25
457.497	83.25
457.717	88.25
457.937	84.25
458.157	100.25
458.377	106.25
458.598	110.25
458.818	138.25
459.038	155.25
459.258	111.25
459.478	93.25
459.698	91.25
459.918	84.25
460.138	75.25
460.358	91.25
460.578	99.25
460.798	80.25
461.018	101.25
461.238	74.25
461.458	101.25
461.678	105.25
461.898	89.25
462.118	94.25
462.338	103.25
462.558	90.25
462.777	82.25
462.997	97.25
463.217	93.25
463.437	109.25
463.657	93.25
463.876	86.25
464.096	96.25
464.316	106.25
464.536	98.25
464.755	99.25
464.975	107.25
465.195	160.25
465.414	134.25
465.634	120.25
465.854	92.25
466.073	86.25
466.293	103.25
466.512	103.25
466.732	92.25
466.951	83.25
467.171	100.25
467.391	101.25
467.61	94.25
467.829	98.25
468.049	92.25
468.268	102.25
468.488	99.25
468.707	89.25
468.927	85.25
469.146	104.25
469.365	94.25
469.585	93.25
469.804	98.25
470.023	92.25
470.243	87.25
470.462	108.25
470.681	107.25
470.901	103.25
471.12	87.25
471.339	95.25
471.558	95.25
471.777	91.25
471.997	99.25
472.216	111.25
472.435	117.25
472.654	84.25
472.873	75.25
473.092	87.25
473.311	104.25
473.53	95.25
473.749	99.25
473.968	91.25
474.187	115.25
474.406	101.25
474.625	98.25
474.844	87.25
475.063	91.25
475.282	103.25
475.501	102.25
475.72	90.25
475.939	97.25
476.158	91.25
476.377	92.25
476.596	89.25
476.814	99.25
477.033	96.25
477.252	85.25
477.471	95.25
477.69	85.25
477.908	111.25
478.127	107.25
478.346	97.25
478.564	98.25
478.783	79.25
479.002	91.25
479.22	95.25
479.439	101.25
479.658	77.25
479.876	91.25
480.095	95.25
480.313	112.25
480.532	95.25
480.751	91.25
480.969	88.25
481.188	102.25
481.406	97.25
481.624	95.25
481.843	84.25
482.061	100.25
482.28	98.25
482.498	87.25
482.717	92.25
482.935	91.25
483.153	88.25
483.372	97.25
483.59	84.25
483.808	101.25
484.027	103.25
484.245	101.25
484.463	89.25
484.681	102.25
484.9	94.25
485.118	105.25
485.336	109.25
485.554	109.25
485.772	103.25
485.99	109.25
486.209	103.25
486.427	101.25
486.645	109.25
486.863	115.25
487.081	113.25
487.299	101.25
487.517	97.25
487.735	95.25
487.953	100.25
488.171	99.25
488.389	94.25
488.607	119.25
488.825	120.25
489.043	101.25
489.261	95.25
489.479	86.25
489.696	94.25
489.914	80.25
490.132	86.25
490.35	103.25
490.568	93.25
490.786	93.25
491.003	84.25
491.221	92.25
491.439	93.25
491.657	98.25
491.874	84.25
492.092	99.25
492.31	102.25
492.527	98.25
492.745	93.25
492.963	102.25
493.18	102.25
493.398	90.25
493.615	106.25
493.833	87.25
494.05	101.25
494.268	97.25
494.485	86.25
494.703	101.25
494.92	92.25
495.138	102.25
495.355	90.25
495.573	102.25
495.79	75.25
496.008	108.25
496.225	95.25
496.442	97.25
496.66	91.25
496.877	90.25
497.094	83.25
497.312	90.25
497.529	95.25
497.746	109.25
497.963	102.25
498.181	88.25
498.398	94.25
498.615	105.25
498.832	108.25
499.049	97.25
499.267	113.25
499.484	108.25
499.701	93.25
499.918	90.25
500.135	95.25
500.352	90.25
500.569	94.25
500.786	106.25
501.003	94.25
501.22	94.25
501.437	99.25
501.654	89.25
501.871	110.25
502.088	91.25
502.305	87.25
502.522	100.25
502.739	97.25
502.956	105.25
503.172	115.25
503.389	103.25
503.606	101.25
503.823	96.25
504.04	94.25
504.256	93.25
504.473	99.25
504.69	102.25
504.907	103.25
505.123	89.25
505.34	94.25
505.557	94.25
505.773	91.25
505.99	103.25
506.207	83.25
506.423	85.25
506.64	94.25
506.856	86.25
507.073	100.25
507.289	93.25
507.506	93.25
507.722	118.25
507.939	91.25
508.155	97.25
508.372	94.25
508.588	107.25
508.805	102.25
509.021	100.25
509.238	114.25
509.454	85.25
509.67	93.25
509.887	99.25
510.103	122.25
510.319	198.25
510.536	720.25
510.752	2091.25
510.968	602.25
511.184	170.25
511.401	97.25
511.617	101.25
511.833	100.25
512.049	102.25
512.265	113.25
512.481	106.25
512.698	90.25
512.914	113.25
513.13	101.25
