Data from Uncirc_2004_H10_HRD10591_00036.txt Node
Date: Wed Jan 03 10:32:20 EST 2024
User: Yrep
Spectrometer: HR+D1059
Trigger mode: 1
Integration Time (sec): 1.000000E-1
Scans to average: 1
Electric dark correction enabled: true
Nonlinearity correction enabled: false
Boxcar width: 0
XAxis mode: Wavelengths
Number of Pixels in Spectrum: 2048
>>>>>Begin Spectral Data<<<<<
223.165	-30
223.4	-30
223.635	-30
223.869	-28
224.104	-13
224.338	-28
224.573	-20
224.808	1
225.042	-7
225.277	7
225.511	-13
225.746	8
225.98	11
226.215	17
226.449	8
226.683	18
226.918	25
227.152	44
227.387	34
227.621	48
227.856	35
228.09	48
228.324	62
228.559	59
228.793	71
229.027	59
229.262	74
229.496	81
229.73	90
229.964	79
230.199	78
230.433	78
230.667	75
230.901	70
231.136	60
231.37	79
231.604	80
231.838	87
232.072	89
232.306	86
232.541	85
232.775	88
233.009	84
233.243	75
233.477	91
233.711	96
233.945	80
234.179	81
234.413	89
234.647	84
234.881	83
235.115	91
235.349	79
235.583	79
235.817	87
236.051	82
236.285	88
236.519	88
236.753	72
236.987	72
237.221	82
237.455	85
237.689	87
237.922	80
238.156	78
238.39	85
238.624	74
238.858	89
239.091	82
239.325	84
239.559	81
239.793	95
240.027	70
240.26	83
240.494	89
240.728	75
240.961	78
241.195	81
241.429	83
241.662	60
241.896	66
242.13	86
242.363	73
242.597	79
242.83	72
243.064	79
243.298	76
243.531	75
243.765	79
243.998	82
244.232	75
244.465	92
244.699	77
244.932	92
245.166	73
245.399	85
245.633	82
245.866	84
246.099	75
246.333	78
246.566	92
246.8	90
247.033	80
247.266	79
247.5	75
247.733	75
247.966	74
248.2	100
248.433	81
248.666	84
248.899	79
249.133	83
249.366	107
249.599	93
249.832	102
250.066	90
250.299	89
250.532	66
250.765	88
250.998	94
251.231	94
251.465	78
251.698	73
251.931	77
252.164	94
252.397	86
252.63	86
252.863	86
253.096	82
253.329	88
253.562	92
253.795	81
254.028	89
254.261	79
254.494	83
254.727	88
254.96	79
255.193	82
255.426	70
255.659	81
255.892	94
256.124	74
256.357	89
256.59	82
256.823	97
257.056	86
257.289	90
257.521	99
257.754	68
257.987	79
258.22	79
258.452	83
258.685	99
258.918	81
259.151	83
259.383	100
259.616	92
259.849	88
260.081	89
260.314	73
260.547	78
260.779	76
261.012	80
261.244	91
261.477	84
261.71	84
261.942	104
262.175	125
262.407	107
262.64	90
262.872	92
263.105	95
263.337	84
263.57	82
263.802	67
264.035	95
264.267	79
264.499	86
264.732	88
264.964	92
265.197	76
265.429	87
265.661	98
265.894	92
266.126	85
266.358	92
266.591	80
266.823	84
267.055	88
267.287	87
267.52	91
267.752	89
267.984	102
268.216	82
268.448	91
268.681	82
268.913	89
269.145	92
269.377	92
269.609	83
269.841	84
270.073	91
270.306	97
270.538	97
270.77	99
271.002	89
271.234	66
271.466	88
271.698	83
271.93	93
272.162	87
272.394	85
272.626	80
272.858	77
273.09	97
273.322	77
273.553	79
273.785	78
274.017	92
274.249	86
274.481	94
274.713	108
274.945	101
275.176	81
275.408	81
275.64	76
275.872	101
276.104	99
276.335	87
276.567	101
276.799	101
277.031	110
277.262	89
277.494	91
277.726	94
277.957	101
278.189	98
278.421	84
278.652	94
278.884	79
279.115	92
279.347	91
279.579	97
279.81	92
280.042	87
280.273	103
280.505	84
280.736	92
280.968	92
281.199	100
281.431	89
281.662	91
281.894	90
282.125	90
282.356	118
282.588	151
282.819	120
283.051	83
283.282	87
283.513	84
283.745	93
283.976	102
284.207	100
284.439	81
284.67	77
284.901	89
285.132	87
285.364	92
285.595	93
285.826	85
286.057	91
286.288	84
286.52	86
286.751	84
286.982	95
287.213	99
287.444	95
287.675	82
287.906	86
288.138	95
288.369	102
288.6	85
288.831	100
289.062	92
289.293	83
289.524	79
289.755	92
289.986	91
290.217	92
290.448	100
290.679	102
290.91	97
291.141	98
291.371	89
291.602	82
291.833	92
292.064	94
292.295	96
292.526	97
292.757	88
292.987	76
293.218	99
293.449	82
293.68	100
293.91	80
294.141	79
294.372	94
294.603	88
294.833	92
295.064	87
295.295	104
295.525	92
295.756	102
295.987	114
296.217	145
296.448	125
296.679	94
296.909	94
297.14	85
297.37	88
297.601	84
297.831	91
298.062	107
298.292	85
298.523	101
298.753	82
298.984	76
299.214	92
299.445	97
299.675	87
299.905	93
300.136	92
300.366	84
300.597	82
300.827	91
301.057	108
301.288	106
301.518	105
301.748	82
301.979	96
302.209	76
302.439	95
302.669	96
302.9	85
303.13	103
303.36	103
303.59	104
303.82	106
304.051	105
304.281	99
304.511	112
304.741	91
304.971	85
305.201	91
305.431	88
305.661	105
305.891	95
306.121	95
306.352	104
306.582	105
306.812	103
307.042	87
307.272	97
307.502	99
307.731	91
307.961	99
308.191	103
308.421	99
308.651	90
308.881	99
309.111	100
309.341	96
309.571	89
309.8	101
310.03	94
310.26	98
310.49	93
310.72	101
310.949	109
311.179	104
311.409	90
311.639	126
311.868	81
312.098	87
312.328	98
312.557	115
312.787	96
313.017	113
313.246	103
313.476	86
313.706	95
313.935	96
314.165	96
314.394	109
314.624	89
314.853	96
315.083	105
315.312	93
315.542	84
315.771	99
316.001	85
316.23	90
316.46	94
316.689	89
316.919	101
317.148	91
317.377	100
317.607	105
317.836	87
318.065	86
318.295	106
318.524	94
318.753	86
318.983	97
319.212	109
319.441	113
319.67	92
319.9	95
320.129	99
320.358	107
320.587	104
320.816	111
321.046	101
321.275	104
321.504	93
321.733	89
321.962	96
322.191	105
322.42	111
322.649	116
322.878	111
323.108	111
323.337	121
323.566	114
323.795	152
324.024	231
324.253	411
324.482	872
324.71	1752
324.939	2248
325.168	850
325.397	242
325.626	156
325.855	131
326.084	143
326.313	136
326.542	147
326.77	233
326.999	475
327.228	979
327.457	1771
327.686	1393
327.914	369
328.143	190
328.372	146
328.6	121
328.829	125
329.058	115
329.287	116
329.515	103
329.744	114
329.972	99
330.201	111
330.43	120
330.658	110
330.887	122
331.115	105
331.344	110
331.572	110
331.801	118
332.03	90
332.258	109
332.486	88
332.715	94
332.943	95
333.172	91
333.4	88
333.629	115
333.857	112
334.085	111
334.314	97
334.542	106
334.771	112
334.999	106
335.227	102
335.455	110
335.684	110
335.912	112
336.14	97
336.369	101
336.597	94
336.825	99
337.053	96
337.281	92
337.51	91
337.738	101
337.966	98
338.194	88
338.422	87
338.65	87
338.878	95
339.106	87
339.334	86
339.562	93
339.79	90
340.018	78
340.246	94
340.474	84
340.702	88
340.93	91
341.158	99
341.386	103
341.614	111
341.842	92
342.07	96
342.298	102
342.526	101
342.754	87
342.981	91
343.209	93
343.437	106
343.665	95
343.893	92
344.12	90
344.348	90
344.576	106
344.804	105
345.031	111
345.259	102
345.487	99
345.714	97
345.942	96
346.17	87
346.397	84
346.625	102
346.853	105
347.08	90
347.308	97
347.535	95
347.763	96
347.99	95
348.218	116
348.445	105
348.673	93
348.9	97
349.128	100
349.355	116
349.583	110
349.81	93
350.037	104
350.265	98
350.492	77
350.72	105
350.947	106
351.174	117
351.402	107
351.629	114
351.856	116
352.083	96
352.311	113
352.538	103
352.765	108
352.992	99
353.22	110
353.447	94
353.674	116
353.901	103
354.128	104
354.355	98
354.583	88
354.81	94
355.037	83
355.264	103
355.491	88
355.718	90
355.945	89
356.172	102
356.399	99
356.626	95
356.853	95
357.08	95
357.307	99
357.534	80
357.761	91
357.988	97
358.215	114
358.441	99
358.668	97
358.895	103
359.122	95
359.349	92
359.576	95
359.802	82
360.029	115
360.256	116
360.483	105
360.709	87
360.936	99
361.163	99
361.39	93
361.616	97
361.843	100
362.07	84
362.296	84
362.523	90
362.749	88
362.976	96
363.203	87
363.429	90
363.656	91
363.882	97
364.109	72
364.335	93
364.562	85
364.788	91
365.015	92
365.241	92
365.468	100
365.694	92
365.92	84
366.147	72
366.373	82
366.599	82
366.826	86
367.052	95
367.278	88
367.505	99
367.731	92
367.957	97
368.184	96
368.41	97
368.636	109
368.862	120
369.089	104
369.315	87
369.541	100
369.767	93
369.993	91
370.219	89
370.445	103
370.672	99
370.898	82
371.124	97
371.35	95
371.576	85
371.802	91
372.028	83
372.254	87
372.48	98
372.706	90
372.932	94
373.158	86
373.384	96
373.61	109
373.835	92
374.061	87
374.287	105
374.513	86
374.739	78
374.965	85
375.191	93
375.416	95
375.642	96
375.868	105
376.094	73
376.319	82
376.545	75
376.771	86
376.997	94
377.222	89
377.448	83
377.674	101
377.899	95
378.125	87
378.35	94
378.576	99
378.802	102
379.027	82
379.253	98
379.478	91
379.704	109
379.929	79
380.155	84
380.38	84
380.606	91
380.831	97
381.057	99
381.282	95
381.507	91
381.733	98
381.958	97
382.184	103
382.409	85
382.634	96
382.86	85
383.085	92
383.31	105
383.535	97
383.761	101
383.986	92
384.211	104
384.436	99
384.662	102
384.887	105
385.112	110
385.337	117
385.562	106
385.787	98
386.013	110
386.238	120
386.463	112
386.688	117
386.913	116
387.138	108
387.363	104
387.588	110
387.813	113
388.038	109
388.263	102
388.488	101
388.713	82
388.938	93
389.163	92
389.387	91
389.612	97
389.837	76
390.062	88
390.287	97
390.512	83
390.736	102
390.961	102
391.186	87
391.411	103
391.636	100
391.86	86
392.085	80
392.31	106
392.534	74
392.759	104
392.984	89
393.208	85
393.433	94
393.658	90
393.882	96
394.107	102
394.331	76
394.556	71
394.78	92
395.005	102
395.229	97
395.454	87
395.678	92
395.903	78
396.127	93
396.352	86
396.576	97
396.801	98
397.025	100
397.249	83
397.474	95
397.698	103
397.922	98
398.147	74
398.371	88
398.595	99
398.82	82
399.044	90
399.268	86
399.492	78
399.717	95
399.941	84
400.165	99
400.389	98
400.613	93
400.837	86
401.062	96
401.286	88
401.51	94
401.734	95
401.958	111
402.182	117
402.406	147
402.63	109
402.854	105
403.078	91
403.302	86
403.526	82
403.75	91
403.974	89
404.198	85
404.422	103
404.645	96
404.869	84
405.093	83
405.317	94
405.541	100
405.765	103
405.988	103
406.212	173
406.436	228
406.66	158
406.883	98
407.107	103
407.331	103
407.555	105
407.778	97
408.002	91
408.226	87
408.449	89
408.673	91
408.896	98
409.12	105
409.344	83
409.567	83
409.791	99
410.014	91
410.238	102
410.461	92
410.685	92
410.908	95
411.132	104
411.355	90
411.578	99
411.802	82
412.025	79
412.249	80
412.472	92
412.695	90
412.919	94
413.142	77
413.365	96
413.589	76
413.812	89
414.035	102
414.258	86
414.482	96
414.705	84
414.928	97
415.151	80
415.374	95
415.597	112
415.821	97
416.044	90
416.267	88
416.49	94
416.713	92
416.936	94
417.159	93
417.382	98
417.605	99
417.828	99
418.051	105
418.274	107
418.497	76
418.72	89
418.943	87
419.166	101
419.389	83
419.611	96
419.834	95
420.057	92
420.28	100
420.503	94
420.726	88
420.948	86
421.171	91
421.394	101
421.617	93
421.839	82
422.062	94
422.285	88
422.507	99
422.73	94
422.953	105
423.175	102
423.398	89
423.621	88
423.843	91
424.066	85
424.288	69
424.511	92
424.733	105
424.956	112
425.178	100
425.401	110
425.623	104
425.846	83
426.068	95
426.291	94
426.513	83
426.735	78
426.958	90
427.18	109
427.402	145
427.625	165
427.847	133
428.069	110
428.292	96
428.514	92
428.736	78
428.958	86
429.181	90
429.403	84
429.625	84
429.847	93
430.069	89
430.292	86
430.514	90
430.736	89
430.958	84
431.18	95
431.402	95
431.624	87
431.846	89
432.068	83
432.29	92
432.512	73
432.734	87
432.956	95
433.178	87
433.4	87
433.622	92
433.844	90
434.066	87
434.287	91
434.509	93
434.731	100
434.953	98
435.175	83
435.397	87
435.618	107
435.84	107
436.062	114
436.284	99
436.505	97
436.727	98
436.949	91
437.17	99
437.392	89
437.614	97
437.835	114
438.057	123
438.278	111
438.5	100
438.721	126
438.943	107
439.165	89
439.386	86
439.608	100
439.829	105
440.05	115
440.272	127
440.493	111
440.715	90
440.936	98
441.158	89
441.379	91
441.6	94
441.822	91
442.043	97
442.264	107
442.486	107
442.707	108
442.928	117
443.149	128
443.371	138
443.592	112
443.813	100
444.034	98
444.255	82
444.476	99
444.698	99
444.919	84
445.14	134
445.361	117
445.582	97
445.803	123
446.024	128
446.245	126
446.466	99
446.687	102
446.908	104
447.129	82
447.35	96
447.571	91
447.792	84
448.013	102
448.234	110
448.455	83
448.675	102
448.896	104
449.117	92
449.338	100
449.559	148
449.779	109
450	87
450.221	94
450.442	98
450.662	87
450.883	100
451.104	109
451.324	100
451.545	118
451.766	88
451.986	94
452.207	91
452.428	103
452.648	93
452.869	117
453.089	119
453.31	121
453.53	105
453.751	87
453.971	104
454.192	115
454.412	96
454.633	92
454.853	84
455.073	90
455.294	82
455.514	103
455.734	90
455.955	88
456.175	88
456.395	90
456.616	82
456.836	88
457.056	90
457.276	81
457.497	91
457.717	94
457.937	96
458.157	80
458.377	100
458.598	99
458.818	152
459.038	169
459.258	112
459.478	88
459.698	91
459.918	96
460.138	87
460.358	82
460.578	85
460.798	94
461.018	75
461.238	85
461.458	87
461.678	70
461.898	85
462.118	97
462.338	93
462.558	99
462.777	81
462.997	100
463.217	85
463.437	101
463.657	94
463.876	96
464.096	98
464.316	99
464.536	97
464.755	98
464.975	105
465.195	164
465.414	153
465.634	88
465.854	92
466.073	85
466.293	91
466.512	97
466.732	88
466.951	93
467.171	90
467.391	74
467.61	98
467.829	91
468.049	106
468.268	91
468.488	88
468.707	76
468.927	82
469.146	101
469.365	96
469.585	82
469.804	91
470.023	97
470.243	95
470.462	100
470.681	108
470.901	104
471.12	90
471.339	84
471.558	75
471.777	98
471.997	98
472.216	90
472.435	100
472.654	90
472.873	98
473.092	81
473.311	97
473.53	99
473.749	85
473.968	94
474.187	104
474.406	101
474.625	91
474.844	96
475.063	84
475.282	92
475.501	97
475.72	73
475.939	79
476.158	87
476.377	96
476.596	96
476.814	89
477.033	108
477.252	78
477.471	94
477.69	95
477.908	84
478.127	92
478.346	90
478.564	79
478.783	92
479.002	98
479.22	83
479.439	89
479.658	100
479.876	100
480.095	91
480.313	92
480.532	94
480.751	95
480.969	83
481.188	138
481.406	96
481.624	94
481.843	99
482.061	80
482.28	93
482.498	86
482.717	85
482.935	102
483.153	93
483.372	90
483.59	86
483.808	93
484.027	98
484.245	85
484.463	98
484.681	92
484.9	89
485.118	102
485.336	94
485.554	106
485.772	105
485.99	113
486.209	102
486.427	120
486.645	104
486.863	107
487.081	98
487.299	99
487.517	93
487.735	92
487.953	91
488.171	100
488.389	90
488.607	96
488.825	95
489.043	92
489.261	98
489.479	86
489.696	100
489.914	95
490.132	88
490.35	86
490.568	84
490.786	92
491.003	94
491.221	104
491.439	100
491.657	104
491.874	101
492.092	88
492.31	99
492.527	90
492.745	74
492.963	85
493.18	104
493.398	97
493.615	91
493.833	98
494.05	105
494.268	94
494.485	98
494.703	105
494.92	104
495.138	107
495.355	98
495.573	97
495.79	91
496.008	93
496.225	96
496.442	90
496.66	86
496.877	101
497.094	82
497.312	94
497.529	92
497.746	83
497.963	93
498.181	82
498.398	91
498.615	107
498.832	112
499.049	91
499.267	103
499.484	82
499.701	89
499.918	109
500.135	86
500.352	94
500.569	76
500.786	95
501.003	93
501.22	96
501.437	94
501.654	95
501.871	110
502.088	90
502.305	92
502.522	88
502.739	95
502.956	80
503.172	92
503.389	91
503.606	98
503.823	112
504.04	104
504.256	101
504.473	92
504.69	99
504.907	82
505.123	98
505.34	103
505.557	102
505.773	96
505.99	99
506.207	89
506.423	96
506.64	82
506.856	86
507.073	91
507.289	99
507.506	89
507.722	111
507.939	112
508.155	98
508.372	97
508.588	103
508.805	105
509.021	84
509.238	111
509.454	102
509.67	100
509.887	116
510.103	122
510.319	236
510.536	797
510.752	2556
510.968	716
511.184	170
511.401	105
511.617	101
511.833	100
512.049	89
512.265	92
512.481	93
512.698	97
512.914	100
513.13	98
513.346	92
513.562	100
513.778	105
513.994	101
514.21	90
514.426	129
514.642	139
514.858	127
515.074	174
515.29	470
515.506	1604
515.721	585
515.937	158
516.153	111
516.369	96
516.585	97
516.801	101
517.016	109
517.232	80
517.448	104
517.664	103
517.879	104
518.095	92
518.311	104
518.527	94
518.742	103
518.958	101
519.173	95
519.389	100
519.605	97
519.82	95
520.036	113
520.251	122
520.467	113
520.682	107
520.898	108
521.113	115
521.329	156
521.544	208
521.76	608
521.975	2640
522.19	1584
522.406	339
522.621	142
522.836	94
523.052	110
523.267	99
523.482	106
523.698	98
523.913	104
524.128	102
524.343	91
524.559	89
524.774	84
524.989	96
525.204	98
525.419	84
525.634	95
525.849	90
526.064	77
526.28	98
526.495	97
526.71	96
526.925	101
527.14	98
527.355	92
527.57	114
527.785	96
527.999	91
528.214	91
528.429	100
528.644	85
528.859	103
529.074	105
529.289	117
529.503	188
529.718	117
529.933	88
530.148	100
530.363	96
530.577	85
530.792	100
531.007	87
531.221	116
531.436	93
531.651	81
531.865	75
532.08	81
532.295	93
532.509	95
532.724	91
532.938	91
533.153	99
533.367	108
533.582	96
533.796	102
534.011	98
534.225	93
534.44	93
534.654	99
534.868	97
535.083	91
535.297	98
535.511	108
535.726	111
535.94	110
536.154	91
536.369	91
536.583	89
536.797	94
537.011	92
537.225	99
537.44	90
537.654	78
537.868	90
538.082	90
538.296	92
538.51	80
538.724	88
538.938	93
539.153	78
539.367	124
539.581	94
539.795	99
540.009	104
540.222	93
540.436	97
540.65	85
540.864	88
541.078	99
541.292	92
541.506	92
541.72	71
541.934	91
542.147	88
542.361	87
542.575	91
542.789	91
543.002	98
543.216	98
543.43	98
543.644	103
543.857	100
544.071	106
544.285	90
544.498	98
544.712	97
544.925	98
545.139	75
545.352	92
545.566	88
545.779	98
545.993	78
546.206	95
546.42	97
546.633	98
546.847	86
547.06	89
547.274	91
547.487	92
547.7	95
547.914	91
548.127	88
548.34	82
548.554	80
548.767	84
548.98	86
549.193	96
549.407	87
549.62	84
549.833	92
550.046	94
550.259	95
550.473	97
550.686	84
550.899	69
551.112	90
551.325	87
551.538	82
551.751	103
551.964	101
552.177	91
552.39	83
552.603	103
552.816	91
553.029	94
553.242	92
553.455	94
553.667	110
553.88	97
554.093	93
554.306	98
554.519	87
554.732	92
554.944	97
555.157	98
555.37	99
555.583	89
555.795	99
556.008	92
556.221	92
556.433	104
556.646	103
556.859	103
557.071	96
557.284	91
557.496	85
557.709	87
557.921	99
558.134	114
558.346	93
558.559	92
558.771	92
558.984	87
559.196	84
559.409	97
559.621	110
559.833	77
560.046	76
560.258	84
560.47	96
560.683	89
560.895	98
561.107	85
561.32	108
561.532	89
561.744	79
561.956	92
562.168	85
562.381	93
562.593	103
562.805	100
563.017	87
563.229	96
563.441	88
563.653	89
563.865	85
564.077	99
564.289	90
564.501	81
564.713	91
564.925	90
565.137	115
565.349	96
565.561	80
565.773	77
565.985	104
566.197	79
566.408	87
566.62	87
566.832	93
567.044	100
567.255	100
567.467	95
567.679	91
567.891	95
568.102	89
568.314	92
568.526	84
568.737	99
568.949	96
569.161	96
569.372	92
569.584	82
569.795	102
570.007	123
570.218	274
570.43	130
570.641	92
570.853	98
571.064	97
571.276	90
571.487	90
571.698	88
571.91	87
572.121	85
572.333	95
572.544	87
572.755	87
572.966	86
573.178	89
573.389	94
573.6	92
573.811	96
574.023	83
574.234	91
574.445	82
574.656	90
574.867	87
575.078	89
575.289	98
575.501	102
575.712	84
575.923	84
576.134	79
576.345	109
576.556	92
576.767	97
576.978	94
577.188	92
577.399	92
577.61	98
577.821	110
578.032	127
578.243	294
578.454	870
578.665	231
578.875	104
579.086	99
579.297	117
579.508	90
579.718	90
579.929	101
580.14	78
580.35	95
580.561	95
580.772	104
580.982	101
581.193	83
581.403	97
581.614	77
581.825	93
582.035	88
582.246	101
582.456	98
582.667	87
582.877	78
