Data from Uncirc_2004_H10_HRD10591_00006.txt Node
Date: Wed Jan 03 10:32:14 EST 2024
User: Yrep
Spectrometer: HR+D1059
Trigger mode: 1
Integration Time (sec): 1.000000E-1
Scans to average: 1
Electric dark correction enabled: true
Nonlinearity correction enabled: false
Boxcar width: 0
XAxis mode: Wavelengths
Number of Pixels in Spectrum: 2048
>>>>>Begin Spectral Data<<<<<
223.165	-8.06
223.4	-8.06
223.635	-8.06
223.869	-20.06
224.104	-2.06
224.338	-21.06
224.573	-24.06
224.808	-22.06
225.042	1.94
225.277	-14.06
225.511	-0.06
225.746	10.94
225.98	16.94
226.215	-0.06
226.449	11.94
226.683	10.94
226.918	26.94
227.152	31.94
227.387	21.94
227.621	43.94
227.856	30.94
228.09	32.94
228.324	49.94
228.559	52.94
228.793	52.94
229.027	63.94
229.262	52.94
229.496	62.94
229.73	65.94
229.964	83.94
230.199	73.94
230.433	58.94
230.667	73.94
230.901	77.94
231.136	72.94
231.37	73.94
231.604	72.94
231.838	72.94
232.072	59.94
232.306	59.94
232.541	58.94
232.775	75.94
233.009	84.94
233.243	81.94
233.477	73.94
233.711	67.94
233.945	74.94
234.179	81.94
234.413	84.94
234.647	79.94
234.881	69.94
235.115	75.94
235.349	68.94
235.583	77.94
235.817	73.94
236.051	60.94
236.285	65.94
236.519	66.94
236.753	79.94
236.987	82.94
237.221	84.94
237.455	83.94
237.689	75.94
237.922	72.94
238.156	67.94
238.39	78.94
238.624	74.94
238.858	65.94
239.091	74.94
239.325	76.94
239.559	73.94
239.793	55.94
240.027	74.94
240.26	70.94
240.494	75.94
240.728	68.94
240.961	74.94
241.195	78.94
241.429	80.94
241.662	74.94
241.896	64.94
242.13	63.94
242.363	85.94
242.597	75.94
242.83	67.94
243.064	77.94
243.298	66.94
243.531	79.94
243.765	67.94
243.998	72.94
244.232	70.94
244.465	75.94
244.699	75.94
244.932	76.94
245.166	63.94
245.399	70.94
245.633	84.94
245.866	68.94
246.099	65.94
246.333	84.94
246.566	78.94
246.8	63.94
247.033	74.94
247.266	80.94
247.5	74.94
247.733	78.94
247.966	68.94
248.2	66.94
248.433	64.94
248.666	72.94
248.899	86.94
249.133	81.94
249.366	91.94
249.599	99.94
249.832	85.94
250.066	71.94
250.299	78.94
250.532	85.94
250.765	76.94
250.998	71.94
251.231	78.94
251.465	67.94
251.698	71.94
251.931	97.94
252.164	66.94
252.397	78.94
252.63	63.94
252.863	67.94
253.096	77.94
253.329	78.94
253.562	76.94
253.795	71.94
254.028	76.94
254.261	79.94
254.494	83.94
254.727	75.94
254.96	73.94
255.193	88.94
255.426	88.94
255.659	74.94
255.892	82.94
256.124	73.94
256.357	77.94
256.59	69.94
256.823	79.94
257.056	57.94
257.289	75.94
257.521	83.94
257.754	67.94
257.987	82.94
258.22	65.94
258.452	73.94
258.685	73.94
258.918	73.94
259.151	79.94
259.383	68.94
259.616	80.94
259.849	91.94
260.081	74.94
260.314	82.94
260.547	83.94
260.779	79.94
261.012	92.94
261.244	77.94
261.477	88.94
261.71	72.94
261.942	95.94
262.175	108.94
262.407	96.94
262.64	73.94
262.872	66.94
263.105	67.94
263.337	75.94
263.57	77.94
263.802	77.94
264.035	81.94
264.267	78.94
264.499	89.94
264.732	79.94
264.964	87.94
265.197	90.94
265.429	69.94
265.661	69.94
265.894	86.94
266.126	88.94
266.358	76.94
266.591	81.94
266.823	86.94
267.055	66.94
267.287	78.94
267.52	82.94
267.752	80.94
267.984	85.94
268.216	66.94
268.448	74.94
268.681	80.94
268.913	83.94
269.145	89.94
269.377	91.94
269.609	82.94
269.841	90.94
270.073	82.94
270.306	69.94
270.538	84.94
270.77	75.94
271.002	84.94
271.234	84.94
271.466	86.94
271.698	84.94
271.93	90.94
272.162	92.94
272.394	90.94
272.626	76.94
272.858	85.94
273.09	99.94
273.322	67.94
273.553	82.94
273.785	92.94
274.017	95.94
274.249	94.94
274.481	79.94
274.713	88.94
274.945	84.94
275.176	81.94
275.408	75.94
275.64	84.94
275.872	82.94
276.104	95.94
276.335	81.94
276.567	85.94
276.799	95.94
277.031	89.94
277.262	86.94
277.494	83.94
277.726	96.94
277.957	85.94
278.189	75.94
278.421	73.94
278.652	82.94
278.884	91.94
279.115	83.94
279.347	85.94
279.579	83.94
279.81	80.94
280.042	79.94
280.273	69.94
280.505	75.94
280.736	75.94
280.968	78.94
281.199	83.94
281.431	74.94
281.662	76.94
281.894	95.94
282.125	92.94
282.356	112.94
282.588	122.94
282.819	101.94
283.051	91.94
283.282	81.94
283.513	100.94
283.745	96.94
283.976	79.94
284.207	73.94
284.439	91.94
284.67	89.94
284.901	85.94
285.132	81.94
285.364	90.94
285.595	82.94
285.826	70.94
286.057	77.94
286.288	76.94
286.52	82.94
286.751	77.94
286.982	81.94
287.213	73.94
287.444	74.94
287.675	80.94
287.906	91.94
288.138	93.94
288.369	90.94
288.6	82.94
288.831	77.94
289.062	90.94
289.293	64.94
289.524	80.94
289.755	80.94
289.986	86.94
290.217	92.94
290.448	81.94
290.679	82.94
290.91	81.94
291.141	91.94
291.371	87.94
291.602	92.94
291.833	77.94
292.064	75.94
292.295	84.94
292.526	59.94
292.757	69.94
292.987	90.94
293.218	81.94
293.449	87.94
293.68	79.94
293.91	84.94
294.141	89.94
294.372	89.94
294.603	80.94
294.833	76.94
295.064	73.94
295.295	82.94
295.525	77.94
295.756	94.94
295.987	90.94
296.217	111.94
296.448	112.94
296.679	79.94
296.909	74.94
297.14	81.94
297.37	88.94
297.601	83.94
297.831	80.94
298.062	86.94
298.292	77.94
298.523	91.94
298.753	86.94
298.984	88.94
299.214	77.94
299.445	81.94
299.675	84.94
299.905	94.94
300.136	99.94
300.366	88.94
300.597	89.94
300.827	87.94
301.057	69.94
301.288	94.94
301.518	83.94
301.748	75.94
301.979	84.94
302.209	75.94
302.439	75.94
302.669	80.94
302.9	81.94
303.13	84.94
303.36	93.94
303.59	105.94
303.82	100.94
304.051	83.94
304.281	98.94
304.511	81.94
304.741	74.94
304.971	83.94
305.201	91.94
305.431	101.94
305.661	91.94
305.891	84.94
306.121	104.94
306.352	89.94
306.582	97.94
306.812	89.94
307.042	75.94
307.272	90.94
307.502	88.94
307.731	84.94
307.961	79.94
308.191	83.94
308.421	79.94
308.651	79.94
308.881	79.94
309.111	77.94
309.341	96.94
309.571	90.94
309.8	109.94
310.03	83.94
310.26	83.94
310.49	97.94
310.72	97.94
310.949	95.94
311.179	90.94
311.409	81.94
311.639	69.94
311.868	92.94
312.098	94.94
312.328	75.94
312.557	103.94
312.787	81.94
313.017	81.94
313.246	93.94
313.476	67.94
313.706	83.94
313.935	85.94
314.165	96.94
314.394	81.94
314.624	84.94
314.853	79.94
315.083	95.94
315.312	77.94
315.542	96.94
315.771	80.94
316.001	88.94
316.23	95.94
316.46	76.94
316.689	100.94
316.919	83.94
317.148	92.94
317.377	97.94
317.607	85.94
317.836	94.94
318.065	85.94
318.295	95.94
318.524	96.94
318.753	84.94
318.983	84.94
319.212	105.94
319.441	96.94
319.67	97.94
319.9	82.94
320.129	75.94
320.358	73.94
320.587	99.94
320.816	101.94
321.046	89.94
321.275	85.94
321.504	78.94
321.733	95.94
321.962	104.94
322.191	88.94
322.42	90.94
322.649	91.94
322.878	110.94
323.108	116.94
323.337	107.94
323.566	123.94
323.795	140.94
324.024	177.94
324.253	372.94
324.482	765.94
324.71	1527.94
324.939	1998.94
325.168	735.94
325.397	217.94
325.626	141.94
325.855	114.94
326.084	111.94
326.313	110.94
326.542	147.94
326.77	214.94
326.999	411.94
327.228	851.94
327.457	1556.94
327.686	1213.94
327.914	323.94
328.143	165.94
328.372	133.94
328.6	114.94
328.829	123.94
329.058	108.94
329.287	103.94
329.515	99.94
329.744	94.94
329.972	92.94
330.201	98.94
330.43	106.94
330.658	106.94
330.887	124.94
331.115	100.94
331.344	91.94
331.572	78.94
331.801	108.94
332.03	93.94
332.258	93.94
332.486	65.94
332.715	81.94
332.943	87.94
333.172	74.94
333.4	91.94
333.629	93.94
333.857	87.94
334.085	103.94
334.314	92.94
334.542	84.94
334.771	93.94
334.999	96.94
335.227	94.94
335.455	70.94
335.684	105.94
335.912	87.94
336.14	100.94
336.369	94.94
336.597	82.94
336.825	81.94
337.053	103.94
337.281	100.94
337.51	92.94
337.738	93.94
337.966	91.94
338.194	78.94
338.422	94.94
338.65	93.94
338.878	92.94
339.106	91.94
339.334	85.94
339.562	86.94
339.79	85.94
340.018	91.94
340.246	80.94
340.474	71.94
340.702	88.94
340.93	73.94
341.158	83.94
341.386	79.94
341.614	93.94
341.842	99.94
342.07	83.94
342.298	91.94
342.526	89.94
342.754	88.94
342.981	85.94
343.209	91.94
343.437	92.94
343.665	66.94
343.893	76.94
344.12	92.94
344.348	92.94
344.576	81.94
344.804	91.94
345.031	85.94
345.259	99.94
345.487	88.94
345.714	85.94
345.942	87.94
346.17	92.94
346.397	83.94
346.625	97.94
346.853	96.94
347.08	100.94
347.308	108.94
347.535	82.94
347.763	80.94
347.99	85.94
348.218	85.94
348.445	93.94
348.673	83.94
348.9	93.94
349.128	109.94
349.355	87.94
349.583	97.94
349.81	87.94
350.037	83.94
350.265	90.94
350.492	88.94
350.72	88.94
350.947	81.94
351.174	108.94
351.402	87.94
351.629	96.94
351.856	105.94
352.083	84.94
352.311	97.94
352.538	96.94
352.765	94.94
352.992	91.94
353.22	103.94
353.447	96.94
353.674	91.94
353.901	96.94
354.128	104.94
354.355	102.94
354.583	92.94
354.81	87.94
355.037	87.94
355.264	98.94
355.491	103.94
355.718	82.94
355.945	83.94
356.172	89.94
356.399	88.94
356.626	83.94
356.853	100.94
357.08	85.94
357.307	85.94
357.534	92.94
357.761	84.94
357.988	99.94
358.215	84.94
358.441	97.94
358.668	88.94
358.895	90.94
359.122	85.94
359.349	99.94
359.576	95.94
359.802	83.94
360.029	108.94
360.256	101.94
360.483	104.94
360.709	96.94
360.936	83.94
361.163	84.94
361.39	99.94
361.616	79.94
361.843	75.94
362.07	92.94
362.296	84.94
362.523	68.94
362.749	101.94
362.976	81.94
363.203	93.94
363.429	80.94
363.656	83.94
363.882	74.94
364.109	85.94
364.335	94.94
364.562	91.94
364.788	84.94
365.015	103.94
365.241	104.94
365.468	98.94
365.694	97.94
365.92	89.94
366.147	79.94
366.373	76.94
366.599	96.94
366.826	89.94
367.052	80.94
367.278	86.94
367.505	71.94
367.731	101.94
367.957	79.94
368.184	83.94
368.41	85.94
368.636	104.94
368.862	94.94
369.089	101.94
369.315	101.94
369.541	72.94
369.767	77.94
369.993	71.94
370.219	79.94
370.445	75.94
370.672	91.94
370.898	83.94
371.124	92.94
371.35	84.94
371.576	79.94
371.802	91.94
372.028	69.94
372.254	80.94
372.48	81.94
372.706	83.94
372.932	82.94
373.158	94.94
373.384	92.94
373.61	68.94
373.835	93.94
374.061	81.94
374.287	83.94
374.513	88.94
374.739	88.94
374.965	76.94
375.191	86.94
375.416	97.94
375.642	84.94
375.868	94.94
376.094	90.94
376.319	80.94
376.545	101.94
376.771	94.94
376.997	85.94
377.222	84.94
377.448	97.94
377.674	85.94
377.899	76.94
378.125	90.94
378.35	84.94
378.576	93.94
378.802	97.94
379.027	93.94
379.253	99.94
379.478	89.94
379.704	95.94
379.929	85.94
380.155	89.94
380.38	100.94
380.606	100.94
380.831	107.94
381.057	91.94
381.282	85.94
381.507	102.94
381.733	98.94
381.958	107.94
382.184	112.94
382.409	114.94
382.634	101.94
382.86	105.94
383.085	99.94
383.31	93.94
383.535	108.94
383.761	115.94
383.986	110.94
384.211	102.94
384.436	94.94
384.662	97.94
384.887	116.94
385.112	128.94
385.337	106.94
385.562	106.94
385.787	106.94
386.013	119.94
386.238	121.94
386.463	118.94
386.688	116.94
386.913	107.94
387.138	127.94
387.363	112.94
387.588	97.94
387.813	106.94
388.038	112.94
388.263	128.94
388.488	118.94
388.713	84.94
388.938	99.94
389.163	99.94
389.387	84.94
389.612	81.94
389.837	76.94
390.062	75.94
390.287	87.94
390.512	96.94
390.736	90.94
390.961	83.94
391.186	92.94
391.411	95.94
391.636	84.94
391.86	78.94
392.085	94.94
392.31	81.94
392.534	76.94
392.759	82.94
392.984	75.94
393.208	96.94
393.433	94.94
393.658	83.94
393.882	90.94
394.107	83.94
394.331	98.94
394.556	92.94
394.78	82.94
395.005	83.94
395.229	81.94
395.454	85.94
395.678	74.94
395.903	93.94
396.127	89.94
396.352	85.94
396.576	79.94
396.801	83.94
397.025	83.94
397.249	99.94
397.474	83.94
397.698	99.94
397.922	90.94
398.147	91.94
398.371	75.94
398.595	70.94
398.82	80.94
399.044	95.94
399.268	83.94
399.492	91.94
399.717	89.94
399.941	96.94
400.165	92.94
400.389	79.94
400.613	76.94
400.837	84.94
401.062	66.94
401.286	92.94
401.51	91.94
401.734	87.94
401.958	89.94
402.182	103.94
402.406	143.94
402.63	93.94
402.854	83.94
403.078	89.94
403.302	86.94
403.526	88.94
403.75	68.94
403.974	74.94
404.198	75.94
404.422	75.94
404.645	73.94
404.869	80.94
405.093	78.94
405.317	99.94
405.541	94.94
405.765	84.94
405.988	96.94
406.212	150.94
406.436	195.94
406.66	109.94
406.883	84.94
407.107	96.94
407.331	81.94
407.555	95.94
407.778	81.94
408.002	95.94
408.226	85.94
408.449	88.94
408.673	95.94
408.896	71.94
409.12	91.94
409.344	97.94
409.567	88.94
409.791	90.94
410.014	78.94
410.238	90.94
410.461	90.94
410.685	94.94
410.908	90.94
411.132	94.94
411.355	92.94
411.578	97.94
411.802	86.94
412.025	89.94
412.249	85.94
412.472	75.94
412.695	91.94
412.919	78.94
413.142	84.94
413.365	90.94
413.589	91.94
413.812	84.94
414.035	84.94
414.258	74.94
414.482	100.94
414.705	79.94
414.928	92.94
415.151	89.94
415.374	97.94
415.597	91.94
415.821	83.94
416.044	84.94
416.267	75.94
416.49	94.94
416.713	69.94
416.936	87.94
417.159	104.94
417.382	80.94
417.605	84.94
417.828	88.94
418.051	90.94
418.274	88.94
418.497	77.94
418.72	93.94
418.943	85.94
419.166	72.94
419.389	91.94
419.611	81.94
419.834	79.94
420.057	73.94
420.28	89.94
420.503	80.94
420.726	82.94
420.948	106.94
421.171	96.94
421.394	82.94
421.617	87.94
421.839	86.94
422.062	85.94
422.285	83.94
422.507	84.94
422.73	88.94
422.953	88.94
423.175	94.94
423.398	92.94
423.621	79.94
423.843	76.94
424.066	90.94
424.288	80.94
424.511	99.94
424.733	86.94
424.956	91.94
425.178	84.94
425.401	92.94
425.623	88.94
425.846	75.94
426.068	94.94
426.291	79.94
426.513	86.94
426.735	83.94
426.958	102.94
427.18	92.94
427.402	132.94
427.625	139.94
427.847	121.94
428.069	104.94
428.292	87.94
428.514	96.94
428.736	92.94
428.958	75.94
429.181	74.94
429.403	85.94
429.625	90.94
429.847	96.94
430.069	85.94
430.292	105.94
430.514	66.94
430.736	84.94
430.958	77.94
431.18	102.94
431.402	71.94
431.624	85.94
431.846	74.94
432.068	81.94
432.29	81.94
432.512	97.94
432.734	81.94
432.956	96.94
433.178	89.94
433.4	83.94
433.622	89.94
433.844	85.94
434.066	87.94
434.287	92.94
434.509	87.94
434.731	89.94
434.953	92.94
435.175	84.94
435.397	89.94
435.618	88.94
435.84	99.94
436.062	89.94
436.284	104.94
436.505	104.94
436.727	83.94
436.949	84.94
437.17	67.94
437.392	79.94
437.614	93.94
437.835	90.94
438.057	98.94
438.278	81.94
438.5	93.94
438.721	104.94
438.943	81.94
439.165	88.94
439.386	88.94
439.608	92.94
439.829	94.94
440.05	106.94
440.272	117.94
440.493	88.94
440.715	91.94
440.936	87.94
441.158	83.94
441.379	81.94
441.6	82.94
441.822	97.94
442.043	87.94
442.264	87.94
442.486	89.94
442.707	104.94
442.928	92.94
443.149	104.94
443.371	98.94
443.592	91.94
443.813	89.94
444.034	104.94
444.255	90.94
444.476	82.94
444.698	83.94
444.919	88.94
445.14	123.94
445.361	105.94
445.582	120.94
445.803	118.94
446.024	116.94
446.245	99.94
446.466	98.94
446.687	81.94
446.908	77.94
447.129	94.94
447.35	97.94
447.571	89.94
447.792	89.94
448.013	89.94
448.234	97.94
448.455	83.94
448.675	108.94
448.896	99.94
449.117	103.94
449.338	97.94
449.559	114.94
449.779	123.94
450	95.94
450.221	88.94
450.442	89.94
450.662	85.94
450.883	77.94
451.104	107.94
451.324	86.94
451.545	95.94
451.766	71.94
451.986	99.94
452.207	82.94
452.428	73.94
452.648	96.94
452.869	105.94
453.089	91.94
453.31	85.94
453.53	85.94
453.751	83.94
453.971	74.94
454.192	103.94
454.412	71.94
454.633	84.94
454.853	80.94
455.073	99.94
455.294	87.94
455.514	95.94
455.734	95.94
455.955	85.94
456.175	82.94
456.395	65.94
456.616	64.94
456.836	92.94
457.056	74.94
457.276	82.94
457.497	76.94
457.717	75.94
457.937	95.94
458.157	87.94
458.377	81.94
458.598	105.94
458.818	133.94
459.038	142.94
459.258	94.94
459.478	95.94
459.698	72.94
459.918	87.94
460.138	83.94
460.358	79.94
460.578	77.94
460.798	75.94
461.018	85.94
461.238	83.94
461.458	89.94
461.678	91.94
461.898	74.94
462.118	86.94
462.338	74.94
462.558	75.94
462.777	84.94
462.997	64.94
463.217	79.94
463.437	92.94
463.657	80.94
463.876	84.94
464.096	90.94
464.316	89.94
464.536	67.94
464.755	81.94
464.975	100.94
465.195	125.94
465.414	135.94
465.634	97.94
465.854	85.94
466.073	77.94
466.293	88.94
466.512	92.94
466.732	92.94
466.951	82.94
467.171	81.94
467.391	79.94
467.61	88.94
467.829	89.94
468.049	86.94
468.268	91.94
468.488	69.94
468.707	81.94
468.927	80.94
469.146	67.94
469.365	81.94
469.585	90.94
469.804	79.94
470.023	93.94
470.243	85.94
470.462	89.94
470.681	94.94
470.901	104.94
471.12	81.94
471.339	89.94
471.558	84.94
471.777	83.94
471.997	81.94
472.216	75.94
472.435	89.94
472.654	82.94
472.873	82.94
473.092	92.94
473.311	93.94
473.53	91.94
473.749	77.94
473.968	84.94
474.187	86.94
474.406	80.94
474.625	81.94
474.844	82.94
475.063	89.94
475.282	75.94
475.501	73.94
475.72	70.94
475.939	83.94
476.158	78.94
476.377	77.94
476.596	73.94
476.814	102.94
477.033	95.94
477.252	86.94
477.471	85.94
477.69	80.94
477.908	96.94
478.127	95.94
478.346	90.94
478.564	84.94
478.783	79.94
479.002	90.94
479.22	88.94
479.439	75.94
479.658	86.94
479.876	89.94
480.095	92.94
480.313	86.94
480.532	93.94
480.751	93.94
480.969	89.94
481.188	111.94
481.406	85.94
481.624	78.94
481.843	82.94
482.061	85.94
482.28	95.94
482.498	104.94
482.717	87.94
482.935	84.94
483.153	76.94
483.372	78.94
483.59	77.94
483.808	77.94
484.027	88.94
484.245	82.94
484.463	84.94
484.681	104.94
484.9	87.94
485.118	98.94
485.336	98.94
485.554	88.94
485.772	90.94
485.99	92.94
486.209	100.94
486.427	109.94
486.645	97.94
486.863	114.94
487.081	95.94
487.299	101.94
487.517	103.94
487.735	98.94
487.953	79.94
488.171	88.94
488.389	92.94
488.607	74.94
488.825	64.94
489.043	79.94
489.261	91.94
489.479	90.94
489.696	90.94
489.914	96.94
490.132	92.94
490.35	77.94
490.568	79.94
490.786	92.94
491.003	93.94
491.221	89.94
491.439	77.94
491.657	97.94
491.874	99.94
492.092	95.94
492.31	86.94
492.527	81.94
492.745	81.94
492.963	73.94
493.18	73.94
493.398	88.94
493.615	83.94
493.833	95.94
494.05	79.94
494.268	93.94
494.485	89.94
494.703	84.94
494.92	91.94
495.138	86.94
495.355	93.94
495.573	81.94
495.79	93.94
496.008	84.94
496.225	93.94
496.442	80.94
496.66	88.94
496.877	89.94
497.094	74.94
497.312	96.94
497.529	86.94
497.746	95.94
497.963	85.94
498.181	79.94
498.398	90.94
498.615	80.94
498.832	87.94
499.049	82.94
499.267	85.94
499.484	97.94
499.701	88.94
499.918	87.94
500.135	88.94
500.352	95.94
500.569	89.94
500.786	82.94
501.003	79.94
501.22	97.94
501.437	84.94
501.654	80.94
501.871	85.94
502.088	91.94
502.305	80.94
502.522	80.94
502.739	84.94
502.956	71.94
503.172	86.94
503.389	85.94
503.606	112.94
503.823	99.94
504.04	92.94
504.256	81.94
504.473	82.94
504.69	85.94
504.907	89.94
505.123	90.94
505.34	84.94
505.557	91.94
505.773	81.94
505.99	105.94
506.207	80.94
506.423	66.94
506.64	94.94
506.856	83.94
507.073	96.94
507.289	90.94
507.506	87.94
507.722	96.94
507.939	92.94
508.155	96.94
508.372	101.94
508.588	102.94
508.805	75.94
509.021	97.94
509.238	100.94
509.454	83.94
509.67	95.94
509.887	96.94
510.103	123.94
510.319	196.94
510.536	651.94
510.752	1986.94
510.968	545.94
511.184	121.94
511.401	88.94
511.617	93.94
511.833	94.94
512.049	93.94
512.265	81.94
512.481	91.94
512.698	91.94
512.914	85.94
513.13	96.94
513.346	78.94
513.562	83.94
513.778	105.94
513.994	95.94
514.21	95.94
514.426	104.94
514.642	113.94
514.858	119.94
515.074	145.94
515.29	380.94
515.506	1162.94
515.721	451.94
515.937	139.94
516.153	107.94
516.369	89.94
516.585	88.94
516.801	86.94
517.016	93.94
517.232	96.94
517.448	77.94
517.664	91.94
