Data from Uncirc_2004_H10_HRD10591_00030.txt Node
Date: Wed Jan 03 10:32:18 EST 2024
User: Yrep
Spectrometer: HR+D1059
Trigger mode: 1
Integration Time (sec): 1.000000E-1
Scans to average: 1
Electric dark correction enabled: true
Nonlinearity correction enabled: false
Boxcar width: 0
XAxis mode: Wavelengths
Number of Pixels in Spectrum: 2048
>>>>>Begin Spectral Data<<<<<
223.165	-25.12
223.4	-25.12
223.635	-25.12
223.869	-18.12
224.104	-11.12
224.338	-16.12
224.573	-15.12
224.808	-10.12
225.042	2.88
225.277	-4.12
225.511	0.88
225.746	7.88
225.98	8.88
226.215	6.88
226.449	14.88
226.683	8.88
226.918	21.88
227.152	26.88
227.387	34.88
227.621	53.88
227.856	54.88
228.09	40.88
228.324	43.88
228.559	43.88
228.793	66.88
229.027	77.88
229.262	67.88
229.496	70.88
229.73	80.88
229.964	88.88
230.199	75.88
230.433	82.88
230.667	78.88
230.901	75.88
231.136	80.88
231.37	74.88
231.604	93.88
231.838	72.88
232.072	78.88
232.306	84.88
232.541	81.88
232.775	90.88
233.009	77.88
233.243	83.88
233.477	90.88
233.711	73.88
233.945	87.88
234.179	90.88
234.413	70.88
234.647	71.88
234.881	79.88
235.115	77.88
235.349	87.88
235.583	78.88
235.817	92.88
236.051	88.88
236.285	72.88
236.519	74.88
236.753	94.88
236.987	81.88
237.221	72.88
237.455	78.88
237.689	75.88
237.922	85.88
238.156	90.88
238.39	65.88
238.624	65.88
238.858	72.88
239.091	79.88
239.325	68.88
239.559	88.88
239.793	88.88
240.027	81.88
240.26	77.88
240.494	71.88
240.728	85.88
240.961	77.88
241.195	65.88
241.429	90.88
241.662	86.88
241.896	85.88
242.13	86.88
242.363	82.88
242.597	77.88
242.83	72.88
243.064	73.88
243.298	90.88
243.531	69.88
243.765	71.88
243.998	78.88
244.232	80.88
244.465	80.88
244.699	69.88
244.932	70.88
245.166	86.88
245.399	70.88
245.633	86.88
245.866	75.88
246.099	78.88
246.333	87.88
246.566	80.88
246.8	84.88
247.033	90.88
247.266	85.88
247.5	81.88
247.733	82.88
247.966	73.88
248.2	76.88
248.433	94.88
248.666	92.88
248.899	88.88
249.133	87.88
249.366	90.88
249.599	96.88
249.832	83.88
250.066	75.88
250.299	74.88
250.532	88.88
250.765	80.88
250.998	83.88
251.231	84.88
251.465	74.88
251.698	86.88
251.931	78.88
252.164	81.88
252.397	66.88
252.63	80.88
252.863	86.88
253.096	77.88
253.329	85.88
253.562	87.88
253.795	82.88
254.028	79.88
254.261	80.88
254.494	70.88
254.727	87.88
254.96	94.88
255.193	76.88
255.426	82.88
255.659	77.88
255.892	71.88
256.124	86.88
256.357	79.88
256.59	88.88
256.823	84.88
257.056	82.88
257.289	78.88
257.521	67.88
257.754	88.88
257.987	94.88
258.22	90.88
258.452	95.88
258.685	88.88
258.918	80.88
259.151	82.88
259.383	69.88
259.616	69.88
259.849	70.88
260.081	81.88
260.314	84.88
260.547	80.88
260.779	89.88
261.012	81.88
261.244	76.88
261.477	87.88
261.71	93.88
261.942	90.88
262.175	112.88
262.407	99.88
262.64	91.88
262.872	89.88
263.105	85.88
263.337	88.88
263.57	70.88
263.802	85.88
264.035	81.88
264.267	72.88
264.499	80.88
264.732	89.88
264.964	83.88
265.197	87.88
265.429	81.88
265.661	82.88
265.894	96.88
266.126	86.88
266.358	82.88
266.591	82.88
266.823	84.88
267.055	72.88
267.287	89.88
267.52	76.88
267.752	78.88
267.984	80.88
268.216	85.88
268.448	84.88
268.681	95.88
268.913	79.88
269.145	79.88
269.377	85.88
269.609	77.88
269.841	81.88
270.073	88.88
270.306	97.88
270.538	88.88
270.77	89.88
271.002	80.88
271.234	76.88
271.466	90.88
271.698	92.88
271.93	88.88
272.162	86.88
272.394	97.88
272.626	94.88
272.858	79.88
273.09	81.88
273.322	81.88
273.553	90.88
273.785	87.88
274.017	72.88
274.249	95.88
274.481	79.88
274.713	90.88
274.945	79.88
275.176	88.88
275.408	84.88
275.64	88.88
275.872	82.88
276.104	89.88
276.335	102.88
276.567	98.88
276.799	94.88
277.031	93.88
277.262	93.88
277.494	94.88
277.726	85.88
277.957	87.88
278.189	74.88
278.421	89.88
278.652	96.88
278.884	64.88
279.115	78.88
279.347	83.88
279.579	84.88
279.81	69.88
280.042	77.88
280.273	79.88
280.505	96.88
280.736	86.88
280.968	84.88
281.199	88.88
281.431	109.88
281.662	90.88
281.894	85.88
282.125	89.88
282.356	98.88
282.588	152.88
282.819	108.88
283.051	95.88
283.282	82.88
283.513	88.88
283.745	80.88
283.976	85.88
284.207	71.88
284.439	85.88
284.67	96.88
284.901	92.88
285.132	73.88
285.364	84.88
285.595	105.88
285.826	87.88
286.057	97.88
286.288	92.88
286.52	88.88
286.751	85.88
286.982	80.88
287.213	98.88
287.444	94.88
287.675	72.88
287.906	90.88
288.138	77.88
288.369	96.88
288.6	94.88
288.831	97.88
289.062	82.88
289.293	84.88
289.524	71.88
289.755	85.88
289.986	94.88
290.217	89.88
290.448	93.88
290.679	103.88
290.91	80.88
291.141	81.88
291.371	90.88
291.602	80.88
291.833	98.88
292.064	94.88
292.295	83.88
292.526	89.88
292.757	76.88
292.987	77.88
293.218	78.88
293.449	69.88
293.68	90.88
293.91	90.88
294.141	97.88
294.372	85.88
294.603	92.88
294.833	94.88
295.064	84.88
295.295	80.88
295.525	101.88
295.756	83.88
295.987	100.88
296.217	133.88
296.448	126.88
296.679	83.88
296.909	88.88
297.14	98.88
297.37	99.88
297.601	94.88
297.831	92.88
298.062	78.88
298.292	80.88
298.523	88.88
298.753	105.88
298.984	81.88
299.214	86.88
299.445	101.88
299.675	94.88
299.905	66.88
300.136	84.88
300.366	77.88
300.597	87.88
300.827	79.88
301.057	101.88
301.288	101.88
301.518	86.88
301.748	85.88
301.979	105.88
302.209	86.88
302.439	89.88
302.669	82.88
302.9	105.88
303.13	85.88
303.36	88.88
303.59	100.88
303.82	103.88
304.051	89.88
304.281	95.88
304.511	86.88
304.741	92.88
304.971	82.88
305.201	97.88
305.431	87.88
305.661	90.88
305.891	85.88
306.121	86.88
306.352	101.88
306.582	102.88
306.812	98.88
307.042	83.88
307.272	103.88
307.502	98.88
307.731	89.88
307.961	93.88
308.191	90.88
308.421	94.88
308.651	83.88
308.881	95.88
309.111	96.88
309.341	91.88
309.571	81.88
309.8	90.88
310.03	100.88
310.26	95.88
310.49	100.88
310.72	89.88
310.949	89.88
311.179	93.88
311.409	85.88
311.639	96.88
311.868	67.88
312.098	91.88
312.328	113.88
312.557	112.88
312.787	95.88
313.017	91.88
313.246	100.88
313.476	93.88
313.706	93.88
313.935	101.88
314.165	84.88
314.394	104.88
314.624	100.88
314.853	92.88
315.083	95.88
315.312	94.88
315.542	87.88
315.771	103.88
316.001	80.88
316.23	97.88
316.46	90.88
316.689	90.88
316.919	87.88
317.148	107.88
317.377	90.88
317.607	96.88
317.836	96.88
318.065	102.88
318.295	92.88
318.524	92.88
318.753	106.88
318.983	104.88
319.212	90.88
319.441	108.88
319.67	95.88
319.9	92.88
320.129	85.88
320.358	84.88
320.587	85.88
320.816	111.88
321.046	98.88
321.275	89.88
321.504	102.88
321.733	87.88
321.962	86.88
322.191	100.88
322.42	100.88
322.649	93.88
322.878	119.88
323.108	114.88
323.337	112.88
323.566	127.88
323.795	144.88
324.024	203.88
324.253	396.88
324.482	837.88
324.71	1626.88
324.939	2120.88
325.168	802.88
325.397	237.88
325.626	142.88
325.855	119.88
326.084	121.88
326.313	126.88
326.542	160.88
326.77	238.88
326.999	466.88
327.228	908.88
327.457	1679.88
327.686	1306.88
327.914	347.88
328.143	192.88
328.372	139.88
328.6	114.88
328.829	109.88
329.058	120.88
329.287	114.88
329.515	99.88
329.744	112.88
329.972	102.88
330.201	109.88
330.43	124.88
330.658	115.88
330.887	123.88
331.115	121.88
331.344	111.88
331.572	89.88
331.801	95.88
332.03	98.88
332.258	92.88
332.486	86.88
332.715	90.88
332.943	82.88
333.172	98.88
333.4	96.88
333.629	105.88
333.857	98.88
334.085	106.88
334.314	97.88
334.542	111.88
334.771	101.88
334.999	106.88
335.227	83.88
335.455	97.88
335.684	96.88
335.912	102.88
336.14	95.88
336.369	94.88
336.597	95.88
336.825	92.88
337.053	95.88
337.281	113.88
337.51	87.88
337.738	72.88
337.966	98.88
338.194	87.88
338.422	89.88
338.65	94.88
338.878	94.88
339.106	85.88
339.334	102.88
339.562	77.88
339.79	102.88
340.018	96.88
340.246	94.88
340.474	95.88
340.702	89.88
340.93	86.88
341.158	84.88
341.386	89.88
341.614	84.88
341.842	88.88
342.07	93.88
342.298	80.88
342.526	89.88
342.754	89.88
342.981	98.88
343.209	83.88
343.437	76.88
343.665	73.88
343.893	82.88
344.12	79.88
344.348	97.88
344.576	94.88
344.804	89.88
345.031	95.88
345.259	89.88
345.487	86.88
345.714	87.88
345.942	102.88
346.17	91.88
346.397	96.88
346.625	90.88
346.853	98.88
347.08	77.88
347.308	98.88
347.535	96.88
347.763	92.88
347.99	95.88
348.218	94.88
348.445	109.88
348.673	98.88
348.9	88.88
349.128	86.88
349.355	91.88
349.583	84.88
349.81	94.88
350.037	89.88
350.265	91.88
350.492	98.88
350.72	94.88
350.947	82.88
351.174	103.88
351.402	106.88
351.629	97.88
351.856	107.88
352.083	111.88
352.311	96.88
352.538	107.88
352.765	117.88
352.992	105.88
353.22	101.88
353.447	98.88
353.674	109.88
353.901	97.88
354.128	92.88
354.355	98.88
354.583	92.88
354.81	85.88
355.037	101.88
355.264	85.88
355.491	97.88
355.718	99.88
355.945	99.88
356.172	93.88
356.399	85.88
356.626	86.88
356.853	91.88
357.08	88.88
357.307	78.88
357.534	94.88
357.761	90.88
357.988	87.88
358.215	99.88
358.441	99.88
358.668	103.88
358.895	87.88
359.122	106.88
359.349	88.88
359.576	93.88
359.802	97.88
360.029	108.88
360.256	103.88
360.483	74.88
360.709	87.88
360.936	100.88
361.163	94.88
361.39	84.88
361.616	99.88
361.843	80.88
362.07	81.88
362.296	86.88
362.523	87.88
362.749	88.88
362.976	92.88
363.203	100.88
363.429	91.88
363.656	95.88
363.882	85.88
364.109	94.88
364.335	95.88
364.562	97.88
364.788	82.88
365.015	84.88
365.241	93.88
365.468	100.88
365.694	92.88
365.92	93.88
366.147	86.88
366.373	95.88
366.599	97.88
366.826	87.88
367.052	89.88
367.278	110.88
367.505	89.88
367.731	92.88
367.957	87.88
368.184	81.88
368.41	99.88
368.636	110.88
368.862	104.88
369.089	100.88
369.315	96.88
369.541	70.88
369.767	96.88
369.993	97.88
370.219	97.88
370.445	93.88
370.672	93.88
370.898	81.88
371.124	85.88
371.35	75.88
371.576	76.88
371.802	94.88
372.028	93.88
372.254	84.88
372.48	94.88
372.706	74.88
372.932	98.88
373.158	76.88
373.384	93.88
373.61	83.88
373.835	87.88
374.061	88.88
374.287	88.88
374.513	98.88
374.739	82.88
374.965	90.88
375.191	91.88
375.416	86.88
375.642	92.88
375.868	84.88
376.094	89.88
376.319	82.88
376.545	88.88
376.771	89.88
376.997	100.88
377.222	94.88
377.448	97.88
377.674	100.88
377.899	100.88
378.125	96.88
378.35	101.88
378.576	90.88
378.802	94.88
379.027	82.88
379.253	93.88
379.478	103.88
379.704	101.88
379.929	96.88
380.155	91.88
380.38	83.88
380.606	89.88
380.831	106.88
381.057	89.88
381.282	100.88
381.507	94.88
381.733	100.88
381.958	95.88
382.184	101.88
382.409	98.88
382.634	81.88
382.86	77.88
383.085	102.88
383.31	84.88
383.535	101.88
383.761	102.88
383.986	91.88
384.211	101.88
384.436	104.88
384.662	108.88
384.887	107.88
385.112	97.88
385.337	124.88
385.562	120.88
385.787	98.88
386.013	114.88
386.238	113.88
386.463	106.88
386.688	120.88
386.913	102.88
387.138	118.88
387.363	104.88
387.588	97.88
387.813	113.88
388.038	119.88
388.263	126.88
388.488	114.88
388.713	107.88
388.938	92.88
389.163	100.88
389.387	114.88
389.612	95.88
389.837	83.88
390.062	89.88
390.287	96.88
390.512	94.88
390.736	94.88
390.961	109.88
391.186	95.88
391.411	86.88
391.636	80.88
391.86	85.88
392.085	81.88
392.31	71.88
392.534	80.88
392.759	83.88
392.984	78.88
393.208	81.88
393.433	98.88
393.658	96.88
393.882	87.88
394.107	85.88
394.331	89.88
394.556	76.88
394.78	83.88
395.005	89.88
395.229	88.88
395.454	83.88
395.678	81.88
395.903	99.88
396.127	98.88
396.352	79.88
396.576	92.88
396.801	92.88
397.025	77.88
397.249	83.88
397.474	91.88
397.698	87.88
397.922	91.88
398.147	79.88
398.371	87.88
398.595	85.88
398.82	87.88
399.044	80.88
399.268	84.88
399.492	76.88
399.717	96.88
399.941	88.88
400.165	79.88
400.389	79.88
400.613	83.88
400.837	85.88
401.062	89.88
401.286	104.88
401.51	89.88
401.734	99.88
401.958	104.88
402.182	122.88
402.406	158.88
402.63	117.88
402.854	91.88
403.078	89.88
403.302	76.88
403.526	80.88
403.75	94.88
403.974	87.88
404.198	98.88
404.422	99.88
404.645	89.88
404.869	90.88
405.093	85.88
405.317	87.88
405.541	105.88
405.765	112.88
405.988	100.88
406.212	175.88
406.436	222.88
406.66	137.88
406.883	96.88
407.107	89.88
407.331	95.88
407.555	99.88
407.778	102.88
408.002	83.88
408.226	82.88
408.449	89.88
408.673	97.88
408.896	83.88
409.12	82.88
409.344	93.88
409.567	89.88
409.791	77.88
410.014	96.88
410.238	93.88
410.461	84.88
410.685	90.88
410.908	100.88
411.132	115.88
411.355	97.88
411.578	93.88
411.802	92.88
412.025	88.88
412.249	96.88
412.472	84.88
412.695	76.88
412.919	97.88
413.142	82.88
413.365	92.88
413.589	87.88
413.812	86.88
414.035	84.88
414.258	84.88
414.482	93.88
414.705	89.88
414.928	84.88
415.151	100.88
415.374	104.88
415.597	87.88
415.821	82.88
416.044	73.88
416.267	87.88
416.49	83.88
416.713	93.88
416.936	89.88
417.159	94.88
417.382	82.88
417.605	82.88
417.828	102.88
418.051	88.88
418.274	95.88
418.497	89.88
418.72	99.88
418.943	94.88
419.166	90.88
419.389	88.88
419.611	88.88
419.834	89.88
420.057	77.88
420.28	85.88
420.503	83.88
420.726	88.88
420.948	96.88
421.171	89.88
421.394	80.88
421.617	109.88
421.839	84.88
422.062	84.88
422.285	80.88
422.507	94.88
422.73	92.88
422.953	90.88
423.175	87.88
423.398	91.88
423.621	100.88
423.843	91.88
424.066	96.88
424.288	88.88
424.511	109.88
424.733	106.88
424.956	108.88
425.178	96.88
425.401	103.88
425.623	101.88
425.846	88.88
426.068	90.88
426.291	106.88
426.513	89.88
426.735	97.88
426.958	97.88
427.18	96.88
427.402	119.88
427.625	158.88
427.847	128.88
428.069	95.88
428.292	98.88
428.514	90.88
428.736	92.88
428.958	82.88
429.181	77.88
429.403	83.88
429.625	82.88
429.847	88.88
430.069	100.88
430.292	85.88
430.514	78.88
430.736	88.88
430.958	87.88
431.18	92.88
431.402	72.88
431.624	86.88
431.846	96.88
432.068	80.88
432.29	78.88
432.512	103.88
432.734	82.88
432.956	89.88
433.178	86.88
433.4	94.88
433.622	95.88
433.844	96.88
434.066	73.88
434.287	93.88
434.509	92.88
434.731	98.88
434.953	87.88
435.175	81.88
435.397	83.88
435.618	84.88
435.84	101.88
436.062	115.88
436.284	94.88
436.505	97.88
436.727	105.88
436.949	102.88
437.17	101.88
437.392	89.88
437.614	79.88
437.835	116.88
438.057	117.88
438.278	104.88
438.5	108.88
438.721	109.88
438.943	91.88
439.165	97.88
439.386	101.88
439.608	92.88
439.829	104.88
440.05	117.88
440.272	147.88
440.493	100.88
440.715	105.88
440.936	80.88
441.158	86.88
441.379	96.88
441.6	99.88
441.822	105.88
442.043	89.88
442.264	103.88
442.486	102.88
442.707	96.88
442.928	90.88
443.149	131.88
443.371	119.88
443.592	111.88
443.813	99.88
444.034	102.88
444.255	89.88
444.476	89.88
444.698	99.88
444.919	72.88
445.14	119.88
445.361	124.88
445.582	119.88
445.803	122.88
446.024	138.88
446.245	133.88
446.466	112.88
446.687	85.88
446.908	94.88
447.129	77.88
447.35	92.88
447.571	100.88
447.792	82.88
448.013	102.88
448.234	101.88
448.455	97.88
448.675	116.88
448.896	108.88
449.117	108.88
449.338	104.88
449.559	120.88
449.779	117.88
450	90.88
450.221	86.88
450.442	95.88
450.662	98.88
450.883	105.88
451.104	128.88
451.324	102.88
451.545	109.88
451.766	100.88
451.986	86.88
452.207	92.88
452.428	83.88
452.648	94.88
452.869	95.88
453.089	117.88
453.31	118.88
453.53	93.88
453.751	85.88
453.971	94.88
454.192	104.88
454.412	82.88
454.633	90.88
454.853	74.88
455.073	95.88
455.294	98.88
455.514	102.88
455.734	77.88
455.955	95.88
456.175	82.88
456.395	83.88
456.616	89.88
456.836	82.88
457.056	89.88
457.276	94.88
457.497	95.88
457.717	80.88
457.937	77.88
458.157	93.88
458.377	94.88
458.598	115.88
458.818	146.88
459.038	135.88
459.258	108.88
459.478	88.88
459.698	89.88
459.918	89.88
460.138	81.88
460.358	97.88
460.578	89.88
460.798	106.88
461.018	93.88
461.238	88.88
461.458	90.88
461.678	89.88
461.898	81.88
462.118	73.88
462.338	73.88
462.558	93.88
462.777	88.88
462.997	96.88
463.217	93.88
463.437	87.88
463.657	82.88
463.876	83.88
464.096	84.88
464.316	105.88
464.536	76.88
464.755	105.88
464.975	104.88
465.195	158.88
465.414	142.88
465.634	102.88
465.854	91.88
466.073	82.88
466.293	89.88
466.512	84.88
466.732	92.88
466.951	77.88
467.171	74.88
467.391	105.88
467.61	103.88
467.829	81.88
468.049	87.88
468.268	92.88
468.488	101.88
468.707	78.88
468.927	88.88
469.146	81.88
469.365	81.88
469.585	80.88
469.804	96.88
470.023	100.88
470.243	94.88
470.462	98.88
470.681	110.88
470.901	92.88
471.12	93.88
471.339	81.88
471.558	88.88
471.777	88.88
471.997	90.88
472.216	101.88
472.435	114.88
472.654	84.88
472.873	90.88
473.092	96.88
473.311	82.88
473.53	74.88
473.749	72.88
473.968	88.88
474.187	97.88
474.406	94.88
474.625	87.88
474.844	82.88
475.063	86.88
475.282	81.88
475.501	92.88
475.72	80.88
475.939	79.88
476.158	88.88
476.377	93.88
476.596	80.88
476.814	86.88
477.033	97.88
477.252	87.88
477.471	96.88
477.69	94.88
477.908	107.88
478.127	85.88
478.346	87.88
478.564	89.88
478.783	97.88
479.002	92.88
479.22	94.88
479.439	95.88
479.658	102.88
479.876	88.88
480.095	95.88
480.313	89.88
480.532	88.88
480.751	95.88
480.969	108.88
481.188	117.88
481.406	116.88
481.624	90.88
481.843	83.88
482.061	92.88
482.28	93.88
482.498	90.88
482.717	80.88
482.935	87.88
483.153	82.88
483.372	87.88
483.59	81.88
483.808	96.88
484.027	98.88
484.245	91.88
484.463	95.88
484.681	94.88
484.9	89.88
485.118	87.88
485.336	89.88
485.554	93.88
485.772	88.88
485.99	92.88
486.209	96.88
486.427	98.88
486.645	115.88
486.863	98.88
487.081	109.88
487.299	96.88
487.517	89.88
487.735	107.88
487.953	109.88
488.171	105.88
488.389	95.88
488.607	100.88
488.825	89.88
489.043	98.88
489.261	87.88
489.479	86.88
489.696	80.88
489.914	89.88
490.132	78.88
490.35	86.88
490.568	95.88
490.786	83.88
491.003	95.88
491.221	103.88
491.439	101.88
491.657	93.88
491.874	94.88
492.092	93.88
492.31	98.88
492.527	86.88
492.745	84.88
492.963	89.88
493.18	99.88
493.398	94.88
493.615	113.88
493.833	94.88
494.05	88.88
494.268	89.88
494.485	87.88
494.703	96.88
494.92	89.88
495.138	75.88
495.355	97.88
495.573	101.88
495.79	90.88
496.008	91.88
496.225	83.88
496.442	99.88
496.66	83.88
496.877	101.88
497.094	76.88
497.312	92.88
497.529	89.88
497.746	97.88
497.963	94.88
498.181	99.88
498.398	98.88
498.615	117.88
498.832	105.88
499.049	105.88
499.267	96.88
499.484	104.88
499.701	81.88
499.918	74.88
500.135	96.88
500.352	96.88
500.569	81.88
500.786	96.88
501.003	92.88
501.22	93.88
501.437	93.88
501.654	109.88
501.871	110.88
502.088	97.88
502.305	83.88
502.522	100.88
502.739	89.88
502.956	90.88
503.172	94.88
503.389	89.88
503.606	95.88
503.823	99.88
504.04	90.88
504.256	91.88
504.473	83.88
504.69	88.88
504.907	97.88
505.123	89.88
505.34	89.88
505.557	89.88
505.773	81.88
505.99	85.88
506.207	98.88
506.423	92.88
506.64	88.88
506.856	90.88
507.073	93.88
507.289	97.88
507.506	105.88
507.722	133.88
507.939	95.88
508.155	88.88
508.372	92.88
508.588	80.88
508.805	85.88
509.021	101.88
509.238	100.88
509.454	97.88
509.67	107.88
509.887	119.88
510.103	133.88
510.319	213.88
510.536	776.88
510.752	2378.88
510.968	671.88
511.184	146.88
511.401	109.88
511.617	111.88
511.833	109.88
512.049	84.88
512.265	90.88
512.481	88.88
512.698	98.88
512.914	90.88
513.13	100.88
513.346	93.88
513.562	97.88
513.778	103.88
513.994	97.88
514.21	105.88
514.426	118.88
514.642	120.88
514.858	109.88
515.074	151.88
515.29	454.88
515.506	1463.88
515.721	535.88
515.937	158.88
