Data from Uncirc_2004_H10_HRD10591_00098.txt Node
Date: Wed Jan 03 10:32:32 EST 2024
User: Yrep
Spectrometer: HR+D1059
Trigger mode: 1
Integration Time (sec): 1.000000E-1
Scans to average: 1
Electric dark correction enabled: true
Nonlinearity correction enabled: false
Boxcar width: 0
XAxis mode: Wavelengths
Number of Pixels in Spectrum: 2048
>>>>>Begin Spectral Data<<<<<
223.165	-30.56
223.4	-30.56
223.635	-30.56
223.869	-21.56
224.104	-16.56
224.338	-5.56
224.573	-9.56
224.808	-13.56
225.042	-17.56
225.277	-11.56
225.511	1.44
225.746	7.44
225.98	5.44
226.215	15.44
226.449	13.44
226.683	24.44
226.918	24.44
227.152	34.44
227.387	36.44
227.621	30.44
227.856	48.44
228.09	59.44
228.324	64.44
228.559	87.44
228.793	58.44
229.027	62.44
229.262	79.44
229.496	83.44
229.73	76.44
229.964	93.44
230.199	77.44
230.433	75.44
230.667	93.44
230.901	65.44
231.136	83.44
231.37	87.44
231.604	81.44
231.838	81.44
232.072	85.44
232.306	70.44
232.541	67.44
232.775	73.44
233.009	72.44
233.243	91.44
233.477	87.44
233.711	74.44
233.945	89.44
234.179	83.44
234.413	82.44
234.647	97.44
234.881	88.44
235.115	81.44
235.349	89.44
235.583	87.44
235.817	74.44
236.051	84.44
236.285	84.44
236.519	82.44
236.753	85.44
236.987	76.44
237.221	88.44
237.455	86.44
237.689	84.44
237.922	77.44
238.156	75.44
238.39	79.44
238.624	81.44
238.858	81.44
239.091	89.44
239.325	76.44
239.559	89.44
239.793	92.44
240.027	84.44
240.26	100.44
240.494	80.44
240.728	81.44
240.961	82.44
241.195	100.44
241.429	69.44
241.662	85.44
241.896	83.44
242.13	74.44
242.363	79.44
242.597	85.44
242.83	91.44
243.064	69.44
243.298	76.44
243.531	79.44
243.765	76.44
243.998	80.44
244.232	83.44
244.465	88.44
244.699	88.44
244.932	79.44
245.166	83.44
245.399	79.44
245.633	97.44
245.866	89.44
246.099	90.44
246.333	73.44
246.566	74.44
246.8	79.44
247.033	86.44
247.266	91.44
247.5	86.44
247.733	79.44
247.966	67.44
248.2	65.44
248.433	89.44
248.666	81.44
248.899	96.44
249.133	83.44
249.366	91.44
249.599	93.44
249.832	107.44
250.066	98.44
250.299	82.44
250.532	89.44
250.765	79.44
250.998	70.44
251.231	74.44
251.465	83.44
251.698	81.44
251.931	77.44
252.164	76.44
252.397	86.44
252.63	83.44
252.863	86.44
253.096	68.44
253.329	85.44
253.562	95.44
253.795	86.44
254.028	91.44
254.261	96.44
254.494	88.44
254.727	87.44
254.96	91.44
255.193	81.44
255.426	72.44
255.659	92.44
255.892	94.44
256.124	83.44
256.357	94.44
256.59	89.44
256.823	78.44
257.056	82.44
257.289	77.44
257.521	90.44
257.754	75.44
257.987	82.44
258.22	90.44
258.452	76.44
258.685	85.44
258.918	79.44
259.151	84.44
259.383	89.44
259.616	87.44
259.849	93.44
260.081	84.44
260.314	89.44
260.547	92.44
260.779	73.44
261.012	78.44
261.244	89.44
261.477	98.44
261.71	91.44
261.942	103.44
262.175	110.44
262.407	93.44
262.64	93.44
262.872	102.44
263.105	89.44
263.337	95.44
263.57	84.44
263.802	82.44
264.035	82.44
264.267	92.44
264.499	86.44
264.732	74.44
264.964	91.44
265.197	72.44
265.429	95.44
265.661	94.44
265.894	81.44
266.126	88.44
266.358	88.44
266.591	92.44
266.823	83.44
267.055	72.44
267.287	77.44
267.52	88.44
267.752	81.44
267.984	86.44
268.216	95.44
268.448	96.44
268.681	79.44
268.913	88.44
269.145	89.44
269.377	90.44
269.609	87.44
269.841	87.44
270.073	87.44
270.306	87.44
270.538	79.44
270.77	90.44
271.002	99.44
271.234	100.44
271.466	91.44
271.698	91.44
271.93	92.44
272.162	89.44
272.394	84.44
272.626	93.44
272.858	85.44
273.09	77.44
273.322	80.44
273.553	78.44
273.785	85.44
274.017	87.44
274.249	81.44
274.481	93.44
274.713	86.44
274.945	86.44
275.176	99.44
275.408	105.44
275.64	94.44
275.872	93.44
276.104	87.44
276.335	105.44
276.567	101.44
276.799	107.44
277.031	117.44
277.262	95.44
277.494	84.44
277.726	100.44
277.957	101.44
278.189	80.44
278.421	93.44
278.652	100.44
278.884	88.44
279.115	96.44
279.347	96.44
279.579	84.44
279.81	97.44
280.042	83.44
280.273	73.44
280.505	95.44
280.736	89.44
280.968	88.44
281.199	91.44
281.431	87.44
281.662	85.44
281.894	83.44
282.125	94.44
282.356	121.44
282.588	137.44
282.819	119.44
283.051	87.44
283.282	87.44
283.513	73.44
283.745	92.44
283.976	95.44
284.207	86.44
284.439	100.44
284.67	114.44
284.901	92.44
285.132	90.44
285.364	98.44
285.595	91.44
285.826	91.44
286.057	111.44
286.288	93.44
286.52	90.44
286.751	81.44
286.982	100.44
287.213	104.44
287.444	98.44
287.675	89.44
287.906	91.44
288.138	102.44
288.369	80.44
288.6	111.44
288.831	102.44
289.062	98.44
289.293	70.44
289.524	79.44
289.755	96.44
289.986	84.44
290.217	92.44
290.448	94.44
290.679	92.44
290.91	86.44
291.141	81.44
291.371	96.44
291.602	86.44
291.833	83.44
292.064	86.44
292.295	98.44
292.526	91.44
292.757	100.44
292.987	102.44
293.218	100.44
293.449	101.44
293.68	97.44
293.91	90.44
294.141	85.44
294.372	97.44
294.603	90.44
294.833	85.44
295.064	99.44
295.295	99.44
295.525	101.44
295.756	104.44
295.987	116.44
296.217	137.44
296.448	112.44
296.679	101.44
296.909	106.44
297.14	100.44
297.37	85.44
297.601	100.44
297.831	95.44
298.062	98.44
298.292	86.44
298.523	94.44
298.753	79.44
298.984	85.44
299.214	84.44
299.445	92.44
299.675	95.44
299.905	94.44
300.136	106.44
300.366	91.44
300.597	87.44
300.827	93.44
301.057	96.44
301.288	101.44
301.518	100.44
301.748	93.44
301.979	102.44
302.209	100.44
302.439	79.44
302.669	89.44
302.9	84.44
303.13	93.44
303.36	100.44
303.59	114.44
303.82	115.44
304.051	100.44
304.281	102.44
304.511	104.44
304.741	106.44
304.971	85.44
305.201	89.44
305.431	93.44
305.661	89.44
305.891	76.44
306.121	94.44
306.352	113.44
306.582	110.44
306.812	98.44
307.042	90.44
307.272	110.44
307.502	89.44
307.731	92.44
307.961	96.44
308.191	107.44
308.421	91.44
308.651	92.44
308.881	92.44
309.111	83.44
309.341	110.44
309.571	100.44
309.8	105.44
310.03	110.44
310.26	88.44
310.49	91.44
310.72	92.44
310.949	97.44
311.179	113.44
311.409	100.44
311.639	104.44
311.868	88.44
312.098	83.44
312.328	106.44
312.557	101.44
312.787	103.44
313.017	113.44
313.246	80.44
313.476	92.44
313.706	88.44
313.935	100.44
314.165	111.44
314.394	118.44
314.624	92.44
314.853	89.44
315.083	86.44
315.312	104.44
315.542	99.44
315.771	97.44
316.001	91.44
316.23	80.44
316.46	76.44
316.689	90.44
316.919	100.44
317.148	100.44
317.377	102.44
317.607	75.44
317.836	90.44
318.065	105.44
318.295	87.44
318.524	85.44
318.753	92.44
318.983	81.44
319.212	112.44
319.441	108.44
319.67	115.44
319.9	101.44
320.129	89.44
320.358	96.44
320.587	98.44
320.816	103.44
321.046	104.44
321.275	103.44
321.504	111.44
321.733	99.44
321.962	114.44
322.191	100.44
322.42	100.44
322.649	112.44
322.878	116.44
323.108	119.44
323.337	113.44
323.566	133.44
323.795	151.44
324.024	220.44
324.253	421.44
324.482	872.44
324.71	1811.44
324.939	2356.44
325.168	847.44
325.397	255.44
325.626	140.44
325.855	127.44
326.084	116.44
326.313	152.44
326.542	156.44
326.77	237.44
326.999	500.44
327.228	1005.44
327.457	1815.44
327.686	1471.44
327.914	388.44
328.143	209.44
328.372	151.44
328.6	124.44
328.829	131.44
329.058	121.44
329.287	126.44
329.515	113.44
329.744	111.44
329.972	104.44
330.201	103.44
330.43	121.44
330.658	136.44
330.887	146.44
331.115	127.44
331.344	102.44
331.572	116.44
331.801	112.44
332.03	102.44
332.258	109.44
332.486	100.44
332.715	91.44
332.943	94.44
333.172	104.44
333.4	92.44
333.629	106.44
333.857	106.44
334.085	102.44
334.314	118.44
334.542	114.44
334.771	102.44
334.999	108.44
335.227	101.44
335.455	112.44
335.684	117.44
335.912	106.44
336.14	109.44
336.369	100.44
336.597	105.44
336.825	101.44
337.053	83.44
337.281	86.44
337.51	84.44
337.738	99.44
337.966	82.44
338.194	89.44
338.422	83.44
338.65	97.44
338.878	94.44
339.106	93.44
339.334	85.44
339.562	101.44
339.79	88.44
340.018	92.44
340.246	102.44
340.474	99.44
340.702	94.44
340.93	105.44
341.158	92.44
341.386	85.44
341.614	93.44
341.842	98.44
342.07	105.44
342.298	100.44
342.526	76.44
342.754	90.44
342.981	89.44
343.209	83.44
343.437	96.44
343.665	98.44
343.893	107.44
344.12	92.44
344.348	93.44
344.576	99.44
344.804	103.44
345.031	89.44
345.259	105.44
345.487	106.44
345.714	99.44
345.942	94.44
346.17	91.44
346.397	95.44
346.625	96.44
346.853	102.44
347.08	97.44
347.308	94.44
347.535	99.44
347.763	107.44
347.99	110.44
348.218	98.44
348.445	95.44
348.673	109.44
348.9	101.44
349.128	105.44
349.355	101.44
349.583	105.44
349.81	93.44
350.037	100.44
350.265	102.44
350.492	109.44
350.72	106.44
350.947	105.44
351.174	103.44
351.402	107.44
351.629	99.44
351.856	110.44
352.083	105.44
352.311	115.44
352.538	110.44
352.765	123.44
352.992	111.44
353.22	113.44
353.447	113.44
353.674	101.44
353.901	95.44
354.128	102.44
354.355	103.44
354.583	114.44
354.81	97.44
355.037	89.44
355.264	93.44
355.491	95.44
355.718	99.44
355.945	104.44
356.172	96.44
356.399	103.44
356.626	88.44
356.853	95.44
357.08	85.44
357.307	96.44
357.534	90.44
357.761	100.44
357.988	92.44
358.215	98.44
358.441	101.44
358.668	82.44
358.895	102.44
359.122	88.44
359.349	103.44
359.576	81.44
359.802	115.44
360.029	106.44
360.256	117.44
360.483	101.44
360.709	90.44
360.936	97.44
361.163	101.44
361.39	95.44
361.616	96.44
361.843	114.44
362.07	88.44
362.296	88.44
362.523	91.44
362.749	94.44
362.976	87.44
363.203	104.44
363.429	96.44
363.656	90.44
363.882	93.44
364.109	103.44
364.335	97.44
364.562	95.44
364.788	97.44
365.015	103.44
365.241	103.44
365.468	101.44
365.694	106.44
365.92	93.44
366.147	91.44
366.373	96.44
366.599	91.44
366.826	76.44
367.052	91.44
367.278	87.44
367.505	97.44
367.731	88.44
367.957	85.44
368.184	93.44
368.41	103.44
368.636	128.44
368.862	117.44
369.089	109.44
369.315	98.44
369.541	94.44
369.767	94.44
369.993	96.44
370.219	90.44
370.445	99.44
370.672	89.44
370.898	99.44
371.124	101.44
371.35	100.44
371.576	91.44
371.802	81.44
372.028	82.44
372.254	94.44
372.48	82.44
372.706	76.44
372.932	90.44
373.158	87.44
373.384	91.44
373.61	86.44
373.835	92.44
374.061	83.44
374.287	99.44
374.513	105.44
374.739	111.44
374.965	96.44
375.191	98.44
375.416	99.44
375.642	92.44
375.868	109.44
376.094	100.44
376.319	93.44
376.545	89.44
376.771	93.44
376.997	91.44
377.222	86.44
377.448	97.44
377.674	94.44
377.899	97.44
378.125	83.44
378.35	96.44
378.576	99.44
378.802	90.44
379.027	94.44
379.253	95.44
379.478	93.44
379.704	96.44
379.929	85.44
380.155	97.44
380.38	81.44
380.606	91.44
380.831	103.44
381.057	109.44
381.282	94.44
381.507	98.44
381.733	86.44
381.958	102.44
382.184	87.44
382.409	102.44
382.634	111.44
382.86	92.44
383.085	101.44
383.31	109.44
383.535	108.44
383.761	98.44
383.986	89.44
384.211	88.44
384.436	106.44
384.662	97.44
384.887	97.44
385.112	112.44
385.337	110.44
385.562	105.44
385.787	106.44
386.013	114.44
386.238	108.44
386.463	105.44
386.688	96.44
386.913	105.44
387.138	116.44
387.363	112.44
387.588	92.44
387.813	89.44
388.038	108.44
388.263	111.44
388.488	111.44
388.713	98.44
388.938	100.44
389.163	101.44
389.387	101.44
389.612	96.44
389.837	87.44
390.062	91.44
390.287	104.44
390.512	96.44
390.736	93.44
390.961	95.44
391.186	90.44
391.411	102.44
391.636	89.44
391.86	80.44
392.085	97.44
392.31	82.44
392.534	83.44
392.759	93.44
392.984	94.44
393.208	94.44
393.433	100.44
393.658	95.44
393.882	74.44
394.107	95.44
394.331	89.44
394.556	99.44
394.78	84.44
395.005	92.44
395.229	80.44
395.454	101.44
395.678	76.44
395.903	75.44
396.127	92.44
396.352	89.44
396.576	83.44
396.801	85.44
397.025	98.44
397.249	91.44
397.474	90.44
397.698	82.44
397.922	93.44
398.147	88.44
398.371	84.44
398.595	90.44
398.82	91.44
399.044	88.44
399.268	80.44
399.492	92.44
399.717	89.44
399.941	91.44
400.165	96.44
400.389	96.44
400.613	75.44
400.837	87.44
401.062	92.44
401.286	85.44
401.51	91.44
401.734	90.44
401.958	105.44
402.182	117.44
402.406	160.44
402.63	123.44
402.854	103.44
403.078	99.44
403.302	97.44
403.526	85.44
403.75	101.44
403.974	86.44
404.198	89.44
404.422	85.44
404.645	94.44
404.869	99.44
405.093	92.44
405.317	95.44
405.541	91.44
405.765	107.44
405.988	120.44
406.212	185.44
406.436	240.44
406.66	144.44
406.883	112.44
407.107	103.44
407.331	92.44
407.555	100.44
407.778	108.44
408.002	100.44
408.226	89.44
408.449	73.44
408.673	109.44
408.896	93.44
409.12	98.44
409.344	99.44
409.567	103.44
409.791	93.44
410.014	93.44
410.238	106.44
410.461	88.44
410.685	101.44
410.908	101.44
411.132	118.44
411.355	105.44
411.578	103.44
411.802	87.44
412.025	93.44
412.249	90.44
412.472	88.44
412.695	92.44
412.919	86.44
413.142	89.44
413.365	89.44
413.589	98.44
413.812	103.44
414.035	103.44
414.258	82.44
414.482	98.44
414.705	94.44
414.928	87.44
415.151	100.44
415.374	92.44
415.597	104.44
415.821	83.44
416.044	79.44
416.267	97.44
416.49	83.44
416.713	92.44
416.936	101.44
417.159	74.44
417.382	94.44
417.605	85.44
417.828	90.44
418.051	104.44
418.274	85.44
418.497	87.44
418.72	92.44
418.943	97.44
419.166	85.44
419.389	100.44
419.611	88.44
419.834	90.44
420.057	89.44
420.28	86.44
420.503	72.44
420.726	80.44
420.948	96.44
421.171	82.44
421.394	86.44
421.617	99.44
421.839	90.44
422.062	87.44
422.285	96.44
422.507	107.44
422.73	89.44
422.953	81.44
423.175	85.44
423.398	89.44
423.621	95.44
423.843	101.44
424.066	88.44
424.288	104.44
424.511	87.44
424.733	101.44
424.956	103.44
425.178	99.44
425.401	103.44
425.623	106.44
425.846	101.44
426.068	101.44
426.291	96.44
426.513	92.44
426.735	79.44
426.958	99.44
427.18	104.44
427.402	125.44
427.625	161.44
427.847	142.44
428.069	99.44
428.292	88.44
428.514	84.44
428.736	98.44
428.958	84.44
429.181	93.44
429.403	82.44
429.625	86.44
429.847	97.44
430.069	103.44
430.292	92.44
430.514	104.44
430.736	90.44
430.958	88.44
431.18	77.44
431.402	92.44
431.624	90.44
431.846	93.44
432.068	95.44
432.29	81.44
432.512	94.44
432.734	92.44
432.956	97.44
433.178	103.44
433.4	93.44
433.622	90.44
433.844	101.44
434.066	97.44
434.287	105.44
434.509	108.44
434.731	94.44
434.953	92.44
435.175	89.44
435.397	96.44
435.618	104.44
435.84	96.44
436.062	115.44
436.284	113.44
436.505	114.44
436.727	112.44
436.949	90.44
437.17	89.44
437.392	87.44
437.614	101.44
437.835	113.44
438.057	120.44
438.278	106.44
438.5	104.44
438.721	128.44
438.943	102.44
439.165	90.44
439.386	89.44
439.608	93.44
439.829	96.44
440.05	122.44
440.272	127.44
440.493	101.44
440.715	88.44
440.936	93.44
441.158	98.44
441.379	114.44
441.6	98.44
441.822	100.44
442.043	95.44
442.264	97.44
442.486	99.44
442.707	98.44
442.928	116.44
443.149	138.44
443.371	121.44
443.592	109.44
443.813	101.44
444.034	114.44
444.255	103.44
444.476	99.44
444.698	95.44
444.919	100.44
445.14	125.44
445.361	114.44
445.582	117.44
445.803	131.44
446.024	126.44
446.245	134.44
446.466	114.44
446.687	79.44
446.908	79.44
447.129	91.44
447.35	98.44
447.571	102.44
447.792	94.44
448.013	95.44
448.234	107.44
448.455	107.44
448.675	110.44
448.896	112.44
449.117	115.44
449.338	107.44
449.559	124.44
449.779	133.44
450	91.44
450.221	77.44
450.442	99.44
450.662	99.44
450.883	111.44
451.104	120.44
451.324	96.44
451.545	99.44
451.766	100.44
451.986	89.44
452.207	106.44
452.428	83.44
452.648	98.44
452.869	122.44
453.089	108.44
453.31	120.44
453.53	105.44
453.751	88.44
453.971	99.44
454.192	113.44
454.412	109.44
454.633	93.44
454.853	89.44
455.073	98.44
455.294	85.44
455.514	96.44
455.734	89.44
455.955	85.44
456.175	78.44
456.395	84.44
456.616	91.44
456.836	80.44
457.056	94.44
457.276	86.44
457.497	96.44
457.717	79.44
457.937	99.44
458.157	103.44
458.377	92.44
458.598	113.44
458.818	152.44
459.038	166.44
459.258	116.44
459.478	99.44
459.698	92.44
459.918	100.44
460.138	78.44
460.358	83.44
460.578	77.44
460.798	87.44
461.018	93.44
461.238	97.44
461.458	87.44
461.678	87.44
461.898	87.44
462.118	90.44
462.338	99.44
462.558	87.44
462.777	97.44
462.997	78.44
463.217	95.44
463.437	75.44
463.657	97.44
463.876	88.44
464.096	111.44
464.316	95.44
464.536	101.44
464.755	100.44
464.975	100.44
465.195	173.44
465.414	148.44
465.634	92.44
465.854	83.44
466.073	95.44
466.293	91.44
466.512	95.44
466.732	90.44
466.951	79.44
467.171	98.44
467.391	90.44
467.61	105.44
467.829	106.44
468.049	85.44
468.268	90.44
468.488	97.44
468.707	90.44
468.927	95.44
469.146	102.44
469.365	97.44
469.585	95.44
469.804	106.44
470.023	93.44
470.243	95.44
470.462	101.44
470.681	103.44
470.901	97.44
471.12	96.44
471.339	85.44
471.558	85.44
471.777	85.44
471.997	97.44
472.216	83.44
472.435	108.44
472.654	82.44
472.873	95.44
473.092	85.44
473.311	93.44
473.53	90.44
473.749	90.44
473.968	95.44
474.187	108.44
474.406	105.44
474.625	104.44
474.844	96.44
475.063	89.44
475.282	95.44
475.501	97.44
475.72	91.44
475.939	87.44
476.158	81.44
476.377	81.44
476.596	99.44
476.814	110.44
477.033	84.44
477.252	92.44
477.471	106.44
477.69	83.44
477.908	88.44
478.127	92.44
478.346	85.44
478.564	92.44
478.783	83.44
479.002	94.44
479.22	91.44
479.439	93.44
479.658	97.44
479.876	102.44
480.095	89.44
480.313	102.44
480.532	93.44
480.751	102.44
480.969	107.44
481.188	113.44
481.406	107.44
481.624	89.44
481.843	94.44
482.061	86.44
482.28	98.44
482.498	90.44
482.717	90.44
482.935	95.44
483.153	89.44
483.372	82.44
483.59	87.44
483.808	85.44
484.027	88.44
484.245	97.44
484.463	104.44
484.681	98.44
484.9	97.44
485.118	97.44
485.336	87.44
485.554	99.44
485.772	103.44
485.99	112.44
486.209	108.44
486.427	105.44
486.645	109.44
486.863	113.44
487.081	102.44
487.299	97.44
487.517	89.44
487.735	91.44
487.953	85.44
488.171	99.44
488.389	103.44
488.607	106.44
488.825	89.44
489.043	98.44
489.261	86.44
489.479	93.44
489.696	94.44
489.914	94.44
490.132	103.44
490.35	101.44
490.568	99.44
490.786	89.44
491.003	97.44
491.221	83.44
491.439	91.44
491.657	97.44
491.874	90.44
492.092	103.44
492.31	84.44
492.527	103.44
492.745	90.44
492.963	92.44
493.18	106.44
493.398	97.44
493.615	102.44
493.833	98.44
494.05	92.44
494.268	84.44
494.485	97.44
494.703	87.44
494.92	91.44
495.138	97.44
495.355	96.44
495.573	91.44
495.79	95.44
496.008	91.44
496.225	88.44
496.442	84.44
496.66	94.44
496.877	95.44
497.094	105.44
497.312	101.44
497.529	91.44
497.746	96.44
497.963	83.44
498.181	97.44
498.398	102.44
498.615	113.44
498.832	119.44
499.049	104.44
499.267	98.44
499.484	97.44
499.701	89.44
499.918	103.44
500.135	103.44
500.352	90.44
500.569	93.44
500.786	92.44
501.003	86.44
501.22	88.44
501.437	81.44
501.654	105.44
501.871	111.44
502.088	106.44
502.305	101.44
502.522	96.44
502.739	105.44
502.956	98.44
503.172	97.44
503.389	110.44
503.606	105.44
503.823	91.44
504.04	88.44
504.256	86.44
504.473	83.44
504.69	69.44
504.907	95.44
505.123	97.44
505.34	81.44
505.557	85.44
505.773	106.44
505.99	82.44
506.207	96.44
506.423	92.44
506.64	98.44
506.856	91.44
507.073	85.44
507.289	87.44
507.506	91.44
507.722	108.44
507.939	118.44
508.155	99.44
508.372	93.44
508.588	102.44
508.805	97.44
509.021	89.44
509.238	107.44
509.454	101.44
509.67	112.44
509.887	100.44
510.103	136.44
510.319	227.44
510.536	854.44
510.752	2694.44
510.968	735.44
511.184	151.44
511.401	130.44
511.617	99.44
511.833	112.44
512.049	92.44
512.265	113.44
512.481	101.44
512.698	83.44
512.914	98.44
513.13	93.44
513.346	88.44
513.562	99.44
513.778	109.44
513.994	87.44
