Data from Uncirc_2004_H10_HRD10591_00091.txt Node
Date: Wed Jan 03 10:32:31 EST 2024
User: Yrep
Spectrometer: HR+D1059
Trigger mode: 1
Integration Time (sec): 1.000000E-1
Scans to average: 1
Electric dark correction enabled: true
Nonlinearity correction enabled: false
Boxcar width: 0
XAxis mode: Wavelengths
Number of Pixels in Spectrum: 2048
>>>>>Begin Spectral Data<<<<<
223.165	-9.62
223.4	-9.62
223.635	-9.62
223.869	-11.62
224.104	-25.62
224.338	-17.62
224.573	-19.62
224.808	-11.62
225.042	-1.62
225.277	-1.62
225.511	5.38
225.746	9.38
225.98	5.38
226.215	19.38
226.449	14.38
226.683	-0.62
226.918	20.38
227.152	25.38
227.387	30.38
227.621	46.38
227.856	48.38
228.09	38.38
228.324	48.38
228.559	62.38
228.793	55.38
229.027	75.38
229.262	67.38
229.496	72.38
229.73	78.38
229.964	92.38
230.199	66.38
230.433	74.38
230.667	82.38
230.901	67.38
231.136	71.38
231.37	78.38
231.604	87.38
231.838	77.38
232.072	73.38
232.306	75.38
232.541	55.38
232.775	74.38
233.009	79.38
233.243	74.38
233.477	80.38
233.711	70.38
233.945	80.38
234.179	69.38
234.413	71.38
234.647	69.38
234.881	83.38
235.115	77.38
235.349	65.38
235.583	80.38
235.817	65.38
236.051	70.38
236.285	74.38
236.519	81.38
236.753	76.38
236.987	91.38
237.221	94.38
237.455	94.38
237.689	85.38
237.922	68.38
238.156	78.38
238.39	76.38
238.624	71.38
238.858	75.38
239.091	74.38
239.325	74.38
239.559	58.38
239.793	81.38
240.027	74.38
240.26	81.38
240.494	80.38
240.728	86.38
240.961	67.38
241.195	85.38
241.429	78.38
241.662	70.38
241.896	89.38
242.13	82.38
242.363	56.38
242.597	71.38
242.83	63.38
243.064	80.38
243.298	82.38
243.531	91.38
243.765	88.38
243.998	66.38
244.232	68.38
244.465	81.38
244.699	76.38
244.932	69.38
245.166	69.38
245.399	78.38
245.633	81.38
245.866	73.38
246.099	80.38
246.333	95.38
246.566	78.38
246.8	85.38
247.033	91.38
247.266	70.38
247.5	75.38
247.733	72.38
247.966	77.38
248.2	87.38
248.433	79.38
248.666	70.38
248.899	78.38
249.133	77.38
249.366	101.38
249.599	112.38
249.832	83.38
250.066	91.38
250.299	77.38
250.532	91.38
250.765	90.38
250.998	94.38
251.231	76.38
251.465	97.38
251.698	81.38
251.931	83.38
252.164	75.38
252.397	78.38
252.63	75.38
252.863	88.38
253.096	91.38
253.329	68.38
253.562	80.38
253.795	84.38
254.028	87.38
254.261	85.38
254.494	84.38
254.727	77.38
254.96	85.38
255.193	85.38
255.426	81.38
255.659	83.38
255.892	84.38
256.124	87.38
256.357	82.38
256.59	90.38
256.823	80.38
257.056	80.38
257.289	80.38
257.521	79.38
257.754	94.38
257.987	67.38
258.22	77.38
258.452	83.38
258.685	80.38
258.918	71.38
259.151	84.38
259.383	83.38
259.616	88.38
259.849	77.38
260.081	79.38
260.314	91.38
260.547	77.38
260.779	86.38
261.012	69.38
261.244	74.38
261.477	90.38
261.71	98.38
261.942	95.38
262.175	109.38
262.407	85.38
262.64	88.38
262.872	88.38
263.105	118.38
263.337	94.38
263.57	88.38
263.802	77.38
264.035	72.38
264.267	89.38
264.499	64.38
264.732	86.38
264.964	70.38
265.197	61.38
265.429	67.38
265.661	87.38
265.894	76.38
266.126	92.38
266.358	86.38
266.591	72.38
266.823	81.38
267.055	75.38
267.287	80.38
267.52	74.38
267.752	88.38
267.984	75.38
268.216	82.38
268.448	81.38
268.681	81.38
268.913	82.38
269.145	76.38
269.377	83.38
269.609	82.38
269.841	78.38
270.073	79.38
270.306	84.38
270.538	97.38
270.77	85.38
271.002	91.38
271.234	87.38
271.466	95.38
271.698	99.38
271.93	88.38
272.162	79.38
272.394	76.38
272.626	76.38
272.858	76.38
273.09	88.38
273.322	93.38
273.553	80.38
273.785	93.38
274.017	86.38
274.249	81.38
274.481	78.38
274.713	87.38
274.945	78.38
275.176	76.38
275.408	93.38
275.64	98.38
275.872	83.38
276.104	84.38
276.335	82.38
276.567	97.38
276.799	112.38
277.031	92.38
277.262	76.38
277.494	84.38
277.726	89.38
277.957	88.38
278.189	94.38
278.421	90.38
278.652	87.38
278.884	79.38
279.115	84.38
279.347	88.38
279.579	70.38
279.81	85.38
280.042	81.38
280.273	83.38
280.505	96.38
280.736	84.38
280.968	89.38
281.199	96.38
281.431	79.38
281.662	75.38
281.894	97.38
282.125	95.38
282.356	104.38
282.588	123.38
282.819	103.38
283.051	111.38
283.282	78.38
283.513	91.38
283.745	81.38
283.976	84.38
284.207	84.38
284.439	85.38
284.67	92.38
284.901	88.38
285.132	82.38
285.364	102.38
285.595	91.38
285.826	87.38
286.057	93.38
286.288	86.38
286.52	94.38
286.751	76.38
286.982	90.38
287.213	83.38
287.444	86.38
287.675	87.38
287.906	87.38
288.138	77.38
288.369	82.38
288.6	97.38
288.831	77.38
289.062	85.38
289.293	87.38
289.524	80.38
289.755	88.38
289.986	88.38
290.217	85.38
290.448	83.38
290.679	90.38
290.91	92.38
291.141	95.38
291.371	91.38
291.602	85.38
291.833	83.38
292.064	82.38
292.295	84.38
292.526	78.38
292.757	89.38
292.987	88.38
293.218	75.38
293.449	72.38
293.68	103.38
293.91	76.38
294.141	98.38
294.372	88.38
294.603	82.38
294.833	75.38
295.064	83.38
295.295	85.38
295.525	92.38
295.756	98.38
295.987	126.38
296.217	134.38
296.448	102.38
296.679	100.38
296.909	95.38
297.14	95.38
297.37	97.38
297.601	95.38
297.831	78.38
298.062	104.38
298.292	101.38
298.523	94.38
298.753	92.38
298.984	74.38
299.214	98.38
299.445	85.38
299.675	92.38
299.905	94.38
300.136	95.38
300.366	78.38
300.597	77.38
300.827	109.38
301.057	110.38
301.288	109.38
301.518	107.38
301.748	77.38
301.979	88.38
302.209	91.38
302.439	85.38
302.669	83.38
302.9	90.38
303.13	101.38
303.36	88.38
303.59	100.38
303.82	111.38
304.051	90.38
304.281	78.38
304.511	75.38
304.741	79.38
304.971	81.38
305.201	92.38
305.431	94.38
305.661	87.38
305.891	93.38
306.121	107.38
306.352	107.38
306.582	101.38
306.812	109.38
307.042	78.38
307.272	87.38
307.502	94.38
307.731	87.38
307.961	94.38
308.191	96.38
308.421	87.38
308.651	79.38
308.881	94.38
309.111	86.38
309.341	86.38
309.571	88.38
309.8	102.38
310.03	101.38
310.26	96.38
310.49	74.38
310.72	93.38
310.949	91.38
311.179	86.38
311.409	107.38
311.639	93.38
311.868	96.38
312.098	91.38
312.328	92.38
312.557	104.38
312.787	99.38
313.017	90.38
313.246	98.38
313.476	85.38
313.706	99.38
313.935	97.38
314.165	94.38
314.394	103.38
314.624	72.38
314.853	75.38
315.083	83.38
315.312	89.38
315.542	103.38
315.771	98.38
316.001	91.38
316.23	99.38
316.46	97.38
316.689	74.38
316.919	96.38
317.148	88.38
317.377	94.38
317.607	95.38
317.836	91.38
318.065	91.38
318.295	86.38
318.524	93.38
318.753	100.38
318.983	96.38
319.212	91.38
319.441	86.38
319.67	111.38
319.9	89.38
320.129	92.38
320.358	82.38
320.587	84.38
320.816	100.38
321.046	90.38
321.275	94.38
321.504	91.38
321.733	97.38
321.962	94.38
322.191	103.38
322.42	103.38
322.649	116.38
322.878	131.38
323.108	114.38
323.337	124.38
323.566	126.38
323.795	140.38
324.024	197.38
324.253	418.38
324.482	848.38
324.71	1730.38
324.939	2257.38
325.168	823.38
325.397	245.38
325.626	146.38
325.855	129.38
326.084	123.38
326.313	118.38
326.542	142.38
326.77	244.38
326.999	478.38
327.228	976.38
327.457	1771.38
327.686	1390.38
327.914	374.38
328.143	181.38
328.372	145.38
328.6	114.38
328.829	89.38
329.058	118.38
329.287	126.38
329.515	108.38
329.744	111.38
329.972	97.38
330.201	101.38
330.43	110.38
330.658	122.38
330.887	149.38
331.115	107.38
331.344	100.38
331.572	91.38
331.801	87.38
332.03	106.38
332.258	98.38
332.486	90.38
332.715	86.38
332.943	82.38
333.172	85.38
333.4	95.38
333.629	103.38
333.857	104.38
334.085	102.38
334.314	87.38
334.542	105.38
334.771	118.38
334.999	106.38
335.227	106.38
335.455	105.38
335.684	83.38
335.912	102.38
336.14	94.38
336.369	84.38
336.597	96.38
336.825	99.38
337.053	88.38
337.281	97.38
337.51	91.38
337.738	94.38
337.966	78.38
338.194	91.38
338.422	69.38
338.65	93.38
338.878	110.38
339.106	89.38
339.334	83.38
339.562	101.38
339.79	85.38
340.018	86.38
340.246	84.38
340.474	85.38
340.702	88.38
340.93	84.38
341.158	91.38
341.386	101.38
341.614	94.38
341.842	94.38
342.07	93.38
342.298	85.38
342.526	86.38
342.754	83.38
342.981	86.38
343.209	92.38
343.437	116.38
343.665	104.38
343.893	87.38
344.12	88.38
344.348	90.38
344.576	94.38
344.804	95.38
345.031	88.38
345.259	92.38
345.487	84.38
345.714	104.38
345.942	91.38
346.17	79.38
346.397	99.38
346.625	95.38
346.853	82.38
347.08	88.38
347.308	99.38
347.535	87.38
347.763	102.38
347.99	94.38
348.218	95.38
348.445	105.38
348.673	111.38
348.9	96.38
349.128	75.38
349.355	101.38
349.583	96.38
349.81	93.38
350.037	77.38
350.265	86.38
350.492	86.38
350.72	106.38
350.947	99.38
351.174	99.38
351.402	115.38
351.629	94.38
351.856	99.38
352.083	99.38
352.311	117.38
352.538	106.38
352.765	103.38
352.992	124.38
353.22	100.38
353.447	112.38
353.674	104.38
353.901	100.38
354.128	102.38
354.355	86.38
354.583	97.38
354.81	110.38
355.037	88.38
355.264	104.38
355.491	88.38
355.718	87.38
355.945	72.38
356.172	86.38
356.399	93.38
356.626	89.38
356.853	88.38
357.08	88.38
357.307	94.38
357.534	96.38
357.761	81.38
357.988	89.38
358.215	90.38
358.441	94.38
358.668	95.38
358.895	88.38
359.122	98.38
359.349	93.38
359.576	96.38
359.802	99.38
360.029	115.38
360.256	112.38
360.483	117.38
360.709	74.38
360.936	106.38
361.163	77.38
361.39	104.38
361.616	106.38
361.843	82.38
362.07	94.38
362.296	84.38
362.523	95.38
362.749	77.38
362.976	84.38
363.203	97.38
363.429	94.38
363.656	79.38
363.882	92.38
364.109	90.38
364.335	97.38
364.562	92.38
364.788	91.38
365.015	83.38
365.241	101.38
365.468	107.38
365.694	102.38
365.92	93.38
366.147	91.38
366.373	82.38
366.599	100.38
366.826	83.38
367.052	87.38
367.278	90.38
367.505	85.38
367.731	83.38
367.957	81.38
368.184	93.38
368.41	86.38
368.636	107.38
368.862	109.38
369.089	100.38
369.315	87.38
369.541	91.38
369.767	74.38
369.993	90.38
370.219	89.38
370.445	69.38
370.672	85.38
370.898	88.38
371.124	80.38
371.35	93.38
371.576	80.38
371.802	77.38
372.028	84.38
372.254	76.38
372.48	82.38
372.706	100.38
372.932	85.38
373.158	96.38
373.384	93.38
373.61	93.38
373.835	83.38
374.061	113.38
374.287	83.38
374.513	74.38
374.739	89.38
374.965	95.38
375.191	90.38
375.416	93.38
375.642	90.38
375.868	97.38
376.094	84.38
376.319	92.38
376.545	72.38
376.771	80.38
376.997	82.38
377.222	69.38
377.448	77.38
377.674	85.38
377.899	93.38
378.125	69.38
378.35	90.38
378.576	96.38
378.802	74.38
379.027	82.38
379.253	89.38
379.478	96.38
379.704	86.38
379.929	93.38
380.155	88.38
380.38	116.38
380.606	94.38
380.831	91.38
381.057	99.38
381.282	88.38
381.507	73.38
381.733	94.38
381.958	96.38
382.184	96.38
382.409	87.38
382.634	92.38
382.86	90.38
383.085	93.38
383.31	97.38
383.535	89.38
383.761	90.38
383.986	88.38
384.211	93.38
384.436	94.38
384.662	95.38
384.887	100.38
385.112	92.38
385.337	89.38
385.562	94.38
385.787	92.38
386.013	96.38
386.238	103.38
386.463	95.38
386.688	112.38
386.913	94.38
387.138	110.38
387.363	106.38
387.588	87.38
387.813	99.38
388.038	102.38
388.263	103.38
388.488	109.38
388.713	88.38
388.938	90.38
389.163	103.38
389.387	97.38
389.612	99.38
389.837	86.38
390.062	95.38
390.287	74.38
390.512	88.38
390.736	70.38
390.961	104.38
391.186	91.38
391.411	84.38
391.636	84.38
391.86	91.38
392.085	80.38
392.31	87.38
392.534	91.38
392.759	82.38
392.984	77.38
393.208	76.38
393.433	78.38
393.658	83.38
393.882	83.38
394.107	82.38
394.331	88.38
394.556	94.38
394.78	85.38
395.005	93.38
395.229	74.38
395.454	70.38
395.678	86.38
395.903	87.38
396.127	86.38
396.352	85.38
396.576	92.38
396.801	83.38
397.025	87.38
397.249	96.38
397.474	87.38
397.698	94.38
397.922	78.38
398.147	91.38
398.371	92.38
398.595	69.38
398.82	91.38
399.044	83.38
399.268	88.38
399.492	85.38
399.717	93.38
399.941	80.38
400.165	98.38
400.389	86.38
400.613	82.38
400.837	91.38
401.062	85.38
401.286	81.38
401.51	87.38
401.734	86.38
401.958	94.38
402.182	125.38
402.406	147.38
402.63	115.38
402.854	90.38
403.078	89.38
403.302	86.38
403.526	93.38
403.75	100.38
403.974	94.38
404.198	81.38
404.422	83.38
404.645	89.38
404.869	74.38
405.093	107.38
405.317	99.38
405.541	95.38
405.765	105.38
405.988	109.38
406.212	171.38
406.436	213.38
406.66	150.38
406.883	102.38
407.107	80.38
407.331	88.38
407.555	87.38
407.778	97.38
408.002	94.38
408.226	100.38
408.449	88.38
408.673	93.38
408.896	94.38
409.12	83.38
409.344	76.38
409.567	80.38
409.791	88.38
410.014	89.38
410.238	85.38
410.461	98.38
410.685	81.38
410.908	96.38
411.132	92.38
411.355	102.38
411.578	80.38
411.802	89.38
412.025	91.38
412.249	94.38
412.472	85.38
412.695	77.38
412.919	79.38
413.142	90.38
413.365	91.38
413.589	90.38
413.812	93.38
414.035	103.38
414.258	77.38
414.482	81.38
414.705	78.38
414.928	86.38
415.151	91.38
415.374	88.38
415.597	78.38
415.821	97.38
416.044	94.38
416.267	86.38
416.49	77.38
416.713	84.38
416.936	90.38
417.159	83.38
417.382	87.38
417.605	87.38
417.828	95.38
418.051	84.38
418.274	87.38
418.497	77.38
418.72	91.38
418.943	72.38
419.166	79.38
419.389	77.38
419.611	91.38
419.834	95.38
420.057	91.38
420.28	80.38
420.503	74.38
420.726	68.38
420.948	83.38
421.171	95.38
421.394	85.38
421.617	95.38
421.839	83.38
422.062	97.38
422.285	86.38
422.507	93.38
422.73	105.38
422.953	98.38
423.175	89.38
423.398	83.38
423.621	90.38
423.843	85.38
424.066	78.38
424.288	77.38
424.511	85.38
424.733	101.38
424.956	99.38
425.178	94.38
425.401	103.38
425.623	96.38
425.846	101.38
426.068	90.38
426.291	102.38
426.513	84.38
426.735	86.38
426.958	93.38
427.18	80.38
427.402	128.38
427.625	163.38
427.847	129.38
428.069	95.38
428.292	94.38
428.514	78.38
428.736	76.38
428.958	88.38
429.181	87.38
429.403	95.38
429.625	95.38
429.847	90.38
430.069	98.38
430.292	95.38
430.514	72.38
430.736	78.38
430.958	79.38
431.18	75.38
431.402	85.38
431.624	94.38
431.846	83.38
432.068	68.38
432.29	83.38
432.512	90.38
432.734	98.38
432.956	85.38
433.178	92.38
433.4	96.38
433.622	89.38
433.844	98.38
434.066	79.38
434.287	82.38
434.509	93.38
434.731	101.38
434.953	71.38
435.175	84.38
435.397	87.38
435.618	88.38
435.84	103.38
436.062	110.38
436.284	97.38
436.505	108.38
436.727	100.38
436.949	80.38
437.17	84.38
437.392	79.38
437.614	82.38
437.835	102.38
438.057	103.38
438.278	111.38
438.5	106.38
438.721	110.38
438.943	97.38
439.165	77.38
439.386	99.38
439.608	90.38
439.829	102.38
440.05	114.38
440.272	136.38
440.493	106.38
440.715	87.38
440.936	79.38
441.158	88.38
441.379	90.38
441.6	70.38
441.822	83.38
442.043	91.38
442.264	96.38
442.486	93.38
442.707	96.38
442.928	100.38
443.149	116.38
443.371	128.38
443.592	93.38
443.813	107.38
444.034	98.38
444.255	93.38
444.476	95.38
444.698	86.38
444.919	83.38
445.14	133.38
445.361	122.38
445.582	112.38
445.803	146.38
446.024	113.38
446.245	124.38
446.466	102.38
446.687	82.38
446.908	82.38
447.129	92.38
447.35	88.38
447.571	83.38
447.792	80.38
448.013	103.38
448.234	89.38
448.455	104.38
448.675	92.38
448.896	111.38
449.117	102.38
449.338	106.38
449.559	130.38
449.779	127.38
450	84.38
450.221	90.38
450.442	88.38
450.662	94.38
450.883	93.38
451.104	90.38
451.324	85.38
451.545	78.38
451.766	95.38
451.986	79.38
452.207	90.38
452.428	92.38
452.648	98.38
452.869	116.38
453.089	98.38
453.31	98.38
453.53	91.38
453.751	78.38
453.971	98.38
454.192	111.38
454.412	82.38
454.633	96.38
454.853	100.38
455.073	87.38
455.294	74.38
455.514	87.38
455.734	81.38
455.955	83.38
456.175	83.38
456.395	83.38
456.616	71.38
456.836	95.38
457.056	79.38
457.276	77.38
457.497	66.38
457.717	85.38
457.937	87.38
458.157	78.38
458.377	85.38
458.598	107.38
458.818	150.38
459.038	160.38
459.258	122.38
459.478	91.38
459.698	92.38
459.918	85.38
460.138	91.38
460.358	78.38
460.578	81.38
460.798	87.38
461.018	89.38
461.238	88.38
461.458	83.38
461.678	95.38
461.898	71.38
462.118	78.38
462.338	79.38
462.558	77.38
462.777	82.38
462.997	79.38
463.217	84.38
463.437	92.38
463.657	98.38
463.876	91.38
464.096	78.38
464.316	87.38
464.536	83.38
464.755	91.38
464.975	112.38
465.195	170.38
465.414	166.38
465.634	81.38
465.854	85.38
466.073	94.38
466.293	88.38
466.512	72.38
466.732	93.38
466.951	78.38
467.171	80.38
467.391	89.38
467.61	101.38
467.829	83.38
468.049	90.38
468.268	91.38
468.488	89.38
468.707	87.38
468.927	90.38
469.146	85.38
469.365	87.38
469.585	87.38
469.804	81.38
470.023	82.38
470.243	95.38
470.462	100.38
470.681	111.38
470.901	79.38
471.12	75.38
471.339	76.38
471.558	96.38
471.777	75.38
471.997	85.38
472.216	74.38
472.435	108.38
472.654	81.38
472.873	83.38
473.092	81.38
473.311	96.38
473.53	95.38
473.749	79.38
473.968	87.38
474.187	97.38
474.406	106.38
474.625	95.38
474.844	89.38
475.063	93.38
475.282	82.38
475.501	92.38
475.72	86.38
475.939	82.38
476.158	93.38
476.377	84.38
476.596	90.38
476.814	94.38
477.033	98.38
477.252	78.38
477.471	83.38
477.69	79.38
477.908	87.38
478.127	88.38
478.346	82.38
478.564	92.38
478.783	88.38
479.002	96.38
479.22	85.38
479.439	90.38
479.658	92.38
479.876	79.38
480.095	78.38
480.313	76.38
480.532	94.38
480.751	76.38
480.969	87.38
481.188	116.38
481.406	102.38
481.624	104.38
481.843	85.38
482.061	74.38
482.28	77.38
482.498	84.38
482.717	92.38
482.935	100.38
483.153	86.38
483.372	84.38
483.59	87.38
483.808	92.38
484.027	101.38
484.245	103.38
484.463	98.38
484.681	109.38
484.9	92.38
485.118	82.38
485.336	89.38
485.554	85.38
485.772	95.38
485.99	85.38
486.209	96.38
486.427	98.38
486.645	104.38
486.863	100.38
487.081	97.38
487.299	95.38
487.517	91.38
487.735	91.38
487.953	94.38
488.171	99.38
488.389	109.38
488.607	88.38
488.825	96.38
489.043	74.38
489.261	101.38
489.479	98.38
489.696	88.38
489.914	91.38
490.132	103.38
490.35	97.38
490.568	86.38
490.786	75.38
491.003	96.38
491.221	92.38
491.439	86.38
491.657	93.38
491.874	96.38
492.092	103.38
492.31	103.38
492.527	93.38
492.745	82.38
492.963	91.38
493.18	86.38
493.398	86.38
493.615	97.38
493.833	75.38
494.05	84.38
494.268	81.38
494.485	95.38
494.703	90.38
494.92	91.38
495.138	84.38
495.355	82.38
495.573	85.38
495.79	79.38
496.008	86.38
496.225	94.38
496.442	81.38
496.66	68.38
496.877	100.38
497.094	97.38
497.312	87.38
497.529	93.38
497.746	93.38
497.963	98.38
498.181	89.38
498.398	92.38
498.615	107.38
498.832	101.38
499.049	90.38
499.267	103.38
499.484	83.38
499.701	92.38
499.918	86.38
500.135	90.38
500.352	84.38
500.569	88.38
500.786	102.38
501.003	95.38
501.22	70.38
501.437	96.38
501.654	98.38
501.871	97.38
502.088	85.38
502.305	86.38
502.522	88.38
502.739	101.38
502.956	94.38
503.172	87.38
503.389	86.38
503.606	109.38
503.823	101.38
504.04	89.38
504.256	92.38
504.473	82.38
504.69	84.38
504.907	95.38
505.123	82.38
505.34	92.38
505.557	93.38
505.773	84.38
505.99	79.38
506.207	83.38
506.423	88.38
506.64	85.38
506.856	83.38
507.073	89.38
507.289	94.38
507.506	90.38
507.722	114.38
507.939	100.38
508.155	91.38
508.372	88.38
508.588	77.38
508.805	94.38
509.021	88.38
509.238	88.38
509.454	96.38
509.67	93.38
509.887	106.38
510.103	140.38
510.319	226.38
510.536	836.38
510.752	2666.38
510.968	722.38
511.184	166.38
511.401	107.38
511.617	102.38
511.833	93.38
512.049	95.38
512.265	96.38
512.481	94.38
512.698	79.38
512.914	107.38
513.13	97.38
513.346	104.38
513.562	85.38
513.778	99.38
513.994	83.38
514.21	104.38
514.426	116.38
514.642	136.38
514.858	126.38
515.074	168.38
515.29	470.38
515.506	1586.38
515.721	596.38
515.937	143.38
516.153	115.38
516.369	98.38
516.585	87.38
