Data from Uncirc_2004_H10_HRD10591_00047.txt Node
Date: Wed Jan 03 10:32:22 EST 2024
User: Yrep
Spectrometer: HR+D1059
Trigger mode: 1
Integration Time (sec): 1.000000E-1
Scans to average: 1
Electric dark correction enabled: true
Nonlinearity correction enabled: false
Boxcar width: 0
XAxis mode: Wavelengths
Number of Pixels in Spectrum: 2048
>>>>>Begin Spectral Data<<<<<
223.165	-15.94
223.4	-15.94
223.635	-15.94
223.869	-22.94
224.104	-18.94
224.338	-19.94
224.573	5.06
224.808	-14.94
225.042	-17.94
225.277	-5.94
225.511	-4.94
225.746	16.06
225.98	18.06
226.215	17.06
226.449	2.06
226.683	11.06
226.918	29.06
227.152	23.06
227.387	41.06
227.621	36.06
227.856	64.06
228.09	55.06
228.324	47.06
228.559	63.06
228.793	60.06
229.027	78.06
229.262	68.06
229.496	59.06
229.73	76.06
229.964	82.06
230.199	55.06
230.433	82.06
230.667	92.06
230.901	69.06
231.136	64.06
231.37	85.06
231.604	70.06
231.838	76.06
232.072	89.06
232.306	83.06
232.541	70.06
232.775	76.06
233.009	80.06
233.243	73.06
233.477	97.06
233.711	70.06
233.945	101.06
234.179	86.06
234.413	72.06
234.647	84.06
234.881	82.06
235.115	84.06
235.349	82.06
235.583	92.06
235.817	81.06
236.051	81.06
236.285	92.06
236.519	86.06
236.753	72.06
236.987	93.06
237.221	96.06
237.455	77.06
237.689	84.06
237.922	80.06
238.156	57.06
238.39	70.06
238.624	73.06
238.858	90.06
239.091	66.06
239.325	85.06
239.559	78.06
239.793	88.06
240.027	82.06
240.26	88.06
240.494	61.06
240.728	80.06
240.961	83.06
241.195	79.06
241.429	80.06
241.662	67.06
241.896	74.06
242.13	74.06
242.363	77.06
242.597	80.06
242.83	75.06
243.064	79.06
243.298	81.06
243.531	81.06
243.765	81.06
243.998	76.06
244.232	76.06
244.465	84.06
244.699	82.06
244.932	77.06
245.166	76.06
245.399	97.06
245.633	86.06
245.866	66.06
246.099	86.06
246.333	70.06
246.566	68.06
246.8	89.06
247.033	80.06
247.266	83.06
247.5	80.06
247.733	86.06
247.966	74.06
248.2	87.06
248.433	95.06
248.666	77.06
248.899	78.06
249.133	88.06
249.366	79.06
249.599	94.06
249.832	84.06
250.066	86.06
250.299	90.06
250.532	80.06
250.765	86.06
250.998	82.06
251.231	85.06
251.465	79.06
251.698	62.06
251.931	81.06
252.164	89.06
252.397	78.06
252.63	85.06
252.863	85.06
253.096	72.06
253.329	80.06
253.562	69.06
253.795	87.06
254.028	76.06
254.261	86.06
254.494	99.06
254.727	85.06
254.96	70.06
255.193	82.06
255.426	81.06
255.659	87.06
255.892	75.06
256.124	81.06
256.357	86.06
256.59	82.06
256.823	89.06
257.056	84.06
257.289	76.06
257.521	79.06
257.754	93.06
257.987	79.06
258.22	92.06
258.452	80.06
258.685	86.06
258.918	78.06
259.151	79.06
259.383	81.06
259.616	79.06
259.849	87.06
260.081	76.06
260.314	86.06
260.547	73.06
260.779	82.06
261.012	77.06
261.244	90.06
261.477	98.06
261.71	84.06
261.942	108.06
262.175	110.06
262.407	106.06
262.64	74.06
262.872	79.06
263.105	64.06
263.337	77.06
263.57	85.06
263.802	93.06
264.035	96.06
264.267	84.06
264.499	81.06
264.732	79.06
264.964	87.06
265.197	76.06
265.429	79.06
265.661	79.06
265.894	82.06
266.126	84.06
266.358	82.06
266.591	87.06
266.823	84.06
267.055	86.06
267.287	80.06
267.52	82.06
267.752	72.06
267.984	74.06
268.216	74.06
268.448	83.06
268.681	96.06
268.913	95.06
269.145	90.06
269.377	79.06
269.609	99.06
269.841	94.06
270.073	86.06
270.306	71.06
270.538	79.06
270.77	94.06
271.002	92.06
271.234	92.06
271.466	78.06
271.698	85.06
271.93	90.06
272.162	84.06
272.394	87.06
272.626	82.06
272.858	85.06
273.09	79.06
273.322	89.06
273.553	86.06
273.785	84.06
274.017	86.06
274.249	95.06
274.481	82.06
274.713	94.06
274.945	104.06
275.176	86.06
275.408	79.06
275.64	79.06
275.872	74.06
276.104	89.06
276.335	93.06
276.567	100.06
276.799	101.06
277.031	105.06
277.262	85.06
277.494	95.06
277.726	76.06
277.957	83.06
278.189	91.06
278.421	82.06
278.652	83.06
278.884	82.06
279.115	89.06
279.347	85.06
279.579	87.06
279.81	89.06
280.042	79.06
280.273	87.06
280.505	96.06
280.736	90.06
280.968	74.06
281.199	82.06
281.431	87.06
281.662	88.06
281.894	91.06
282.125	97.06
282.356	119.06
282.588	130.06
282.819	108.06
283.051	75.06
283.282	84.06
283.513	94.06
283.745	81.06
283.976	81.06
284.207	114.06
284.439	91.06
284.67	104.06
284.901	88.06
285.132	76.06
285.364	86.06
285.595	90.06
285.826	88.06
286.057	93.06
286.288	85.06
286.52	94.06
286.751	85.06
286.982	82.06
287.213	84.06
287.444	93.06
287.675	99.06
287.906	103.06
288.138	85.06
288.369	76.06
288.6	93.06
288.831	79.06
289.062	107.06
289.293	91.06
289.524	86.06
289.755	76.06
289.986	86.06
290.217	82.06
290.448	76.06
290.679	84.06
290.91	77.06
291.141	87.06
291.371	85.06
291.602	84.06
291.833	86.06
292.064	87.06
292.295	85.06
292.526	87.06
292.757	88.06
292.987	80.06
293.218	86.06
293.449	82.06
293.68	91.06
293.91	79.06
294.141	94.06
294.372	83.06
294.603	78.06
294.833	91.06
295.064	86.06
295.295	97.06
295.525	103.06
295.756	105.06
295.987	113.06
296.217	144.06
296.448	121.06
296.679	92.06
296.909	97.06
297.14	95.06
297.37	90.06
297.601	92.06
297.831	86.06
298.062	87.06
298.292	87.06
298.523	87.06
298.753	90.06
298.984	97.06
299.214	93.06
299.445	79.06
299.675	90.06
299.905	78.06
300.136	82.06
300.366	81.06
300.597	79.06
300.827	83.06
301.057	78.06
301.288	89.06
301.518	95.06
301.748	93.06
301.979	104.06
302.209	90.06
302.439	86.06
302.669	96.06
302.9	91.06
303.13	98.06
303.36	85.06
303.59	83.06
303.82	96.06
304.051	110.06
304.281	90.06
304.511	85.06
304.741	89.06
304.971	93.06
305.201	89.06
305.431	89.06
305.661	82.06
305.891	97.06
306.121	100.06
306.352	93.06
306.582	102.06
306.812	89.06
307.042	104.06
307.272	85.06
307.502	95.06
307.731	99.06
307.961	81.06
308.191	96.06
308.421	99.06
308.651	85.06
308.881	89.06
309.111	78.06
309.341	96.06
309.571	98.06
309.8	102.06
310.03	89.06
310.26	68.06
310.49	109.06
310.72	102.06
310.949	88.06
311.179	84.06
311.409	96.06
311.639	80.06
311.868	95.06
312.098	86.06
312.328	83.06
312.557	88.06
312.787	98.06
313.017	101.06
313.246	105.06
313.476	96.06
313.706	86.06
313.935	89.06
314.165	90.06
314.394	94.06
314.624	96.06
314.853	102.06
315.083	88.06
315.312	81.06
315.542	93.06
315.771	95.06
316.001	87.06
316.23	81.06
316.46	89.06
316.689	88.06
316.919	99.06
317.148	100.06
317.377	93.06
317.607	92.06
317.836	99.06
318.065	88.06
318.295	83.06
318.524	96.06
318.753	81.06
318.983	101.06
319.212	112.06
319.441	98.06
319.67	100.06
319.9	100.06
320.129	81.06
320.358	87.06
320.587	100.06
320.816	96.06
321.046	82.06
321.275	85.06
321.504	92.06
321.733	84.06
321.962	103.06
322.191	95.06
322.42	101.06
322.649	92.06
322.878	113.06
323.108	107.06
323.337	111.06
323.566	129.06
323.795	140.06
324.024	192.06
324.253	362.06
324.482	784.06
324.71	1588.06
324.939	2081.06
325.168	768.06
325.397	235.06
325.626	152.06
325.855	128.06
326.084	130.06
326.313	125.06
326.542	162.06
326.77	214.06
326.999	459.06
327.228	896.06
327.457	1590.06
327.686	1257.06
327.914	342.06
328.143	179.06
328.372	142.06
328.6	118.06
328.829	121.06
329.058	120.06
329.287	118.06
329.515	125.06
329.744	94.06
329.972	98.06
330.201	93.06
330.43	102.06
330.658	107.06
330.887	142.06
331.115	132.06
331.344	103.06
331.572	85.06
331.801	97.06
332.03	93.06
332.258	92.06
332.486	88.06
332.715	98.06
332.943	98.06
333.172	104.06
333.4	95.06
333.629	98.06
333.857	108.06
334.085	94.06
334.314	94.06
334.542	109.06
334.771	102.06
334.999	106.06
335.227	97.06
335.455	90.06
335.684	97.06
335.912	96.06
336.14	92.06
336.369	95.06
336.597	81.06
336.825	100.06
337.053	105.06
337.281	90.06
337.51	80.06
337.738	80.06
337.966	94.06
338.194	99.06
338.422	78.06
338.65	85.06
338.878	90.06
339.106	81.06
339.334	77.06
339.562	94.06
339.79	97.06
340.018	101.06
340.246	86.06
340.474	94.06
340.702	90.06
340.93	94.06
341.158	88.06
341.386	95.06
341.614	96.06
341.842	91.06
342.07	93.06
342.298	94.06
342.526	91.06
342.754	88.06
342.981	96.06
343.209	95.06
343.437	96.06
343.665	88.06
343.893	84.06
344.12	94.06
344.348	87.06
344.576	85.06
344.804	89.06
345.031	98.06
345.259	96.06
345.487	97.06
345.714	95.06
345.942	85.06
346.17	84.06
346.397	100.06
346.625	100.06
346.853	85.06
347.08	97.06
347.308	99.06
347.535	86.06
347.763	87.06
347.99	105.06
348.218	105.06
348.445	111.06
348.673	104.06
348.9	94.06
349.128	86.06
349.355	94.06
349.583	93.06
349.81	94.06
350.037	102.06
350.265	97.06
350.492	84.06
350.72	98.06
350.947	111.06
351.174	99.06
351.402	100.06
351.629	103.06
351.856	94.06
352.083	93.06
352.311	112.06
352.538	101.06
352.765	101.06
352.992	101.06
353.22	97.06
353.447	98.06
353.674	101.06
353.901	100.06
354.128	105.06
354.355	97.06
354.583	95.06
354.81	103.06
355.037	105.06
355.264	85.06
355.491	108.06
355.718	103.06
355.945	108.06
356.172	112.06
356.399	103.06
356.626	94.06
356.853	88.06
357.08	89.06
357.307	95.06
357.534	92.06
357.761	98.06
357.988	93.06
358.215	104.06
358.441	98.06
358.668	99.06
358.895	92.06
359.122	88.06
359.349	96.06
359.576	80.06
359.802	99.06
360.029	127.06
360.256	101.06
360.483	88.06
360.709	76.06
360.936	80.06
361.163	92.06
361.39	84.06
361.616	87.06
361.843	86.06
362.07	103.06
362.296	84.06
362.523	81.06
362.749	97.06
362.976	94.06
363.203	90.06
363.429	107.06
363.656	82.06
363.882	83.06
364.109	76.06
364.335	95.06
364.562	81.06
364.788	92.06
365.015	87.06
365.241	77.06
365.468	104.06
365.694	97.06
365.92	99.06
366.147	76.06
366.373	79.06
366.599	101.06
366.826	98.06
367.052	90.06
367.278	74.06
367.505	89.06
367.731	96.06
367.957	90.06
368.184	85.06
368.41	100.06
368.636	102.06
368.862	125.06
369.089	103.06
369.315	78.06
369.541	96.06
369.767	91.06
369.993	80.06
370.219	87.06
370.445	87.06
370.672	89.06
370.898	77.06
371.124	80.06
371.35	89.06
371.576	76.06
371.802	94.06
372.028	85.06
372.254	66.06
372.48	86.06
372.706	82.06
372.932	85.06
373.158	89.06
373.384	81.06
373.61	88.06
373.835	91.06
374.061	90.06
374.287	90.06
374.513	86.06
374.739	92.06
374.965	87.06
375.191	87.06
375.416	83.06
375.642	93.06
375.868	96.06
376.094	90.06
376.319	89.06
376.545	85.06
376.771	75.06
376.997	72.06
377.222	99.06
377.448	101.06
377.674	94.06
377.899	85.06
378.125	84.06
378.35	81.06
378.576	82.06
378.802	96.06
379.027	97.06
379.253	93.06
379.478	101.06
379.704	88.06
379.929	93.06
380.155	98.06
380.38	104.06
380.606	94.06
380.831	89.06
381.057	95.06
381.282	98.06
381.507	80.06
381.733	89.06
381.958	102.06
382.184	85.06
382.409	89.06
382.634	101.06
382.86	87.06
383.085	91.06
383.31	104.06
383.535	99.06
383.761	92.06
383.986	94.06
384.211	112.06
384.436	109.06
384.662	109.06
384.887	96.06
385.112	106.06
385.337	113.06
385.562	127.06
385.787	109.06
386.013	117.06
386.238	112.06
386.463	107.06
386.688	117.06
386.913	83.06
387.138	106.06
387.363	102.06
387.588	114.06
387.813	115.06
388.038	126.06
388.263	117.06
388.488	133.06
388.713	89.06
388.938	93.06
389.163	87.06
389.387	94.06
389.612	95.06
389.837	95.06
390.062	105.06
390.287	90.06
390.512	89.06
390.736	89.06
390.961	94.06
391.186	95.06
391.411	88.06
391.636	86.06
391.86	94.06
392.085	86.06
392.31	90.06
392.534	77.06
392.759	94.06
392.984	71.06
393.208	83.06
393.433	111.06
393.658	70.06
393.882	103.06
394.107	75.06
394.331	96.06
394.556	79.06
394.78	79.06
395.005	93.06
395.229	90.06
395.454	87.06
395.678	81.06
395.903	94.06
396.127	71.06
396.352	87.06
396.576	78.06
396.801	84.06
397.025	97.06
397.249	80.06
397.474	93.06
397.698	85.06
397.922	81.06
398.147	87.06
398.371	81.06
398.595	87.06
398.82	93.06
399.044	94.06
399.268	83.06
399.492	88.06
399.717	91.06
399.941	81.06
400.165	99.06
400.389	80.06
400.613	80.06
400.837	72.06
401.062	85.06
401.286	93.06
401.51	87.06
401.734	87.06
401.958	98.06
402.182	130.06
402.406	136.06
402.63	99.06
402.854	82.06
403.078	80.06
403.302	85.06
403.526	72.06
403.75	89.06
403.974	68.06
404.198	80.06
404.422	86.06
404.645	94.06
404.869	109.06
405.093	96.06
405.317	88.06
405.541	91.06
405.765	96.06
405.988	94.06
406.212	180.06
406.436	216.06
406.66	146.06
406.883	87.06
407.107	86.06
407.331	90.06
407.555	90.06
407.778	88.06
408.002	101.06
408.226	76.06
408.449	76.06
408.673	92.06
408.896	91.06
409.12	94.06
409.344	110.06
409.567	91.06
409.791	84.06
410.014	92.06
410.238	90.06
410.461	89.06
410.685	73.06
410.908	102.06
411.132	103.06
411.355	95.06
411.578	91.06
411.802	84.06
412.025	83.06
412.249	87.06
412.472	87.06
412.695	96.06
412.919	85.06
413.142	94.06
413.365	80.06
413.589	84.06
413.812	95.06
414.035	100.06
414.258	102.06
414.482	78.06
414.705	75.06
414.928	86.06
415.151	94.06
415.374	96.06
415.597	87.06
415.821	96.06
416.044	97.06
416.267	86.06
416.49	88.06
416.713	79.06
416.936	89.06
417.159	81.06
417.382	82.06
417.605	89.06
417.828	88.06
418.051	92.06
418.274	79.06
418.497	84.06
418.72	82.06
418.943	90.06
419.166	94.06
419.389	72.06
419.611	87.06
419.834	93.06
420.057	87.06
420.28	87.06
420.503	85.06
420.726	83.06
420.948	78.06
421.171	84.06
421.394	83.06
421.617	93.06
421.839	94.06
422.062	82.06
422.285	91.06
422.507	96.06
422.73	91.06
422.953	85.06
423.175	86.06
423.398	79.06
423.621	90.06
423.843	83.06
424.066	83.06
424.288	79.06
424.511	95.06
424.733	79.06
424.956	116.06
425.178	88.06
425.401	98.06
425.623	102.06
425.846	80.06
426.068	101.06
426.291	88.06
426.513	89.06
426.735	90.06
426.958	87.06
427.18	96.06
427.402	114.06
427.625	154.06
427.847	119.06
428.069	105.06
428.292	85.06
428.514	73.06
428.736	83.06
428.958	81.06
429.181	89.06
429.403	88.06
429.625	93.06
429.847	88.06
430.069	105.06
430.292	75.06
430.514	89.06
430.736	92.06
430.958	86.06
431.18	87.06
431.402	89.06
431.624	87.06
431.846	84.06
432.068	80.06
432.29	90.06
432.512	96.06
432.734	82.06
432.956	98.06
433.178	108.06
433.4	86.06
433.622	70.06
433.844	95.06
434.066	92.06
434.287	76.06
434.509	94.06
434.731	84.06
434.953	84.06
435.175	72.06
435.397	89.06
435.618	100.06
435.84	105.06
436.062	114.06
436.284	94.06
436.505	89.06
436.727	102.06
436.949	106.06
437.17	88.06
437.392	87.06
437.614	84.06
437.835	90.06
438.057	109.06
438.278	88.06
438.5	94.06
438.721	117.06
438.943	81.06
439.165	76.06
439.386	105.06
439.608	90.06
439.829	102.06
440.05	115.06
440.272	125.06
440.493	93.06
440.715	85.06
440.936	87.06
441.158	84.06
441.379	88.06
441.6	94.06
441.822	85.06
442.043	90.06
442.264	85.06
442.486	99.06
442.707	81.06
442.928	98.06
443.149	137.06
443.371	133.06
443.592	102.06
443.813	92.06
444.034	90.06
444.255	78.06
444.476	90.06
444.698	84.06
444.919	99.06
445.14	109.06
445.361	101.06
445.582	119.06
445.803	120.06
446.024	120.06
446.245	111.06
446.466	109.06
446.687	91.06
446.908	83.06
447.129	88.06
447.35	93.06
447.571	92.06
447.792	93.06
448.013	93.06
448.234	95.06
448.455	106.06
448.675	114.06
448.896	115.06
449.117	82.06
449.338	94.06
449.559	121.06
449.779	112.06
450	96.06
450.221	88.06
450.442	85.06
450.662	94.06
450.883	98.06
451.104	107.06
451.324	93.06
451.545	84.06
451.766	84.06
451.986	74.06
452.207	85.06
452.428	85.06
452.648	83.06
452.869	114.06
453.089	102.06
453.31	119.06
453.53	87.06
453.751	97.06
453.971	93.06
454.192	100.06
454.412	89.06
454.633	88.06
454.853	86.06
455.073	81.06
455.294	93.06
455.514	97.06
455.734	88.06
455.955	93.06
456.175	83.06
456.395	96.06
456.616	86.06
456.836	90.06
457.056	87.06
457.276	93.06
457.497	102.06
457.717	87.06
457.937	88.06
458.157	91.06
458.377	95.06
458.598	106.06
458.818	150.06
459.038	144.06
459.258	103.06
459.478	93.06
459.698	78.06
459.918	76.06
460.138	92.06
460.358	84.06
460.578	76.06
460.798	82.06
461.018	97.06
461.238	104.06
461.458	96.06
461.678	82.06
461.898	91.06
462.118	80.06
462.338	76.06
462.558	77.06
462.777	72.06
462.997	89.06
463.217	87.06
463.437	86.06
463.657	78.06
463.876	89.06
464.096	96.06
464.316	85.06
464.536	90.06
464.755	96.06
464.975	100.06
465.195	159.06
465.414	141.06
465.634	82.06
465.854	92.06
466.073	88.06
466.293	90.06
466.512	82.06
466.732	81.06
466.951	82.06
467.171	85.06
467.391	109.06
467.61	114.06
467.829	88.06
468.049	99.06
468.268	87.06
468.488	84.06
468.707	85.06
468.927	96.06
469.146	99.06
469.365	85.06
469.585	91.06
469.804	104.06
470.023	100.06
470.243	88.06
470.462	99.06
470.681	97.06
470.901	79.06
471.12	88.06
471.339	76.06
471.558	77.06
471.777	82.06
471.997	91.06
472.216	72.06
472.435	97.06
472.654	89.06
472.873	74.06
473.092	78.06
473.311	82.06
473.53	102.06
473.749	74.06
473.968	89.06
474.187	92.06
474.406	98.06
474.625	90.06
474.844	90.06
475.063	93.06
475.282	97.06
475.501	88.06
475.72	88.06
475.939	89.06
476.158	87.06
476.377	102.06
476.596	98.06
476.814	86.06
477.033	90.06
477.252	77.06
477.471	87.06
477.69	81.06
477.908	94.06
478.127	87.06
478.346	93.06
478.564	98.06
478.783	84.06
479.002	99.06
479.22	86.06
479.439	91.06
479.658	94.06
479.876	91.06
480.095	90.06
480.313	87.06
480.532	90.06
480.751	79.06
480.969	102.06
481.188	119.06
481.406	105.06
481.624	99.06
481.843	93.06
482.061	93.06
482.28	85.06
482.498	89.06
482.717	81.06
482.935	100.06
483.153	76.06
483.372	92.06
483.59	94.06
483.808	76.06
484.027	99.06
484.245	88.06
484.463	97.06
484.681	87.06
484.9	90.06
485.118	92.06
485.336	94.06
485.554	95.06
485.772	82.06
485.99	94.06
486.209	103.06
486.427	96.06
486.645	100.06
486.863	117.06
487.081	105.06
487.299	102.06
487.517	93.06
487.735	103.06
487.953	93.06
488.171	99.06
488.389	101.06
488.607	85.06
488.825	99.06
489.043	89.06
489.261	85.06
489.479	89.06
489.696	87.06
489.914	91.06
490.132	94.06
490.35	85.06
490.568	91.06
490.786	83.06
491.003	98.06
491.221	80.06
491.439	97.06
491.657	89.06
491.874	94.06
492.092	89.06
492.31	92.06
492.527	86.06
492.745	85.06
492.963	80.06
493.18	77.06
493.398	102.06
493.615	96.06
493.833	94.06
494.05	87.06
494.268	100.06
494.485	96.06
494.703	91.06
494.92	100.06
495.138	86.06
495.355	80.06
495.573	93.06
495.79	95.06
496.008	80.06
496.225	89.06
496.442	98.06
496.66	91.06
496.877	85.06
497.094	91.06
497.312	83.06
497.529	92.06
497.746	89.06
497.963	84.06
498.181	87.06
498.398	86.06
498.615	98.06
498.832	108.06
499.049	87.06
499.267	79.06
499.484	90.06
499.701	86.06
499.918	91.06
500.135	93.06
500.352	95.06
500.569	87.06
500.786	98.06
501.003	92.06
501.22	85.06
501.437	92.06
501.654	93.06
501.871	110.06
502.088	98.06
502.305	100.06
502.522	102.06
502.739	91.06
502.956	109.06
503.172	89.06
503.389	99.06
503.606	96.06
503.823	88.06
504.04	98.06
504.256	104.06
504.473	87.06
504.69	86.06
504.907	96.06
505.123	108.06
505.34	72.06
505.557	85.06
505.773	100.06
505.99	104.06
506.207	109.06
506.423	87.06
506.64	81.06
506.856	96.06
507.073	97.06
507.289	85.06
507.506	101.06
507.722	107.06
507.939	110.06
508.155	101.06
508.372	102.06
508.588	95.06
508.805	99.06
509.021	109.06
509.238	97.06
509.454	93.06
509.67	96.06
509.887	112.06
510.103	137.06
510.319	231.06
510.536	786.06
510.752	2394.06
510.968	658.06
511.184	158.06
511.401	101.06
511.617	103.06
511.833	84.06
512.049	88.06
512.265	102.06
512.481	94.06
512.698	96.06
512.914	104.06
513.13	106.06
513.346	112.06
513.562	84.06
513.778	90.06
513.994	86.06
514.21	107.06
514.426	118.06
514.642	127.06
514.858	140.06
515.074	154.06
515.29	442.06
515.506	1465.06
515.721	544.06
515.937	144.06
516.153	115.06
516.369	99.06
