Data from Uncirc_2004_H10_HRD10591_00090.txt Node
Date: Wed Jan 03 10:32:30 EST 2024
User: Yrep
Spectrometer: HR+D1059
Trigger mode: 1
Integration Time (sec): 1.000000E-1
Scans to average: 1
Electric dark correction enabled: true
Nonlinearity correction enabled: false
Boxcar width: 0
XAxis mode: Wavelengths
Number of Pixels in Spectrum: 2048
>>>>>Begin Spectral Data<<<<<
223.165	-14.62
223.4	-14.62
223.635	-14.62
223.869	-16.62
224.104	-11.62
224.338	-11.62
224.573	-15.62
224.808	-13.62
225.042	-3.62
225.277	0.38
225.511	0.38
225.746	-3.62
225.98	0.38
226.215	11.38
226.449	15.38
226.683	6.38
226.918	25.38
227.152	31.38
227.387	31.38
227.621	31.38
227.856	38.38
228.09	57.38
228.324	47.38
228.559	38.38
228.793	54.38
229.027	76.38
229.262	70.38
229.496	73.38
229.73	74.38
229.964	81.38
230.199	77.38
230.433	84.38
230.667	83.38
230.901	74.38
231.136	67.38
231.37	76.38
231.604	86.38
231.838	89.38
232.072	82.38
232.306	73.38
232.541	88.38
232.775	83.38
233.009	79.38
233.243	76.38
233.477	75.38
233.711	89.38
233.945	85.38
234.179	89.38
234.413	77.38
234.647	85.38
234.881	89.38
235.115	84.38
235.349	63.38
235.583	75.38
235.817	64.38
236.051	78.38
236.285	85.38
236.519	75.38
236.753	86.38
236.987	84.38
237.221	77.38
237.455	82.38
237.689	73.38
237.922	88.38
238.156	84.38
238.39	75.38
238.624	80.38
238.858	79.38
239.091	79.38
239.325	76.38
239.559	69.38
239.793	77.38
240.027	77.38
240.26	75.38
240.494	78.38
240.728	80.38
240.961	82.38
241.195	65.38
241.429	71.38
241.662	84.38
241.896	83.38
242.13	66.38
242.363	76.38
242.597	68.38
242.83	77.38
243.064	79.38
243.298	87.38
243.531	65.38
243.765	92.38
243.998	74.38
244.232	79.38
244.465	83.38
244.699	70.38
244.932	87.38
245.166	81.38
245.399	86.38
245.633	79.38
245.866	77.38
246.099	92.38
246.333	96.38
246.566	78.38
246.8	67.38
247.033	72.38
247.266	86.38
247.5	79.38
247.733	67.38
247.966	90.38
248.2	77.38
248.433	68.38
248.666	97.38
248.899	82.38
249.133	96.38
249.366	87.38
249.599	98.38
249.832	87.38
250.066	72.38
250.299	88.38
250.532	97.38
250.765	69.38
250.998	73.38
251.231	69.38
251.465	81.38
251.698	87.38
251.931	83.38
252.164	88.38
252.397	63.38
252.63	67.38
252.863	82.38
253.096	76.38
253.329	87.38
253.562	79.38
253.795	84.38
254.028	73.38
254.261	82.38
254.494	91.38
254.727	67.38
254.96	76.38
255.193	78.38
255.426	73.38
255.659	90.38
255.892	85.38
256.124	81.38
256.357	73.38
256.59	88.38
256.823	91.38
257.056	86.38
257.289	90.38
257.521	74.38
257.754	76.38
257.987	82.38
258.22	86.38
258.452	72.38
258.685	80.38
258.918	73.38
259.151	89.38
259.383	83.38
259.616	88.38
259.849	70.38
260.081	83.38
260.314	82.38
260.547	77.38
260.779	80.38
261.012	95.38
261.244	80.38
261.477	89.38
261.71	86.38
261.942	105.38
262.175	117.38
262.407	108.38
262.64	79.38
262.872	88.38
263.105	95.38
263.337	84.38
263.57	85.38
263.802	70.38
264.035	81.38
264.267	92.38
264.499	73.38
264.732	87.38
264.964	87.38
265.197	74.38
265.429	78.38
265.661	83.38
265.894	97.38
266.126	90.38
266.358	79.38
266.591	82.38
266.823	68.38
267.055	69.38
267.287	92.38
267.52	80.38
267.752	82.38
267.984	80.38
268.216	63.38
268.448	91.38
268.681	87.38
268.913	95.38
269.145	89.38
269.377	77.38
269.609	70.38
269.841	76.38
270.073	81.38
270.306	91.38
270.538	70.38
270.77	80.38
271.002	87.38
271.234	85.38
271.466	71.38
271.698	85.38
271.93	91.38
272.162	95.38
272.394	75.38
272.626	73.38
272.858	84.38
273.09	79.38
273.322	80.38
273.553	89.38
273.785	86.38
274.017	89.38
274.249	93.38
274.481	78.38
274.713	79.38
274.945	93.38
275.176	91.38
275.408	91.38
275.64	80.38
275.872	87.38
276.104	95.38
276.335	91.38
276.567	84.38
276.799	107.38
277.031	107.38
277.262	88.38
277.494	83.38
277.726	91.38
277.957	90.38
278.189	84.38
278.421	89.38
278.652	75.38
278.884	79.38
279.115	75.38
279.347	73.38
279.579	91.38
279.81	84.38
280.042	96.38
280.273	92.38
280.505	92.38
280.736	79.38
280.968	84.38
281.199	86.38
281.431	84.38
281.662	72.38
281.894	84.38
282.125	93.38
282.356	113.38
282.588	149.38
282.819	116.38
283.051	91.38
283.282	77.38
283.513	93.38
283.745	86.38
283.976	80.38
284.207	76.38
284.439	87.38
284.67	85.38
284.901	77.38
285.132	83.38
285.364	72.38
285.595	84.38
285.826	71.38
286.057	74.38
286.288	82.38
286.52	78.38
286.751	73.38
286.982	91.38
287.213	88.38
287.444	82.38
287.675	71.38
287.906	86.38
288.138	83.38
288.369	95.38
288.6	85.38
288.831	65.38
289.062	93.38
289.293	86.38
289.524	96.38
289.755	93.38
289.986	79.38
290.217	84.38
290.448	93.38
290.679	85.38
290.91	63.38
291.141	79.38
291.371	79.38
291.602	82.38
291.833	81.38
292.064	94.38
292.295	79.38
292.526	82.38
292.757	88.38
292.987	80.38
293.218	89.38
293.449	86.38
293.68	83.38
293.91	95.38
294.141	86.38
294.372	92.38
294.603	73.38
294.833	94.38
295.064	68.38
295.295	78.38
295.525	90.38
295.756	105.38
295.987	125.38
296.217	159.38
296.448	125.38
296.679	82.38
296.909	97.38
297.14	82.38
297.37	87.38
297.601	80.38
297.831	87.38
298.062	82.38
298.292	83.38
298.523	77.38
298.753	89.38
298.984	74.38
299.214	86.38
299.445	99.38
299.675	103.38
299.905	93.38
300.136	92.38
300.366	84.38
300.597	98.38
300.827	92.38
301.057	99.38
301.288	105.38
301.518	95.38
301.748	91.38
301.979	101.38
302.209	100.38
302.439	69.38
302.669	60.38
302.9	89.38
303.13	92.38
303.36	99.38
303.59	100.38
303.82	99.38
304.051	101.38
304.281	96.38
304.511	79.38
304.741	92.38
304.971	80.38
305.201	80.38
305.431	82.38
305.661	95.38
305.891	83.38
306.121	94.38
306.352	95.38
306.582	96.38
306.812	93.38
307.042	94.38
307.272	89.38
307.502	92.38
307.731	101.38
307.961	80.38
308.191	86.38
308.421	104.38
308.651	82.38
308.881	86.38
309.111	94.38
309.341	99.38
309.571	100.38
309.8	94.38
310.03	87.38
310.26	100.38
310.49	98.38
310.72	77.38
310.949	81.38
311.179	103.38
311.409	92.38
311.639	105.38
311.868	96.38
312.098	95.38
312.328	109.38
312.557	96.38
312.787	97.38
313.017	93.38
313.246	92.38
313.476	91.38
313.706	98.38
313.935	96.38
314.165	103.38
314.394	78.38
314.624	82.38
314.853	77.38
315.083	93.38
315.312	101.38
315.542	99.38
315.771	92.38
316.001	91.38
316.23	89.38
316.46	95.38
316.689	76.38
316.919	83.38
317.148	100.38
317.377	89.38
317.607	78.38
317.836	93.38
318.065	83.38
318.295	92.38
318.524	91.38
318.753	107.38
318.983	95.38
319.212	95.38
319.441	102.38
319.67	109.38
319.9	113.38
320.129	100.38
320.358	94.38
320.587	89.38
320.816	96.38
321.046	92.38
321.275	91.38
321.504	84.38
321.733	89.38
321.962	100.38
322.191	85.38
322.42	103.38
322.649	93.38
322.878	113.38
323.108	131.38
323.337	125.38
323.566	128.38
323.795	173.38
324.024	209.38
324.253	420.38
324.482	915.38
324.71	1800.38
324.939	2387.38
325.168	873.38
325.397	285.38
325.626	157.38
325.855	147.38
326.084	132.38
326.313	134.38
326.542	162.38
326.77	253.38
326.999	489.38
327.228	1024.38
327.457	1879.38
327.686	1423.38
327.914	398.38
328.143	207.38
328.372	143.38
328.6	125.38
328.829	111.38
329.058	124.38
329.287	141.38
329.515	115.38
329.744	100.38
329.972	110.38
330.201	102.38
330.43	99.38
330.658	124.38
330.887	152.38
331.115	118.38
331.344	92.38
331.572	102.38
331.801	101.38
332.03	97.38
332.258	101.38
332.486	90.38
332.715	113.38
332.943	96.38
333.172	96.38
333.4	101.38
333.629	97.38
333.857	114.38
334.085	110.38
334.314	108.38
334.542	89.38
334.771	106.38
334.999	105.38
335.227	100.38
335.455	103.38
335.684	94.38
335.912	82.38
336.14	92.38
336.369	97.38
336.597	100.38
336.825	104.38
337.053	85.38
337.281	100.38
337.51	97.38
337.738	108.38
337.966	88.38
338.194	96.38
338.422	109.38
338.65	76.38
338.878	93.38
339.106	72.38
339.334	81.38
339.562	94.38
339.79	91.38
340.018	90.38
340.246	86.38
340.474	91.38
340.702	84.38
340.93	98.38
341.158	95.38
341.386	103.38
341.614	92.38
341.842	91.38
342.07	97.38
342.298	91.38
342.526	89.38
342.754	86.38
342.981	85.38
343.209	81.38
343.437	96.38
343.665	105.38
343.893	100.38
344.12	88.38
344.348	89.38
344.576	89.38
344.804	83.38
345.031	97.38
345.259	87.38
345.487	100.38
345.714	78.38
345.942	91.38
346.17	80.38
346.397	89.38
346.625	98.38
346.853	83.38
347.08	88.38
347.308	101.38
347.535	95.38
347.763	107.38
347.99	86.38
348.218	101.38
348.445	79.38
348.673	102.38
348.9	96.38
349.128	117.38
349.355	101.38
349.583	117.38
349.81	92.38
350.037	99.38
350.265	105.38
350.492	102.38
350.72	102.38
350.947	99.38
351.174	101.38
351.402	113.38
351.629	96.38
351.856	110.38
352.083	116.38
352.311	111.38
352.538	108.38
352.765	110.38
352.992	108.38
353.22	115.38
353.447	101.38
353.674	94.38
353.901	82.38
354.128	85.38
354.355	92.38
354.583	103.38
354.81	97.38
355.037	101.38
355.264	94.38
355.491	100.38
355.718	87.38
355.945	96.38
356.172	91.38
356.399	85.38
356.626	95.38
356.853	94.38
357.08	93.38
357.307	107.38
357.534	86.38
357.761	93.38
357.988	84.38
358.215	109.38
358.441	103.38
358.668	96.38
358.895	72.38
359.122	103.38
359.349	95.38
359.576	84.38
359.802	93.38
360.029	116.38
360.256	101.38
360.483	97.38
360.709	86.38
360.936	91.38
361.163	87.38
361.39	93.38
361.616	101.38
361.843	90.38
362.07	81.38
362.296	81.38
362.523	89.38
362.749	92.38
362.976	102.38
363.203	73.38
363.429	93.38
363.656	98.38
363.882	92.38
364.109	87.38
364.335	84.38
364.562	97.38
364.788	87.38
365.015	84.38
365.241	112.38
365.468	101.38
365.694	101.38
365.92	93.38
366.147	87.38
366.373	85.38
366.599	93.38
366.826	94.38
367.052	92.38
367.278	107.38
367.505	77.38
367.731	82.38
367.957	87.38
368.184	103.38
368.41	89.38
368.636	112.38
368.862	129.38
369.089	115.38
369.315	81.38
369.541	93.38
369.767	101.38
369.993	87.38
370.219	81.38
370.445	85.38
370.672	83.38
370.898	83.38
371.124	86.38
371.35	86.38
371.576	82.38
371.802	91.38
372.028	85.38
372.254	91.38
372.48	98.38
372.706	82.38
372.932	100.38
373.158	87.38
373.384	80.38
373.61	80.38
373.835	96.38
374.061	95.38
374.287	95.38
374.513	89.38
374.739	79.38
374.965	97.38
375.191	87.38
375.416	87.38
375.642	101.38
375.868	88.38
376.094	94.38
376.319	78.38
376.545	97.38
376.771	93.38
376.997	94.38
377.222	95.38
377.448	104.38
377.674	82.38
377.899	95.38
378.125	92.38
378.35	96.38
378.576	94.38
378.802	98.38
379.027	92.38
379.253	108.38
379.478	88.38
379.704	96.38
379.929	96.38
380.155	98.38
380.38	86.38
380.606	99.38
380.831	104.38
381.057	89.38
381.282	96.38
381.507	110.38
381.733	95.38
381.958	106.38
382.184	88.38
382.409	95.38
382.634	109.38
382.86	105.38
383.085	94.38
383.31	89.38
383.535	94.38
383.761	99.38
383.986	96.38
384.211	93.38
384.436	98.38
384.662	99.38
384.887	97.38
385.112	104.38
385.337	105.38
385.562	99.38
385.787	104.38
386.013	100.38
386.238	116.38
386.463	122.38
386.688	116.38
386.913	105.38
387.138	103.38
387.363	98.38
387.588	88.38
387.813	84.38
388.038	95.38
388.263	93.38
388.488	104.38
388.713	95.38
388.938	81.38
389.163	88.38
389.387	89.38
389.612	85.38
389.837	98.38
390.062	96.38
390.287	96.38
390.512	91.38
390.736	97.38
390.961	92.38
391.186	105.38
391.411	96.38
391.636	91.38
391.86	107.38
392.085	93.38
392.31	94.38
392.534	77.38
392.759	85.38
392.984	78.38
393.208	81.38
393.433	103.38
393.658	94.38
393.882	78.38
394.107	78.38
394.331	84.38
394.556	84.38
394.78	91.38
395.005	86.38
395.229	93.38
395.454	87.38
395.678	74.38
395.903	104.38
396.127	75.38
396.352	81.38
396.576	96.38
396.801	70.38
397.025	89.38
397.249	81.38
397.474	81.38
397.698	83.38
397.922	93.38
398.147	85.38
398.371	82.38
398.595	89.38
398.82	95.38
399.044	71.38
399.268	73.38
399.492	95.38
399.717	92.38
399.941	83.38
400.165	86.38
400.389	87.38
400.613	90.38
400.837	86.38
401.062	92.38
401.286	90.38
401.51	80.38
401.734	92.38
401.958	115.38
402.182	137.38
402.406	164.38
402.63	113.38
402.854	86.38
403.078	90.38
403.302	91.38
403.526	96.38
403.75	86.38
403.974	89.38
404.198	91.38
404.422	92.38
404.645	91.38
404.869	89.38
405.093	100.38
405.317	96.38
405.541	102.38
405.765	92.38
405.988	113.38
406.212	207.38
406.436	255.38
406.66	144.38
406.883	94.38
407.107	85.38
407.331	98.38
407.555	99.38
407.778	100.38
408.002	92.38
408.226	92.38
408.449	86.38
408.673	87.38
408.896	88.38
409.12	82.38
409.344	108.38
409.567	98.38
409.791	97.38
410.014	87.38
410.238	88.38
410.461	89.38
410.685	106.38
410.908	105.38
411.132	113.38
411.355	102.38
411.578	81.38
411.802	93.38
412.025	89.38
412.249	83.38
412.472	87.38
412.695	102.38
412.919	88.38
413.142	92.38
413.365	82.38
413.589	89.38
413.812	93.38
414.035	88.38
414.258	88.38
414.482	97.38
414.705	80.38
414.928	103.38
415.151	88.38
415.374	95.38
415.597	100.38
415.821	95.38
416.044	93.38
416.267	85.38
416.49	95.38
416.713	88.38
416.936	105.38
417.159	88.38
417.382	98.38
417.605	88.38
417.828	103.38
418.051	96.38
418.274	84.38
418.497	86.38
418.72	80.38
418.943	86.38
419.166	93.38
419.389	97.38
419.611	78.38
419.834	80.38
420.057	82.38
420.28	98.38
420.503	73.38
420.726	96.38
420.948	94.38
421.171	97.38
421.394	93.38
421.617	89.38
421.839	86.38
422.062	95.38
422.285	84.38
422.507	100.38
422.73	113.38
422.953	101.38
423.175	97.38
423.398	72.38
423.621	87.38
423.843	95.38
424.066	78.38
424.288	75.38
424.511	85.38
424.733	107.38
424.956	108.38
425.178	96.38
425.401	108.38
425.623	115.38
425.846	99.38
426.068	94.38
426.291	96.38
426.513	104.38
426.735	106.38
426.958	83.38
427.18	105.38
427.402	148.38
427.625	166.38
427.847	139.38
428.069	105.38
428.292	79.38
428.514	86.38
428.736	85.38
428.958	92.38
429.181	90.38
429.403	101.38
429.625	80.38
429.847	84.38
430.069	118.38
430.292	95.38
430.514	84.38
430.736	91.38
430.958	77.38
431.18	83.38
431.402	88.38
431.624	83.38
431.846	78.38
432.068	103.38
432.29	80.38
432.512	85.38
432.734	82.38
432.956	85.38
433.178	103.38
433.4	95.38
433.622	91.38
433.844	92.38
434.066	93.38
434.287	88.38
434.509	88.38
434.731	85.38
434.953	81.38
435.175	94.38
435.397	88.38
435.618	87.38
435.84	103.38
436.062	126.38
436.284	104.38
436.505	112.38
436.727	115.38
436.949	93.38
437.17	89.38
437.392	84.38
437.614	104.38
437.835	109.38
438.057	107.38
438.278	112.38
438.5	103.38
438.721	127.38
438.943	110.38
439.165	87.38
439.386	84.38
439.608	97.38
439.829	97.38
440.05	113.38
440.272	143.38
440.493	102.38
440.715	83.38
440.936	89.38
441.158	91.38
441.379	102.38
441.6	90.38
441.822	76.38
442.043	102.38
442.264	99.38
442.486	97.38
442.707	106.38
442.928	115.38
443.149	132.38
443.371	134.38
443.592	104.38
443.813	104.38
444.034	100.38
444.255	97.38
444.476	80.38
444.698	84.38
444.919	89.38
445.14	114.38
445.361	106.38
445.582	112.38
445.803	131.38
446.024	143.38
446.245	138.38
446.466	105.38
446.687	84.38
446.908	86.38
447.129	85.38
447.35	86.38
447.571	99.38
447.792	93.38
448.013	112.38
448.234	106.38
448.455	96.38
448.675	94.38
448.896	117.38
449.117	100.38
449.338	102.38
449.559	136.38
449.779	144.38
450	97.38
450.221	86.38
450.442	97.38
450.662	96.38
450.883	117.38
451.104	112.38
451.324	78.38
451.545	81.38
451.766	73.38
451.986	82.38
452.207	90.38
452.428	84.38
452.648	106.38
452.869	127.38
453.089	123.38
453.31	123.38
453.53	93.38
453.751	105.38
453.971	104.38
454.192	97.38
454.412	94.38
454.633	93.38
454.853	83.38
455.073	84.38
455.294	81.38
455.514	92.38
455.734	82.38
455.955	79.38
456.175	79.38
456.395	77.38
456.616	77.38
456.836	88.38
457.056	88.38
457.276	86.38
457.497	91.38
457.717	87.38
457.937	70.38
458.157	80.38
458.377	97.38
458.598	98.38
458.818	169.38
459.038	161.38
459.258	120.38
459.478	81.38
459.698	88.38
459.918	91.38
460.138	88.38
460.358	93.38
460.578	84.38
460.798	73.38
461.018	82.38
461.238	85.38
461.458	89.38
461.678	98.38
461.898	88.38
462.118	87.38
462.338	82.38
462.558	80.38
462.777	91.38
462.997	100.38
463.217	92.38
463.437	89.38
463.657	88.38
463.876	71.38
464.096	88.38
464.316	95.38
464.536	83.38
464.755	103.38
464.975	132.38
465.195	162.38
465.414	166.38
465.634	108.38
465.854	89.38
466.073	88.38
466.293	91.38
466.512	90.38
466.732	97.38
466.951	82.38
467.171	103.38
467.391	98.38
467.61	104.38
467.829	97.38
468.049	90.38
468.268	96.38
468.488	89.38
468.707	88.38
468.927	71.38
469.146	91.38
469.365	92.38
469.585	91.38
469.804	88.38
470.023	101.38
470.243	85.38
470.462	99.38
470.681	117.38
470.901	72.38
471.12	90.38
471.339	88.38
471.558	92.38
471.777	82.38
471.997	79.38
472.216	100.38
472.435	95.38
472.654	93.38
472.873	99.38
473.092	77.38
473.311	88.38
473.53	108.38
473.749	90.38
473.968	93.38
474.187	84.38
474.406	93.38
474.625	98.38
474.844	97.38
475.063	91.38
475.282	88.38
475.501	84.38
475.72	82.38
475.939	91.38
476.158	91.38
476.377	86.38
476.596	95.38
476.814	98.38
477.033	84.38
477.252	74.38
477.471	85.38
477.69	88.38
477.908	92.38
478.127	94.38
478.346	89.38
478.564	83.38
478.783	108.38
479.002	81.38
479.22	91.38
479.439	104.38
479.658	110.38
479.876	92.38
480.095	93.38
480.313	82.38
480.532	86.38
480.751	100.38
480.969	99.38
481.188	125.38
481.406	113.38
481.624	93.38
481.843	91.38
482.061	87.38
482.28	83.38
482.498	89.38
482.717	92.38
482.935	83.38
483.153	88.38
483.372	104.38
483.59	67.38
483.808	83.38
484.027	89.38
484.245	83.38
484.463	104.38
484.681	92.38
484.9	87.38
485.118	91.38
485.336	93.38
485.554	105.38
485.772	101.38
485.99	97.38
486.209	101.38
486.427	106.38
486.645	108.38
486.863	97.38
487.081	100.38
487.299	107.38
487.517	95.38
487.735	92.38
487.953	94.38
488.171	98.38
488.389	98.38
488.607	101.38
488.825	87.38
489.043	80.38
489.261	96.38
489.479	81.38
489.696	81.38
489.914	86.38
490.132	80.38
490.35	91.38
490.568	92.38
490.786	83.38
491.003	94.38
491.221	86.38
491.439	88.38
491.657	90.38
491.874	99.38
492.092	99.38
492.31	101.38
492.527	89.38
492.745	82.38
492.963	89.38
493.18	95.38
493.398	109.38
493.615	81.38
493.833	89.38
494.05	96.38
494.268	86.38
494.485	96.38
494.703	84.38
494.92	95.38
495.138	88.38
495.355	104.38
495.573	95.38
495.79	95.38
496.008	100.38
496.225	64.38
496.442	92.38
496.66	87.38
496.877	79.38
497.094	88.38
497.312	88.38
497.529	104.38
497.746	93.38
497.963	100.38
498.181	89.38
498.398	97.38
498.615	115.38
498.832	103.38
499.049	96.38
499.267	115.38
499.484	95.38
499.701	91.38
499.918	94.38
500.135	96.38
500.352	91.38
500.569	81.38
500.786	106.38
501.003	93.38
501.22	84.38
501.437	82.38
501.654	89.38
501.871	110.38
502.088	101.38
502.305	85.38
502.522	95.38
502.739	82.38
502.956	91.38
503.172	96.38
503.389	102.38
503.606	115.38
503.823	101.38
504.04	93.38
504.256	70.38
504.473	78.38
504.69	90.38
504.907	85.38
505.123	100.38
505.34	93.38
505.557	85.38
505.773	88.38
505.99	95.38
506.207	83.38
506.423	81.38
506.64	86.38
506.856	80.38
507.073	99.38
507.289	88.38
507.506	80.38
507.722	103.38
507.939	95.38
508.155	104.38
508.372	98.38
508.588	101.38
508.805	97.38
509.021	89.38
509.238	92.38
509.454	94.38
509.67	103.38
509.887	110.38
510.103	154.38
510.319	242.38
510.536	918.38
510.752	2899.38
510.968	801.38
511.184	193.38
511.401	111.38
511.617	90.38
511.833	100.38
512.049	95.38
512.265	88.38
512.481	87.38
512.698	85.38
512.914	90.38
513.13	92.38
513.346	86.38
513.562	97.38
513.778	103.38
513.994	95.38
514.21	102.38
514.426	116.38
514.642	145.38
514.858	131.38
515.074	180.38
515.29	530.38
515.506	1773.38
515.721	649.38
