Data from Uncirc_2004_H10_HRD10591_00013.txt Node
Date: Wed Jan 03 10:32:15 EST 2024
User: Yrep
Spectrometer: HR+D1059
Trigger mode: 1
Integration Time (sec): 1.000000E-1
Scans to average: 1
Electric dark correction enabled: true
Nonlinearity correction enabled: false
Boxcar width: 0
XAxis mode: Wavelengths
Number of Pixels in Spectrum: 2048
>>>>>Begin Spectral Data<<<<<
223.165	-19.44
223.4	-19.44
223.635	-19.44
223.869	-27.44
224.104	-19.44
224.338	-11.44
224.573	-10.44
224.808	-10.44
225.042	-9.44
225.277	-11.44
225.511	-6.44
225.746	4.56
225.98	-0.44
226.215	18.56
226.449	12.56
226.683	28.56
226.918	18.56
227.152	43.56
227.387	38.56
227.621	44.56
227.856	41.56
228.09	49.56
228.324	37.56
228.559	64.56
228.793	57.56
229.027	68.56
229.262	77.56
229.496	74.56
229.73	83.56
229.964	83.56
230.199	69.56
230.433	67.56
230.667	79.56
230.901	74.56
231.136	60.56
231.37	95.56
231.604	80.56
231.838	85.56
232.072	85.56
232.306	81.56
232.541	71.56
232.775	93.56
233.009	86.56
233.243	73.56
233.477	78.56
233.711	68.56
233.945	81.56
234.179	70.56
234.413	79.56
234.647	75.56
234.881	81.56
235.115	80.56
235.349	83.56
235.583	77.56
235.817	92.56
236.051	69.56
236.285	69.56
236.519	77.56
236.753	87.56
236.987	73.56
237.221	72.56
237.455	86.56
237.689	82.56
237.922	80.56
238.156	68.56
238.39	76.56
238.624	80.56
238.858	77.56
239.091	72.56
239.325	76.56
239.559	76.56
239.793	80.56
240.027	74.56
240.26	65.56
240.494	67.56
240.728	65.56
240.961	55.56
241.195	63.56
241.429	81.56
241.662	74.56
241.896	79.56
242.13	80.56
242.363	70.56
242.597	81.56
242.83	84.56
243.064	74.56
243.298	93.56
243.531	78.56
243.765	67.56
243.998	74.56
244.232	70.56
244.465	60.56
244.699	84.56
244.932	84.56
245.166	81.56
245.399	93.56
245.633	81.56
245.866	75.56
246.099	70.56
246.333	87.56
246.566	93.56
246.8	71.56
247.033	69.56
247.266	74.56
247.5	78.56
247.733	78.56
247.966	79.56
248.2	92.56
248.433	72.56
248.666	87.56
248.899	84.56
249.133	91.56
249.366	93.56
249.599	100.56
249.832	82.56
250.066	86.56
250.299	76.56
250.532	72.56
250.765	69.56
250.998	78.56
251.231	61.56
251.465	73.56
251.698	80.56
251.931	74.56
252.164	85.56
252.397	64.56
252.63	75.56
252.863	81.56
253.096	84.56
253.329	76.56
253.562	86.56
253.795	80.56
254.028	87.56
254.261	81.56
254.494	81.56
254.727	65.56
254.96	68.56
255.193	87.56
255.426	87.56
255.659	74.56
255.892	76.56
256.124	77.56
256.357	88.56
256.59	88.56
256.823	92.56
257.056	80.56
257.289	84.56
257.521	85.56
257.754	86.56
257.987	84.56
258.22	82.56
258.452	83.56
258.685	80.56
258.918	91.56
259.151	88.56
259.383	82.56
259.616	73.56
259.849	94.56
260.081	79.56
260.314	76.56
260.547	85.56
260.779	78.56
261.012	78.56
261.244	82.56
261.477	74.56
261.71	96.56
261.942	100.56
262.175	114.56
262.407	90.56
262.64	80.56
262.872	78.56
263.105	94.56
263.337	84.56
263.57	89.56
263.802	81.56
264.035	77.56
264.267	71.56
264.499	79.56
264.732	75.56
264.964	89.56
265.197	83.56
265.429	79.56
265.661	84.56
265.894	86.56
266.126	89.56
266.358	80.56
266.591	81.56
266.823	80.56
267.055	76.56
267.287	85.56
267.52	90.56
267.752	75.56
267.984	80.56
268.216	91.56
268.448	96.56
268.681	80.56
268.913	92.56
269.145	84.56
269.377	78.56
269.609	86.56
269.841	84.56
270.073	88.56
270.306	86.56
270.538	74.56
270.77	78.56
271.002	78.56
271.234	90.56
271.466	87.56
271.698	85.56
271.93	81.56
272.162	94.56
272.394	96.56
272.626	82.56
272.858	85.56
273.09	84.56
273.322	84.56
273.553	85.56
273.785	84.56
274.017	90.56
274.249	88.56
274.481	83.56
274.713	90.56
274.945	77.56
275.176	98.56
275.408	80.56
275.64	88.56
275.872	87.56
276.104	72.56
276.335	89.56
276.567	98.56
276.799	112.56
277.031	90.56
277.262	100.56
277.494	84.56
277.726	84.56
277.957	78.56
278.189	71.56
278.421	72.56
278.652	92.56
278.884	78.56
279.115	73.56
279.347	86.56
279.579	86.56
279.81	93.56
280.042	85.56
280.273	93.56
280.505	83.56
280.736	90.56
280.968	78.56
281.199	88.56
281.431	91.56
281.662	79.56
281.894	94.56
282.125	102.56
282.356	109.56
282.588	126.56
282.819	104.56
283.051	91.56
283.282	73.56
283.513	89.56
283.745	90.56
283.976	71.56
284.207	81.56
284.439	86.56
284.67	77.56
284.901	83.56
285.132	93.56
285.364	89.56
285.595	83.56
285.826	82.56
286.057	87.56
286.288	78.56
286.52	96.56
286.751	97.56
286.982	86.56
287.213	81.56
287.444	95.56
287.675	98.56
287.906	83.56
288.138	98.56
288.369	101.56
288.6	82.56
288.831	72.56
289.062	92.56
289.293	81.56
289.524	87.56
289.755	74.56
289.986	95.56
290.217	91.56
290.448	82.56
290.679	84.56
290.91	92.56
291.141	88.56
291.371	80.56
291.602	84.56
291.833	79.56
292.064	91.56
292.295	71.56
292.526	81.56
292.757	85.56
292.987	93.56
293.218	90.56
293.449	91.56
293.68	92.56
293.91	86.56
294.141	103.56
294.372	92.56
294.603	80.56
294.833	97.56
295.064	80.56
295.295	105.56
295.525	100.56
295.756	101.56
295.987	124.56
296.217	121.56
296.448	119.56
296.679	85.56
296.909	99.56
297.14	94.56
297.37	87.56
297.601	97.56
297.831	100.56
298.062	100.56
298.292	93.56
298.523	86.56
298.753	73.56
298.984	100.56
299.214	64.56
299.445	100.56
299.675	84.56
299.905	105.56
300.136	95.56
300.366	89.56
300.597	102.56
300.827	94.56
301.057	90.56
301.288	90.56
301.518	87.56
301.748	93.56
301.979	108.56
302.209	88.56
302.439	95.56
302.669	90.56
302.9	81.56
303.13	92.56
303.36	92.56
303.59	83.56
303.82	113.56
304.051	108.56
304.281	100.56
304.511	95.56
304.741	94.56
304.971	75.56
305.201	96.56
305.431	91.56
305.661	83.56
305.891	93.56
306.121	85.56
306.352	88.56
306.582	91.56
306.812	89.56
307.042	83.56
307.272	91.56
307.502	88.56
307.731	98.56
307.961	89.56
308.191	73.56
308.421	81.56
308.651	88.56
308.881	95.56
309.111	100.56
309.341	96.56
309.571	86.56
309.8	104.56
310.03	100.56
310.26	97.56
310.49	100.56
310.72	99.56
310.949	101.56
311.179	101.56
311.409	95.56
311.639	92.56
311.868	92.56
312.098	89.56
312.328	104.56
312.557	109.56
312.787	88.56
313.017	105.56
313.246	96.56
313.476	110.56
313.706	103.56
313.935	97.56
314.165	97.56
314.394	88.56
314.624	91.56
314.853	104.56
315.083	97.56
315.312	98.56
315.542	90.56
315.771	78.56
316.001	93.56
316.23	93.56
316.46	77.56
316.689	93.56
316.919	102.56
317.148	110.56
317.377	82.56
317.607	106.56
317.836	98.56
318.065	85.56
318.295	89.56
318.524	104.56
318.753	72.56
318.983	102.56
319.212	101.56
319.441	112.56
319.67	109.56
319.9	96.56
320.129	99.56
320.358	109.56
320.587	92.56
320.816	98.56
321.046	104.56
321.275	109.56
321.504	117.56
321.733	86.56
321.962	91.56
322.191	109.56
322.42	86.56
322.649	97.56
322.878	122.56
323.108	103.56
323.337	132.56
323.566	126.56
323.795	135.56
324.024	193.56
324.253	367.56
324.482	788.56
324.71	1577.56
324.939	2072.56
325.168	759.56
325.397	240.56
325.626	143.56
325.855	136.56
326.084	111.56
326.313	133.56
326.542	148.56
326.77	216.56
326.999	443.56
327.228	932.56
327.457	1640.56
327.686	1242.56
327.914	333.56
328.143	184.56
328.372	132.56
328.6	118.56
328.829	100.56
329.058	127.56
329.287	118.56
329.515	121.56
329.744	109.56
329.972	106.56
330.201	101.56
330.43	116.56
330.658	112.56
330.887	126.56
331.115	112.56
331.344	87.56
331.572	103.56
331.801	118.56
332.03	104.56
332.258	81.56
332.486	82.56
332.715	79.56
332.943	88.56
333.172	102.56
333.4	95.56
333.629	101.56
333.857	105.56
334.085	98.56
334.314	99.56
334.542	116.56
334.771	111.56
334.999	92.56
335.227	92.56
335.455	88.56
335.684	98.56
335.912	96.56
336.14	88.56
336.369	97.56
336.597	102.56
336.825	104.56
337.053	101.56
337.281	85.56
337.51	98.56
337.738	90.56
337.966	94.56
338.194	94.56
338.422	98.56
338.65	97.56
338.878	101.56
339.106	83.56
339.334	99.56
339.562	92.56
339.79	88.56
340.018	89.56
340.246	90.56
340.474	93.56
340.702	103.56
340.93	98.56
341.158	97.56
341.386	108.56
341.614	94.56
341.842	100.56
342.07	89.56
342.298	88.56
342.526	98.56
342.754	85.56
342.981	88.56
343.209	90.56
343.437	97.56
343.665	103.56
343.893	99.56
344.12	99.56
344.348	84.56
344.576	90.56
344.804	108.56
345.031	95.56
345.259	108.56
345.487	98.56
345.714	102.56
345.942	82.56
346.17	89.56
346.397	95.56
346.625	99.56
346.853	88.56
347.08	85.56
347.308	97.56
347.535	95.56
347.763	101.56
347.99	104.56
348.218	111.56
348.445	104.56
348.673	100.56
348.9	105.56
349.128	97.56
349.355	99.56
349.583	97.56
349.81	92.56
350.037	93.56
350.265	100.56
350.492	90.56
350.72	104.56
350.947	105.56
351.174	102.56
351.402	109.56
351.629	112.56
351.856	102.56
352.083	99.56
352.311	108.56
352.538	102.56
352.765	108.56
352.992	105.56
353.22	108.56
353.447	114.56
353.674	116.56
353.901	105.56
354.128	85.56
354.355	99.56
354.583	98.56
354.81	101.56
355.037	104.56
355.264	95.56
355.491	86.56
355.718	94.56
355.945	97.56
356.172	102.56
356.399	98.56
356.626	97.56
356.853	86.56
357.08	101.56
357.307	94.56
357.534	95.56
357.761	112.56
357.988	103.56
358.215	100.56
358.441	105.56
358.668	96.56
358.895	81.56
359.122	84.56
359.349	102.56
359.576	92.56
359.802	85.56
360.029	107.56
360.256	108.56
360.483	93.56
360.709	84.56
360.936	104.56
361.163	94.56
361.39	98.56
361.616	93.56
361.843	98.56
362.07	95.56
362.296	89.56
362.523	106.56
362.749	91.56
362.976	95.56
363.203	93.56
363.429	99.56
363.656	85.56
363.882	64.56
364.109	100.56
364.335	90.56
364.562	100.56
364.788	81.56
365.015	95.56
365.241	98.56
365.468	110.56
365.694	100.56
365.92	95.56
366.147	98.56
366.373	93.56
366.599	87.56
366.826	93.56
367.052	99.56
367.278	94.56
367.505	89.56
367.731	84.56
367.957	86.56
368.184	94.56
368.41	96.56
368.636	94.56
368.862	125.56
369.089	104.56
369.315	102.56
369.541	84.56
369.767	96.56
369.993	78.56
370.219	98.56
370.445	94.56
370.672	103.56
370.898	77.56
371.124	81.56
371.35	85.56
371.576	85.56
371.802	92.56
372.028	85.56
372.254	84.56
372.48	78.56
372.706	82.56
372.932	85.56
373.158	87.56
373.384	94.56
373.61	85.56
373.835	76.56
374.061	88.56
374.287	99.56
374.513	101.56
374.739	89.56
374.965	97.56
375.191	91.56
375.416	94.56
375.642	88.56
375.868	80.56
376.094	86.56
376.319	83.56
376.545	109.56
376.771	96.56
376.997	88.56
377.222	94.56
377.448	94.56
377.674	98.56
377.899	103.56
378.125	86.56
378.35	92.56
378.576	108.56
378.802	94.56
379.027	99.56
379.253	93.56
379.478	89.56
379.704	86.56
379.929	97.56
380.155	96.56
380.38	104.56
380.606	93.56
380.831	101.56
381.057	113.56
381.282	109.56
381.507	87.56
381.733	94.56
381.958	96.56
382.184	112.56
382.409	108.56
382.634	102.56
382.86	85.56
383.085	117.56
383.31	119.56
383.535	124.56
383.761	93.56
383.986	107.56
384.211	104.56
384.436	107.56
384.662	105.56
384.887	108.56
385.112	112.56
385.337	142.56
385.562	131.56
385.787	115.56
386.013	116.56
386.238	119.56
386.463	104.56
386.688	115.56
386.913	120.56
387.138	122.56
387.363	126.56
387.588	105.56
387.813	125.56
388.038	116.56
388.263	126.56
388.488	113.56
388.713	106.56
388.938	105.56
389.163	92.56
389.387	91.56
389.612	111.56
389.837	99.56
390.062	79.56
390.287	100.56
390.512	95.56
390.736	86.56
390.961	88.56
391.186	100.56
391.411	87.56
391.636	91.56
391.86	102.56
392.085	81.56
392.31	100.56
392.534	97.56
392.759	78.56
392.984	87.56
393.208	89.56
393.433	87.56
393.658	85.56
393.882	94.56
394.107	87.56
394.331	87.56
394.556	78.56
394.78	87.56
395.005	95.56
395.229	86.56
395.454	103.56
395.678	87.56
395.903	81.56
396.127	98.56
396.352	107.56
396.576	104.56
396.801	89.56
397.025	87.56
397.249	86.56
397.474	95.56
397.698	86.56
397.922	88.56
398.147	80.56
398.371	93.56
398.595	93.56
398.82	92.56
399.044	87.56
399.268	93.56
399.492	90.56
399.717	83.56
399.941	98.56
400.165	98.56
400.389	105.56
400.613	90.56
400.837	83.56
401.062	74.56
401.286	89.56
401.51	94.56
401.734	93.56
401.958	98.56
402.182	116.56
402.406	149.56
402.63	103.56
402.854	99.56
403.078	86.56
403.302	90.56
403.526	90.56
403.75	86.56
403.974	100.56
404.198	83.56
404.422	78.56
404.645	86.56
404.869	111.56
405.093	98.56
405.317	87.56
405.541	94.56
405.765	94.56
405.988	124.56
406.212	159.56
406.436	194.56
406.66	126.56
406.883	93.56
407.107	99.56
407.331	104.56
407.555	89.56
407.778	104.56
408.002	97.56
408.226	94.56
408.449	93.56
408.673	100.56
408.896	90.56
409.12	93.56
409.344	90.56
409.567	106.56
409.791	84.56
410.014	95.56
410.238	88.56
410.461	101.56
410.685	92.56
410.908	103.56
411.132	101.56
411.355	105.56
411.578	92.56
411.802	94.56
412.025	93.56
412.249	96.56
412.472	106.56
412.695	94.56
412.919	92.56
413.142	75.56
413.365	93.56
413.589	87.56
413.812	81.56
414.035	105.56
414.258	95.56
414.482	96.56
414.705	100.56
414.928	98.56
415.151	112.56
415.374	106.56
415.597	94.56
415.821	96.56
416.044	101.56
416.267	88.56
416.49	96.56
416.713	102.56
416.936	96.56
417.159	83.56
417.382	90.56
417.605	109.56
417.828	109.56
418.051	79.56
418.274	82.56
418.497	90.56
418.72	96.56
418.943	92.56
419.166	90.56
419.389	86.56
419.611	91.56
419.834	68.56
420.057	95.56
420.28	83.56
420.503	84.56
420.726	89.56
420.948	100.56
421.171	95.56
421.394	94.56
421.617	89.56
421.839	105.56
422.062	97.56
422.285	90.56
422.507	100.56
422.73	101.56
422.953	104.56
423.175	93.56
423.398	82.56
423.621	83.56
423.843	85.56
424.066	85.56
424.288	89.56
424.511	90.56
424.733	114.56
424.956	111.56
425.178	103.56
425.401	95.56
425.623	100.56
425.846	95.56
426.068	104.56
426.291	108.56
426.513	93.56
426.735	80.56
426.958	86.56
427.18	109.56
427.402	128.56
427.625	149.56
427.847	117.56
428.069	98.56
428.292	88.56
428.514	84.56
428.736	102.56
428.958	80.56
429.181	83.56
429.403	78.56
429.625	86.56
429.847	83.56
430.069	104.56
430.292	98.56
430.514	92.56
430.736	82.56
430.958	86.56
431.18	86.56
431.402	94.56
431.624	84.56
431.846	95.56
432.068	86.56
432.29	93.56
432.512	93.56
432.734	78.56
432.956	97.56
433.178	100.56
433.4	99.56
433.622	93.56
433.844	82.56
434.066	79.56
434.287	92.56
434.509	80.56
434.731	83.56
434.953	97.56
435.175	101.56
435.397	96.56
435.618	103.56
435.84	95.56
436.062	111.56
436.284	116.56
436.505	98.56
436.727	103.56
436.949	99.56
437.17	86.56
437.392	96.56
437.614	94.56
437.835	98.56
438.057	110.56
438.278	108.56
438.5	96.56
438.721	105.56
438.943	92.56
439.165	90.56
439.386	96.56
439.608	81.56
439.829	89.56
440.05	110.56
440.272	125.56
440.493	97.56
440.715	89.56
440.936	81.56
441.158	87.56
441.379	100.56
441.6	84.56
441.822	90.56
442.043	86.56
442.264	95.56
442.486	96.56
442.707	73.56
442.928	95.56
443.149	125.56
443.371	108.56
443.592	103.56
443.813	105.56
444.034	82.56
444.255	87.56
444.476	81.56
444.698	86.56
444.919	90.56
445.14	126.56
445.361	114.56
445.582	105.56
445.803	113.56
446.024	124.56
446.245	130.56
446.466	106.56
446.687	96.56
446.908	89.56
447.129	78.56
447.35	82.56
447.571	97.56
447.792	88.56
448.013	99.56
448.234	109.56
448.455	86.56
448.675	111.56
448.896	111.56
449.117	94.56
449.338	92.56
449.559	116.56
449.779	127.56
450	103.56
450.221	89.56
450.442	85.56
450.662	87.56
450.883	100.56
451.104	116.56
451.324	95.56
451.545	93.56
451.766	85.56
451.986	84.56
452.207	87.56
452.428	82.56
452.648	91.56
452.869	104.56
453.089	112.56
453.31	104.56
453.53	94.56
453.751	95.56
453.971	110.56
454.192	87.56
454.412	87.56
454.633	71.56
454.853	71.56
455.073	87.56
455.294	99.56
455.514	108.56
455.734	76.56
455.955	88.56
456.175	89.56
456.395	93.56
456.616	85.56
456.836	79.56
457.056	76.56
457.276	69.56
457.497	87.56
457.717	87.56
457.937	104.56
458.157	86.56
458.377	92.56
458.598	105.56
458.818	132.56
459.038	142.56
459.258	110.56
459.478	95.56
459.698	95.56
459.918	77.56
460.138	82.56
460.358	65.56
460.578	94.56
460.798	92.56
461.018	89.56
461.238	77.56
461.458	80.56
461.678	87.56
461.898	68.56
462.118	73.56
462.338	77.56
462.558	91.56
462.777	77.56
462.997	78.56
463.217	95.56
463.437	98.56
463.657	89.56
463.876	93.56
464.096	108.56
464.316	106.56
464.536	88.56
464.755	105.56
464.975	97.56
465.195	140.56
465.414	146.56
465.634	89.56
465.854	74.56
466.073	80.56
466.293	76.56
466.512	89.56
466.732	84.56
466.951	84.56
467.171	96.56
467.391	92.56
467.61	100.56
467.829	94.56
468.049	82.56
468.268	61.56
468.488	73.56
468.707	76.56
468.927	83.56
469.146	87.56
469.365	77.56
469.585	94.56
469.804	90.56
470.023	95.56
470.243	81.56
470.462	106.56
470.681	102.56
470.901	97.56
471.12	83.56
471.339	76.56
471.558	87.56
471.777	94.56
471.997	79.56
472.216	92.56
472.435	104.56
472.654	90.56
472.873	88.56
473.092	89.56
473.311	84.56
473.53	80.56
473.749	103.56
473.968	103.56
474.187	111.56
474.406	96.56
474.625	93.56
474.844	95.56
475.063	90.56
475.282	81.56
475.501	84.56
475.72	96.56
475.939	97.56
476.158	85.56
476.377	86.56
476.596	74.56
476.814	78.56
477.033	93.56
477.252	90.56
477.471	96.56
477.69	80.56
477.908	88.56
478.127	96.56
478.346	85.56
478.564	97.56
478.783	97.56
479.002	97.56
479.22	84.56
479.439	98.56
479.658	99.56
479.876	85.56
480.095	79.56
480.313	97.56
480.532	96.56
480.751	100.56
480.969	90.56
481.188	134.56
481.406	103.56
481.624	69.56
481.843	86.56
482.061	85.56
482.28	98.56
482.498	98.56
482.717	87.56
482.935	81.56
483.153	93.56
483.372	93.56
483.59	99.56
483.808	90.56
484.027	93.56
484.245	99.56
484.463	79.56
484.681	95.56
484.9	98.56
485.118	92.56
485.336	101.56
485.554	92.56
485.772	107.56
485.99	99.56
486.209	105.56
486.427	108.56
486.645	91.56
486.863	93.56
487.081	91.56
487.299	87.56
487.517	96.56
487.735	97.56
487.953	91.56
488.171	95.56
488.389	87.56
488.607	96.56
488.825	97.56
489.043	89.56
489.261	84.56
489.479	94.56
489.696	98.56
489.914	88.56
490.132	76.56
490.35	96.56
490.568	80.56
490.786	96.56
491.003	86.56
491.221	91.56
491.439	85.56
491.657	87.56
491.874	89.56
492.092	88.56
492.31	84.56
492.527	81.56
492.745	89.56
492.963	96.56
493.18	93.56
493.398	101.56
493.615	100.56
493.833	100.56
494.05	81.56
494.268	104.56
494.485	86.56
494.703	77.56
494.92	79.56
495.138	93.56
495.355	99.56
495.573	82.56
495.79	89.56
496.008	93.56
496.225	97.56
496.442	90.56
496.66	97.56
496.877	78.56
497.094	86.56
497.312	86.56
497.529	86.56
497.746	104.56
497.963	96.56
498.181	96.56
498.398	96.56
498.615	104.56
498.832	100.56
499.049	85.56
499.267	95.56
499.484	84.56
499.701	90.56
499.918	95.56
500.135	79.56
500.352	76.56
500.569	102.56
500.786	88.56
501.003	88.56
501.22	102.56
501.437	82.56
501.654	80.56
501.871	106.56
502.088	89.56
502.305	93.56
502.522	86.56
502.739	87.56
502.956	87.56
503.172	87.56
503.389	93.56
503.606	88.56
503.823	88.56
504.04	83.56
504.256	80.56
504.473	80.56
504.69	90.56
504.907	83.56
505.123	79.56
505.34	84.56
505.557	73.56
505.773	86.56
505.99	93.56
506.207	96.56
506.423	93.56
506.64	87.56
506.856	74.56
507.073	101.56
507.289	87.56
507.506	102.56
507.722	112.56
507.939	106.56
508.155	92.56
508.372	74.56
508.588	88.56
508.805	89.56
509.021	94.56
509.238	86.56
509.454	97.56
509.67	95.56
509.887	110.56
510.103	114.56
510.319	194.56
510.536	691.56
510.752	2128.56
510.968	609.56
511.184	158.56
511.401	108.56
511.617	103.56
511.833	105.56
512.049	94.56
512.265	80.56
512.481	94.56
512.698	100.56
512.914	92.56
513.13	109.56
513.346	85.56
513.562	104.56
513.778	95.56
513.994	91.56
514.21	103.56
514.426	122.56
514.642	133.56
514.858	125.56
515.074	168.56
515.29	408.56
