Data from Uncirc_2004_H10_HRD10591_00026.txt Node
Date: Wed Jan 03 10:32:18 EST 2024
User: Yrep
Spectrometer: HR+D1059
Trigger mode: 1
Integration Time (sec): 1.000000E-1
Scans to average: 1
Electric dark correction enabled: true
Nonlinearity correction enabled: false
Boxcar width: 0
XAxis mode: Wavelengths
Number of Pixels in Spectrum: 2048
>>>>>Begin Spectral Data<<<<<
223.165	-26.75
223.4	-26.75
223.635	-26.75
223.869	-25.75
224.104	-15.75
224.338	-9.75
224.573	-21.75
224.808	-24.75
225.042	-8.75
225.277	-1.75
225.511	-3.75
225.746	26.25
225.98	10.25
226.215	8.25
226.449	18.25
226.683	21.25
226.918	38.25
227.152	16.25
227.387	45.25
227.621	39.25
227.856	35.25
228.09	47.25
228.324	47.25
228.559	66.25
228.793	62.25
229.027	73.25
229.262	68.25
229.496	72.25
229.73	69.25
229.964	76.25
230.199	64.25
230.433	78.25
230.667	79.25
230.901	71.25
231.136	70.25
231.37	76.25
231.604	88.25
231.838	89.25
232.072	90.25
232.306	86.25
232.541	80.25
232.775	85.25
233.009	93.25
233.243	87.25
233.477	85.25
233.711	81.25
233.945	85.25
234.179	63.25
234.413	82.25
234.647	86.25
234.881	90.25
235.115	83.25
235.349	87.25
235.583	70.25
235.817	79.25
236.051	69.25
236.285	77.25
236.519	81.25
236.753	87.25
236.987	80.25
237.221	70.25
237.455	78.25
237.689	87.25
237.922	76.25
238.156	77.25
238.39	83.25
238.624	80.25
238.858	85.25
239.091	86.25
239.325	70.25
239.559	74.25
239.793	76.25
240.027	80.25
240.26	72.25
240.494	78.25
240.728	86.25
240.961	73.25
241.195	71.25
241.429	70.25
241.662	80.25
241.896	73.25
242.13	79.25
242.363	73.25
242.597	92.25
242.83	77.25
243.064	84.25
243.298	87.25
243.531	79.25
243.765	79.25
243.998	82.25
244.232	75.25
244.465	94.25
244.699	92.25
244.932	82.25
245.166	83.25
245.399	66.25
245.633	83.25
245.866	74.25
246.099	79.25
246.333	77.25
246.566	82.25
246.8	90.25
247.033	88.25
247.266	85.25
247.5	82.25
247.733	73.25
247.966	65.25
248.2	90.25
248.433	71.25
248.666	80.25
248.899	91.25
249.133	86.25
249.366	81.25
249.599	102.25
249.832	77.25
250.066	72.25
250.299	76.25
250.532	80.25
250.765	83.25
250.998	84.25
251.231	76.25
251.465	69.25
251.698	83.25
251.931	85.25
252.164	78.25
252.397	73.25
252.63	79.25
252.863	87.25
253.096	83.25
253.329	86.25
253.562	82.25
253.795	82.25
254.028	97.25
254.261	80.25
254.494	86.25
254.727	78.25
254.96	86.25
255.193	77.25
255.426	80.25
255.659	73.25
255.892	89.25
256.124	85.25
256.357	79.25
256.59	81.25
256.823	78.25
257.056	74.25
257.289	84.25
257.521	89.25
257.754	73.25
257.987	83.25
258.22	74.25
258.452	82.25
258.685	96.25
258.918	84.25
259.151	90.25
259.383	88.25
259.616	104.25
259.849	81.25
260.081	62.25
260.314	92.25
260.547	66.25
260.779	92.25
261.012	74.25
261.244	77.25
261.477	92.25
261.71	74.25
261.942	102.25
262.175	111.25
262.407	100.25
262.64	73.25
262.872	73.25
263.105	85.25
263.337	80.25
263.57	88.25
263.802	90.25
264.035	79.25
264.267	82.25
264.499	79.25
264.732	100.25
264.964	85.25
265.197	89.25
265.429	86.25
265.661	90.25
265.894	84.25
266.126	84.25
266.358	95.25
266.591	85.25
266.823	87.25
267.055	81.25
267.287	89.25
267.52	70.25
267.752	73.25
267.984	66.25
268.216	89.25
268.448	90.25
268.681	77.25
268.913	89.25
269.145	92.25
269.377	102.25
269.609	79.25
269.841	94.25
270.073	80.25
270.306	73.25
270.538	85.25
270.77	98.25
271.002	77.25
271.234	79.25
271.466	76.25
271.698	89.25
271.93	83.25
272.162	76.25
272.394	94.25
272.626	85.25
272.858	79.25
273.09	78.25
273.322	81.25
273.553	84.25
273.785	84.25
274.017	70.25
274.249	82.25
274.481	85.25
274.713	79.25
274.945	95.25
275.176	91.25
275.408	88.25
275.64	97.25
275.872	94.25
276.104	84.25
276.335	88.25
276.567	93.25
276.799	108.25
277.031	98.25
277.262	111.25
277.494	95.25
277.726	92.25
277.957	81.25
278.189	84.25
278.421	88.25
278.652	72.25
278.884	94.25
279.115	72.25
279.347	91.25
279.579	96.25
279.81	81.25
280.042	84.25
280.273	94.25
280.505	87.25
280.736	90.25
280.968	84.25
281.199	76.25
281.431	85.25
281.662	90.25
281.894	94.25
282.125	99.25
282.356	112.25
282.588	128.25
282.819	110.25
283.051	81.25
283.282	90.25
283.513	89.25
283.745	88.25
283.976	96.25
284.207	93.25
284.439	86.25
284.67	90.25
284.901	89.25
285.132	86.25
285.364	82.25
285.595	81.25
285.826	98.25
286.057	79.25
286.288	95.25
286.52	79.25
286.751	77.25
286.982	94.25
287.213	93.25
287.444	93.25
287.675	87.25
287.906	73.25
288.138	88.25
288.369	80.25
288.6	90.25
288.831	95.25
289.062	92.25
289.293	85.25
289.524	90.25
289.755	77.25
289.986	74.25
290.217	89.25
290.448	90.25
290.679	77.25
290.91	72.25
291.141	87.25
291.371	98.25
291.602	89.25
291.833	82.25
292.064	84.25
292.295	80.25
292.526	86.25
292.757	85.25
292.987	93.25
293.218	78.25
293.449	81.25
293.68	87.25
293.91	72.25
294.141	91.25
294.372	91.25
294.603	97.25
294.833	85.25
295.064	86.25
295.295	79.25
295.525	95.25
295.756	100.25
295.987	112.25
296.217	121.25
296.448	109.25
296.679	96.25
296.909	81.25
297.14	88.25
297.37	89.25
297.601	87.25
297.831	95.25
298.062	82.25
298.292	98.25
298.523	97.25
298.753	93.25
298.984	93.25
299.214	83.25
299.445	79.25
299.675	81.25
299.905	85.25
300.136	104.25
300.366	96.25
300.597	91.25
300.827	88.25
301.057	101.25
301.288	94.25
301.518	91.25
301.748	88.25
301.979	91.25
302.209	97.25
302.439	100.25
302.669	94.25
302.9	91.25
303.13	93.25
303.36	93.25
303.59	94.25
303.82	104.25
304.051	99.25
304.281	87.25
304.511	107.25
304.741	110.25
304.971	100.25
305.201	91.25
305.431	94.25
305.661	96.25
305.891	87.25
306.121	85.25
306.352	94.25
306.582	114.25
306.812	98.25
307.042	80.25
307.272	96.25
307.502	89.25
307.731	96.25
307.961	96.25
308.191	108.25
308.421	95.25
308.651	85.25
308.881	109.25
309.111	87.25
309.341	108.25
309.571	94.25
309.8	91.25
310.03	86.25
310.26	88.25
310.49	85.25
310.72	90.25
310.949	97.25
311.179	94.25
311.409	86.25
311.639	85.25
311.868	89.25
312.098	93.25
312.328	90.25
312.557	108.25
312.787	93.25
313.017	105.25
313.246	83.25
313.476	97.25
313.706	95.25
313.935	99.25
314.165	87.25
314.394	102.25
314.624	102.25
314.853	101.25
315.083	104.25
315.312	102.25
315.542	91.25
315.771	95.25
316.001	88.25
316.23	95.25
316.46	88.25
316.689	90.25
316.919	94.25
317.148	93.25
317.377	126.25
317.607	104.25
317.836	87.25
318.065	83.25
318.295	91.25
318.524	84.25
318.753	75.25
318.983	99.25
319.212	101.25
319.441	111.25
319.67	100.25
319.9	102.25
320.129	106.25
320.358	109.25
320.587	110.25
320.816	90.25
321.046	91.25
321.275	99.25
321.504	103.25
321.733	104.25
321.962	97.25
322.191	94.25
322.42	111.25
322.649	101.25
322.878	112.25
323.108	103.25
323.337	113.25
323.566	119.25
323.795	142.25
324.024	200.25
324.253	365.25
324.482	764.25
324.71	1556.25
324.939	2000.25
325.168	735.25
325.397	222.25
325.626	127.25
325.855	133.25
326.084	126.25
326.313	129.25
326.542	153.25
326.77	212.25
326.999	451.25
327.228	891.25
327.457	1589.25
327.686	1235.25
327.914	350.25
328.143	188.25
328.372	146.25
328.6	125.25
328.829	126.25
329.058	119.25
329.287	103.25
329.515	119.25
329.744	109.25
329.972	97.25
330.201	117.25
330.43	117.25
330.658	111.25
330.887	108.25
331.115	112.25
331.344	94.25
331.572	112.25
331.801	92.25
332.03	112.25
332.258	102.25
332.486	111.25
332.715	89.25
332.943	104.25
333.172	119.25
333.4	80.25
333.629	107.25
333.857	120.25
334.085	110.25
334.314	96.25
334.542	99.25
334.771	110.25
334.999	102.25
335.227	89.25
335.455	100.25
335.684	107.25
335.912	99.25
336.14	94.25
336.369	90.25
336.597	93.25
336.825	98.25
337.053	96.25
337.281	96.25
337.51	76.25
337.738	96.25
337.966	94.25
338.194	98.25
338.422	96.25
338.65	72.25
338.878	89.25
339.106	101.25
339.334	86.25
339.562	86.25
339.79	103.25
340.018	86.25
340.246	94.25
340.474	89.25
340.702	93.25
340.93	98.25
341.158	95.25
341.386	103.25
341.614	105.25
341.842	109.25
342.07	99.25
342.298	88.25
342.526	97.25
342.754	87.25
342.981	81.25
343.209	83.25
343.437	79.25
343.665	83.25
343.893	89.25
344.12	96.25
344.348	99.25
344.576	87.25
344.804	97.25
345.031	101.25
345.259	92.25
345.487	103.25
345.714	92.25
345.942	94.25
346.17	91.25
346.397	94.25
346.625	83.25
346.853	93.25
347.08	89.25
347.308	102.25
347.535	89.25
347.763	105.25
347.99	104.25
348.218	110.25
348.445	113.25
348.673	89.25
348.9	96.25
349.128	97.25
349.355	100.25
349.583	97.25
349.81	89.25
350.037	97.25
350.265	88.25
350.492	84.25
350.72	104.25
350.947	101.25
351.174	119.25
351.402	105.25
351.629	86.25
351.856	94.25
352.083	102.25
352.311	96.25
352.538	118.25
352.765	102.25
352.992	100.25
353.22	96.25
353.447	98.25
353.674	92.25
353.901	118.25
354.128	99.25
354.355	99.25
354.583	101.25
354.81	95.25
355.037	93.25
355.264	95.25
355.491	96.25
355.718	89.25
355.945	90.25
356.172	96.25
356.399	94.25
356.626	97.25
356.853	101.25
357.08	83.25
357.307	100.25
357.534	100.25
357.761	96.25
357.988	94.25
358.215	104.25
358.441	92.25
358.668	101.25
358.895	97.25
359.122	98.25
359.349	96.25
359.576	103.25
359.802	100.25
360.029	106.25
360.256	96.25
360.483	97.25
360.709	97.25
360.936	99.25
361.163	81.25
361.39	89.25
361.616	90.25
361.843	105.25
362.07	91.25
362.296	104.25
362.523	85.25
362.749	96.25
362.976	81.25
363.203	93.25
363.429	80.25
363.656	89.25
363.882	105.25
364.109	89.25
364.335	90.25
364.562	85.25
364.788	87.25
365.015	95.25
365.241	115.25
365.468	108.25
365.694	118.25
365.92	100.25
366.147	97.25
366.373	108.25
366.599	88.25
366.826	88.25
367.052	92.25
367.278	81.25
367.505	88.25
367.731	82.25
367.957	99.25
368.184	89.25
368.41	112.25
368.636	102.25
368.862	112.25
369.089	98.25
369.315	101.25
369.541	90.25
369.767	92.25
369.993	93.25
370.219	93.25
370.445	96.25
370.672	80.25
370.898	95.25
371.124	86.25
371.35	81.25
371.576	81.25
371.802	73.25
372.028	90.25
372.254	95.25
372.48	93.25
372.706	90.25
372.932	89.25
373.158	96.25
373.384	97.25
373.61	88.25
373.835	84.25
374.061	96.25
374.287	91.25
374.513	92.25
374.739	83.25
374.965	102.25
375.191	97.25
375.416	98.25
375.642	93.25
375.868	96.25
376.094	101.25
376.319	87.25
376.545	86.25
376.771	94.25
376.997	94.25
377.222	99.25
377.448	96.25
377.674	95.25
377.899	94.25
378.125	97.25
378.35	89.25
378.576	107.25
378.802	95.25
379.027	117.25
379.253	97.25
379.478	99.25
379.704	90.25
379.929	103.25
380.155	103.25
380.38	96.25
380.606	90.25
380.831	101.25
381.057	102.25
381.282	95.25
381.507	106.25
381.733	98.25
381.958	78.25
382.184	86.25
382.409	93.25
382.634	96.25
382.86	98.25
383.085	109.25
383.31	95.25
383.535	102.25
383.761	101.25
383.986	90.25
384.211	102.25
384.436	114.25
384.662	95.25
384.887	105.25
385.112	96.25
385.337	99.25
385.562	118.25
385.787	95.25
386.013	115.25
386.238	111.25
386.463	105.25
386.688	123.25
386.913	96.25
387.138	115.25
387.363	96.25
387.588	107.25
387.813	119.25
388.038	110.25
388.263	123.25
388.488	112.25
388.713	90.25
388.938	89.25
389.163	89.25
389.387	97.25
389.612	106.25
389.837	100.25
390.062	93.25
390.287	99.25
390.512	89.25
390.736	86.25
390.961	92.25
391.186	98.25
391.411	110.25
391.636	96.25
391.86	85.25
392.085	108.25
392.31	81.25
392.534	86.25
392.759	94.25
392.984	87.25
393.208	93.25
393.433	101.25
393.658	93.25
393.882	78.25
394.107	86.25
394.331	80.25
394.556	88.25
394.78	97.25
395.005	89.25
395.229	92.25
395.454	95.25
395.678	85.25
395.903	92.25
396.127	93.25
396.352	88.25
396.576	88.25
396.801	104.25
397.025	95.25
397.249	89.25
397.474	82.25
397.698	89.25
397.922	94.25
398.147	81.25
398.371	79.25
398.595	95.25
398.82	82.25
399.044	102.25
399.268	92.25
399.492	89.25
399.717	90.25
399.941	87.25
400.165	96.25
400.389	90.25
400.613	88.25
400.837	91.25
401.062	89.25
401.286	77.25
401.51	90.25
401.734	88.25
401.958	89.25
402.182	105.25
402.406	127.25
402.63	116.25
402.854	86.25
403.078	101.25
403.302	89.25
403.526	85.25
403.75	84.25
403.974	75.25
404.198	95.25
404.422	78.25
404.645	84.25
404.869	87.25
405.093	93.25
405.317	82.25
405.541	97.25
405.765	104.25
405.988	116.25
406.212	155.25
406.436	197.25
406.66	118.25
406.883	94.25
407.107	102.25
407.331	97.25
407.555	88.25
407.778	89.25
408.002	95.25
408.226	109.25
408.449	85.25
408.673	94.25
408.896	105.25
409.12	104.25
409.344	93.25
409.567	93.25
409.791	102.25
410.014	82.25
410.238	95.25
410.461	81.25
410.685	98.25
410.908	101.25
411.132	100.25
411.355	82.25
411.578	94.25
411.802	87.25
412.025	76.25
412.249	88.25
412.472	101.25
412.695	90.25
412.919	103.25
413.142	89.25
413.365	99.25
413.589	83.25
413.812	81.25
414.035	94.25
414.258	89.25
414.482	94.25
414.705	84.25
414.928	83.25
415.151	90.25
415.374	93.25
415.597	89.25
415.821	93.25
416.044	85.25
416.267	89.25
416.49	87.25
416.713	95.25
416.936	90.25
417.159	88.25
417.382	78.25
417.605	81.25
417.828	95.25
418.051	87.25
418.274	94.25
418.497	99.25
418.72	85.25
418.943	79.25
419.166	98.25
419.389	93.25
419.611	84.25
419.834	85.25
420.057	82.25
420.28	82.25
420.503	84.25
420.726	95.25
420.948	94.25
421.171	87.25
421.394	98.25
421.617	94.25
421.839	72.25
422.062	84.25
422.285	89.25
422.507	91.25
422.73	97.25
422.953	97.25
423.175	92.25
423.398	89.25
423.621	94.25
423.843	85.25
424.066	96.25
424.288	86.25
424.511	86.25
424.733	102.25
424.956	90.25
425.178	81.25
425.401	108.25
425.623	90.25
425.846	95.25
426.068	83.25
426.291	95.25
426.513	82.25
426.735	92.25
426.958	83.25
427.18	84.25
427.402	116.25
427.625	141.25
427.847	106.25
428.069	99.25
428.292	99.25
428.514	80.25
428.736	90.25
428.958	81.25
429.181	83.25
429.403	81.25
429.625	83.25
429.847	89.25
430.069	100.25
430.292	93.25
430.514	92.25
430.736	77.25
430.958	94.25
431.18	81.25
431.402	84.25
431.624	73.25
431.846	89.25
432.068	97.25
432.29	101.25
432.512	97.25
432.734	87.25
432.956	94.25
433.178	98.25
433.4	94.25
433.622	97.25
433.844	91.25
434.066	86.25
434.287	98.25
434.509	88.25
434.731	88.25
434.953	102.25
435.175	91.25
435.397	85.25
435.618	106.25
435.84	91.25
436.062	110.25
436.284	108.25
436.505	110.25
436.727	92.25
436.949	100.25
437.17	84.25
437.392	96.25
437.614	101.25
437.835	105.25
438.057	96.25
438.278	103.25
438.5	90.25
438.721	113.25
438.943	94.25
439.165	90.25
439.386	89.25
439.608	85.25
439.829	102.25
440.05	119.25
440.272	120.25
440.493	95.25
440.715	72.25
440.936	95.25
441.158	82.25
441.379	85.25
441.6	91.25
441.822	97.25
442.043	89.25
442.264	96.25
442.486	100.25
442.707	98.25
442.928	98.25
443.149	123.25
443.371	117.25
443.592	95.25
443.813	97.25
444.034	90.25
444.255	86.25
444.476	82.25
444.698	74.25
444.919	90.25
445.14	127.25
445.361	121.25
445.582	111.25
445.803	125.25
446.024	109.25
446.245	112.25
446.466	112.25
446.687	82.25
446.908	93.25
447.129	106.25
447.35	96.25
447.571	95.25
447.792	94.25
448.013	92.25
448.234	82.25
448.455	114.25
448.675	110.25
448.896	126.25
449.117	116.25
449.338	92.25
449.559	114.25
449.779	108.25
450	94.25
450.221	73.25
450.442	94.25
450.662	99.25
450.883	86.25
451.104	101.25
451.324	89.25
451.545	97.25
451.766	96.25
451.986	78.25
452.207	95.25
452.428	96.25
452.648	96.25
452.869	101.25
453.089	100.25
453.31	115.25
453.53	92.25
453.751	85.25
453.971	109.25
454.192	94.25
454.412	94.25
454.633	89.25
454.853	99.25
455.073	103.25
455.294	91.25
455.514	96.25
455.734	81.25
455.955	94.25
456.175	95.25
456.395	78.25
456.616	81.25
456.836	78.25
457.056	83.25
457.276	89.25
457.497	78.25
457.717	82.25
457.937	73.25
458.157	86.25
458.377	92.25
458.598	106.25
458.818	126.25
459.038	140.25
459.258	120.25
459.478	103.25
459.698	74.25
459.918	97.25
460.138	90.25
460.358	94.25
460.578	87.25
460.798	79.25
461.018	83.25
461.238	97.25
461.458	87.25
461.678	86.25
461.898	76.25
462.118	86.25
462.338	97.25
462.558	78.25
462.777	84.25
462.997	84.25
463.217	89.25
463.437	92.25
463.657	86.25
463.876	86.25
464.096	79.25
464.316	84.25
464.536	96.25
464.755	101.25
464.975	104.25
465.195	126.25
465.414	148.25
465.634	113.25
465.854	105.25
466.073	84.25
466.293	83.25
466.512	84.25
466.732	96.25
466.951	87.25
467.171	98.25
467.391	98.25
467.61	109.25
467.829	102.25
468.049	91.25
468.268	85.25
468.488	76.25
468.707	101.25
468.927	85.25
469.146	78.25
469.365	85.25
469.585	82.25
469.804	109.25
470.023	101.25
470.243	99.25
470.462	101.25
470.681	120.25
470.901	103.25
471.12	73.25
471.339	70.25
471.558	85.25
471.777	75.25
471.997	84.25
472.216	90.25
472.435	97.25
472.654	94.25
472.873	85.25
473.092	86.25
473.311	102.25
473.53	82.25
473.749	82.25
473.968	103.25
474.187	111.25
474.406	89.25
474.625	92.25
474.844	88.25
475.063	85.25
475.282	85.25
475.501	86.25
475.72	102.25
475.939	97.25
476.158	87.25
476.377	94.25
476.596	90.25
476.814	87.25
477.033	93.25
477.252	90.25
477.471	99.25
477.69	103.25
477.908	90.25
478.127	96.25
478.346	84.25
478.564	101.25
478.783	93.25
479.002	87.25
479.22	78.25
479.439	99.25
479.658	112.25
479.876	88.25
480.095	89.25
480.313	97.25
480.532	80.25
480.751	88.25
480.969	103.25
481.188	112.25
481.406	106.25
481.624	79.25
481.843	88.25
482.061	85.25
482.28	89.25
482.498	85.25
482.717	90.25
482.935	81.25
483.153	103.25
483.372	92.25
483.59	94.25
483.808	90.25
484.027	97.25
484.245	100.25
484.463	96.25
484.681	107.25
484.9	97.25
485.118	94.25
485.336	101.25
485.554	112.25
485.772	107.25
485.99	113.25
486.209	100.25
486.427	100.25
486.645	103.25
486.863	108.25
487.081	104.25
487.299	105.25
487.517	98.25
487.735	84.25
487.953	100.25
488.171	97.25
488.389	98.25
488.607	85.25
488.825	70.25
489.043	96.25
489.261	88.25
489.479	89.25
489.696	92.25
489.914	88.25
490.132	92.25
490.35	95.25
490.568	90.25
490.786	90.25
491.003	83.25
491.221	92.25
491.439	96.25
491.657	83.25
491.874	78.25
492.092	88.25
492.31	89.25
492.527	83.25
492.745	89.25
492.963	88.25
493.18	81.25
493.398	86.25
493.615	95.25
493.833	78.25
494.05	89.25
494.268	73.25
494.485	87.25
494.703	96.25
494.92	108.25
495.138	95.25
495.355	84.25
495.573	91.25
495.79	78.25
496.008	88.25
496.225	89.25
496.442	106.25
496.66	111.25
496.877	101.25
497.094	95.25
497.312	92.25
497.529	103.25
497.746	97.25
497.963	83.25
498.181	81.25
498.398	90.25
498.615	103.25
498.832	105.25
499.049	87.25
499.267	77.25
499.484	94.25
499.701	80.25
499.918	88.25
500.135	93.25
500.352	102.25
500.569	90.25
500.786	94.25
501.003	93.25
501.22	90.25
501.437	97.25
501.654	91.25
501.871	104.25
502.088	103.25
502.305	93.25
502.522	90.25
502.739	83.25
502.956	77.25
503.172	87.25
503.389	87.25
503.606	101.25
503.823	85.25
504.04	90.25
504.256	85.25
504.473	94.25
504.69	98.25
504.907	96.25
505.123	92.25
505.34	90.25
505.557	84.25
505.773	104.25
505.99	91.25
506.207	87.25
506.423	87.25
506.64	85.25
506.856	99.25
507.073	77.25
507.289	89.25
507.506	97.25
507.722	120.25
507.939	110.25
508.155	97.25
508.372	93.25
508.588	89.25
508.805	86.25
509.021	97.25
509.238	104.25
509.454	106.25
509.67	96.25
509.887	111.25
510.103	131.25
510.319	198.25
510.536	697.25
510.752	2088.25
510.968	576.25
511.184	154.25
511.401	116.25
511.617	118.25
511.833	98.25
512.049	90.25
512.265	92.25
512.481	94.25
512.698	92.25
512.914	84.25
513.13	94.25
513.346	93.25
513.562	95.25
513.778	86.25
513.994	96.25
514.21	106.25
514.426	116.25
514.642	120.25
514.858	134.25
515.074	152.25
515.29	402.25
515.506	1266.25
515.721	476.25
