Data from Uncirc_2004_H10_HRD10591_00088.txt Node
Date: Wed Jan 03 10:32:30 EST 2024
User: Yrep
Spectrometer: HR+D1059
Trigger mode: 1
Integration Time (sec): 1.000000E-1
Scans to average: 1
Electric dark correction enabled: true
Nonlinearity correction enabled: false
Boxcar width: 0
XAxis mode: Wavelengths
Number of Pixels in Spectrum: 2048
>>>>>Begin Spectral Data<<<<<
223.165	-29.88
223.4	-29.88
223.635	-29.88
223.869	-18.88
224.104	-16.88
224.338	-23.88
224.573	-22.88
224.808	18.12
225.042	-7.88
225.277	-8.88
225.511	-1.88
225.746	-5.88
225.98	4.12
226.215	21.12
226.449	21.12
226.683	20.12
226.918	25.12
227.152	27.12
227.387	35.12
227.621	47.12
227.856	43.12
228.09	53.12
228.324	67.12
228.559	65.12
228.793	67.12
229.027	57.12
229.262	69.12
229.496	70.12
229.73	84.12
229.964	76.12
230.199	73.12
230.433	72.12
230.667	98.12
230.901	77.12
231.136	85.12
231.37	83.12
231.604	82.12
231.838	76.12
232.072	75.12
232.306	73.12
232.541	71.12
232.775	82.12
233.009	91.12
233.243	86.12
233.477	89.12
233.711	76.12
233.945	92.12
234.179	88.12
234.413	82.12
234.647	82.12
234.881	90.12
235.115	64.12
235.349	82.12
235.583	77.12
235.817	78.12
236.051	77.12
236.285	75.12
236.519	76.12
236.753	80.12
236.987	97.12
237.221	95.12
237.455	93.12
237.689	78.12
237.922	77.12
238.156	79.12
238.39	71.12
238.624	78.12
238.858	85.12
239.091	84.12
239.325	73.12
239.559	87.12
239.793	78.12
240.027	73.12
240.26	92.12
240.494	75.12
240.728	48.12
240.961	75.12
241.195	78.12
241.429	81.12
241.662	73.12
241.896	90.12
242.13	81.12
242.363	73.12
242.597	82.12
242.83	80.12
243.064	72.12
243.298	70.12
243.531	86.12
243.765	86.12
243.998	86.12
244.232	90.12
244.465	90.12
244.699	79.12
244.932	92.12
245.166	80.12
245.399	102.12
245.633	89.12
245.866	82.12
246.099	70.12
246.333	82.12
246.566	78.12
246.8	84.12
247.033	91.12
247.266	83.12
247.5	88.12
247.733	88.12
247.966	78.12
248.2	74.12
248.433	82.12
248.666	85.12
248.899	78.12
249.133	88.12
249.366	91.12
249.599	68.12
249.832	97.12
250.066	89.12
250.299	93.12
250.532	82.12
250.765	89.12
250.998	75.12
251.231	79.12
251.465	81.12
251.698	75.12
251.931	85.12
252.164	78.12
252.397	78.12
252.63	82.12
252.863	80.12
253.096	74.12
253.329	71.12
253.562	79.12
253.795	77.12
254.028	90.12
254.261	73.12
254.494	85.12
254.727	70.12
254.96	97.12
255.193	82.12
255.426	76.12
255.659	82.12
255.892	77.12
256.124	67.12
256.357	70.12
256.59	69.12
256.823	76.12
257.056	72.12
257.289	89.12
257.521	89.12
257.754	82.12
257.987	85.12
258.22	92.12
258.452	77.12
258.685	99.12
258.918	77.12
259.151	73.12
259.383	80.12
259.616	89.12
259.849	85.12
260.081	79.12
260.314	86.12
260.547	83.12
260.779	90.12
261.012	89.12
261.244	79.12
261.477	96.12
261.71	95.12
261.942	99.12
262.175	111.12
262.407	97.12
262.64	81.12
262.872	77.12
263.105	84.12
263.337	109.12
263.57	71.12
263.802	90.12
264.035	78.12
264.267	73.12
264.499	101.12
264.732	74.12
264.964	91.12
265.197	87.12
265.429	90.12
265.661	88.12
265.894	77.12
266.126	89.12
266.358	79.12
266.591	82.12
266.823	81.12
267.055	82.12
267.287	85.12
267.52	83.12
267.752	95.12
267.984	76.12
268.216	82.12
268.448	91.12
268.681	85.12
268.913	83.12
269.145	106.12
269.377	80.12
269.609	83.12
269.841	83.12
270.073	91.12
270.306	95.12
270.538	95.12
270.77	82.12
271.002	81.12
271.234	91.12
271.466	79.12
271.698	81.12
271.93	85.12
272.162	82.12
272.394	104.12
272.626	81.12
272.858	88.12
273.09	87.12
273.322	79.12
273.553	86.12
273.785	82.12
274.017	84.12
274.249	78.12
274.481	85.12
274.713	97.12
274.945	90.12
275.176	80.12
275.408	80.12
275.64	71.12
275.872	88.12
276.104	86.12
276.335	91.12
276.567	112.12
276.799	114.12
277.031	97.12
277.262	101.12
277.494	82.12
277.726	86.12
277.957	86.12
278.189	84.12
278.421	95.12
278.652	74.12
278.884	90.12
279.115	96.12
279.347	87.12
279.579	100.12
279.81	85.12
280.042	82.12
280.273	91.12
280.505	93.12
280.736	67.12
280.968	85.12
281.199	95.12
281.431	87.12
281.662	91.12
281.894	99.12
282.125	85.12
282.356	107.12
282.588	144.12
282.819	114.12
283.051	97.12
283.282	93.12
283.513	93.12
283.745	70.12
283.976	78.12
284.207	89.12
284.439	91.12
284.67	88.12
284.901	91.12
285.132	90.12
285.364	101.12
285.595	96.12
285.826	103.12
286.057	94.12
286.288	77.12
286.52	75.12
286.751	96.12
286.982	83.12
287.213	79.12
287.444	90.12
287.675	95.12
287.906	73.12
288.138	95.12
288.369	90.12
288.6	89.12
288.831	81.12
289.062	103.12
289.293	84.12
289.524	83.12
289.755	86.12
289.986	85.12
290.217	87.12
290.448	84.12
290.679	85.12
290.91	88.12
291.141	83.12
291.371	90.12
291.602	92.12
291.833	100.12
292.064	67.12
292.295	92.12
292.526	91.12
292.757	94.12
292.987	82.12
293.218	101.12
293.449	72.12
293.68	83.12
293.91	82.12
294.141	87.12
294.372	80.12
294.603	90.12
294.833	92.12
295.064	90.12
295.295	99.12
295.525	85.12
295.756	96.12
295.987	102.12
296.217	129.12
296.448	120.12
296.679	89.12
296.909	94.12
297.14	96.12
297.37	102.12
297.601	82.12
297.831	82.12
298.062	79.12
298.292	94.12
298.523	90.12
298.753	85.12
298.984	88.12
299.214	85.12
299.445	94.12
299.675	93.12
299.905	96.12
300.136	86.12
300.366	99.12
300.597	91.12
300.827	94.12
301.057	86.12
301.288	111.12
301.518	82.12
301.748	102.12
301.979	95.12
302.209	100.12
302.439	102.12
302.669	95.12
302.9	95.12
303.13	91.12
303.36	96.12
303.59	89.12
303.82	111.12
304.051	107.12
304.281	77.12
304.511	79.12
304.741	89.12
304.971	88.12
305.201	86.12
305.431	92.12
305.661	90.12
305.891	100.12
306.121	82.12
306.352	93.12
306.582	101.12
306.812	94.12
307.042	91.12
307.272	80.12
307.502	102.12
307.731	101.12
307.961	90.12
308.191	103.12
308.421	85.12
308.651	87.12
308.881	79.12
309.111	95.12
309.341	96.12
309.571	108.12
309.8	101.12
310.03	88.12
310.26	102.12
310.49	88.12
310.72	108.12
310.949	109.12
311.179	116.12
311.409	109.12
311.639	100.12
311.868	104.12
312.098	88.12
312.328	102.12
312.557	99.12
312.787	110.12
313.017	86.12
313.246	99.12
313.476	93.12
313.706	95.12
313.935	99.12
314.165	104.12
314.394	93.12
314.624	102.12
314.853	106.12
315.083	91.12
315.312	88.12
315.542	91.12
315.771	109.12
316.001	89.12
316.23	89.12
316.46	104.12
316.689	94.12
316.919	90.12
317.148	109.12
317.377	105.12
317.607	86.12
317.836	96.12
318.065	98.12
318.295	93.12
318.524	98.12
318.753	95.12
318.983	99.12
319.212	101.12
319.441	107.12
319.67	110.12
319.9	97.12
320.129	100.12
320.358	97.12
320.587	90.12
320.816	100.12
321.046	97.12
321.275	106.12
321.504	106.12
321.733	91.12
321.962	110.12
322.191	115.12
322.42	109.12
322.649	114.12
322.878	117.12
323.108	106.12
323.337	116.12
323.566	132.12
323.795	154.12
324.024	215.12
324.253	389.12
324.482	834.12
324.71	1699.12
324.939	2209.12
325.168	800.12
325.397	242.12
325.626	152.12
325.855	115.12
326.084	120.12
326.313	115.12
326.542	166.12
326.77	237.12
326.999	488.12
327.228	958.12
327.457	1673.12
327.686	1345.12
327.914	364.12
328.143	177.12
328.372	161.12
328.6	120.12
328.829	115.12
329.058	137.12
329.287	127.12
329.515	117.12
329.744	104.12
329.972	101.12
330.201	105.12
330.43	111.12
330.658	119.12
330.887	141.12
331.115	116.12
331.344	104.12
331.572	99.12
331.801	95.12
332.03	96.12
332.258	105.12
332.486	92.12
332.715	113.12
332.943	89.12
333.172	109.12
333.4	82.12
333.629	95.12
333.857	115.12
334.085	109.12
334.314	88.12
334.542	106.12
334.771	113.12
334.999	102.12
335.227	95.12
335.455	98.12
335.684	100.12
335.912	92.12
336.14	109.12
336.369	97.12
336.597	92.12
336.825	87.12
337.053	86.12
337.281	94.12
337.51	81.12
337.738	92.12
337.966	95.12
338.194	104.12
338.422	103.12
338.65	99.12
338.878	97.12
339.106	84.12
339.334	109.12
339.562	87.12
339.79	93.12
340.018	99.12
340.246	95.12
340.474	88.12
340.702	94.12
340.93	92.12
341.158	95.12
341.386	98.12
341.614	110.12
341.842	96.12
342.07	109.12
342.298	87.12
342.526	92.12
342.754	81.12
342.981	87.12
343.209	102.12
343.437	97.12
343.665	83.12
343.893	91.12
344.12	91.12
344.348	85.12
344.576	99.12
344.804	97.12
345.031	115.12
345.259	95.12
345.487	114.12
345.714	89.12
345.942	95.12
346.17	82.12
346.397	86.12
346.625	102.12
346.853	90.12
347.08	101.12
347.308	101.12
347.535	89.12
347.763	101.12
347.99	102.12
348.218	91.12
348.445	95.12
348.673	104.12
348.9	89.12
349.128	94.12
349.355	99.12
349.583	77.12
349.81	98.12
350.037	106.12
350.265	100.12
350.492	95.12
350.72	89.12
350.947	100.12
351.174	99.12
351.402	105.12
351.629	102.12
351.856	94.12
352.083	114.12
352.311	114.12
352.538	114.12
352.765	103.12
352.992	117.12
353.22	110.12
353.447	113.12
353.674	104.12
353.901	90.12
354.128	85.12
354.355	87.12
354.583	111.12
354.81	97.12
355.037	90.12
355.264	87.12
355.491	81.12
355.718	89.12
355.945	98.12
356.172	106.12
356.399	94.12
356.626	93.12
356.853	91.12
357.08	105.12
357.307	99.12
357.534	96.12
357.761	78.12
357.988	80.12
358.215	90.12
358.441	92.12
358.668	99.12
358.895	91.12
359.122	81.12
359.349	90.12
359.576	95.12
359.802	88.12
360.029	105.12
360.256	102.12
360.483	89.12
360.709	89.12
360.936	84.12
361.163	113.12
361.39	99.12
361.616	95.12
361.843	91.12
362.07	94.12
362.296	69.12
362.523	82.12
362.749	99.12
362.976	88.12
363.203	101.12
363.429	83.12
363.656	94.12
363.882	96.12
364.109	85.12
364.335	106.12
364.562	95.12
364.788	85.12
365.015	73.12
365.241	107.12
365.468	109.12
365.694	105.12
365.92	94.12
366.147	99.12
366.373	96.12
366.599	84.12
366.826	89.12
367.052	96.12
367.278	82.12
367.505	87.12
367.731	98.12
367.957	96.12
368.184	91.12
368.41	106.12
368.636	109.12
368.862	129.12
369.089	118.12
369.315	105.12
369.541	89.12
369.767	92.12
369.993	85.12
370.219	94.12
370.445	82.12
370.672	89.12
370.898	102.12
371.124	78.12
371.35	98.12
371.576	93.12
371.802	96.12
372.028	78.12
372.254	84.12
372.48	86.12
372.706	78.12
372.932	82.12
373.158	88.12
373.384	79.12
373.61	88.12
373.835	91.12
374.061	91.12
374.287	87.12
374.513	78.12
374.739	91.12
374.965	83.12
375.191	88.12
375.416	81.12
375.642	97.12
375.868	94.12
376.094	91.12
376.319	102.12
376.545	83.12
376.771	101.12
376.997	97.12
377.222	99.12
377.448	91.12
377.674	93.12
377.899	89.12
378.125	87.12
378.35	94.12
378.576	97.12
378.802	84.12
379.027	93.12
379.253	108.12
379.478	102.12
379.704	90.12
379.929	98.12
380.155	88.12
380.38	87.12
380.606	105.12
380.831	97.12
381.057	91.12
381.282	95.12
381.507	90.12
381.733	87.12
381.958	101.12
382.184	79.12
382.409	99.12
382.634	90.12
382.86	95.12
383.085	85.12
383.31	103.12
383.535	95.12
383.761	102.12
383.986	89.12
384.211	93.12
384.436	97.12
384.662	89.12
384.887	88.12
385.112	105.12
385.337	83.12
385.562	97.12
385.787	98.12
386.013	102.12
386.238	121.12
386.463	102.12
386.688	112.12
386.913	98.12
387.138	96.12
387.363	89.12
387.588	104.12
387.813	102.12
388.038	107.12
388.263	102.12
388.488	114.12
388.713	100.12
388.938	94.12
389.163	113.12
389.387	105.12
389.612	100.12
389.837	90.12
390.062	104.12
390.287	95.12
390.512	89.12
390.736	91.12
390.961	80.12
391.186	103.12
391.411	105.12
391.636	92.12
391.86	98.12
392.085	89.12
392.31	90.12
392.534	91.12
392.759	91.12
392.984	90.12
393.208	100.12
393.433	86.12
393.658	85.12
393.882	81.12
394.107	88.12
394.331	96.12
394.556	87.12
394.78	90.12
395.005	89.12
395.229	92.12
395.454	83.12
395.678	81.12
395.903	84.12
396.127	79.12
396.352	89.12
396.576	77.12
396.801	97.12
397.025	88.12
397.249	87.12
397.474	91.12
397.698	90.12
397.922	75.12
398.147	81.12
398.371	83.12
398.595	74.12
398.82	90.12
399.044	94.12
399.268	81.12
399.492	99.12
399.717	99.12
399.941	80.12
400.165	87.12
400.389	95.12
400.613	80.12
400.837	82.12
401.062	82.12
401.286	91.12
401.51	84.12
401.734	84.12
401.958	100.12
402.182	122.12
402.406	161.12
402.63	105.12
402.854	88.12
403.078	101.12
403.302	89.12
403.526	75.12
403.75	100.12
403.974	102.12
404.198	95.12
404.422	96.12
404.645	95.12
404.869	96.12
405.093	94.12
405.317	100.12
405.541	89.12
405.765	102.12
405.988	119.12
406.212	161.12
406.436	227.12
406.66	145.12
406.883	106.12
407.107	103.12
407.331	99.12
407.555	95.12
407.778	95.12
408.002	87.12
408.226	88.12
408.449	88.12
408.673	101.12
408.896	90.12
409.12	98.12
409.344	89.12
409.567	89.12
409.791	100.12
410.014	84.12
410.238	96.12
410.461	93.12
410.685	98.12
410.908	97.12
411.132	107.12
411.355	100.12
411.578	89.12
411.802	81.12
412.025	99.12
412.249	92.12
412.472	95.12
412.695	98.12
412.919	95.12
413.142	100.12
413.365	89.12
413.589	77.12
413.812	90.12
414.035	89.12
414.258	86.12
414.482	74.12
414.705	90.12
414.928	105.12
415.151	94.12
415.374	94.12
415.597	104.12
415.821	85.12
416.044	83.12
416.267	90.12
416.49	86.12
416.713	87.12
416.936	96.12
417.159	96.12
417.382	89.12
417.605	105.12
417.828	90.12
418.051	96.12
418.274	104.12
418.497	94.12
418.72	88.12
418.943	90.12
419.166	82.12
419.389	80.12
419.611	102.12
419.834	85.12
420.057	107.12
420.28	92.12
420.503	87.12
420.726	88.12
420.948	95.12
421.171	82.12
421.394	90.12
421.617	87.12
421.839	97.12
422.062	89.12
422.285	93.12
422.507	96.12
422.73	99.12
422.953	87.12
423.175	90.12
423.398	87.12
423.621	100.12
423.843	94.12
424.066	85.12
424.288	86.12
424.511	88.12
424.733	92.12
424.956	102.12
425.178	95.12
425.401	107.12
425.623	103.12
425.846	85.12
426.068	87.12
426.291	106.12
426.513	81.12
426.735	90.12
426.958	97.12
427.18	91.12
427.402	129.12
427.625	161.12
427.847	144.12
428.069	101.12
428.292	101.12
428.514	80.12
428.736	91.12
428.958	115.12
429.181	89.12
429.403	91.12
429.625	100.12
429.847	95.12
430.069	104.12
430.292	95.12
430.514	97.12
430.736	95.12
430.958	91.12
431.18	84.12
431.402	75.12
431.624	88.12
431.846	75.12
432.068	86.12
432.29	86.12
432.512	99.12
432.734	85.12
432.956	84.12
433.178	92.12
433.4	74.12
433.622	98.12
433.844	95.12
434.066	93.12
434.287	79.12
434.509	84.12
434.731	90.12
434.953	93.12
435.175	75.12
435.397	86.12
435.618	99.12
435.84	104.12
436.062	115.12
436.284	101.12
436.505	100.12
436.727	102.12
436.949	88.12
437.17	82.12
437.392	95.12
437.614	104.12
437.835	111.12
438.057	113.12
438.278	110.12
438.5	101.12
438.721	117.12
438.943	97.12
439.165	77.12
439.386	88.12
439.608	88.12
439.829	116.12
440.05	112.12
440.272	132.12
440.493	118.12
440.715	95.12
440.936	84.12
441.158	96.12
441.379	97.12
441.6	84.12
441.822	105.12
442.043	105.12
442.264	98.12
442.486	88.12
442.707	109.12
442.928	94.12
443.149	133.12
443.371	119.12
443.592	116.12
443.813	114.12
444.034	97.12
444.255	90.12
444.476	83.12
444.698	91.12
444.919	92.12
445.14	120.12
445.361	137.12
445.582	114.12
445.803	138.12
446.024	132.12
446.245	136.12
446.466	114.12
446.687	91.12
446.908	95.12
447.129	87.12
447.35	77.12
447.571	91.12
447.792	96.12
448.013	89.12
448.234	104.12
448.455	117.12
448.675	106.12
448.896	96.12
449.117	86.12
449.338	107.12
449.559	131.12
449.779	127.12
450	102.12
450.221	75.12
450.442	90.12
450.662	99.12
450.883	115.12
451.104	91.12
451.324	97.12
451.545	82.12
451.766	91.12
451.986	100.12
452.207	112.12
452.428	94.12
452.648	98.12
452.869	116.12
453.089	118.12
453.31	110.12
453.53	93.12
453.751	87.12
453.971	106.12
454.192	101.12
454.412	94.12
454.633	77.12
454.853	91.12
455.073	91.12
455.294	87.12
455.514	103.12
455.734	93.12
455.955	91.12
456.175	87.12
456.395	90.12
456.616	87.12
456.836	82.12
457.056	81.12
457.276	89.12
457.497	87.12
457.717	86.12
457.937	95.12
458.157	87.12
458.377	96.12
458.598	98.12
458.818	121.12
459.038	146.12
459.258	102.12
459.478	85.12
459.698	66.12
459.918	75.12
460.138	90.12
460.358	80.12
460.578	83.12
460.798	90.12
461.018	95.12
461.238	85.12
461.458	93.12
461.678	90.12
461.898	78.12
462.118	79.12
462.338	91.12
462.558	81.12
462.777	70.12
462.997	96.12
463.217	87.12
463.437	85.12
463.657	80.12
463.876	83.12
464.096	100.12
464.316	104.12
464.536	71.12
464.755	87.12
464.975	106.12
465.195	173.12
465.414	156.12
465.634	99.12
465.854	88.12
466.073	91.12
466.293	85.12
466.512	98.12
466.732	96.12
466.951	99.12
467.171	98.12
467.391	94.12
467.61	107.12
467.829	98.12
468.049	93.12
468.268	89.12
468.488	89.12
468.707	83.12
468.927	98.12
469.146	86.12
469.365	94.12
469.585	91.12
469.804	97.12
470.023	101.12
470.243	98.12
470.462	98.12
470.681	129.12
470.901	91.12
471.12	89.12
471.339	83.12
471.558	82.12
471.777	89.12
471.997	89.12
472.216	86.12
472.435	93.12
472.654	87.12
472.873	87.12
473.092	85.12
473.311	85.12
473.53	87.12
473.749	88.12
473.968	81.12
474.187	96.12
474.406	85.12
474.625	83.12
474.844	87.12
475.063	94.12
475.282	78.12
475.501	99.12
475.72	105.12
475.939	95.12
476.158	91.12
476.377	84.12
476.596	92.12
476.814	103.12
477.033	107.12
477.252	80.12
477.471	90.12
477.69	82.12
477.908	78.12
478.127	82.12
478.346	87.12
478.564	96.12
478.783	80.12
479.002	94.12
479.22	94.12
479.439	95.12
479.658	102.12
479.876	98.12
480.095	94.12
480.313	94.12
480.532	104.12
480.751	94.12
480.969	116.12
481.188	119.12
481.406	126.12
481.624	99.12
481.843	85.12
482.061	90.12
482.28	107.12
482.498	89.12
482.717	85.12
482.935	96.12
483.153	96.12
483.372	90.12
483.59	102.12
483.808	111.12
484.027	98.12
484.245	81.12
484.463	85.12
484.681	90.12
484.9	82.12
485.118	99.12
485.336	102.12
485.554	96.12
485.772	89.12
485.99	101.12
486.209	109.12
486.427	114.12
486.645	107.12
486.863	108.12
487.081	103.12
487.299	91.12
487.517	112.12
487.735	88.12
487.953	85.12
488.171	104.12
488.389	91.12
488.607	95.12
488.825	108.12
489.043	82.12
489.261	88.12
489.479	86.12
489.696	95.12
489.914	101.12
490.132	88.12
490.35	94.12
490.568	83.12
490.786	96.12
491.003	87.12
491.221	81.12
491.439	101.12
491.657	104.12
491.874	98.12
492.092	87.12
492.31	93.12
492.527	92.12
492.745	91.12
492.963	113.12
493.18	101.12
493.398	89.12
493.615	89.12
493.833	93.12
494.05	79.12
494.268	101.12
494.485	85.12
494.703	92.12
494.92	91.12
495.138	101.12
495.355	100.12
495.573	113.12
495.79	77.12
496.008	75.12
496.225	90.12
496.442	105.12
496.66	85.12
496.877	93.12
497.094	103.12
497.312	90.12
497.529	81.12
497.746	87.12
497.963	73.12
498.181	95.12
498.398	108.12
498.615	107.12
498.832	99.12
499.049	104.12
499.267	101.12
499.484	88.12
499.701	95.12
499.918	104.12
500.135	104.12
500.352	88.12
500.569	84.12
500.786	83.12
501.003	90.12
501.22	82.12
501.437	101.12
501.654	85.12
501.871	111.12
502.088	103.12
502.305	92.12
502.522	94.12
502.739	82.12
502.956	107.12
503.172	97.12
503.389	95.12
503.606	104.12
503.823	103.12
504.04	94.12
504.256	96.12
504.473	102.12
504.69	97.12
504.907	88.12
505.123	104.12
505.34	101.12
505.557	100.12
505.773	89.12
505.99	91.12
506.207	101.12
506.423	88.12
506.64	79.12
506.856	101.12
507.073	90.12
507.289	77.12
507.506	104.12
507.722	113.12
507.939	119.12
508.155	95.12
508.372	107.12
508.588	95.12
508.805	87.12
509.021	108.12
509.238	105.12
509.454	99.12
509.67	106.12
509.887	107.12
510.103	136.12
510.319	216.12
510.536	780.12
510.752	2445.12
510.968	677.12
511.184	163.12
511.401	107.12
511.617	93.12
511.833	98.12
512.049	98.12
512.265	92.12
512.481	93.12
512.698	83.12
512.914	92.12
513.13	100.12
513.346	86.12
513.562	81.12
513.778	100.12
513.994	97.12
514.21	102.12
514.426	110.12
514.642	142.12
514.858	123.12
515.074	165.12
