Data from Uncirc_2004_H10_HRD10591_00029.txt Node
Date: Wed Jan 03 10:32:18 EST 2024
User: Yrep
Spectrometer: HR+D1059
Trigger mode: 1
Integration Time (sec): 1.000000E-1
Scans to average: 1
Electric dark correction enabled: true
Nonlinearity correction enabled: false
Boxcar width: 0
XAxis mode: Wavelengths
Number of Pixels in Spectrum: 2048
>>>>>Begin Spectral Data<<<<<
223.165	-12.88
223.4	-12.88
223.635	-12.88
223.869	-21.88
224.104	-24.88
224.338	-13.88
224.573	-21.88
224.808	-24.88
225.042	-1.88
225.277	-0.88
225.511	2.12
225.746	-0.88
225.98	18.12
226.215	9.12
226.449	12.12
226.683	30.12
226.918	24.12
227.152	28.12
227.387	21.12
227.621	42.12
227.856	22.12
228.09	44.12
228.324	42.12
228.559	59.12
228.793	59.12
229.027	54.12
229.262	60.12
229.496	63.12
229.73	79.12
229.964	71.12
230.199	77.12
230.433	74.12
230.667	81.12
230.901	70.12
231.136	86.12
231.37	81.12
231.604	91.12
231.838	81.12
232.072	79.12
232.306	68.12
232.541	76.12
232.775	70.12
233.009	66.12
233.243	80.12
233.477	62.12
233.711	74.12
233.945	81.12
234.179	87.12
234.413	73.12
234.647	71.12
234.881	69.12
235.115	68.12
235.349	79.12
235.583	75.12
235.817	88.12
236.051	62.12
236.285	79.12
236.519	81.12
236.753	71.12
236.987	70.12
237.221	78.12
237.455	80.12
237.689	73.12
237.922	76.12
238.156	66.12
238.39	66.12
238.624	80.12
238.858	77.12
239.091	70.12
239.325	64.12
239.559	72.12
239.793	74.12
240.027	78.12
240.26	75.12
240.494	70.12
240.728	67.12
240.961	68.12
241.195	74.12
241.429	73.12
241.662	61.12
241.896	69.12
242.13	69.12
242.363	77.12
242.597	64.12
242.83	84.12
243.064	73.12
243.298	66.12
243.531	86.12
243.765	59.12
243.998	87.12
244.232	79.12
244.465	80.12
244.699	83.12
244.932	72.12
245.166	68.12
245.399	78.12
245.633	74.12
245.866	77.12
246.099	78.12
246.333	83.12
246.566	93.12
246.8	82.12
247.033	86.12
247.266	75.12
247.5	80.12
247.733	79.12
247.966	93.12
248.2	79.12
248.433	70.12
248.666	80.12
248.899	75.12
249.133	78.12
249.366	80.12
249.599	96.12
249.832	84.12
250.066	82.12
250.299	77.12
250.532	78.12
250.765	77.12
250.998	74.12
251.231	72.12
251.465	79.12
251.698	63.12
251.931	67.12
252.164	76.12
252.397	74.12
252.63	93.12
252.863	80.12
253.096	74.12
253.329	87.12
253.562	72.12
253.795	74.12
254.028	66.12
254.261	67.12
254.494	79.12
254.727	94.12
254.96	84.12
255.193	87.12
255.426	72.12
255.659	75.12
255.892	78.12
256.124	70.12
256.357	71.12
256.59	79.12
256.823	77.12
257.056	80.12
257.289	70.12
257.521	86.12
257.754	74.12
257.987	77.12
258.22	83.12
258.452	86.12
258.685	75.12
258.918	76.12
259.151	83.12
259.383	87.12
259.616	80.12
259.849	67.12
260.081	87.12
260.314	77.12
260.547	84.12
260.779	79.12
261.012	95.12
261.244	71.12
261.477	96.12
261.71	86.12
261.942	102.12
262.175	109.12
262.407	94.12
262.64	83.12
262.872	80.12
263.105	71.12
263.337	72.12
263.57	78.12
263.802	83.12
264.035	74.12
264.267	88.12
264.499	73.12
264.732	84.12
264.964	82.12
265.197	79.12
265.429	100.12
265.661	79.12
265.894	72.12
266.126	87.12
266.358	81.12
266.591	64.12
266.823	75.12
267.055	87.12
267.287	88.12
267.52	88.12
267.752	86.12
267.984	74.12
268.216	86.12
268.448	93.12
268.681	85.12
268.913	83.12
269.145	78.12
269.377	88.12
269.609	78.12
269.841	71.12
270.073	73.12
270.306	77.12
270.538	92.12
270.77	87.12
271.002	83.12
271.234	97.12
271.466	92.12
271.698	76.12
271.93	75.12
272.162	87.12
272.394	89.12
272.626	82.12
272.858	81.12
273.09	95.12
273.322	93.12
273.553	71.12
273.785	90.12
274.017	92.12
274.249	75.12
274.481	79.12
274.713	84.12
274.945	86.12
275.176	85.12
275.408	93.12
275.64	84.12
275.872	90.12
276.104	84.12
276.335	79.12
276.567	94.12
276.799	94.12
277.031	98.12
277.262	85.12
277.494	84.12
277.726	80.12
277.957	103.12
278.189	80.12
278.421	88.12
278.652	95.12
278.884	86.12
279.115	86.12
279.347	86.12
279.579	86.12
279.81	87.12
280.042	90.12
280.273	79.12
280.505	77.12
280.736	87.12
280.968	91.12
281.199	82.12
281.431	87.12
281.662	76.12
281.894	74.12
282.125	88.12
282.356	111.12
282.588	133.12
282.819	98.12
283.051	84.12
283.282	79.12
283.513	86.12
283.745	84.12
283.976	86.12
284.207	85.12
284.439	83.12
284.67	77.12
284.901	92.12
285.132	84.12
285.364	101.12
285.595	87.12
285.826	93.12
286.057	87.12
286.288	87.12
286.52	81.12
286.751	82.12
286.982	100.12
287.213	95.12
287.444	92.12
287.675	95.12
287.906	94.12
288.138	93.12
288.369	93.12
288.6	84.12
288.831	80.12
289.062	70.12
289.293	78.12
289.524	97.12
289.755	81.12
289.986	85.12
290.217	91.12
290.448	75.12
290.679	89.12
290.91	94.12
291.141	89.12
291.371	88.12
291.602	84.12
291.833	78.12
292.064	75.12
292.295	85.12
292.526	93.12
292.757	102.12
292.987	86.12
293.218	80.12
293.449	83.12
293.68	78.12
293.91	92.12
294.141	96.12
294.372	82.12
294.603	90.12
294.833	91.12
295.064	88.12
295.295	77.12
295.525	86.12
295.756	92.12
295.987	105.12
296.217	132.12
296.448	110.12
296.679	97.12
296.909	79.12
297.14	86.12
297.37	86.12
297.601	88.12
297.831	73.12
298.062	96.12
298.292	93.12
298.523	76.12
298.753	88.12
298.984	84.12
299.214	80.12
299.445	88.12
299.675	101.12
299.905	94.12
300.136	88.12
300.366	70.12
300.597	82.12
300.827	95.12
301.057	96.12
301.288	89.12
301.518	77.12
301.748	101.12
301.979	94.12
302.209	81.12
302.439	90.12
302.669	101.12
302.9	83.12
303.13	74.12
303.36	88.12
303.59	99.12
303.82	105.12
304.051	94.12
304.281	79.12
304.511	87.12
304.741	97.12
304.971	89.12
305.201	86.12
305.431	92.12
305.661	83.12
305.891	86.12
306.121	98.12
306.352	95.12
306.582	107.12
306.812	92.12
307.042	89.12
307.272	92.12
307.502	99.12
307.731	104.12
307.961	87.12
308.191	95.12
308.421	87.12
308.651	80.12
308.881	85.12
309.111	95.12
309.341	92.12
309.571	89.12
309.8	82.12
310.03	97.12
310.26	99.12
310.49	83.12
310.72	88.12
310.949	110.12
311.179	102.12
311.409	95.12
311.639	108.12
311.868	94.12
312.098	86.12
312.328	98.12
312.557	101.12
312.787	110.12
313.017	95.12
313.246	102.12
313.476	99.12
313.706	79.12
313.935	90.12
314.165	103.12
314.394	102.12
314.624	91.12
314.853	106.12
315.083	71.12
315.312	95.12
315.542	83.12
315.771	93.12
316.001	78.12
316.23	81.12
316.46	81.12
316.689	94.12
316.919	85.12
317.148	88.12
317.377	81.12
317.607	87.12
317.836	92.12
318.065	76.12
318.295	86.12
318.524	85.12
318.753	109.12
318.983	100.12
319.212	106.12
319.441	99.12
319.67	97.12
319.9	84.12
320.129	87.12
320.358	83.12
320.587	99.12
320.816	112.12
321.046	95.12
321.275	84.12
321.504	96.12
321.733	103.12
321.962	94.12
322.191	103.12
322.42	102.12
322.649	107.12
322.878	99.12
323.108	95.12
323.337	107.12
323.566	127.12
323.795	155.12
324.024	205.12
324.253	390.12
324.482	798.12
324.71	1644.12
324.939	2146.12
325.168	802.12
325.397	244.12
325.626	136.12
325.855	117.12
326.084	140.12
326.313	127.12
326.542	153.12
326.77	219.12
326.999	455.12
327.228	930.12
327.457	1680.12
327.686	1336.12
327.914	372.12
328.143	186.12
328.372	126.12
328.6	132.12
328.829	94.12
329.058	125.12
329.287	132.12
329.515	102.12
329.744	103.12
329.972	97.12
330.201	111.12
330.43	103.12
330.658	119.12
330.887	128.12
331.115	92.12
331.344	93.12
331.572	88.12
331.801	106.12
332.03	95.12
332.258	85.12
332.486	83.12
332.715	106.12
332.943	108.12
333.172	84.12
333.4	99.12
333.629	99.12
333.857	102.12
334.085	106.12
334.314	98.12
334.542	104.12
334.771	115.12
334.999	101.12
335.227	88.12
335.455	103.12
335.684	106.12
335.912	103.12
336.14	90.12
336.369	87.12
336.597	105.12
336.825	99.12
337.053	99.12
337.281	92.12
337.51	84.12
337.738	92.12
337.966	80.12
338.194	82.12
338.422	100.12
338.65	110.12
338.878	102.12
339.106	91.12
339.334	91.12
339.562	97.12
339.79	94.12
340.018	80.12
340.246	92.12
340.474	109.12
340.702	102.12
340.93	75.12
341.158	88.12
341.386	87.12
341.614	85.12
341.842	90.12
342.07	79.12
342.298	71.12
342.526	90.12
342.754	89.12
342.981	87.12
343.209	86.12
343.437	96.12
343.665	98.12
343.893	101.12
344.12	96.12
344.348	77.12
344.576	94.12
344.804	92.12
345.031	83.12
345.259	87.12
345.487	85.12
345.714	93.12
345.942	95.12
346.17	97.12
346.397	90.12
346.625	95.12
346.853	82.12
347.08	92.12
347.308	97.12
347.535	99.12
347.763	94.12
347.99	85.12
348.218	99.12
348.445	110.12
348.673	100.12
348.9	90.12
349.128	85.12
349.355	93.12
349.583	88.12
349.81	86.12
350.037	94.12
350.265	90.12
350.492	93.12
350.72	92.12
350.947	101.12
351.174	99.12
351.402	105.12
351.629	107.12
351.856	85.12
352.083	108.12
352.311	103.12
352.538	110.12
352.765	101.12
352.992	117.12
353.22	105.12
353.447	96.12
353.674	102.12
353.901	78.12
354.128	92.12
354.355	96.12
354.583	105.12
354.81	93.12
355.037	85.12
355.264	88.12
355.491	88.12
355.718	86.12
355.945	89.12
356.172	81.12
356.399	92.12
356.626	89.12
356.853	90.12
357.08	80.12
357.307	97.12
357.534	98.12
357.761	91.12
357.988	98.12
358.215	98.12
358.441	97.12
358.668	80.12
358.895	95.12
359.122	98.12
359.349	86.12
359.576	88.12
359.802	104.12
360.029	106.12
360.256	91.12
360.483	81.12
360.709	77.12
360.936	98.12
361.163	82.12
361.39	88.12
361.616	92.12
361.843	87.12
362.07	104.12
362.296	96.12
362.523	89.12
362.749	98.12
362.976	84.12
363.203	100.12
363.429	90.12
363.656	72.12
363.882	88.12
364.109	96.12
364.335	91.12
364.562	92.12
364.788	86.12
365.015	107.12
365.241	90.12
365.468	107.12
365.694	110.12
365.92	93.12
366.147	92.12
366.373	79.12
366.599	78.12
366.826	88.12
367.052	95.12
367.278	90.12
367.505	83.12
367.731	89.12
367.957	92.12
368.184	94.12
368.41	102.12
368.636	95.12
368.862	120.12
369.089	97.12
369.315	88.12
369.541	94.12
369.767	92.12
369.993	93.12
370.219	96.12
370.445	74.12
370.672	83.12
370.898	72.12
371.124	83.12
371.35	82.12
371.576	84.12
371.802	94.12
372.028	103.12
372.254	92.12
372.48	86.12
372.706	79.12
372.932	84.12
373.158	94.12
373.384	86.12
373.61	93.12
373.835	88.12
374.061	80.12
374.287	91.12
374.513	84.12
374.739	70.12
374.965	79.12
375.191	80.12
375.416	78.12
375.642	92.12
375.868	77.12
376.094	85.12
376.319	103.12
376.545	93.12
376.771	86.12
376.997	80.12
377.222	84.12
377.448	88.12
377.674	85.12
377.899	89.12
378.125	87.12
378.35	92.12
378.576	96.12
378.802	92.12
379.027	94.12
379.253	91.12
379.478	92.12
379.704	108.12
379.929	94.12
380.155	94.12
380.38	88.12
380.606	86.12
380.831	78.12
381.057	96.12
381.282	87.12
381.507	85.12
381.733	83.12
381.958	104.12
382.184	105.12
382.409	96.12
382.634	101.12
382.86	99.12
383.085	96.12
383.31	98.12
383.535	98.12
383.761	100.12
383.986	98.12
384.211	87.12
384.436	92.12
384.662	103.12
384.887	119.12
385.112	105.12
385.337	94.12
385.562	108.12
385.787	124.12
386.013	100.12
386.238	113.12
386.463	101.12
386.688	119.12
386.913	113.12
387.138	99.12
387.363	99.12
387.588	110.12
387.813	101.12
388.038	91.12
388.263	110.12
388.488	120.12
388.713	99.12
388.938	99.12
389.163	99.12
389.387	83.12
389.612	87.12
389.837	80.12
390.062	98.12
390.287	87.12
390.512	95.12
390.736	96.12
390.961	96.12
391.186	102.12
391.411	91.12
391.636	87.12
391.86	82.12
392.085	86.12
392.31	76.12
392.534	80.12
392.759	72.12
392.984	81.12
393.208	94.12
393.433	91.12
393.658	87.12
393.882	94.12
394.107	90.12
394.331	80.12
394.556	80.12
394.78	85.12
395.005	85.12
395.229	84.12
395.454	77.12
395.678	78.12
395.903	91.12
396.127	78.12
396.352	79.12
396.576	74.12
396.801	93.12
397.025	93.12
397.249	84.12
397.474	91.12
397.698	90.12
397.922	92.12
398.147	82.12
398.371	82.12
398.595	82.12
398.82	88.12
399.044	81.12
399.268	94.12
399.492	91.12
399.717	95.12
399.941	83.12
400.165	91.12
400.389	82.12
400.613	77.12
400.837	90.12
401.062	80.12
401.286	94.12
401.51	81.12
401.734	83.12
401.958	111.12
402.182	109.12
402.406	146.12
402.63	109.12
402.854	93.12
403.078	85.12
403.302	84.12
403.526	81.12
403.75	86.12
403.974	95.12
404.198	83.12
404.422	69.12
404.645	79.12
404.869	89.12
405.093	95.12
405.317	103.12
405.541	91.12
405.765	83.12
405.988	108.12
406.212	168.12
406.436	209.12
406.66	145.12
406.883	100.12
407.107	83.12
407.331	92.12
407.555	93.12
407.778	94.12
408.002	79.12
408.226	96.12
408.449	100.12
408.673	88.12
408.896	83.12
409.12	101.12
409.344	86.12
409.567	95.12
409.791	103.12
410.014	83.12
410.238	80.12
410.461	87.12
410.685	88.12
410.908	84.12
411.132	110.12
411.355	109.12
411.578	97.12
411.802	93.12
412.025	87.12
412.249	89.12
412.472	90.12
412.695	90.12
412.919	82.12
413.142	88.12
413.365	92.12
413.589	94.12
413.812	74.12
414.035	96.12
414.258	90.12
414.482	86.12
414.705	89.12
414.928	100.12
415.151	100.12
415.374	94.12
415.597	78.12
415.821	92.12
416.044	81.12
416.267	97.12
416.49	85.12
416.713	97.12
416.936	93.12
417.159	98.12
417.382	85.12
417.605	84.12
417.828	96.12
418.051	97.12
418.274	92.12
418.497	97.12
418.72	92.12
418.943	90.12
419.166	90.12
419.389	104.12
419.611	79.12
419.834	88.12
420.057	89.12
420.28	90.12
420.503	84.12
420.726	92.12
420.948	81.12
421.171	80.12
421.394	96.12
421.617	86.12
421.839	93.12
422.062	92.12
422.285	97.12
422.507	87.12
422.73	109.12
422.953	98.12
423.175	98.12
423.398	88.12
423.621	92.12
423.843	87.12
424.066	82.12
424.288	93.12
424.511	97.12
424.733	97.12
424.956	93.12
425.178	103.12
425.401	91.12
425.623	95.12
425.846	87.12
426.068	91.12
426.291	89.12
426.513	82.12
426.735	88.12
426.958	79.12
427.18	107.12
427.402	133.12
427.625	140.12
427.847	99.12
428.069	109.12
428.292	87.12
428.514	96.12
428.736	86.12
428.958	73.12
429.181	85.12
429.403	84.12
429.625	85.12
429.847	87.12
430.069	98.12
430.292	106.12
430.514	94.12
430.736	79.12
430.958	88.12
431.18	91.12
431.402	87.12
431.624	84.12
431.846	80.12
432.068	93.12
432.29	84.12
432.512	88.12
432.734	79.12
432.956	79.12
433.178	80.12
433.4	97.12
433.622	87.12
433.844	95.12
434.066	106.12
434.287	86.12
434.509	78.12
434.731	93.12
434.953	78.12
435.175	93.12
435.397	87.12
435.618	103.12
435.84	97.12
436.062	114.12
436.284	107.12
436.505	104.12
436.727	91.12
436.949	106.12
437.17	95.12
437.392	82.12
437.614	90.12
437.835	91.12
438.057	107.12
438.278	106.12
438.5	95.12
438.721	112.12
438.943	97.12
439.165	85.12
439.386	76.12
439.608	85.12
439.829	98.12
440.05	92.12
440.272	136.12
440.493	87.12
440.715	92.12
440.936	81.12
441.158	92.12
441.379	86.12
441.6	102.12
441.822	92.12
442.043	91.12
442.264	94.12
442.486	89.12
442.707	80.12
442.928	112.12
443.149	141.12
443.371	126.12
443.592	102.12
443.813	101.12
444.034	88.12
444.255	79.12
444.476	73.12
444.698	76.12
444.919	95.12
445.14	134.12
445.361	121.12
445.582	112.12
445.803	114.12
446.024	124.12
446.245	117.12
446.466	112.12
446.687	89.12
446.908	95.12
447.129	93.12
447.35	86.12
447.571	82.12
447.792	97.12
448.013	93.12
448.234	99.12
448.455	110.12
448.675	99.12
448.896	107.12
449.117	99.12
449.338	101.12
449.559	103.12
449.779	131.12
450	88.12
450.221	89.12
450.442	83.12
450.662	79.12
450.883	94.12
451.104	88.12
451.324	88.12
451.545	92.12
451.766	74.12
451.986	83.12
452.207	77.12
452.428	88.12
452.648	91.12
452.869	96.12
453.089	112.12
453.31	118.12
453.53	88.12
453.751	103.12
453.971	100.12
454.192	102.12
454.412	88.12
454.633	92.12
454.853	86.12
455.073	84.12
455.294	85.12
455.514	94.12
455.734	87.12
455.955	92.12
456.175	88.12
456.395	91.12
456.616	89.12
456.836	94.12
457.056	76.12
457.276	80.12
457.497	96.12
457.717	81.12
457.937	78.12
458.157	93.12
458.377	94.12
458.598	111.12
458.818	130.12
459.038	134.12
459.258	123.12
459.478	88.12
459.698	82.12
459.918	82.12
460.138	79.12
460.358	78.12
460.578	79.12
460.798	74.12
461.018	88.12
461.238	90.12
461.458	79.12
461.678	78.12
461.898	85.12
462.118	97.12
462.338	86.12
462.558	95.12
462.777	98.12
462.997	87.12
463.217	94.12
463.437	92.12
463.657	90.12
463.876	81.12
464.096	75.12
464.316	93.12
464.536	102.12
464.755	106.12
464.975	111.12
465.195	147.12
465.414	126.12
465.634	83.12
465.854	93.12
466.073	88.12
466.293	82.12
466.512	90.12
466.732	111.12
466.951	86.12
467.171	96.12
467.391	84.12
467.61	98.12
467.829	93.12
468.049	100.12
468.268	85.12
468.488	84.12
468.707	82.12
468.927	87.12
469.146	94.12
469.365	83.12
469.585	84.12
469.804	90.12
470.023	88.12
470.243	99.12
470.462	105.12
470.681	123.12
470.901	107.12
471.12	84.12
471.339	79.12
471.558	84.12
471.777	89.12
471.997	80.12
472.216	88.12
472.435	95.12
472.654	91.12
472.873	83.12
473.092	79.12
473.311	75.12
473.53	85.12
473.749	85.12
473.968	91.12
474.187	94.12
474.406	103.12
474.625	89.12
474.844	82.12
475.063	70.12
475.282	88.12
475.501	92.12
475.72	85.12
475.939	86.12
476.158	87.12
476.377	77.12
476.596	101.12
476.814	92.12
477.033	97.12
477.252	82.12
477.471	96.12
477.69	95.12
477.908	95.12
478.127	80.12
478.346	88.12
478.564	79.12
478.783	96.12
479.002	100.12
479.22	107.12
479.439	88.12
479.658	92.12
479.876	92.12
480.095	97.12
480.313	93.12
480.532	87.12
480.751	96.12
480.969	100.12
481.188	124.12
481.406	105.12
481.624	96.12
481.843	82.12
482.061	88.12
482.28	92.12
482.498	88.12
482.717	93.12
482.935	98.12
483.153	92.12
483.372	91.12
483.59	96.12
483.808	76.12
484.027	91.12
484.245	90.12
484.463	99.12
484.681	93.12
484.9	106.12
485.118	83.12
485.336	94.12
485.554	89.12
485.772	95.12
485.99	106.12
486.209	109.12
486.427	115.12
486.645	110.12
486.863	101.12
487.081	110.12
487.299	94.12
487.517	100.12
487.735	98.12
487.953	109.12
488.171	90.12
488.389	91.12
488.607	99.12
488.825	87.12
489.043	84.12
489.261	86.12
489.479	74.12
489.696	69.12
489.914	88.12
490.132	71.12
490.35	96.12
490.568	96.12
490.786	75.12
491.003	89.12
491.221	84.12
491.439	92.12
491.657	93.12
491.874	77.12
492.092	85.12
492.31	80.12
492.527	83.12
492.745	76.12
492.963	87.12
493.18	85.12
493.398	114.12
493.615	86.12
493.833	91.12
494.05	74.12
494.268	82.12
494.485	89.12
494.703	86.12
494.92	88.12
495.138	87.12
495.355	80.12
495.573	86.12
495.79	89.12
496.008	94.12
496.225	82.12
496.442	92.12
496.66	82.12
496.877	98.12
497.094	92.12
497.312	94.12
497.529	93.12
497.746	87.12
497.963	95.12
498.181	88.12
498.398	103.12
498.615	103.12
498.832	105.12
499.049	81.12
499.267	81.12
499.484	99.12
499.701	89.12
499.918	95.12
500.135	79.12
500.352	101.12
500.569	92.12
500.786	88.12
501.003	85.12
501.22	98.12
501.437	86.12
501.654	84.12
501.871	106.12
502.088	101.12
502.305	94.12
502.522	96.12
502.739	93.12
502.956	71.12
503.172	86.12
503.389	93.12
503.606	93.12
503.823	78.12
504.04	106.12
504.256	89.12
504.473	83.12
504.69	106.12
504.907	89.12
505.123	88.12
505.34	87.12
505.557	81.12
505.773	98.12
505.99	79.12
506.207	82.12
506.423	99.12
506.64	92.12
506.856	103.12
507.073	86.12
507.289	83.12
507.506	99.12
507.722	99.12
507.939	110.12
508.155	89.12
508.372	77.12
508.588	108.12
508.805	94.12
509.021	89.12
509.238	96.12
509.454	83.12
509.67	111.12
509.887	122.12
510.103	123.12
510.319	209.12
510.536	784.12
510.752	2351.12
510.968	620.12
511.184	140.12
511.401	98.12
511.617	88.12
511.833	99.12
512.049	87.12
512.265	86.12
512.481	95.12
512.698	84.12
512.914	98.12
513.13	101.12
513.346	91.12
513.562	93.12
513.778	108.12
513.994	99.12
514.21	103.12
514.426	116.12
514.642	133.12
514.858	117.12
515.074	152.12
515.29	437.12
515.506	1442.12
515.721	526.12
515.937	151.12
516.153	102.12
516.369	97.12
516.585	95.12
