Data from Uncirc_2004_H10_HRD10591_00021.txt Node
Date: Wed Jan 03 10:32:16 EST 2024
User: Yrep
Spectrometer: HR+D1059
Trigger mode: 1
Integration Time (sec): 1.000000E-1
Scans to average: 1
Electric dark correction enabled: true
Nonlinearity correction enabled: false
Boxcar width: 0
XAxis mode: Wavelengths
Number of Pixels in Spectrum: 2048
>>>>>Begin Spectral Data<<<<<
223.165	-26.19
223.4	-26.19
223.635	-26.19
223.869	-16.19
224.104	-24.19
224.338	-9.19
224.573	-12.19
224.808	-24.19
225.042	-10.19
225.277	-3.19
225.511	-6.19
225.746	-1.19
225.98	16.81
226.215	12.81
226.449	14.81
226.683	20.81
226.918	36.81
227.152	30.81
227.387	30.81
227.621	31.81
227.856	46.81
228.09	64.81
228.324	61.81
228.559	45.81
228.793	144.81
229.027	430.81
229.262	504.81
229.496	576.81
229.73	755.81
229.964	743.81
230.199	513.81
230.433	446.81
230.667	437.81
230.901	448.81
231.136	432.81
231.37	436.81
231.604	440.81
231.838	445.81
232.072	452.81
232.306	448.81
232.541	436.81
232.775	439.81
233.009	451.81
233.243	455.81
233.477	465.81
233.711	467.81
233.945	471.81
234.179	483.81
234.413	478.81
234.647	497.81
234.881	502.81
235.115	516.81
235.349	511.81
235.583	548.81
235.817	577.81
236.051	589.81
236.285	569.81
236.519	602.81
236.753	654.81
236.987	868.81
237.221	1282.81
237.455	1387.81
237.689	847.81
237.922	716.81
238.156	665.81
238.39	655.81
238.624	624.81
238.858	614.81
239.091	630.81
239.325	623.81
239.559	641.81
239.793	666.81
240.027	720.81
240.26	873.81
240.494	920.81
240.728	881.81
240.961	873.81
241.195	759.81
241.429	749.81
241.662	754.81
241.896	752.81
242.13	721.81
242.363	750.81
242.597	766.81
242.83	805.81
243.064	788.81
243.298	760.81
243.531	790.81
243.765	792.81
243.998	815.81
244.232	820.81
244.465	864.81
244.699	881.81
244.932	885.81
245.166	861.81
245.399	874.81
245.633	855.81
245.866	912.81
246.099	879.81
246.333	936.81
246.566	942.81
246.8	933.81
247.033	966.81
247.266	1033.81
247.5	1063.81
247.733	1139.81
247.966	1104.81
248.2	1089.81
248.433	1097.81
248.666	1174.81
248.899	1297.81
249.133	1382.81
249.366	1372.81
249.599	1266.81
249.832	1177.81
250.066	1182.81
250.299	1218.81
250.532	1310.81
250.765	1428.81
250.998	1623.81
251.231	1560.81
251.465	1418.81
251.698	1365.81
251.931	1345.81
252.164	1355.81
252.397	1382.81
252.63	1411.81
252.863	1491.81
253.096	1612.81
253.329	1690.81
253.562	1565.81
253.795	1534.81
254.028	1497.81
254.261	1557.81
254.494	1709.81
254.727	2011.81
254.96	2110.81
255.193	1844.81
255.426	1669.81
255.659	1528.81
255.892	1576.81
256.124	1524.81
256.357	1525.81
256.59	1508.81
256.823	1423.81
257.056	1450.81
257.289	1502.81
257.521	1492.81
257.754	1512.81
257.987	1464.81
258.22	1463.81
258.452	1502.81
258.685	1484.81
258.918	1531.81
259.151	1556.81
259.383	1637.81
259.616	1644.81
259.849	1694.81
260.081	1824.81
260.314	1974.81
260.547	1908.81
260.779	1800.81
261.012	1690.81
261.244	1688.81
261.477	1635.81
261.71	1664.81
261.942	1658.81
262.175	1686.81
262.407	1616.81
262.64	1568.81
262.872	1600.81
263.105	1600.81
263.337	1593.81
263.57	1654.81
263.802	1618.81
264.035	1589.81
264.267	1602.81
264.499	1612.81
264.732	1616.81
264.964	1647.81
265.197	1676.81
265.429	1659.81
265.661	1631.81
265.894	1696.81
266.126	1709.81
266.358	1697.81
266.591	1740.81
266.823	1806.81
267.055	1794.81
267.287	1809.81
267.52	1789.81
267.752	1812.81
267.984	1857.81
268.216	1873.81
268.448	1870.81
268.681	1930.81
268.913	2068.81
269.145	2247.81
269.377	2288.81
269.609	2195.81
269.841	2172.81
270.073	2304.81
270.306	2484.81
270.538	2671.81
270.77	2556.81
271.002	2423.81
271.234	2360.81
271.466	2522.81
271.698	2631.81
271.93	2643.81
272.162	2634.81
272.394	2557.81
272.626	2404.81
272.858	2272.81
273.09	2228.81
273.322	2224.81
273.553	2142.81
273.785	2156.81
274.017	2143.81
274.249	2184.81
274.481	2192.81
274.713	2228.81
274.945	2222.81
275.176	2181.81
275.408	2212.81
275.64	2171.81
275.872	2208.81
276.104	2234.81
276.335	2269.81
276.567	2289.81
276.799	2482.81
277.031	2708.81
277.262	2776.81
277.494	2664.81
277.726	2477.81
277.957	2355.81
278.189	2358.81
278.421	2305.81
278.652	2312.81
278.884	2307.81
279.115	2304.81
279.347	2338.81
279.579	2327.81
279.81	2300.81
280.042	2293.81
280.273	2318.81
280.505	2375.81
280.736	2369.81
280.968	2345.81
281.199	2375.81
281.431	2420.81
281.662	2405.81
281.894	2445.81
282.125	2472.81
282.356	2579.81
282.588	2756.81
282.819	2596.81
283.051	2502.81
283.282	2450.81
283.513	2502.81
283.745	2576.81
283.976	2530.81
284.207	2584.81
284.439	2631.81
284.67	2548.81
284.901	2575.81
285.132	2584.81
285.364	2586.81
285.595	2590.81
285.826	2605.81
286.057	2615.81
286.288	2624.81
286.52	2628.81
286.751	2644.81
286.982	2662.81
287.213	2660.81
287.444	2675.81
287.675	2767.81
287.906	2827.81
288.138	2937.81
288.369	2828.81
288.6	2858.81
288.831	2817.81
289.062	2764.81
289.293	2737.81
289.524	2774.81
289.755	2814.81
289.986	2709.81
290.217	2768.81
290.448	2745.81
290.679	2777.81
290.91	2738.81
291.141	2766.81
291.371	2744.81
291.602	2837.81
291.833	2736.81
292.064	2766.81
292.295	2795.81
292.526	2738.81
292.757	2776.81
292.987	2753.81
293.218	2750.81
293.449	2831.81
293.68	2794.81
293.91	2800.81
294.141	2782.81
294.372	2780.81
294.603	2796.81
294.833	2835.81
295.064	2826.81
295.295	2903.81
295.525	2875.81
295.756	2922.81
295.987	2972.81
296.217	3090.81
296.448	3075.81
296.679	2934.81
296.909	2904.81
297.14	2919.81
297.37	2970.81
297.601	3032.81
297.831	3014.81
298.062	2988.81
298.292	3027.81
298.523	3070.81
298.753	3092.81
298.984	3070.81
299.214	3024.81
299.445	3053.81
299.675	3081.81
299.905	3134.81
300.136	3026.81
300.366	3118.81
300.597	3118.81
300.827	3260.81
301.057	3306.81
301.288	3284.81
301.518	3308.81
301.748	3272.81
301.979	3320.81
302.209	3360.81
302.439	3316.81
302.669	3333.81
302.9	3232.81
303.13	3272.81
303.36	3309.81
303.59	3265.81
303.82	3353.81
304.051	3272.81
304.281	3238.81
304.511	3237.81
304.741	3282.81
304.971	3247.81
305.201	3219.81
305.431	3163.81
305.661	3225.81
305.891	3261.81
306.121	3225.81
306.352	3295.81
306.582	3260.81
306.812	3204.81
307.042	3292.81
307.272	3259.81
307.502	3254.81
307.731	3291.81
307.961	3191.81
308.191	3222.81
308.421	3217.81
308.651	3248.81
308.881	3191.81
309.111	3290.81
309.341	3336.81
309.571	3408.81
309.8	3410.81
310.03	3504.81
310.26	3515.81
310.49	3460.81
310.72	3620.81
310.949	3716.81
311.179	3606.81
311.409	3501.81
311.639	3463.81
311.868	3468.81
312.098	3598.81
312.328	3727.81
312.557	3850.81
312.787	3924.81
313.017	3793.81
313.246	3732.81
313.476	3620.81
313.706	3712.81
313.935	3792.81
314.165	3854.81
314.394	3922.81
314.624	3859.81
314.853	3717.81
315.083	3675.81
315.312	3669.81
315.542	3640.81
315.771	3606.81
316.001	3594.81
316.23	3617.81
316.46	3700.81
316.689	3681.81
316.919	3742.81
317.148	3738.81
317.377	3698.81
317.607	3670.81
317.836	3591.81
318.065	3628.81
318.295	3622.81
318.524	3656.81
318.753	3535.81
318.983	3638.81
319.212	3617.81
319.441	3682.81
319.67	3681.81
319.9	3599.81
320.129	3618.81
320.358	3620.81
320.587	3721.81
320.816	3741.81
321.046	3824.81
321.275	3807.81
321.504	3718.81
321.733	3789.81
321.962	3828.81
322.191	3932.81
322.42	4007.81
322.649	4073.81
322.878	4102.81
323.108	4205.81
323.337	4413.81
323.566	4553.81
323.795	4801.81
324.024	5389.81
324.253	6836.81
324.482	10213.81
324.71	14641.81
324.939	15610.81
325.168	11603.81
325.397	6174.81
325.626	5036.81
325.855	4662.81
326.084	4527.81
326.313	4644.81
326.542	4731.81
326.77	5361.81
326.999	6720.81
327.228	9621.81
327.457	13772.81
327.686	12815.81
327.914	6892.81
328.143	5561.81
328.372	5260.81
328.6	5038.81
328.829	5021.81
329.058	5117.81
329.287	5128.81
329.515	4856.81
329.744	4635.81
329.972	4682.81
330.201	4793.81
330.43	5002.81
330.658	5253.81
330.887	5475.81
331.115	5118.81
331.344	4802.81
331.572	4816.81
331.801	4842.81
332.03	4889.81
332.258	4875.81
332.486	4864.81
332.715	5025.81
332.943	5136.81
333.172	5264.81
333.4	5416.81
333.629	5446.81
333.857	5514.81
334.085	5525.81
334.314	5564.81
334.542	5502.81
334.771	5377.81
334.999	5264.81
335.227	5085.81
335.455	5093.81
335.684	4951.81
335.912	4963.81
336.14	4893.81
336.369	4898.81
336.597	4967.81
336.825	4829.81
337.053	4873.81
337.281	4716.81
337.51	4700.81
337.738	4649.81
337.966	4655.81
338.194	4641.81
338.422	4501.81
338.65	4516.81
338.878	4479.81
339.106	4531.81
339.334	4468.81
339.562	4445.81
339.79	4320.81
340.018	4378.81
340.246	4320.81
340.474	4384.81
340.702	4387.81
340.93	4320.81
341.158	4360.81
341.386	4380.81
341.614	4348.81
341.842	4337.81
342.07	4272.81
342.298	4276.81
342.526	4269.81
342.754	4277.81
342.981	4288.81
343.209	4376.81
343.437	4599.81
343.665	4855.81
343.893	5135.81
344.12	5244.81
344.348	4943.81
344.576	4657.81
344.804	4717.81
345.031	4616.81
345.259	4552.81
345.487	4367.81
345.714	4267.81
345.942	4207.81
346.17	4184.81
346.397	4162.81
346.625	4142.81
346.853	4170.81
347.08	4101.81
347.308	4220.81
347.535	4280.81
347.763	4276.81
347.99	4186.81
348.218	4206.81
348.445	4263.81
348.673	4264.81
348.9	4132.81
349.128	4107.81
349.355	4011.81
349.583	3955.81
349.81	4104.81
350.037	4009.81
350.265	4000.81
350.492	4004.81
350.72	3987.81
350.947	4088.81
351.174	4135.81
351.402	4188.81
351.629	4131.81
351.856	4098.81
352.083	4132.81
352.311	4231.81
352.538	4163.81
352.765	4174.81
352.992	4062.81
353.22	4023.81
353.447	4061.81
353.674	3932.81
353.901	3936.81
354.128	3919.81
354.355	3863.81
354.583	3969.81
354.81	3943.81
355.037	3946.81
355.264	3887.81
355.491	3934.81
355.718	3882.81
355.945	3892.81
356.172	3944.81
356.399	3941.81
356.626	3910.81
356.853	3955.81
357.08	3908.81
357.307	3903.81
357.534	3948.81
357.761	3876.81
357.988	3961.81
358.215	3982.81
358.441	4021.81
358.668	4041.81
358.895	4048.81
359.122	4004.81
359.349	4071.81
359.576	4253.81
359.802	4398.81
360.029	4487.81
360.256	4495.81
360.483	4337.81
360.709	4188.81
360.936	4164.81
361.163	4152.81
361.39	4174.81
361.616	4187.81
361.843	4144.81
362.07	4102.81
362.296	4145.81
362.523	4142.81
362.749	4123.81
362.976	4046.81
363.203	4068.81
363.429	3953.81
363.656	4066.81
363.882	4004.81
364.109	4017.81
364.335	3991.81
364.562	3972.81
364.788	3993.81
365.015	4025.81
365.241	3970.81
365.468	4047.81
365.694	4061.81
365.92	4100.81
366.147	3989.81
366.373	3975.81
366.599	4002.81
366.826	3956.81
367.052	3910.81
367.278	4086.81
367.505	4035.81
367.731	3983.81
367.957	3996.81
368.184	4060.81
368.41	4125.81
368.636	4185.81
368.862	4205.81
369.089	4217.81
369.315	4166.81
369.541	4145.81
369.767	4213.81
369.993	4106.81
370.219	4094.81
370.445	4184.81
370.672	4238.81
370.898	4173.81
371.124	4226.81
371.35	4286.81
371.576	4205.81
371.802	4303.81
372.028	4277.81
372.254	4314.81
372.48	4415.81
372.706	4431.81
372.932	4450.81
373.158	4404.81
373.384	4352.81
373.61	4354.81
373.835	4338.81
374.061	4405.81
374.287	4451.81
374.513	4464.81
374.739	4630.81
374.965	4687.81
375.191	4768.81
375.416	4668.81
375.642	4498.81
375.868	4517.81
376.094	4388.81
376.319	4379.81
376.545	4333.81
376.771	4341.81
376.997	4318.81
377.222	4376.81
377.448	4304.81
377.674	4337.81
377.899	4305.81
378.125	4272.81
378.35	4232.81
378.576	4272.81
378.802	4293.81
379.027	4273.81
379.253	4312.81
379.478	4297.81
379.704	4299.81
379.929	4348.81
380.155	4298.81
380.38	4306.81
380.606	4355.81
380.831	4311.81
381.057	4336.81
381.282	4341.81
381.507	4435.81
381.733	4378.81
381.958	4401.81
382.184	4470.81
382.409	4540.81
382.634	4542.81
382.86	4548.81
383.085	4630.81
383.31	4700.81
383.535	4686.81
383.761	4766.81
383.986	4910.81
384.211	5054.81
384.436	5030.81
384.662	5111.81
384.887	5237.81
385.112	5161.81
385.337	5265.81
385.562	5245.81
385.787	5253.81
386.013	5344.81
386.238	5279.81
386.463	5350.81
386.688	5340.81
386.913	5194.81
387.138	5153.81
387.363	5134.81
387.588	5087.81
387.813	5160.81
388.038	5110.81
388.263	5218.81
388.488	5254.81
388.713	5139.81
388.938	5142.81
389.163	5115.81
389.387	5171.81
389.612	5003.81
389.837	5052.81
390.062	5016.81
390.287	5099.81
390.512	5079.81
390.736	5146.81
390.961	5205.81
391.186	5350.81
391.411	5439.81
391.636	5574.81
391.86	5752.81
392.085	5816.81
392.31	5665.81
392.534	5520.81
392.759	5476.81
392.984	5492.81
393.208	5404.81
393.433	5328.81
393.658	5335.81
393.882	5338.81
394.107	5392.81
394.331	5424.81
394.556	5398.81
394.78	5516.81
395.005	5489.81
395.229	5604.81
395.454	5643.81
395.678	5897.81
395.903	5728.81
396.127	5932.81
396.352	5652.81
396.576	5508.81
396.801	5418.81
397.025	5563.81
397.249	5636.81
397.474	5826.81
397.698	5825.81
397.922	5952.81
398.147	6025.81
398.371	6150.81
398.595	6245.81
398.82	6647.81
399.044	7102.81
399.268	7895.81
399.492	9024.81
399.717	9719.81
399.941	9365.81
400.165	8744.81
400.389	7999.81
400.613	7295.81
400.837	6773.81
401.062	6711.81
401.286	6514.81
401.51	6578.81
401.734	6461.81
401.958	6623.81
402.182	6825.81
402.406	6898.81
402.63	6944.81
402.854	6952.81
403.078	7018.81
403.302	7287.81
403.526	7350.81
403.75	7348.81
403.974	7490.81
404.198	7460.81
404.422	7545.81
404.645	7394.81
404.869	7308.81
405.093	7543.81
405.317	7630.81
405.541	7652.81
405.765	7272.81
405.988	7246.81
406.212	7366.81
406.436	7583.81
406.66	7692.81
406.883	7709.81
407.107	8354.81
407.331	8892.81
407.555	9386.81
407.778	8961.81
408.002	8340.81
408.226	7921.81
408.449	7771.81
408.673	7559.81
408.896	7758.81
409.12	7908.81
409.344	7534.81
409.567	7324.81
409.791	7112.81
410.014	7082.81
410.238	7032.81
410.461	6973.81
410.685	7012.81
410.908	7058.81
411.132	7295.81
411.355	7326.81
411.578	6935.81
411.802	6775.81
412.025	6744.81
412.249	6846.81
412.472	6952.81
412.695	6824.81
412.919	6594.81
413.142	6526.81
413.365	6411.81
413.589	6431.81
413.812	6353.81
414.035	6222.81
414.258	6351.81
414.482	6368.81
414.705	6518.81
414.928	6456.81
415.151	6495.81
415.374	6455.81
415.597	6335.81
415.821	6284.81
416.044	6289.81
416.267	6303.81
416.49	6238.81
416.713	6217.81
416.936	6291.81
417.159	6300.81
417.382	6378.81
417.605	6389.81
417.828	6462.81
418.051	6654.81
418.274	6524.81
418.497	6454.81
418.72	6615.81
418.943	6563.81
419.166	6898.81
419.389	7230.81
419.611	7188.81
419.834	6894.81
420.057	6746.81
420.28	6624.81
420.503	6440.81
420.726	6393.81
420.948	6677.81
421.171	7007.81
421.394	6991.81
421.617	6548.81
421.839	6469.81
422.062	6630.81
422.285	6806.81
422.507	7464.81
422.73	7906.81
422.953	7302.81
423.175	6901.81
423.398	7124.81
423.621	6993.81
423.843	7272.81
424.066	7193.81
424.288	7065.81
424.511	7357.81
424.733	7734.81
424.956	8152.81
425.178	7658.81
425.401	7731.81
425.623	7665.81
425.846	6705.81
426.068	6675.81
426.291	6548.81
426.513	6497.81
426.735	6633.81
426.958	7095.81
427.18	7849.81
427.402	8746.81
427.625	8905.81
427.847	7567.81
428.069	6751.81
428.292	6402.81
428.514	6135.81
428.736	5928.81
428.958	5951.81
429.181	5804.81
429.403	5818.81
429.625	6005.81
429.847	6219.81
430.069	6807.81
430.292	6299.81
430.514	5840.81
430.736	5780.81
430.958	5754.81
431.18	5669.81
431.402	5642.81
431.624	5653.81
431.846	5710.81
432.068	5773.81
432.29	5832.81
432.512	5645.81
432.734	5941.81
432.956	5728.81
433.178	5864.81
433.4	5847.81
433.622	5725.81
433.844	5786.81
434.066	5800.81
434.287	5897.81
434.509	6211.81
434.731	6349.81
434.953	6425.81
435.175	6540.81
435.397	6711.81
435.618	6666.81
435.84	6969.81
436.062	7777.81
436.284	7648.81
436.505	6498.81
436.727	6230.81
436.949	6009.81
437.17	5864.81
437.392	5741.81
437.614	5930.81
437.835	6347.81
438.057	7272.81
438.278	7787.81
438.5	7702.81
438.721	8494.81
438.943	7507.81
439.165	6316.81
439.386	6177.81
439.608	6185.81
439.829	6308.81
440.05	6603.81
440.272	6897.81
440.493	6402.81
440.715	6081.81
440.936	6108.81
441.158	6159.81
441.379	6253.81
441.6	6625.81
441.822	6833.81
442.043	7276.81
442.264	7891.81
442.486	7710.81
442.707	6903.81
442.928	6706.81
443.149	6938.81
443.371	7022.81
443.592	7637.81
443.813	8540.81
444.034	8509.81
444.255	7462.81
444.476	7367.81
444.698	7605.81
444.919	7644.81
445.14	7461.81
445.361	7230.81
445.582	7338.81
445.803	7870.81
446.024	8485.81
446.245	8126.81
446.466	7332.81
446.687	6472.81
446.908	6076.81
447.129	5743.81
447.35	5615.81
447.571	5642.81
447.792	5505.81
448.013	5627.81
448.234	5845.81
448.455	6445.81
448.675	7557.81
448.896	8044.81
449.117	6634.81
449.338	6929.81
449.559	8098.81
449.779	8188.81
450	6406.81
450.221	5703.81
450.442	5561.81
450.662	5448.81
450.883	5473.81
451.104	5585.81
451.324	5442.81
451.545	5344.81
451.766	5207.81
451.986	5125.81
452.207	5027.81
452.428	5018.81
452.648	5035.81
452.869	5077.81
453.089	5089.81
453.31	5268.81
453.53	5142.81
453.751	4950.81
453.971	5015.81
454.192	5131.81
454.412	4916.81
454.633	4892.81
454.853	4865.81
455.073	4957.81
455.294	5298.81
455.514	5752.81
455.734	5286.81
455.955	4844.81
456.175	4660.81
456.395	4677.81
456.616	4609.81
456.836	4575.81
457.056	4638.81
457.276	4561.81
457.497	4721.81
457.717	4616.81
457.937	4804.81
458.157	4843.81
458.377	4932.81
458.598	5272.81
458.818	5896.81
459.038	6680.81
459.258	6580.81
459.478	5920.81
459.698	5772.81
459.918	5889.81
460.138	6112.81
460.358	6302.81
460.578	6375.81
460.798	6505.81
461.018	6410.81
461.238	6257.81
461.458	6286.81
461.678	6227.81
461.898	6282.81
462.118	6326.81
462.338	6772.81
462.558	6893.81
462.777	7233.81
462.997	7788.81
463.217	8232.81
463.437	7995.81
463.657	7384.81
463.876	7192.81
464.096	7307.81
464.316	7225.81
464.536	7335.81
464.755	6980.81
464.975	6885.81
465.195	6996.81
465.414	6964.81
465.634	6171.81
465.854	5824.81
466.073	5651.81
466.293	5582.81
466.512	5420.81
466.732	5243.81
466.951	5173.81
467.171	5236.81
467.391	5300.81
467.61	5356.81
467.829	5319.81
468.049	5166.81
468.268	5066.81
468.488	4998.81
468.707	4913.81
468.927	4994.81
469.146	4946.81
469.365	5089.81
469.585	5111.81
469.804	5253.81
470.023	5486.81
470.243	5351.81
470.462	5538.81
470.681	5572.81
470.901	5472.81
471.12	5344.81
471.339	5267.81
471.558	5221.81
471.777	5154.81
471.997	5129.81
472.216	5062.81
472.435	5135.81
472.654	5026.81
472.873	4929.81
473.092	4936.81
473.311	5023.81
473.53	5012.81
473.749	5142.81
473.968	5530.81
474.187	6532.81
474.406	6142.81
474.625	5308.81
474.844	5044.81
475.063	5007.81
475.282	5074.81
475.501	5078.81
475.72	5166.81
475.939	5142.81
476.158	5175.81
476.377	5166.81
476.596	5180.81
476.814	5301.81
477.033	5306.81
477.252	5421.81
477.471	5492.81
477.69	5639.81
477.908	5836.81
478.127	5932.81
478.346	5998.81
478.564	6095.81
478.783	6232.81
479.002	6325.81
479.22	6364.81
479.439	6415.81
479.658	6527.81
479.876	6582.81
480.095	6708.81
480.313	7156.81
480.532	7052.81
480.751	6958.81
480.969	6760.81
481.188	6701.81
481.406	6509.81
481.624	6221.81
481.843	6036.81
482.061	6031.81
482.28	5976.81
482.498	5906.81
482.717	5868.81
482.935	5857.81
483.153	5814.81
483.372	5858.81
483.59	5845.81
483.808	5852.81
484.027	5890.81
484.245	5958.81
484.463	5958.81
484.681	6037.81
484.9	6025.81
485.118	6173.81
485.336	6183.81
485.554	6284.81
485.772	6228.81
485.99	6187.81
486.209	6316.81
486.427	6285.81
486.645	6336.81
486.863	6461.81
487.081	6352.81
487.299	6326.81
487.517	6302.81
487.735	6310.81
