Data from Uncirc_2004_H10_HRD10591_00067.txt Node
Date: Wed Jan 03 10:32:26 EST 2024
User: Yrep
Spectrometer: HR+D1059
Trigger mode: 1
Integration Time (sec): 1.000000E-1
Scans to average: 1
Electric dark correction enabled: true
Nonlinearity correction enabled: false
Boxcar width: 0
XAxis mode: Wavelengths
Number of Pixels in Spectrum: 2048
>>>>>Begin Spectral Data<<<<<
223.165	-27.94
223.4	-27.94
223.635	-27.94
223.869	-15.94
224.104	-19.94
224.338	-15.94
224.573	-17.94
224.808	-4.94
225.042	-5.94
225.277	-12.94
225.511	10.06
225.746	-3.94
225.98	7.06
226.215	13.06
226.449	15.06
226.683	21.06
226.918	37.06
227.152	22.06
227.387	26.06
227.621	33.06
227.856	44.06
228.09	40.06
228.324	50.06
228.559	61.06
228.793	47.06
229.027	67.06
229.262	54.06
229.496	79.06
229.73	69.06
229.964	73.06
230.199	64.06
230.433	76.06
230.667	78.06
230.901	80.06
231.136	84.06
231.37	79.06
231.604	74.06
231.838	84.06
232.072	84.06
232.306	88.06
232.541	89.06
232.775	94.06
233.009	82.06
233.243	74.06
233.477	80.06
233.711	61.06
233.945	73.06
234.179	77.06
234.413	79.06
234.647	68.06
234.881	70.06
235.115	78.06
235.349	77.06
235.583	81.06
235.817	87.06
236.051	63.06
236.285	84.06
236.519	69.06
236.753	72.06
236.987	74.06
237.221	84.06
237.455	84.06
237.689	76.06
237.922	76.06
238.156	75.06
238.39	68.06
238.624	82.06
238.858	80.06
239.091	65.06
239.325	79.06
239.559	88.06
239.793	89.06
240.027	74.06
240.26	80.06
240.494	75.06
240.728	59.06
240.961	65.06
241.195	67.06
241.429	81.06
241.662	78.06
241.896	64.06
242.13	59.06
242.363	73.06
242.597	69.06
242.83	77.06
243.064	80.06
243.298	79.06
243.531	68.06
243.765	69.06
243.998	82.06
244.232	84.06
244.465	72.06
244.699	82.06
244.932	79.06
245.166	62.06
245.399	71.06
245.633	65.06
245.866	82.06
246.099	77.06
246.333	75.06
246.566	79.06
246.8	76.06
247.033	80.06
247.266	55.06
247.5	70.06
247.733	82.06
247.966	76.06
248.2	62.06
248.433	84.06
248.666	74.06
248.899	72.06
249.133	74.06
249.366	78.06
249.599	92.06
249.832	75.06
250.066	82.06
250.299	63.06
250.532	86.06
250.765	66.06
250.998	66.06
251.231	77.06
251.465	66.06
251.698	74.06
251.931	87.06
252.164	80.06
252.397	79.06
252.63	77.06
252.863	72.06
253.096	69.06
253.329	70.06
253.562	72.06
253.795	70.06
254.028	70.06
254.261	67.06
254.494	76.06
254.727	82.06
254.96	78.06
255.193	80.06
255.426	86.06
255.659	102.06
255.892	84.06
256.124	81.06
256.357	88.06
256.59	82.06
256.823	66.06
257.056	84.06
257.289	82.06
257.521	82.06
257.754	69.06
257.987	64.06
258.22	76.06
258.452	88.06
258.685	84.06
258.918	73.06
259.151	75.06
259.383	93.06
259.616	80.06
259.849	88.06
260.081	90.06
260.314	87.06
260.547	85.06
260.779	82.06
261.012	70.06
261.244	77.06
261.477	91.06
261.71	88.06
261.942	109.06
262.175	112.06
262.407	76.06
262.64	84.06
262.872	66.06
263.105	68.06
263.337	86.06
263.57	86.06
263.802	84.06
264.035	83.06
264.267	63.06
264.499	82.06
264.732	83.06
264.964	91.06
265.197	84.06
265.429	75.06
265.661	86.06
265.894	87.06
266.126	70.06
266.358	100.06
266.591	83.06
266.823	79.06
267.055	74.06
267.287	92.06
267.52	93.06
267.752	87.06
267.984	76.06
268.216	82.06
268.448	87.06
268.681	60.06
268.913	82.06
269.145	95.06
269.377	84.06
269.609	83.06
269.841	94.06
270.073	74.06
270.306	95.06
270.538	76.06
270.77	83.06
271.002	89.06
271.234	90.06
271.466	76.06
271.698	81.06
271.93	84.06
272.162	82.06
272.394	88.06
272.626	78.06
272.858	90.06
273.09	85.06
273.322	76.06
273.553	86.06
273.785	95.06
274.017	91.06
274.249	85.06
274.481	78.06
274.713	97.06
274.945	93.06
275.176	93.06
275.408	98.06
275.64	87.06
275.872	91.06
276.104	89.06
276.335	93.06
276.567	102.06
276.799	118.06
277.031	102.06
277.262	94.06
277.494	83.06
277.726	66.06
277.957	85.06
278.189	75.06
278.421	87.06
278.652	86.06
278.884	91.06
279.115	97.06
279.347	83.06
279.579	92.06
279.81	90.06
280.042	92.06
280.273	92.06
280.505	82.06
280.736	68.06
280.968	66.06
281.199	72.06
281.431	87.06
281.662	86.06
281.894	97.06
282.125	95.06
282.356	125.06
282.588	159.06
282.819	123.06
283.051	85.06
283.282	95.06
283.513	95.06
283.745	93.06
283.976	91.06
284.207	96.06
284.439	77.06
284.67	93.06
284.901	84.06
285.132	78.06
285.364	89.06
285.595	79.06
285.826	62.06
286.057	79.06
286.288	83.06
286.52	78.06
286.751	69.06
286.982	82.06
287.213	79.06
287.444	92.06
287.675	86.06
287.906	104.06
288.138	87.06
288.369	88.06
288.6	89.06
288.831	82.06
289.062	92.06
289.293	89.06
289.524	83.06
289.755	94.06
289.986	94.06
290.217	80.06
290.448	78.06
290.679	92.06
290.91	89.06
291.141	83.06
291.371	88.06
291.602	76.06
291.833	83.06
292.064	86.06
292.295	86.06
292.526	95.06
292.757	84.06
292.987	76.06
293.218	83.06
293.449	81.06
293.68	94.06
293.91	80.06
294.141	73.06
294.372	87.06
294.603	99.06
294.833	92.06
295.064	85.06
295.295	90.06
295.525	79.06
295.756	100.06
295.987	116.06
296.217	131.06
296.448	108.06
296.679	91.06
296.909	81.06
297.14	86.06
297.37	79.06
297.601	87.06
297.831	85.06
298.062	94.06
298.292	91.06
298.523	87.06
298.753	98.06
298.984	79.06
299.214	87.06
299.445	107.06
299.675	100.06
299.905	96.06
300.136	86.06
300.366	95.06
300.597	93.06
300.827	94.06
301.057	97.06
301.288	110.06
301.518	94.06
301.748	78.06
301.979	91.06
302.209	106.06
302.439	85.06
302.669	88.06
302.9	91.06
303.13	85.06
303.36	93.06
303.59	101.06
303.82	105.06
304.051	84.06
304.281	93.06
304.511	95.06
304.741	100.06
304.971	95.06
305.201	90.06
305.431	77.06
305.661	91.06
305.891	81.06
306.121	97.06
306.352	85.06
306.582	88.06
306.812	86.06
307.042	87.06
307.272	92.06
307.502	98.06
307.731	96.06
307.961	82.06
308.191	95.06
308.421	91.06
308.651	93.06
308.881	96.06
309.111	96.06
309.341	94.06
309.571	104.06
309.8	94.06
310.03	99.06
310.26	96.06
310.49	100.06
310.72	103.06
310.949	95.06
311.179	86.06
311.409	83.06
311.639	96.06
311.868	92.06
312.098	85.06
312.328	91.06
312.557	115.06
312.787	96.06
313.017	92.06
313.246	101.06
313.476	93.06
313.706	87.06
313.935	92.06
314.165	104.06
314.394	106.06
314.624	94.06
314.853	99.06
315.083	84.06
315.312	79.06
315.542	86.06
315.771	77.06
316.001	84.06
316.23	87.06
316.46	88.06
316.689	84.06
316.919	97.06
317.148	91.06
317.377	87.06
317.607	102.06
317.836	96.06
318.065	94.06
318.295	82.06
318.524	87.06
318.753	88.06
318.983	85.06
319.212	106.06
319.441	99.06
319.67	101.06
319.9	104.06
320.129	93.06
320.358	95.06
320.587	94.06
320.816	89.06
321.046	86.06
321.275	101.06
321.504	81.06
321.733	95.06
321.962	90.06
322.191	92.06
322.42	107.06
322.649	114.06
322.878	128.06
323.108	117.06
323.337	118.06
323.566	128.06
323.795	144.06
324.024	235.06
324.253	445.06
324.482	937.06
324.71	1973.06
324.939	2491.06
325.168	892.06
325.397	255.06
325.626	151.06
325.855	130.06
326.084	140.06
326.313	129.06
326.542	158.06
326.77	257.06
326.999	516.06
327.228	1071.06
327.457	1958.06
327.686	1534.06
327.914	407.06
328.143	205.06
328.372	142.06
328.6	127.06
328.829	128.06
329.058	133.06
329.287	114.06
329.515	118.06
329.744	97.06
329.972	94.06
330.201	99.06
330.43	119.06
330.658	112.06
330.887	131.06
331.115	134.06
331.344	92.06
331.572	104.06
331.801	111.06
332.03	92.06
332.258	99.06
332.486	97.06
332.715	103.06
332.943	77.06
333.172	106.06
333.4	108.06
333.629	103.06
333.857	118.06
334.085	102.06
334.314	111.06
334.542	102.06
334.771	99.06
334.999	117.06
335.227	118.06
335.455	93.06
335.684	92.06
335.912	90.06
336.14	94.06
336.369	104.06
336.597	92.06
336.825	96.06
337.053	92.06
337.281	96.06
337.51	98.06
337.738	89.06
337.966	100.06
338.194	100.06
338.422	106.06
338.65	81.06
338.878	100.06
339.106	87.06
339.334	83.06
339.562	96.06
339.79	93.06
340.018	82.06
340.246	70.06
340.474	77.06
340.702	83.06
340.93	90.06
341.158	94.06
341.386	98.06
341.614	91.06
341.842	95.06
342.07	96.06
342.298	85.06
342.526	94.06
342.754	76.06
342.981	102.06
343.209	97.06
343.437	95.06
343.665	89.06
343.893	90.06
344.12	79.06
344.348	83.06
344.576	74.06
344.804	92.06
345.031	102.06
345.259	84.06
345.487	92.06
345.714	79.06
345.942	96.06
346.17	74.06
346.397	87.06
346.625	82.06
346.853	86.06
347.08	81.06
347.308	95.06
347.535	89.06
347.763	107.06
347.99	94.06
348.218	96.06
348.445	123.06
348.673	95.06
348.9	77.06
349.128	85.06
349.355	85.06
349.583	79.06
349.81	96.06
350.037	85.06
350.265	92.06
350.492	99.06
350.72	98.06
350.947	122.06
351.174	103.06
351.402	103.06
351.629	99.06
351.856	97.06
352.083	82.06
352.311	105.06
352.538	101.06
352.765	108.06
352.992	99.06
353.22	103.06
353.447	115.06
353.674	99.06
353.901	101.06
354.128	80.06
354.355	92.06
354.583	90.06
354.81	81.06
355.037	84.06
355.264	95.06
355.491	101.06
355.718	77.06
355.945	84.06
356.172	93.06
356.399	94.06
356.626	82.06
356.853	93.06
357.08	93.06
357.307	97.06
357.534	94.06
357.761	97.06
357.988	92.06
358.215	82.06
358.441	82.06
358.668	91.06
358.895	78.06
359.122	81.06
359.349	90.06
359.576	78.06
359.802	93.06
360.029	109.06
360.256	111.06
360.483	92.06
360.709	84.06
360.936	89.06
361.163	84.06
361.39	97.06
361.616	84.06
361.843	87.06
362.07	94.06
362.296	87.06
362.523	100.06
362.749	78.06
362.976	93.06
363.203	84.06
363.429	81.06
363.656	85.06
363.882	82.06
364.109	81.06
364.335	83.06
364.562	88.06
364.788	88.06
365.015	90.06
365.241	99.06
365.468	114.06
365.694	126.06
365.92	105.06
366.147	94.06
366.373	92.06
366.599	79.06
366.826	79.06
367.052	91.06
367.278	98.06
367.505	86.06
367.731	79.06
367.957	101.06
368.184	92.06
368.41	100.06
368.636	109.06
368.862	122.06
369.089	99.06
369.315	85.06
369.541	87.06
369.767	81.06
369.993	85.06
370.219	97.06
370.445	88.06
370.672	77.06
370.898	67.06
371.124	78.06
371.35	78.06
371.576	77.06
371.802	99.06
372.028	93.06
372.254	83.06
372.48	83.06
372.706	84.06
372.932	86.06
373.158	62.06
373.384	93.06
373.61	83.06
373.835	81.06
374.061	89.06
374.287	99.06
374.513	84.06
374.739	65.06
374.965	76.06
375.191	83.06
375.416	85.06
375.642	93.06
375.868	86.06
376.094	86.06
376.319	84.06
376.545	74.06
376.771	91.06
376.997	95.06
377.222	94.06
377.448	95.06
377.674	106.06
377.899	84.06
378.125	81.06
378.35	101.06
378.576	85.06
378.802	105.06
379.027	101.06
379.253	97.06
379.478	94.06
379.704	96.06
379.929	93.06
380.155	77.06
380.38	104.06
380.606	104.06
380.831	88.06
381.057	86.06
381.282	84.06
381.507	94.06
381.733	82.06
381.958	85.06
382.184	97.06
382.409	95.06
382.634	96.06
382.86	92.06
383.085	98.06
383.31	89.06
383.535	106.06
383.761	91.06
383.986	86.06
384.211	92.06
384.436	106.06
384.662	97.06
384.887	95.06
385.112	101.06
385.337	96.06
385.562	104.06
385.787	110.06
386.013	103.06
386.238	101.06
386.463	113.06
386.688	113.06
386.913	99.06
387.138	98.06
387.363	98.06
387.588	94.06
387.813	95.06
388.038	100.06
388.263	95.06
388.488	112.06
388.713	103.06
388.938	98.06
389.163	91.06
389.387	99.06
389.612	96.06
389.837	83.06
390.062	87.06
390.287	67.06
390.512	75.06
390.736	85.06
390.961	85.06
391.186	82.06
391.411	94.06
391.636	88.06
391.86	83.06
392.085	92.06
392.31	79.06
392.534	82.06
392.759	95.06
392.984	71.06
393.208	95.06
393.433	98.06
393.658	78.06
393.882	102.06
394.107	92.06
394.331	75.06
394.556	85.06
394.78	76.06
395.005	92.06
395.229	78.06
395.454	79.06
395.678	75.06
395.903	84.06
396.127	83.06
396.352	86.06
396.576	77.06
396.801	89.06
397.025	88.06
397.249	89.06
397.474	72.06
397.698	82.06
397.922	78.06
398.147	78.06
398.371	74.06
398.595	78.06
398.82	81.06
399.044	81.06
399.268	78.06
399.492	90.06
399.717	78.06
399.941	83.06
400.165	108.06
400.389	94.06
400.613	86.06
400.837	82.06
401.062	73.06
401.286	97.06
401.51	98.06
401.734	88.06
401.958	79.06
402.182	138.06
402.406	173.06
402.63	106.06
402.854	99.06
403.078	80.06
403.302	93.06
403.526	91.06
403.75	78.06
403.974	77.06
404.198	82.06
404.422	82.06
404.645	79.06
404.869	81.06
405.093	85.06
405.317	88.06
405.541	85.06
405.765	110.06
405.988	122.06
406.212	194.06
406.436	242.06
406.66	143.06
406.883	79.06
407.107	97.06
407.331	83.06
407.555	88.06
407.778	94.06
408.002	74.06
408.226	84.06
408.449	97.06
408.673	112.06
408.896	106.06
409.12	93.06
409.344	87.06
409.567	95.06
409.791	78.06
410.014	96.06
410.238	96.06
410.461	86.06
410.685	91.06
410.908	84.06
411.132	85.06
411.355	82.06
411.578	81.06
411.802	83.06
412.025	79.06
412.249	84.06
412.472	80.06
412.695	80.06
412.919	95.06
413.142	64.06
413.365	85.06
413.589	69.06
413.812	87.06
414.035	100.06
414.258	87.06
414.482	108.06
414.705	76.06
414.928	92.06
415.151	89.06
415.374	89.06
415.597	70.06
415.821	102.06
416.044	86.06
416.267	87.06
416.49	82.06
416.713	79.06
416.936	94.06
417.159	84.06
417.382	85.06
417.605	85.06
417.828	91.06
418.051	78.06
418.274	77.06
418.497	73.06
418.72	92.06
418.943	79.06
419.166	85.06
419.389	99.06
419.611	97.06
419.834	88.06
420.057	74.06
420.28	86.06
420.503	81.06
420.726	83.06
420.948	83.06
421.171	85.06
421.394	83.06
421.617	81.06
421.839	83.06
422.062	87.06
422.285	97.06
422.507	101.06
422.73	97.06
422.953	89.06
423.175	78.06
423.398	90.06
423.621	98.06
423.843	81.06
424.066	82.06
424.288	93.06
424.511	86.06
424.733	80.06
424.956	91.06
425.178	102.06
425.401	94.06
425.623	100.06
425.846	72.06
426.068	94.06
426.291	100.06
426.513	87.06
426.735	88.06
426.958	84.06
427.18	100.06
427.402	133.06
427.625	172.06
427.847	141.06
428.069	98.06
428.292	94.06
428.514	88.06
428.736	84.06
428.958	70.06
429.181	83.06
429.403	86.06
429.625	91.06
429.847	88.06
430.069	93.06
430.292	87.06
430.514	74.06
430.736	102.06
430.958	85.06
431.18	86.06
431.402	92.06
431.624	83.06
431.846	77.06
432.068	71.06
432.29	74.06
432.512	93.06
432.734	78.06
432.956	84.06
433.178	85.06
433.4	86.06
433.622	93.06
433.844	84.06
434.066	100.06
434.287	89.06
434.509	84.06
434.731	76.06
434.953	83.06
435.175	92.06
435.397	90.06
435.618	91.06
435.84	94.06
436.062	111.06
436.284	118.06
436.505	101.06
436.727	96.06
436.949	105.06
437.17	79.06
437.392	84.06
437.614	90.06
437.835	105.06
438.057	126.06
438.278	88.06
438.5	107.06
438.721	118.06
438.943	92.06
439.165	80.06
439.386	83.06
439.608	97.06
439.829	111.06
440.05	116.06
440.272	155.06
440.493	90.06
440.715	97.06
440.936	80.06
441.158	96.06
441.379	87.06
441.6	87.06
441.822	86.06
442.043	76.06
442.264	92.06
442.486	101.06
442.707	87.06
442.928	95.06
443.149	136.06
443.371	126.06
443.592	112.06
443.813	119.06
444.034	100.06
444.255	96.06
444.476	94.06
444.698	91.06
444.919	83.06
445.14	127.06
445.361	115.06
445.582	130.06
445.803	130.06
446.024	127.06
446.245	113.06
446.466	90.06
446.687	88.06
446.908	87.06
447.129	76.06
447.35	95.06
447.571	86.06
447.792	73.06
448.013	103.06
448.234	104.06
448.455	107.06
448.675	118.06
448.896	103.06
449.117	101.06
449.338	99.06
449.559	119.06
449.779	123.06
450	94.06
450.221	80.06
450.442	110.06
450.662	91.06
450.883	109.06
451.104	117.06
451.324	97.06
451.545	84.06
451.766	85.06
451.986	98.06
452.207	93.06
452.428	97.06
452.648	96.06
452.869	102.06
453.089	122.06
453.31	122.06
453.53	100.06
453.751	87.06
453.971	112.06
454.192	105.06
454.412	86.06
454.633	93.06
454.853	91.06
455.073	93.06
455.294	67.06
455.514	87.06
455.734	79.06
455.955	75.06
456.175	102.06
456.395	76.06
456.616	92.06
456.836	86.06
457.056	84.06
457.276	97.06
457.497	79.06
457.717	75.06
457.937	77.06
458.157	87.06
458.377	85.06
458.598	101.06
458.818	148.06
459.038	154.06
459.258	101.06
459.478	78.06
459.698	90.06
459.918	74.06
460.138	86.06
460.358	82.06
460.578	82.06
460.798	93.06
461.018	74.06
461.238	92.06
461.458	97.06
461.678	85.06
461.898	87.06
462.118	85.06
462.338	82.06
462.558	87.06
462.777	91.06
462.997	78.06
463.217	81.06
463.437	86.06
463.657	61.06
463.876	74.06
464.096	87.06
464.316	96.06
464.536	98.06
464.755	91.06
464.975	89.06
465.195	151.06
465.414	154.06
465.634	102.06
465.854	77.06
466.073	86.06
466.293	79.06
466.512	85.06
466.732	79.06
466.951	83.06
467.171	71.06
467.391	93.06
467.61	97.06
467.829	87.06
468.049	90.06
468.268	90.06
468.488	85.06
468.707	95.06
468.927	75.06
469.146	82.06
469.365	97.06
469.585	89.06
469.804	86.06
470.023	99.06
470.243	78.06
470.462	91.06
470.681	109.06
470.901	68.06
471.12	85.06
471.339	100.06
471.558	89.06
471.777	82.06
471.997	71.06
472.216	87.06
472.435	114.06
472.654	82.06
472.873	94.06
473.092	88.06
473.311	85.06
473.53	80.06
473.749	99.06
473.968	83.06
474.187	95.06
474.406	97.06
474.625	86.06
474.844	93.06
475.063	84.06
475.282	101.06
475.501	92.06
475.72	86.06
475.939	69.06
476.158	83.06
476.377	77.06
476.596	78.06
476.814	98.06
477.033	84.06
477.252	93.06
477.471	90.06
477.69	92.06
477.908	85.06
478.127	85.06
478.346	86.06
478.564	76.06
478.783	83.06
479.002	76.06
479.22	83.06
479.439	102.06
479.658	108.06
479.876	95.06
480.095	84.06
480.313	95.06
480.532	81.06
480.751	78.06
480.969	108.06
481.188	129.06
481.406	113.06
481.624	92.06
481.843	100.06
482.061	69.06
482.28	84.06
482.498	83.06
482.717	86.06
482.935	86.06
483.153	91.06
483.372	87.06
483.59	78.06
483.808	84.06
484.027	69.06
484.245	85.06
484.463	88.06
484.681	105.06
484.9	103.06
485.118	102.06
485.336	93.06
485.554	94.06
485.772	89.06
485.99	103.06
486.209	109.06
486.427	106.06
486.645	97.06
486.863	121.06
487.081	114.06
487.299	85.06
487.517	99.06
487.735	91.06
487.953	101.06
488.171	87.06
488.389	104.06
488.607	102.06
488.825	92.06
489.043	82.06
489.261	93.06
489.479	89.06
489.696	83.06
489.914	90.06
490.132	90.06
490.35	94.06
490.568	87.06
490.786	86.06
491.003	86.06
491.221	72.06
491.439	88.06
491.657	105.06
491.874	98.06
492.092	80.06
492.31	81.06
492.527	87.06
492.745	90.06
492.963	101.06
493.18	100.06
493.398	80.06
493.615	88.06
493.833	95.06
494.05	77.06
494.268	97.06
494.485	86.06
494.703	85.06
494.92	87.06
495.138	83.06
495.355	80.06
495.573	82.06
495.79	77.06
496.008	92.06
496.225	86.06
496.442	98.06
496.66	86.06
496.877	86.06
497.094	79.06
497.312	92.06
497.529	92.06
497.746	77.06
497.963	93.06
498.181	90.06
498.398	107.06
498.615	98.06
498.832	103.06
499.049	94.06
499.267	98.06
499.484	70.06
499.701	100.06
499.918	88.06
500.135	91.06
500.352	91.06
500.569	88.06
500.786	84.06
501.003	93.06
501.22	72.06
501.437	94.06
501.654	90.06
501.871	104.06
502.088	97.06
502.305	84.06
502.522	98.06
502.739	88.06
502.956	101.06
503.172	74.06
503.389	102.06
503.606	103.06
503.823	96.06
504.04	92.06
504.256	85.06
504.473	92.06
504.69	96.06
504.907	105.06
505.123	87.06
505.34	83.06
505.557	88.06
505.773	95.06
505.99	101.06
506.207	99.06
506.423	94.06
506.64	98.06
506.856	91.06
507.073	80.06
507.289	87.06
507.506	95.06
507.722	108.06
507.939	109.06
508.155	101.06
508.372	104.06
508.588	95.06
508.805	101.06
509.021	99.06
509.238	103.06
509.454	110.06
509.67	91.06
509.887	114.06
510.103	143.06
510.319	223.06
510.536	914.06
510.752	2874.06
510.968	758.06
511.184	168.06
511.401	116.06
511.617	92.06
511.833	81.06
512.049	95.06
512.265	101.06
512.481	87.06
512.698	91.06
512.914	87.06
513.13	86.06
513.346	84.06
513.562	85.06
513.778	96.06
513.994	86.06
514.21	96.06
514.426	123.06
514.642	137.06
514.858	122.06
515.074	173.06
515.29	515.06
515.506	1746.06
515.721	620.06
515.937	172.06
516.153	110.06
516.369	91.06
