Data from Uncirc_2004_H10_HRD10591_00073.txt Node
Date: Wed Jan 03 10:32:27 EST 2024
User: Yrep
Spectrometer: HR+D1059
Trigger mode: 1
Integration Time (sec): 1.000000E-1
Scans to average: 1
Electric dark correction enabled: true
Nonlinearity correction enabled: false
Boxcar width: 0
XAxis mode: Wavelengths
Number of Pixels in Spectrum: 2048
>>>>>Begin Spectral Data<<<<<
223.165	-8.06
223.4	-8.06
223.635	-8.06
223.869	-26.06
224.104	-28.06
224.338	-18.06
224.573	-15.06
224.808	-14.06
225.042	5.94
225.277	-7.06
225.511	-8.06
225.746	-2.06
225.98	5.94
226.215	15.94
226.449	11.94
226.683	21.94
226.918	24.94
227.152	39.94
227.387	28.94
227.621	35.94
227.856	39.94
228.09	47.94
228.324	59.94
228.559	46.94
228.793	48.94
229.027	76.94
229.262	73.94
229.496	75.94
229.73	84.94
229.964	68.94
230.199	76.94
230.433	81.94
230.667	82.94
230.901	84.94
231.136	71.94
231.37	71.94
231.604	84.94
231.838	89.94
232.072	77.94
232.306	69.94
232.541	92.94
232.775	73.94
233.009	82.94
233.243	78.94
233.477	83.94
233.711	71.94
233.945	83.94
234.179	70.94
234.413	87.94
234.647	75.94
234.881	99.94
235.115	64.94
235.349	70.94
235.583	63.94
235.817	76.94
236.051	71.94
236.285	81.94
236.519	74.94
236.753	67.94
236.987	80.94
237.221	78.94
237.455	74.94
237.689	89.94
237.922	84.94
238.156	81.94
238.39	69.94
238.624	83.94
238.858	54.94
239.091	78.94
239.325	75.94
239.559	77.94
239.793	71.94
240.027	79.94
240.26	78.94
240.494	76.94
240.728	70.94
240.961	83.94
241.195	85.94
241.429	67.94
241.662	87.94
241.896	84.94
242.13	77.94
242.363	79.94
242.597	59.94
242.83	75.94
243.064	71.94
243.298	83.94
243.531	86.94
243.765	66.94
243.998	76.94
244.232	73.94
244.465	71.94
244.699	79.94
244.932	72.94
245.166	76.94
245.399	92.94
245.633	77.94
245.866	73.94
246.099	85.94
246.333	66.94
246.566	70.94
246.8	78.94
247.033	85.94
247.266	83.94
247.5	66.94
247.733	79.94
247.966	74.94
248.2	68.94
248.433	80.94
248.666	83.94
248.899	73.94
249.133	89.94
249.366	93.94
249.599	103.94
249.832	77.94
250.066	75.94
250.299	83.94
250.532	77.94
250.765	79.94
250.998	77.94
251.231	83.94
251.465	79.94
251.698	61.94
251.931	70.94
252.164	76.94
252.397	78.94
252.63	80.94
252.863	79.94
253.096	78.94
253.329	86.94
253.562	76.94
253.795	87.94
254.028	84.94
254.261	74.94
254.494	80.94
254.727	97.94
254.96	88.94
255.193	74.94
255.426	88.94
255.659	86.94
255.892	98.94
256.124	77.94
256.357	75.94
256.59	79.94
256.823	80.94
257.056	70.94
257.289	77.94
257.521	85.94
257.754	83.94
257.987	91.94
258.22	89.94
258.452	83.94
258.685	76.94
258.918	76.94
259.151	70.94
259.383	79.94
259.616	65.94
259.849	79.94
260.081	83.94
260.314	88.94
260.547	84.94
260.779	87.94
261.012	81.94
261.244	69.94
261.477	89.94
261.71	97.94
261.942	123.94
262.175	120.94
262.407	81.94
262.64	80.94
262.872	91.94
263.105	80.94
263.337	69.94
263.57	77.94
263.802	92.94
264.035	89.94
264.267	82.94
264.499	87.94
264.732	83.94
264.964	101.94
265.197	79.94
265.429	79.94
265.661	84.94
265.894	88.94
266.126	89.94
266.358	80.94
266.591	85.94
266.823	88.94
267.055	76.94
267.287	80.94
267.52	80.94
267.752	83.94
267.984	91.94
268.216	73.94
268.448	91.94
268.681	93.94
268.913	91.94
269.145	72.94
269.377	75.94
269.609	93.94
269.841	81.94
270.073	81.94
270.306	94.94
270.538	85.94
270.77	77.94
271.002	73.94
271.234	80.94
271.466	80.94
271.698	87.94
271.93	90.94
272.162	75.94
272.394	71.94
272.626	73.94
272.858	85.94
273.09	69.94
273.322	78.94
273.553	79.94
273.785	75.94
274.017	81.94
274.249	88.94
274.481	91.94
274.713	78.94
274.945	80.94
275.176	97.94
275.408	88.94
275.64	95.94
275.872	90.94
276.104	83.94
276.335	89.94
276.567	83.94
276.799	87.94
277.031	87.94
277.262	86.94
277.494	87.94
277.726	91.94
277.957	76.94
278.189	77.94
278.421	82.94
278.652	102.94
278.884	75.94
279.115	84.94
279.347	89.94
279.579	87.94
279.81	94.94
280.042	99.94
280.273	96.94
280.505	85.94
280.736	78.94
280.968	91.94
281.199	80.94
281.431	81.94
281.662	80.94
281.894	96.94
282.125	89.94
282.356	96.94
282.588	130.94
282.819	104.94
283.051	76.94
283.282	84.94
283.513	86.94
283.745	86.94
283.976	79.94
284.207	70.94
284.439	97.94
284.67	80.94
284.901	84.94
285.132	90.94
285.364	79.94
285.595	97.94
285.826	100.94
286.057	82.94
286.288	99.94
286.52	75.94
286.751	77.94
286.982	88.94
287.213	75.94
287.444	77.94
287.675	80.94
287.906	81.94
288.138	78.94
288.369	98.94
288.6	96.94
288.831	92.94
289.062	80.94
289.293	92.94
289.524	88.94
289.755	77.94
289.986	84.94
290.217	99.94
290.448	80.94
290.679	85.94
290.91	88.94
291.141	79.94
291.371	88.94
291.602	81.94
291.833	93.94
292.064	96.94
292.295	85.94
292.526	86.94
292.757	88.94
292.987	85.94
293.218	87.94
293.449	79.94
293.68	95.94
293.91	77.94
294.141	98.94
294.372	88.94
294.603	83.94
294.833	82.94
295.064	87.94
295.295	87.94
295.525	92.94
295.756	98.94
295.987	115.94
296.217	128.94
296.448	115.94
296.679	91.94
296.909	89.94
297.14	81.94
297.37	94.94
297.601	85.94
297.831	98.94
298.062	74.94
298.292	102.94
298.523	92.94
298.753	96.94
298.984	99.94
299.214	89.94
299.445	86.94
299.675	112.94
299.905	100.94
300.136	82.94
300.366	99.94
300.597	99.94
300.827	85.94
301.057	91.94
301.288	100.94
301.518	85.94
301.748	84.94
301.979	92.94
302.209	78.94
302.439	86.94
302.669	79.94
302.9	84.94
303.13	77.94
303.36	101.94
303.59	100.94
303.82	101.94
304.051	94.94
304.281	88.94
304.511	96.94
304.741	82.94
304.971	83.94
305.201	109.94
305.431	84.94
305.661	101.94
305.891	92.94
306.121	83.94
306.352	98.94
306.582	92.94
306.812	90.94
307.042	91.94
307.272	89.94
307.502	90.94
307.731	82.94
307.961	85.94
308.191	91.94
308.421	83.94
308.651	90.94
308.881	93.94
309.111	96.94
309.341	105.94
309.571	107.94
309.8	94.94
310.03	104.94
310.26	91.94
310.49	94.94
310.72	100.94
310.949	94.94
311.179	97.94
311.409	103.94
311.639	91.94
311.868	89.94
312.098	94.94
312.328	93.94
312.557	107.94
312.787	100.94
313.017	92.94
313.246	97.94
313.476	88.94
313.706	98.94
313.935	85.94
314.165	104.94
314.394	75.94
314.624	88.94
314.853	92.94
315.083	80.94
315.312	100.94
315.542	112.94
315.771	102.94
316.001	103.94
316.23	86.94
316.46	88.94
316.689	102.94
316.919	95.94
317.148	108.94
317.377	85.94
317.607	88.94
317.836	107.94
318.065	90.94
318.295	87.94
318.524	86.94
318.753	92.94
318.983	76.94
319.212	106.94
319.441	107.94
319.67	95.94
319.9	97.94
320.129	92.94
320.358	105.94
320.587	96.94
320.816	94.94
321.046	84.94
321.275	93.94
321.504	88.94
321.733	98.94
321.962	91.94
322.191	92.94
322.42	100.94
322.649	83.94
322.878	97.94
323.108	121.94
323.337	120.94
323.566	133.94
323.795	137.94
324.024	212.94
324.253	384.94
324.482	779.94
324.71	1616.94
324.939	2155.94
325.168	791.94
325.397	242.94
325.626	144.94
325.855	121.94
326.084	129.94
326.313	135.94
326.542	153.94
326.77	211.94
326.999	453.94
327.228	940.94
327.457	1664.94
327.686	1337.94
327.914	366.94
328.143	195.94
328.372	157.94
328.6	119.94
328.829	113.94
329.058	117.94
329.287	113.94
329.515	97.94
329.744	97.94
329.972	98.94
330.201	93.94
330.43	115.94
330.658	103.94
330.887	116.94
331.115	118.94
331.344	97.94
331.572	110.94
331.801	96.94
332.03	102.94
332.258	92.94
332.486	91.94
332.715	90.94
332.943	99.94
333.172	90.94
333.4	103.94
333.629	107.94
333.857	119.94
334.085	102.94
334.314	101.94
334.542	95.94
334.771	109.94
334.999	94.94
335.227	89.94
335.455	86.94
335.684	92.94
335.912	112.94
336.14	101.94
336.369	90.94
336.597	96.94
336.825	101.94
337.053	92.94
337.281	97.94
337.51	89.94
337.738	99.94
337.966	96.94
338.194	95.94
338.422	100.94
338.65	92.94
338.878	83.94
339.106	77.94
339.334	78.94
339.562	88.94
339.79	91.94
340.018	89.94
340.246	82.94
340.474	78.94
340.702	87.94
340.93	96.94
341.158	104.94
341.386	84.94
341.614	93.94
341.842	88.94
342.07	79.94
342.298	92.94
342.526	97.94
342.754	83.94
342.981	81.94
343.209	76.94
343.437	123.94
343.665	100.94
343.893	100.94
344.12	100.94
344.348	79.94
344.576	98.94
344.804	88.94
345.031	89.94
345.259	98.94
345.487	110.94
345.714	101.94
345.942	87.94
346.17	86.94
346.397	81.94
346.625	89.94
346.853	72.94
347.08	85.94
347.308	93.94
347.535	105.94
347.763	102.94
347.99	94.94
348.218	85.94
348.445	84.94
348.673	86.94
348.9	101.94
349.128	88.94
349.355	85.94
349.583	86.94
349.81	88.94
350.037	92.94
350.265	93.94
350.492	104.94
350.72	98.94
350.947	97.94
351.174	104.94
351.402	110.94
351.629	112.94
351.856	93.94
352.083	99.94
352.311	89.94
352.538	95.94
352.765	102.94
352.992	115.94
353.22	108.94
353.447	97.94
353.674	97.94
353.901	87.94
354.128	95.94
354.355	87.94
354.583	89.94
354.81	103.94
355.037	96.94
355.264	99.94
355.491	98.94
355.718	95.94
355.945	93.94
356.172	93.94
356.399	107.94
356.626	95.94
356.853	98.94
357.08	92.94
357.307	98.94
357.534	79.94
357.761	88.94
357.988	79.94
358.215	87.94
358.441	88.94
358.668	82.94
358.895	92.94
359.122	86.94
359.349	93.94
359.576	83.94
359.802	108.94
360.029	102.94
360.256	107.94
360.483	93.94
360.709	86.94
360.936	80.94
361.163	90.94
361.39	94.94
361.616	94.94
361.843	94.94
362.07	83.94
362.296	85.94
362.523	89.94
362.749	72.94
362.976	101.94
363.203	90.94
363.429	83.94
363.656	76.94
363.882	82.94
364.109	90.94
364.335	93.94
364.562	100.94
364.788	85.94
365.015	96.94
365.241	94.94
365.468	95.94
365.694	107.94
365.92	97.94
366.147	92.94
366.373	95.94
366.599	88.94
366.826	81.94
367.052	97.94
367.278	98.94
367.505	101.94
367.731	84.94
367.957	79.94
368.184	72.94
368.41	99.94
368.636	117.94
368.862	119.94
369.089	103.94
369.315	96.94
369.541	88.94
369.767	82.94
369.993	103.94
370.219	87.94
370.445	82.94
370.672	91.94
370.898	89.94
371.124	84.94
371.35	86.94
371.576	100.94
371.802	72.94
372.028	89.94
372.254	82.94
372.48	72.94
372.706	88.94
372.932	95.94
373.158	89.94
373.384	94.94
373.61	93.94
373.835	97.94
374.061	100.94
374.287	92.94
374.513	98.94
374.739	86.94
374.965	93.94
375.191	95.94
375.416	83.94
375.642	94.94
375.868	100.94
376.094	80.94
376.319	87.94
376.545	89.94
376.771	89.94
376.997	91.94
377.222	94.94
377.448	85.94
377.674	82.94
377.899	92.94
378.125	94.94
378.35	96.94
378.576	89.94
378.802	86.94
379.027	94.94
379.253	101.94
379.478	93.94
379.704	81.94
379.929	86.94
380.155	80.94
380.38	86.94
380.606	105.94
380.831	103.94
381.057	97.94
381.282	96.94
381.507	93.94
381.733	98.94
381.958	95.94
382.184	89.94
382.409	87.94
382.634	98.94
382.86	94.94
383.085	99.94
383.31	102.94
383.535	96.94
383.761	97.94
383.986	93.94
384.211	105.94
384.436	104.94
384.662	82.94
384.887	108.94
385.112	98.94
385.337	108.94
385.562	88.94
385.787	100.94
386.013	106.94
386.238	109.94
386.463	104.94
386.688	115.94
386.913	99.94
387.138	106.94
387.363	100.94
387.588	103.94
387.813	97.94
388.038	111.94
388.263	120.94
388.488	100.94
388.713	81.94
388.938	76.94
389.163	94.94
389.387	89.94
389.612	73.94
389.837	84.94
390.062	96.94
390.287	110.94
390.512	89.94
390.736	91.94
390.961	89.94
391.186	88.94
391.411	83.94
391.636	98.94
391.86	76.94
392.085	79.94
392.31	102.94
392.534	79.94
392.759	78.94
392.984	84.94
393.208	94.94
393.433	93.94
393.658	87.94
393.882	78.94
394.107	96.94
394.331	96.94
394.556	86.94
394.78	89.94
395.005	93.94
395.229	76.94
395.454	94.94
395.678	82.94
395.903	81.94
396.127	86.94
396.352	81.94
396.576	87.94
396.801	86.94
397.025	96.94
397.249	93.94
397.474	82.94
397.698	89.94
397.922	76.94
398.147	79.94
398.371	68.94
398.595	96.94
398.82	96.94
399.044	87.94
399.268	79.94
399.492	83.94
399.717	91.94
399.941	79.94
400.165	95.94
400.389	94.94
400.613	94.94
400.837	95.94
401.062	92.94
401.286	98.94
401.51	89.94
401.734	95.94
401.958	112.94
402.182	132.94
402.406	161.94
402.63	115.94
402.854	95.94
403.078	78.94
403.302	81.94
403.526	77.94
403.75	89.94
403.974	94.94
404.198	87.94
404.422	73.94
404.645	80.94
404.869	99.94
405.093	85.94
405.317	90.94
405.541	91.94
405.765	94.94
405.988	117.94
406.212	173.94
406.436	209.94
406.66	127.94
406.883	91.94
407.107	78.94
407.331	78.94
407.555	97.94
407.778	84.94
408.002	73.94
408.226	92.94
408.449	77.94
408.673	79.94
408.896	106.94
409.12	95.94
409.344	81.94
409.567	88.94
409.791	96.94
410.014	103.94
410.238	96.94
410.461	92.94
410.685	93.94
410.908	94.94
411.132	90.94
411.355	106.94
411.578	91.94
411.802	88.94
412.025	91.94
412.249	90.94
412.472	95.94
412.695	77.94
412.919	84.94
413.142	92.94
413.365	107.94
413.589	76.94
413.812	91.94
414.035	94.94
414.258	79.94
414.482	84.94
414.705	81.94
414.928	95.94
415.151	97.94
415.374	85.94
415.597	93.94
415.821	89.94
416.044	89.94
416.267	72.94
416.49	91.94
416.713	73.94
416.936	95.94
417.159	87.94
417.382	74.94
417.605	100.94
417.828	86.94
418.051	75.94
418.274	99.94
418.497	85.94
418.72	79.94
418.943	89.94
419.166	107.94
419.389	77.94
419.611	71.94
419.834	81.94
420.057	87.94
420.28	74.94
420.503	88.94
420.726	92.94
420.948	79.94
421.171	87.94
421.394	94.94
421.617	91.94
421.839	88.94
422.062	71.94
422.285	82.94
422.507	101.94
422.73	85.94
422.953	89.94
423.175	70.94
423.398	84.94
423.621	87.94
423.843	89.94
424.066	78.94
424.288	92.94
424.511	84.94
424.733	103.94
424.956	95.94
425.178	95.94
425.401	91.94
425.623	99.94
425.846	94.94
426.068	88.94
426.291	84.94
426.513	81.94
426.735	86.94
426.958	80.94
427.18	98.94
427.402	143.94
427.625	157.94
427.847	128.94
428.069	111.94
428.292	92.94
428.514	85.94
428.736	91.94
428.958	88.94
429.181	78.94
429.403	75.94
429.625	92.94
429.847	88.94
430.069	92.94
430.292	85.94
430.514	85.94
430.736	78.94
430.958	84.94
431.18	77.94
431.402	84.94
431.624	102.94
431.846	87.94
432.068	94.94
432.29	87.94
432.512	88.94
432.734	89.94
432.956	87.94
433.178	90.94
433.4	97.94
433.622	99.94
433.844	81.94
434.066	102.94
434.287	83.94
434.509	89.94
434.731	91.94
434.953	79.94
435.175	78.94
435.397	86.94
435.618	94.94
435.84	103.94
436.062	126.94
436.284	109.94
436.505	96.94
436.727	108.94
436.949	109.94
437.17	77.94
437.392	91.94
437.614	98.94
437.835	114.94
438.057	102.94
438.278	97.94
438.5	100.94
438.721	118.94
438.943	78.94
439.165	72.94
439.386	89.94
439.608	81.94
439.829	90.94
440.05	116.94
440.272	133.94
440.493	107.94
440.715	84.94
440.936	99.94
441.158	94.94
441.379	99.94
441.6	89.94
441.822	89.94
442.043	74.94
442.264	93.94
442.486	101.94
442.707	95.94
442.928	107.94
443.149	113.94
443.371	120.94
443.592	100.94
443.813	94.94
444.034	84.94
444.255	97.94
444.476	81.94
444.698	92.94
444.919	97.94
445.14	137.94
445.361	129.94
445.582	113.94
445.803	116.94
446.024	117.94
446.245	121.94
446.466	105.94
446.687	88.94
446.908	86.94
447.129	89.94
447.35	88.94
447.571	92.94
447.792	101.94
448.013	94.94
448.234	106.94
448.455	109.94
448.675	101.94
448.896	118.94
449.117	99.94
449.338	96.94
449.559	113.94
449.779	125.94
450	106.94
450.221	107.94
450.442	86.94
450.662	103.94
450.883	100.94
451.104	104.94
451.324	96.94
451.545	82.94
451.766	75.94
451.986	88.94
452.207	94.94
452.428	93.94
452.648	92.94
452.869	116.94
453.089	118.94
453.31	107.94
453.53	95.94
453.751	105.94
453.971	93.94
454.192	106.94
454.412	97.94
454.633	97.94
454.853	93.94
455.073	96.94
455.294	91.94
455.514	92.94
455.734	92.94
455.955	89.94
456.175	91.94
456.395	84.94
456.616	85.94
456.836	88.94
457.056	81.94
457.276	84.94
457.497	83.94
457.717	96.94
457.937	88.94
458.157	85.94
458.377	100.94
458.598	106.94
458.818	151.94
459.038	161.94
459.258	115.94
459.478	83.94
459.698	89.94
459.918	81.94
460.138	82.94
460.358	93.94
460.578	69.94
460.798	79.94
461.018	93.94
461.238	80.94
461.458	92.94
461.678	80.94
461.898	89.94
462.118	77.94
462.338	78.94
462.558	70.94
462.777	76.94
462.997	85.94
463.217	84.94
463.437	86.94
463.657	82.94
463.876	87.94
464.096	80.94
464.316	88.94
464.536	104.94
464.755	86.94
464.975	114.94
465.195	152.94
465.414	153.94
465.634	86.94
465.854	90.94
466.073	94.94
466.293	85.94
466.512	85.94
466.732	70.94
466.951	79.94
467.171	80.94
467.391	96.94
467.61	107.94
467.829	91.94
468.049	94.94
468.268	86.94
468.488	77.94
468.707	85.94
468.927	75.94
469.146	77.94
469.365	101.94
469.585	84.94
469.804	102.94
470.023	93.94
470.243	89.94
470.462	99.94
470.681	103.94
470.901	86.94
471.12	96.94
471.339	85.94
471.558	93.94
471.777	86.94
471.997	93.94
472.216	89.94
472.435	100.94
472.654	92.94
472.873	80.94
473.092	90.94
473.311	93.94
473.53	85.94
473.749	80.94
473.968	85.94
474.187	107.94
474.406	98.94
474.625	96.94
474.844	98.94
475.063	87.94
475.282	77.94
475.501	72.94
475.72	84.94
475.939	84.94
476.158	84.94
476.377	91.94
476.596	94.94
476.814	82.94
477.033	96.94
477.252	82.94
477.471	87.94
477.69	76.94
477.908	80.94
478.127	82.94
478.346	99.94
478.564	93.94
478.783	92.94
479.002	95.94
479.22	87.94
479.439	94.94
479.658	99.94
479.876	95.94
480.095	92.94
480.313	92.94
480.532	90.94
480.751	83.94
480.969	91.94
481.188	129.94
481.406	113.94
481.624	81.94
481.843	92.94
482.061	80.94
482.28	93.94
482.498	91.94
482.717	93.94
482.935	97.94
483.153	99.94
483.372	104.94
483.59	93.94
483.808	103.94
484.027	82.94
484.245	87.94
484.463	86.94
484.681	95.94
484.9	96.94
485.118	104.94
485.336	81.94
485.554	87.94
485.772	100.94
485.99	95.94
486.209	101.94
486.427	110.94
486.645	103.94
486.863	105.94
487.081	100.94
487.299	86.94
487.517	102.94
487.735	107.94
487.953	81.94
488.171	101.94
488.389	87.94
488.607	90.94
488.825	84.94
489.043	84.94
489.261	99.94
489.479	89.94
489.696	89.94
489.914	85.94
490.132	85.94
490.35	76.94
490.568	89.94
490.786	95.94
491.003	92.94
491.221	95.94
491.439	89.94
491.657	94.94
491.874	99.94
492.092	97.94
492.31	99.94
492.527	99.94
492.745	89.94
492.963	92.94
493.18	98.94
493.398	102.94
493.615	86.94
493.833	102.94
494.05	95.94
494.268	80.94
494.485	80.94
494.703	84.94
494.92	80.94
495.138	91.94
495.355	95.94
495.573	108.94
495.79	94.94
496.008	93.94
496.225	104.94
496.442	88.94
496.66	85.94
496.877	77.94
497.094	80.94
497.312	83.94
497.529	94.94
497.746	93.94
497.963	90.94
498.181	84.94
498.398	87.94
498.615	113.94
498.832	99.94
499.049	88.94
499.267	76.94
499.484	101.94
499.701	97.94
499.918	95.94
500.135	99.94
500.352	85.94
500.569	96.94
500.786	88.94
501.003	93.94
501.22	87.94
501.437	80.94
501.654	97.94
501.871	118.94
502.088	88.94
502.305	105.94
502.522	96.94
502.739	85.94
502.956	89.94
503.172	93.94
503.389	91.94
503.606	112.94
503.823	85.94
504.04	95.94
504.256	105.94
504.473	78.94
504.69	90.94
504.907	100.94
505.123	100.94
505.34	89.94
505.557	97.94
505.773	97.94
505.99	89.94
506.207	87.94
506.423	81.94
506.64	95.94
506.856	84.94
507.073	102.94
507.289	97.94
507.506	96.94
507.722	126.94
507.939	84.94
508.155	95.94
508.372	86.94
508.588	94.94
508.805	93.94
509.021	88.94
509.238	103.94
509.454	110.94
509.67	101.94
509.887	108.94
510.103	124.94
510.319	225.94
510.536	797.94
510.752	2537.94
510.968	701.94
511.184	163.94
511.401	109.94
511.617	86.94
511.833	82.94
512.049	90.94
512.265	103.94
512.481	85.94
512.698	84.94
512.914	97.94
513.13	91.94
513.346	100.94
513.562	95.94
513.778	87.94
513.994	90.94
514.21	111.94
514.426	118.94
514.642	142.94
514.858	113.94
515.074	161.94
515.29	453.94
515.506	1522.94
515.721	542.94
515.937	141.94
516.153	95.94
516.369	92.94
