Data from Uncirc_2004_H10_HRD10591_00051.txt Node
Date: Wed Jan 03 10:32:23 EST 2024
User: Yrep
Spectrometer: HR+D1059
Trigger mode: 1
Integration Time (sec): 1.000000E-1
Scans to average: 1
Electric dark correction enabled: true
Nonlinearity correction enabled: false
Boxcar width: 0
XAxis mode: Wavelengths
Number of Pixels in Spectrum: 2048
>>>>>Begin Spectral Data<<<<<
223.165	-6.38
223.4	-6.38
223.635	-6.38
223.869	-14.38
224.104	-17.38
224.338	-25.38
224.573	-15.38
224.808	-4.38
225.042	-12.38
225.277	-7.38
225.511	-3.38
225.746	5.62
225.98	7.62
226.215	14.62
226.449	11.62
226.683	21.62
226.918	17.62
227.152	27.62
227.387	27.62
227.621	51.62
227.856	51.62
228.09	52.62
228.324	44.62
228.559	56.62
228.793	60.62
229.027	75.62
229.262	75.62
229.496	89.62
229.73	75.62
229.964	78.62
230.199	92.62
230.433	76.62
230.667	84.62
230.901	80.62
231.136	84.62
231.37	74.62
231.604	66.62
231.838	83.62
232.072	97.62
232.306	91.62
232.541	85.62
232.775	70.62
233.009	91.62
233.243	85.62
233.477	87.62
233.711	74.62
233.945	90.62
234.179	83.62
234.413	57.62
234.647	66.62
234.881	83.62
235.115	79.62
235.349	86.62
235.583	83.62
235.817	87.62
236.051	77.62
236.285	78.62
236.519	88.62
236.753	73.62
236.987	82.62
237.221	87.62
237.455	82.62
237.689	73.62
237.922	73.62
238.156	75.62
238.39	65.62
238.624	72.62
238.858	86.62
239.091	79.62
239.325	65.62
239.559	76.62
239.793	69.62
240.027	75.62
240.26	105.62
240.494	94.62
240.728	79.62
240.961	75.62
241.195	89.62
241.429	77.62
241.662	82.62
241.896	95.62
242.13	93.62
242.363	87.62
242.597	81.62
242.83	81.62
243.064	65.62
243.298	92.62
243.531	84.62
243.765	85.62
243.998	89.62
244.232	73.62
244.465	93.62
244.699	84.62
244.932	89.62
245.166	84.62
245.399	77.62
245.633	82.62
245.866	93.62
246.099	73.62
246.333	81.62
246.566	82.62
246.8	75.62
247.033	89.62
247.266	70.62
247.5	87.62
247.733	91.62
247.966	69.62
248.2	85.62
248.433	85.62
248.666	70.62
248.899	82.62
249.133	86.62
249.366	101.62
249.599	101.62
249.832	88.62
250.066	72.62
250.299	80.62
250.532	84.62
250.765	90.62
250.998	65.62
251.231	93.62
251.465	79.62
251.698	75.62
251.931	86.62
252.164	80.62
252.397	81.62
252.63	85.62
252.863	74.62
253.096	87.62
253.329	79.62
253.562	83.62
253.795	81.62
254.028	86.62
254.261	80.62
254.494	84.62
254.727	83.62
254.96	83.62
255.193	87.62
255.426	95.62
255.659	88.62
255.892	81.62
256.124	87.62
256.357	78.62
256.59	88.62
256.823	98.62
257.056	69.62
257.289	70.62
257.521	81.62
257.754	82.62
257.987	84.62
258.22	96.62
258.452	81.62
258.685	84.62
258.918	80.62
259.151	86.62
259.383	71.62
259.616	96.62
259.849	79.62
260.081	99.62
260.314	75.62
260.547	85.62
260.779	84.62
261.012	81.62
261.244	77.62
261.477	91.62
261.71	114.62
261.942	104.62
262.175	101.62
262.407	91.62
262.64	96.62
262.872	89.62
263.105	91.62
263.337	98.62
263.57	85.62
263.802	85.62
264.035	82.62
264.267	80.62
264.499	70.62
264.732	85.62
264.964	83.62
265.197	87.62
265.429	82.62
265.661	98.62
265.894	81.62
266.126	94.62
266.358	99.62
266.591	91.62
266.823	90.62
267.055	88.62
267.287	75.62
267.52	94.62
267.752	77.62
267.984	89.62
268.216	87.62
268.448	76.62
268.681	99.62
268.913	84.62
269.145	82.62
269.377	77.62
269.609	94.62
269.841	91.62
270.073	96.62
270.306	79.62
270.538	97.62
270.77	87.62
271.002	91.62
271.234	76.62
271.466	92.62
271.698	81.62
271.93	77.62
272.162	93.62
272.394	97.62
272.626	99.62
272.858	95.62
273.09	97.62
273.322	70.62
273.553	83.62
273.785	86.62
274.017	81.62
274.249	70.62
274.481	89.62
274.713	87.62
274.945	88.62
275.176	93.62
275.408	94.62
275.64	92.62
275.872	97.62
276.104	83.62
276.335	92.62
276.567	97.62
276.799	103.62
277.031	102.62
277.262	81.62
277.494	84.62
277.726	88.62
277.957	100.62
278.189	88.62
278.421	77.62
278.652	92.62
278.884	82.62
279.115	83.62
279.347	85.62
279.579	86.62
279.81	83.62
280.042	92.62
280.273	103.62
280.505	80.62
280.736	90.62
280.968	88.62
281.199	91.62
281.431	72.62
281.662	92.62
281.894	81.62
282.125	90.62
282.356	116.62
282.588	132.62
282.819	104.62
283.051	87.62
283.282	91.62
283.513	106.62
283.745	86.62
283.976	87.62
284.207	87.62
284.439	82.62
284.67	89.62
284.901	74.62
285.132	82.62
285.364	84.62
285.595	81.62
285.826	84.62
286.057	91.62
286.288	93.62
286.52	90.62
286.751	91.62
286.982	96.62
287.213	82.62
287.444	92.62
287.675	77.62
287.906	99.62
288.138	87.62
288.369	87.62
288.6	97.62
288.831	85.62
289.062	87.62
289.293	94.62
289.524	87.62
289.755	88.62
289.986	90.62
290.217	101.62
290.448	85.62
290.679	91.62
290.91	96.62
291.141	91.62
291.371	104.62
291.602	98.62
291.833	89.62
292.064	94.62
292.295	84.62
292.526	87.62
292.757	92.62
292.987	88.62
293.218	99.62
293.449	93.62
293.68	92.62
293.91	85.62
294.141	73.62
294.372	93.62
294.603	86.62
294.833	102.62
295.064	101.62
295.295	83.62
295.525	87.62
295.756	112.62
295.987	111.62
296.217	131.62
296.448	109.62
296.679	108.62
296.909	94.62
297.14	110.62
297.37	91.62
297.601	89.62
297.831	84.62
298.062	94.62
298.292	80.62
298.523	91.62
298.753	89.62
298.984	83.62
299.214	86.62
299.445	91.62
299.675	90.62
299.905	97.62
300.136	91.62
300.366	94.62
300.597	91.62
300.827	88.62
301.057	102.62
301.288	103.62
301.518	83.62
301.748	103.62
301.979	106.62
302.209	101.62
302.439	91.62
302.669	88.62
302.9	85.62
303.13	92.62
303.36	87.62
303.59	102.62
303.82	91.62
304.051	100.62
304.281	84.62
304.511	89.62
304.741	103.62
304.971	90.62
305.201	104.62
305.431	103.62
305.661	100.62
305.891	89.62
306.121	92.62
306.352	94.62
306.582	99.62
306.812	91.62
307.042	102.62
307.272	96.62
307.502	93.62
307.731	95.62
307.961	90.62
308.191	95.62
308.421	103.62
308.651	88.62
308.881	102.62
309.111	93.62
309.341	89.62
309.571	81.62
309.8	100.62
310.03	100.62
310.26	98.62
310.49	90.62
310.72	106.62
310.949	84.62
311.179	91.62
311.409	83.62
311.639	103.62
311.868	89.62
312.098	97.62
312.328	101.62
312.557	95.62
312.787	106.62
313.017	100.62
313.246	95.62
313.476	103.62
313.706	83.62
313.935	113.62
314.165	93.62
314.394	103.62
314.624	98.62
314.853	113.62
315.083	101.62
315.312	87.62
315.542	94.62
315.771	105.62
316.001	86.62
316.23	79.62
316.46	73.62
316.689	97.62
316.919	96.62
317.148	96.62
317.377	87.62
317.607	90.62
317.836	96.62
318.065	90.62
318.295	80.62
318.524	92.62
318.753	91.62
318.983	104.62
319.212	99.62
319.441	113.62
319.67	105.62
319.9	95.62
320.129	73.62
320.358	85.62
320.587	106.62
320.816	115.62
321.046	113.62
321.275	104.62
321.504	101.62
321.733	110.62
321.962	101.62
322.191	86.62
322.42	101.62
322.649	101.62
322.878	94.62
323.108	104.62
323.337	116.62
323.566	131.62
323.795	146.62
324.024	209.62
324.253	397.62
324.482	828.62
324.71	1631.62
324.939	2131.62
325.168	787.62
325.397	230.62
325.626	145.62
325.855	121.62
326.084	117.62
326.313	112.62
326.542	150.62
326.77	212.62
326.999	464.62
327.228	923.62
327.457	1636.62
327.686	1294.62
327.914	339.62
328.143	168.62
328.372	143.62
328.6	122.62
328.829	127.62
329.058	120.62
329.287	112.62
329.515	120.62
329.744	102.62
329.972	86.62
330.201	104.62
330.43	126.62
330.658	122.62
330.887	159.62
331.115	132.62
331.344	104.62
331.572	114.62
331.801	108.62
332.03	99.62
332.258	99.62
332.486	104.62
332.715	97.62
332.943	98.62
333.172	105.62
333.4	100.62
333.629	116.62
333.857	116.62
334.085	109.62
334.314	102.62
334.542	121.62
334.771	116.62
334.999	105.62
335.227	94.62
335.455	103.62
335.684	111.62
335.912	109.62
336.14	96.62
336.369	98.62
336.597	107.62
336.825	92.62
337.053	85.62
337.281	97.62
337.51	91.62
337.738	107.62
337.966	97.62
338.194	79.62
338.422	96.62
338.65	95.62
338.878	98.62
339.106	92.62
339.334	82.62
339.562	90.62
339.79	85.62
340.018	94.62
340.246	87.62
340.474	90.62
340.702	93.62
340.93	93.62
341.158	102.62
341.386	100.62
341.614	88.62
341.842	98.62
342.07	100.62
342.298	97.62
342.526	83.62
342.754	81.62
342.981	88.62
343.209	83.62
343.437	89.62
343.665	103.62
343.893	106.62
344.12	102.62
344.348	98.62
344.576	100.62
344.804	90.62
345.031	114.62
345.259	92.62
345.487	94.62
345.714	100.62
345.942	95.62
346.17	94.62
346.397	107.62
346.625	95.62
346.853	88.62
347.08	85.62
347.308	119.62
347.535	98.62
347.763	101.62
347.99	114.62
348.218	107.62
348.445	101.62
348.673	108.62
348.9	98.62
349.128	106.62
349.355	97.62
349.583	98.62
349.81	104.62
350.037	99.62
350.265	103.62
350.492	93.62
350.72	96.62
350.947	103.62
351.174	98.62
351.402	112.62
351.629	101.62
351.856	98.62
352.083	103.62
352.311	105.62
352.538	119.62
352.765	108.62
352.992	107.62
353.22	106.62
353.447	116.62
353.674	116.62
353.901	104.62
354.128	101.62
354.355	100.62
354.583	93.62
354.81	112.62
355.037	104.62
355.264	92.62
355.491	107.62
355.718	105.62
355.945	102.62
356.172	107.62
356.399	112.62
356.626	96.62
356.853	102.62
357.08	94.62
357.307	91.62
357.534	85.62
357.761	92.62
357.988	87.62
358.215	92.62
358.441	105.62
358.668	83.62
358.895	92.62
359.122	88.62
359.349	102.62
359.576	106.62
359.802	108.62
360.029	99.62
360.256	91.62
360.483	99.62
360.709	95.62
360.936	98.62
361.163	100.62
361.39	93.62
361.616	95.62
361.843	84.62
362.07	100.62
362.296	118.62
362.523	97.62
362.749	93.62
362.976	97.62
363.203	97.62
363.429	87.62
363.656	82.62
363.882	103.62
364.109	87.62
364.335	92.62
364.562	99.62
364.788	109.62
365.015	109.62
365.241	93.62
365.468	100.62
365.694	104.62
365.92	92.62
366.147	82.62
366.373	77.62
366.599	91.62
366.826	91.62
367.052	89.62
367.278	87.62
367.505	84.62
367.731	99.62
367.957	91.62
368.184	108.62
368.41	106.62
368.636	115.62
368.862	121.62
369.089	109.62
369.315	83.62
369.541	79.62
369.767	101.62
369.993	98.62
370.219	82.62
370.445	93.62
370.672	76.62
370.898	83.62
371.124	95.62
371.35	117.62
371.576	92.62
371.802	100.62
372.028	103.62
372.254	82.62
372.48	90.62
372.706	85.62
372.932	95.62
373.158	94.62
373.384	97.62
373.61	91.62
373.835	97.62
374.061	87.62
374.287	106.62
374.513	86.62
374.739	98.62
374.965	91.62
375.191	95.62
375.416	84.62
375.642	93.62
375.868	98.62
376.094	86.62
376.319	93.62
376.545	94.62
376.771	81.62
376.997	81.62
377.222	93.62
377.448	92.62
377.674	101.62
377.899	122.62
378.125	86.62
378.35	100.62
378.576	98.62
378.802	97.62
379.027	104.62
379.253	87.62
379.478	99.62
379.704	90.62
379.929	93.62
380.155	106.62
380.38	113.62
380.606	88.62
380.831	91.62
381.057	93.62
381.282	98.62
381.507	103.62
381.733	100.62
381.958	104.62
382.184	99.62
382.409	101.62
382.634	111.62
382.86	102.62
383.085	103.62
383.31	103.62
383.535	92.62
383.761	90.62
383.986	95.62
384.211	103.62
384.436	103.62
384.662	94.62
384.887	97.62
385.112	105.62
385.337	110.62
385.562	113.62
385.787	97.62
386.013	115.62
386.238	112.62
386.463	100.62
386.688	115.62
386.913	101.62
387.138	107.62
387.363	100.62
387.588	102.62
387.813	102.62
388.038	111.62
388.263	125.62
388.488	113.62
388.713	93.62
388.938	113.62
389.163	86.62
389.387	107.62
389.612	84.62
389.837	106.62
390.062	90.62
390.287	89.62
390.512	102.62
390.736	103.62
390.961	88.62
391.186	100.62
391.411	90.62
391.636	89.62
391.86	88.62
392.085	90.62
392.31	92.62
392.534	92.62
392.759	87.62
392.984	86.62
393.208	95.62
393.433	95.62
393.658	96.62
393.882	82.62
394.107	79.62
394.331	86.62
394.556	99.62
394.78	88.62
395.005	95.62
395.229	83.62
395.454	87.62
395.678	90.62
395.903	78.62
396.127	76.62
396.352	74.62
396.576	80.62
396.801	93.62
397.025	100.62
397.249	97.62
397.474	100.62
397.698	88.62
397.922	90.62
398.147	95.62
398.371	76.62
398.595	92.62
398.82	80.62
399.044	94.62
399.268	97.62
399.492	98.62
399.717	87.62
399.941	85.62
400.165	104.62
400.389	85.62
400.613	91.62
400.837	91.62
401.062	89.62
401.286	91.62
401.51	96.62
401.734	101.62
401.958	94.62
402.182	123.62
402.406	161.62
402.63	109.62
402.854	108.62
403.078	84.62
403.302	88.62
403.526	92.62
403.75	88.62
403.974	88.62
404.198	93.62
404.422	97.62
404.645	85.62
404.869	96.62
405.093	94.62
405.317	113.62
405.541	91.62
405.765	99.62
405.988	124.62
406.212	179.62
406.436	230.62
406.66	145.62
406.883	98.62
407.107	81.62
407.331	96.62
407.555	101.62
407.778	102.62
408.002	85.62
408.226	86.62
408.449	92.62
408.673	85.62
408.896	93.62
409.12	93.62
409.344	102.62
409.567	97.62
409.791	89.62
410.014	108.62
410.238	97.62
410.461	99.62
410.685	88.62
410.908	92.62
411.132	96.62
411.355	87.62
411.578	101.62
411.802	104.62
412.025	82.62
412.249	83.62
412.472	91.62
412.695	89.62
412.919	90.62
413.142	82.62
413.365	78.62
413.589	82.62
413.812	93.62
414.035	94.62
414.258	83.62
414.482	83.62
414.705	96.62
414.928	109.62
415.151	90.62
415.374	88.62
415.597	85.62
415.821	87.62
416.044	87.62
416.267	80.62
416.49	78.62
416.713	88.62
416.936	90.62
417.159	84.62
417.382	72.62
417.605	85.62
417.828	102.62
418.051	81.62
418.274	99.62
418.497	88.62
418.72	84.62
418.943	84.62
419.166	96.62
419.389	92.62
419.611	85.62
419.834	92.62
420.057	95.62
420.28	79.62
420.503	82.62
420.726	90.62
420.948	96.62
421.171	100.62
421.394	89.62
421.617	90.62
421.839	82.62
422.062	73.62
422.285	100.62
422.507	89.62
422.73	104.62
422.953	90.62
423.175	89.62
423.398	91.62
423.621	87.62
423.843	93.62
424.066	84.62
424.288	93.62
424.511	110.62
424.733	107.62
424.956	98.62
425.178	100.62
425.401	105.62
425.623	101.62
425.846	76.62
426.068	97.62
426.291	72.62
426.513	87.62
426.735	87.62
426.958	83.62
427.18	109.62
427.402	124.62
427.625	152.62
427.847	131.62
428.069	111.62
428.292	94.62
428.514	90.62
428.736	104.62
428.958	90.62
429.181	79.62
429.403	92.62
429.625	98.62
429.847	92.62
430.069	108.62
430.292	98.62
430.514	87.62
430.736	79.62
430.958	92.62
431.18	89.62
431.402	82.62
431.624	93.62
431.846	85.62
432.068	99.62
432.29	94.62
432.512	96.62
432.734	91.62
432.956	95.62
433.178	97.62
433.4	113.62
433.622	75.62
433.844	84.62
434.066	71.62
434.287	98.62
434.509	96.62
434.731	90.62
434.953	85.62
435.175	82.62
435.397	95.62
435.618	88.62
435.84	92.62
436.062	105.62
436.284	117.62
436.505	89.62
436.727	100.62
436.949	100.62
437.17	78.62
437.392	84.62
437.614	92.62
437.835	108.62
438.057	117.62
438.278	107.62
438.5	99.62
438.721	98.62
438.943	82.62
439.165	92.62
439.386	79.62
439.608	99.62
439.829	79.62
440.05	124.62
440.272	129.62
440.493	113.62
440.715	102.62
440.936	94.62
441.158	90.62
441.379	83.62
441.6	105.62
441.822	102.62
442.043	104.62
442.264	111.62
442.486	106.62
442.707	101.62
442.928	108.62
443.149	125.62
443.371	105.62
443.592	108.62
443.813	107.62
444.034	129.62
444.255	96.62
444.476	90.62
444.698	81.62
444.919	96.62
445.14	123.62
445.361	132.62
445.582	114.62
445.803	128.62
446.024	117.62
446.245	132.62
446.466	121.62
446.687	99.62
446.908	86.62
447.129	94.62
447.35	100.62
447.571	96.62
447.792	100.62
448.013	96.62
448.234	106.62
448.455	101.62
448.675	126.62
448.896	117.62
449.117	107.62
449.338	97.62
449.559	128.62
449.779	127.62
450	100.62
450.221	92.62
450.442	95.62
450.662	93.62
450.883	111.62
451.104	111.62
451.324	110.62
451.545	80.62
451.766	94.62
451.986	90.62
452.207	77.62
452.428	101.62
452.648	94.62
452.869	99.62
453.089	108.62
453.31	122.62
453.53	96.62
453.751	99.62
453.971	105.62
454.192	99.62
454.412	88.62
454.633	88.62
454.853	84.62
455.073	93.62
455.294	94.62
455.514	96.62
455.734	94.62
455.955	95.62
456.175	94.62
456.395	83.62
456.616	99.62
456.836	94.62
457.056	82.62
457.276	97.62
457.497	76.62
457.717	107.62
457.937	83.62
458.157	84.62
458.377	82.62
458.598	111.62
458.818	147.62
459.038	138.62
459.258	104.62
459.478	100.62
459.698	76.62
459.918	92.62
460.138	89.62
460.358	92.62
460.578	90.62
460.798	94.62
461.018	82.62
461.238	90.62
461.458	85.62
461.678	93.62
461.898	83.62
462.118	88.62
462.338	77.62
462.558	72.62
462.777	82.62
462.997	101.62
463.217	98.62
463.437	88.62
463.657	83.62
463.876	93.62
464.096	93.62
464.316	78.62
464.536	114.62
464.755	87.62
464.975	108.62
465.195	147.62
465.414	159.62
465.634	86.62
465.854	88.62
466.073	102.62
466.293	91.62
466.512	85.62
466.732	79.62
466.951	98.62
467.171	106.62
467.391	83.62
467.61	114.62
467.829	112.62
468.049	106.62
468.268	97.62
468.488	96.62
468.707	102.62
468.927	79.62
469.146	94.62
469.365	92.62
469.585	81.62
469.804	93.62
470.023	102.62
470.243	97.62
470.462	93.62
470.681	115.62
470.901	96.62
471.12	97.62
471.339	99.62
471.558	90.62
471.777	85.62
471.997	71.62
472.216	77.62
472.435	119.62
472.654	84.62
472.873	97.62
473.092	76.62
473.311	80.62
473.53	102.62
473.749	97.62
473.968	100.62
474.187	99.62
474.406	111.62
474.625	90.62
474.844	92.62
475.063	84.62
475.282	99.62
475.501	83.62
475.72	80.62
475.939	90.62
476.158	88.62
476.377	88.62
476.596	88.62
476.814	99.62
477.033	82.62
477.252	85.62
477.471	92.62
477.69	93.62
477.908	96.62
478.127	81.62
478.346	94.62
478.564	85.62
478.783	117.62
479.002	96.62
479.22	98.62
479.439	102.62
479.658	98.62
479.876	97.62
480.095	100.62
480.313	91.62
480.532	97.62
480.751	89.62
480.969	106.62
481.188	120.62
481.406	111.62
481.624	103.62
481.843	89.62
482.061	86.62
482.28	88.62
482.498	86.62
482.717	75.62
482.935	80.62
483.153	83.62
483.372	99.62
483.59	92.62
483.808	93.62
484.027	87.62
484.245	87.62
484.463	96.62
484.681	108.62
484.9	95.62
485.118	93.62
485.336	104.62
485.554	100.62
485.772	96.62
485.99	101.62
486.209	120.62
486.427	108.62
486.645	113.62
486.863	107.62
487.081	119.62
487.299	88.62
487.517	100.62
487.735	93.62
487.953	88.62
488.171	85.62
488.389	93.62
488.607	105.62
488.825	92.62
489.043	92.62
489.261	93.62
489.479	88.62
489.696	80.62
489.914	86.62
490.132	79.62
490.35	98.62
490.568	101.62
490.786	84.62
491.003	93.62
491.221	79.62
491.439	98.62
491.657	85.62
491.874	96.62
492.092	91.62
492.31	98.62
492.527	87.62
492.745	86.62
492.963	86.62
493.18	80.62
493.398	89.62
493.615	89.62
493.833	105.62
494.05	85.62
494.268	84.62
494.485	70.62
494.703	81.62
494.92	99.62
495.138	91.62
495.355	93.62
495.573	79.62
495.79	84.62
496.008	88.62
496.225	90.62
496.442	96.62
496.66	93.62
496.877	92.62
497.094	85.62
497.312	101.62
497.529	91.62
497.746	93.62
497.963	91.62
498.181	90.62
498.398	96.62
498.615	115.62
498.832	108.62
499.049	94.62
499.267	99.62
499.484	88.62
499.701	96.62
499.918	92.62
500.135	97.62
500.352	84.62
500.569	89.62
500.786	88.62
501.003	85.62
501.22	95.62
501.437	96.62
501.654	92.62
501.871	100.62
502.088	98.62
502.305	105.62
502.522	91.62
502.739	96.62
502.956	88.62
503.172	95.62
503.389	84.62
503.606	99.62
503.823	89.62
504.04	95.62
504.256	105.62
504.473	98.62
504.69	87.62
504.907	98.62
505.123	92.62
505.34	93.62
505.557	107.62
505.773	96.62
505.99	89.62
506.207	95.62
506.423	90.62
506.64	80.62
506.856	96.62
507.073	89.62
507.289	104.62
507.506	114.62
507.722	118.62
507.939	105.62
508.155	109.62
508.372	88.62
508.588	108.62
508.805	97.62
509.021	90.62
509.238	102.62
509.454	93.62
509.67	109.62
509.887	120.62
510.103	140.62
510.319	215.62
510.536	747.62
510.752	2407.62
510.968	669.62
511.184	155.62
511.401	100.62
511.617	95.62
511.833	104.62
512.049	114.62
512.265	98.62
512.481	88.62
512.698	89.62
512.914	85.62
513.13	109.62
513.346	101.62
513.562	102.62
513.778	90.62
513.994	99.62
514.21	110.62
514.426	111.62
514.642	118.62
