Data from Uncirc_2004_H10_HRD10591_00014.txt Node
Date: Wed Jan 03 10:32:15 EST 2024
User: Yrep
Spectrometer: HR+D1059
Trigger mode: 1
Integration Time (sec): 1.000000E-1
Scans to average: 1
Electric dark correction enabled: true
Nonlinearity correction enabled: false
Boxcar width: 0
XAxis mode: Wavelengths
Number of Pixels in Spectrum: 2048
>>>>>Begin Spectral Data<<<<<
223.165	-17.88
223.4	-17.88
223.635	-17.88
223.869	-14.88
224.104	-15.88
224.338	-8.88
224.573	-20.88
224.808	-17.88
225.042	-13.88
225.277	-8.88
225.511	3.12
225.746	5.12
225.98	8.12
226.215	7.12
226.449	8.12
226.683	24.12
226.918	27.12
227.152	36.12
227.387	35.12
227.621	33.12
227.856	48.12
228.09	47.12
228.324	45.12
228.559	53.12
228.793	62.12
229.027	73.12
229.262	60.12
229.496	67.12
229.73	91.12
229.964	89.12
230.199	66.12
230.433	67.12
230.667	78.12
230.901	75.12
231.136	70.12
231.37	85.12
231.604	90.12
231.838	76.12
232.072	76.12
232.306	94.12
232.541	83.12
232.775	78.12
233.009	74.12
233.243	88.12
233.477	85.12
233.711	71.12
233.945	88.12
234.179	86.12
234.413	80.12
234.647	63.12
234.881	69.12
235.115	69.12
235.349	80.12
235.583	91.12
235.817	80.12
236.051	78.12
236.285	95.12
236.519	86.12
236.753	55.12
236.987	90.12
237.221	81.12
237.455	79.12
237.689	75.12
237.922	84.12
238.156	71.12
238.39	74.12
238.624	82.12
238.858	78.12
239.091	74.12
239.325	86.12
239.559	76.12
239.793	75.12
240.027	82.12
240.26	86.12
240.494	63.12
240.728	85.12
240.961	63.12
241.195	73.12
241.429	85.12
241.662	73.12
241.896	81.12
242.13	89.12
242.363	85.12
242.597	66.12
242.83	88.12
243.064	74.12
243.298	77.12
243.531	94.12
243.765	76.12
243.998	85.12
244.232	97.12
244.465	82.12
244.699	82.12
244.932	87.12
245.166	71.12
245.399	88.12
245.633	85.12
245.866	78.12
246.099	80.12
246.333	78.12
246.566	82.12
246.8	75.12
247.033	81.12
247.266	85.12
247.5	76.12
247.733	72.12
247.966	79.12
248.2	82.12
248.433	87.12
248.666	79.12
248.899	79.12
249.133	92.12
249.366	91.12
249.599	91.12
249.832	77.12
250.066	74.12
250.299	81.12
250.532	84.12
250.765	75.12
250.998	72.12
251.231	81.12
251.465	85.12
251.698	89.12
251.931	76.12
252.164	79.12
252.397	81.12
252.63	95.12
252.863	76.12
253.096	76.12
253.329	70.12
253.562	84.12
253.795	84.12
254.028	73.12
254.261	71.12
254.494	79.12
254.727	74.12
254.96	74.12
255.193	78.12
255.426	68.12
255.659	84.12
255.892	81.12
256.124	83.12
256.357	73.12
256.59	78.12
256.823	86.12
257.056	99.12
257.289	68.12
257.521	82.12
257.754	79.12
257.987	96.12
258.22	74.12
258.452	62.12
258.685	94.12
258.918	61.12
259.151	88.12
259.383	90.12
259.616	86.12
259.849	96.12
260.081	85.12
260.314	86.12
260.547	93.12
260.779	78.12
261.012	67.12
261.244	94.12
261.477	84.12
261.71	95.12
261.942	99.12
262.175	113.12
262.407	97.12
262.64	88.12
262.872	72.12
263.105	80.12
263.337	78.12
263.57	85.12
263.802	77.12
264.035	75.12
264.267	81.12
264.499	78.12
264.732	71.12
264.964	82.12
265.197	72.12
265.429	84.12
265.661	73.12
265.894	100.12
266.126	96.12
266.358	81.12
266.591	96.12
266.823	92.12
267.055	71.12
267.287	82.12
267.52	74.12
267.752	83.12
267.984	77.12
268.216	89.12
268.448	94.12
268.681	89.12
268.913	96.12
269.145	90.12
269.377	86.12
269.609	83.12
269.841	84.12
270.073	80.12
270.306	96.12
270.538	95.12
270.77	80.12
271.002	99.12
271.234	81.12
271.466	88.12
271.698	78.12
271.93	80.12
272.162	87.12
272.394	80.12
272.626	85.12
272.858	81.12
273.09	89.12
273.322	85.12
273.553	82.12
273.785	97.12
274.017	93.12
274.249	84.12
274.481	77.12
274.713	86.12
274.945	79.12
275.176	61.12
275.408	84.12
275.64	79.12
275.872	81.12
276.104	80.12
276.335	99.12
276.567	98.12
276.799	97.12
277.031	88.12
277.262	87.12
277.494	90.12
277.726	87.12
277.957	91.12
278.189	76.12
278.421	76.12
278.652	77.12
278.884	80.12
279.115	89.12
279.347	79.12
279.579	68.12
279.81	76.12
280.042	83.12
280.273	78.12
280.505	71.12
280.736	95.12
280.968	95.12
281.199	87.12
281.431	83.12
281.662	95.12
281.894	94.12
282.125	104.12
282.356	116.12
282.588	109.12
282.819	100.12
283.051	79.12
283.282	77.12
283.513	93.12
283.745	79.12
283.976	79.12
284.207	95.12
284.439	78.12
284.67	82.12
284.901	99.12
285.132	85.12
285.364	81.12
285.595	81.12
285.826	81.12
286.057	90.12
286.288	104.12
286.52	89.12
286.751	99.12
286.982	75.12
287.213	89.12
287.444	84.12
287.675	81.12
287.906	100.12
288.138	95.12
288.369	97.12
288.6	89.12
288.831	77.12
289.062	84.12
289.293	85.12
289.524	79.12
289.755	88.12
289.986	81.12
290.217	95.12
290.448	88.12
290.679	84.12
290.91	86.12
291.141	92.12
291.371	96.12
291.602	84.12
291.833	98.12
292.064	89.12
292.295	91.12
292.526	77.12
292.757	87.12
292.987	73.12
293.218	72.12
293.449	79.12
293.68	94.12
293.91	80.12
294.141	94.12
294.372	78.12
294.603	74.12
294.833	101.12
295.064	80.12
295.295	93.12
295.525	93.12
295.756	108.12
295.987	121.12
296.217	121.12
296.448	118.12
296.679	81.12
296.909	97.12
297.14	87.12
297.37	89.12
297.601	92.12
297.831	90.12
298.062	104.12
298.292	94.12
298.523	93.12
298.753	97.12
298.984	97.12
299.214	88.12
299.445	89.12
299.675	91.12
299.905	95.12
300.136	80.12
300.366	85.12
300.597	100.12
300.827	87.12
301.057	111.12
301.288	94.12
301.518	98.12
301.748	100.12
301.979	92.12
302.209	87.12
302.439	83.12
302.669	90.12
302.9	94.12
303.13	86.12
303.36	100.12
303.59	102.12
303.82	95.12
304.051	82.12
304.281	85.12
304.511	106.12
304.741	89.12
304.971	82.12
305.201	98.12
305.431	89.12
305.661	84.12
305.891	89.12
306.121	98.12
306.352	112.12
306.582	104.12
306.812	95.12
307.042	98.12
307.272	98.12
307.502	92.12
307.731	76.12
307.961	79.12
308.191	94.12
308.421	82.12
308.651	82.12
308.881	93.12
309.111	95.12
309.341	82.12
309.571	90.12
309.8	93.12
310.03	83.12
310.26	100.12
310.49	102.12
310.72	81.12
310.949	112.12
311.179	87.12
311.409	99.12
311.639	78.12
311.868	92.12
312.098	90.12
312.328	93.12
312.557	107.12
312.787	93.12
313.017	106.12
313.246	90.12
313.476	91.12
313.706	83.12
313.935	82.12
314.165	81.12
314.394	100.12
314.624	92.12
314.853	94.12
315.083	90.12
315.312	86.12
315.542	89.12
315.771	85.12
316.001	93.12
316.23	84.12
316.46	82.12
316.689	76.12
316.919	79.12
317.148	81.12
317.377	87.12
317.607	83.12
317.836	87.12
318.065	86.12
318.295	84.12
318.524	77.12
318.753	73.12
318.983	104.12
319.212	98.12
319.441	106.12
319.67	93.12
319.9	101.12
320.129	110.12
320.358	105.12
320.587	90.12
320.816	100.12
321.046	104.12
321.275	84.12
321.504	88.12
321.733	96.12
321.962	103.12
322.191	103.12
322.42	104.12
322.649	98.12
322.878	84.12
323.108	110.12
323.337	114.12
323.566	142.12
323.795	129.12
324.024	198.12
324.253	384.12
324.482	768.12
324.71	1550.12
324.939	2029.12
325.168	718.12
325.397	213.12
325.626	142.12
325.855	113.12
326.084	129.12
326.313	112.12
326.542	145.12
326.77	230.12
326.999	441.12
327.228	915.12
327.457	1582.12
327.686	1255.12
327.914	334.12
328.143	169.12
328.372	129.12
328.6	127.12
328.829	110.12
329.058	111.12
329.287	129.12
329.515	126.12
329.744	102.12
329.972	101.12
330.201	96.12
330.43	105.12
330.658	100.12
330.887	124.12
331.115	122.12
331.344	101.12
331.572	87.12
331.801	96.12
332.03	108.12
332.258	90.12
332.486	96.12
332.715	105.12
332.943	93.12
333.172	96.12
333.4	102.12
333.629	106.12
333.857	105.12
334.085	96.12
334.314	97.12
334.542	97.12
334.771	105.12
334.999	102.12
335.227	81.12
335.455	85.12
335.684	103.12
335.912	99.12
336.14	94.12
336.369	84.12
336.597	92.12
336.825	103.12
337.053	81.12
337.281	118.12
337.51	89.12
337.738	90.12
337.966	88.12
338.194	98.12
338.422	101.12
338.65	73.12
338.878	93.12
339.106	95.12
339.334	95.12
339.562	98.12
339.79	105.12
340.018	95.12
340.246	84.12
340.474	94.12
340.702	92.12
340.93	96.12
341.158	87.12
341.386	89.12
341.614	99.12
341.842	80.12
342.07	96.12
342.298	93.12
342.526	88.12
342.754	77.12
342.981	86.12
343.209	86.12
343.437	90.12
343.665	100.12
343.893	97.12
344.12	95.12
344.348	95.12
344.576	104.12
344.804	86.12
345.031	92.12
345.259	96.12
345.487	89.12
345.714	94.12
345.942	105.12
346.17	82.12
346.397	86.12
346.625	86.12
346.853	84.12
347.08	89.12
347.308	105.12
347.535	103.12
347.763	93.12
347.99	98.12
348.218	100.12
348.445	113.12
348.673	93.12
348.9	92.12
349.128	95.12
349.355	101.12
349.583	102.12
349.81	96.12
350.037	84.12
350.265	88.12
350.492	88.12
350.72	88.12
350.947	84.12
351.174	108.12
351.402	104.12
351.629	115.12
351.856	88.12
352.083	97.12
352.311	105.12
352.538	102.12
352.765	116.12
352.992	113.12
353.22	101.12
353.447	101.12
353.674	101.12
353.901	106.12
354.128	106.12
354.355	103.12
354.583	107.12
354.81	105.12
355.037	109.12
355.264	105.12
355.491	97.12
355.718	86.12
355.945	95.12
356.172	93.12
356.399	98.12
356.626	102.12
356.853	105.12
357.08	103.12
357.307	94.12
357.534	109.12
357.761	105.12
357.988	96.12
358.215	98.12
358.441	96.12
358.668	98.12
358.895	94.12
359.122	100.12
359.349	81.12
359.576	105.12
359.802	111.12
360.029	110.12
360.256	105.12
360.483	83.12
360.709	79.12
360.936	88.12
361.163	99.12
361.39	83.12
361.616	90.12
361.843	102.12
362.07	95.12
362.296	93.12
362.523	91.12
362.749	81.12
362.976	86.12
363.203	100.12
363.429	87.12
363.656	84.12
363.882	72.12
364.109	103.12
364.335	85.12
364.562	94.12
364.788	92.12
365.015	98.12
365.241	96.12
365.468	110.12
365.694	98.12
365.92	84.12
366.147	96.12
366.373	69.12
366.599	80.12
366.826	88.12
367.052	84.12
367.278	91.12
367.505	90.12
367.731	95.12
367.957	88.12
368.184	87.12
368.41	97.12
368.636	119.12
368.862	111.12
369.089	104.12
369.315	90.12
369.541	93.12
369.767	99.12
369.993	79.12
370.219	93.12
370.445	80.12
370.672	93.12
370.898	76.12
371.124	77.12
371.35	90.12
371.576	88.12
371.802	86.12
372.028	92.12
372.254	74.12
372.48	87.12
372.706	90.12
372.932	91.12
373.158	87.12
373.384	96.12
373.61	88.12
373.835	85.12
374.061	84.12
374.287	88.12
374.513	95.12
374.739	89.12
374.965	102.12
375.191	79.12
375.416	89.12
375.642	90.12
375.868	97.12
376.094	100.12
376.319	85.12
376.545	104.12
376.771	96.12
376.997	89.12
377.222	84.12
377.448	91.12
377.674	92.12
377.899	85.12
378.125	84.12
378.35	96.12
378.576	81.12
378.802	94.12
379.027	94.12
379.253	97.12
379.478	91.12
379.704	79.12
379.929	102.12
380.155	93.12
380.38	102.12
380.606	101.12
380.831	94.12
381.057	105.12
381.282	115.12
381.507	101.12
381.733	95.12
381.958	91.12
382.184	92.12
382.409	93.12
382.634	103.12
382.86	103.12
383.085	109.12
383.31	108.12
383.535	102.12
383.761	93.12
383.986	111.12
384.211	97.12
384.436	108.12
384.662	110.12
384.887	109.12
385.112	112.12
385.337	121.12
385.562	109.12
385.787	119.12
386.013	124.12
386.238	113.12
386.463	120.12
386.688	117.12
386.913	115.12
387.138	116.12
387.363	110.12
387.588	98.12
387.813	110.12
388.038	107.12
388.263	124.12
388.488	129.12
388.713	87.12
388.938	94.12
389.163	92.12
389.387	87.12
389.612	100.12
389.837	88.12
390.062	85.12
390.287	100.12
390.512	96.12
390.736	90.12
390.961	94.12
391.186	89.12
391.411	101.12
391.636	107.12
391.86	98.12
392.085	91.12
392.31	93.12
392.534	90.12
392.759	84.12
392.984	89.12
393.208	96.12
393.433	96.12
393.658	102.12
393.882	71.12
394.107	101.12
394.331	95.12
394.556	82.12
394.78	99.12
395.005	87.12
395.229	90.12
395.454	74.12
395.678	92.12
395.903	97.12
396.127	83.12
396.352	88.12
396.576	81.12
396.801	91.12
397.025	94.12
397.249	81.12
397.474	96.12
397.698	93.12
397.922	95.12
398.147	78.12
398.371	76.12
398.595	91.12
398.82	100.12
399.044	87.12
399.268	78.12
399.492	92.12
399.717	93.12
399.941	81.12
400.165	90.12
400.389	93.12
400.613	94.12
400.837	86.12
401.062	81.12
401.286	91.12
401.51	79.12
401.734	96.12
401.958	89.12
402.182	119.12
402.406	140.12
402.63	107.12
402.854	83.12
403.078	91.12
403.302	96.12
403.526	94.12
403.75	97.12
403.974	96.12
404.198	76.12
404.422	90.12
404.645	75.12
404.869	82.12
405.093	91.12
405.317	111.12
405.541	94.12
405.765	103.12
405.988	103.12
406.212	157.12
406.436	199.12
406.66	127.12
406.883	89.12
407.107	89.12
407.331	95.12
407.555	104.12
407.778	113.12
408.002	93.12
408.226	103.12
408.449	92.12
408.673	82.12
408.896	92.12
409.12	85.12
409.344	85.12
409.567	92.12
409.791	101.12
410.014	87.12
410.238	96.12
410.461	113.12
410.685	111.12
410.908	102.12
411.132	83.12
411.355	92.12
411.578	88.12
411.802	98.12
412.025	82.12
412.249	73.12
412.472	81.12
412.695	97.12
412.919	90.12
413.142	87.12
413.365	100.12
413.589	97.12
413.812	89.12
414.035	90.12
414.258	102.12
414.482	92.12
414.705	100.12
414.928	78.12
415.151	102.12
415.374	107.12
415.597	97.12
415.821	91.12
416.044	88.12
416.267	99.12
416.49	96.12
416.713	90.12
416.936	89.12
417.159	93.12
417.382	90.12
417.605	110.12
417.828	76.12
418.051	93.12
418.274	100.12
418.497	92.12
418.72	84.12
418.943	91.12
419.166	81.12
419.389	108.12
419.611	97.12
419.834	85.12
420.057	98.12
420.28	91.12
420.503	85.12
420.726	85.12
420.948	100.12
421.171	94.12
421.394	84.12
421.617	88.12
421.839	95.12
422.062	91.12
422.285	91.12
422.507	103.12
422.73	106.12
422.953	96.12
423.175	96.12
423.398	77.12
423.621	89.12
423.843	81.12
424.066	81.12
424.288	88.12
424.511	90.12
424.733	89.12
424.956	96.12
425.178	92.12
425.401	89.12
425.623	102.12
425.846	101.12
426.068	73.12
426.291	95.12
426.513	98.12
426.735	92.12
426.958	101.12
427.18	96.12
427.402	125.12
427.625	144.12
427.847	106.12
428.069	98.12
428.292	86.12
428.514	80.12
428.736	84.12
428.958	65.12
429.181	80.12
429.403	91.12
429.625	87.12
429.847	103.12
430.069	111.12
430.292	87.12
430.514	83.12
430.736	82.12
430.958	86.12
431.18	96.12
431.402	85.12
431.624	96.12
431.846	78.12
432.068	88.12
432.29	90.12
432.512	97.12
432.734	82.12
432.956	90.12
433.178	108.12
433.4	101.12
433.622	92.12
433.844	90.12
434.066	99.12
434.287	82.12
434.509	95.12
434.731	90.12
434.953	99.12
435.175	99.12
435.397	100.12
435.618	81.12
435.84	100.12
436.062	118.12
436.284	105.12
436.505	91.12
436.727	108.12
436.949	94.12
437.17	70.12
437.392	100.12
437.614	94.12
437.835	94.12
438.057	101.12
438.278	108.12
438.5	84.12
438.721	106.12
438.943	104.12
439.165	93.12
439.386	88.12
439.608	85.12
439.829	94.12
440.05	96.12
440.272	125.12
440.493	102.12
440.715	82.12
440.936	88.12
441.158	85.12
441.379	85.12
441.6	87.12
441.822	83.12
442.043	82.12
442.264	98.12
442.486	90.12
442.707	85.12
442.928	102.12
443.149	121.12
443.371	118.12
443.592	101.12
443.813	94.12
444.034	93.12
444.255	105.12
444.476	73.12
444.698	89.12
444.919	80.12
445.14	116.12
445.361	103.12
445.582	102.12
445.803	115.12
446.024	112.12
446.245	115.12
446.466	92.12
446.687	88.12
446.908	89.12
447.129	90.12
447.35	101.12
447.571	88.12
447.792	85.12
448.013	104.12
448.234	103.12
448.455	91.12
448.675	115.12
448.896	100.12
449.117	91.12
449.338	100.12
449.559	113.12
449.779	104.12
450	89.12
450.221	77.12
450.442	94.12
450.662	94.12
450.883	92.12
451.104	98.12
451.324	90.12
451.545	96.12
451.766	96.12
451.986	77.12
452.207	98.12
452.428	94.12
452.648	86.12
452.869	103.12
453.089	115.12
453.31	126.12
453.53	92.12
453.751	97.12
453.971	91.12
454.192	89.12
454.412	82.12
454.633	79.12
454.853	88.12
455.073	86.12
455.294	75.12
455.514	94.12
455.734	97.12
455.955	92.12
456.175	81.12
456.395	90.12
456.616	70.12
456.836	89.12
457.056	81.12
457.276	95.12
457.497	91.12
457.717	79.12
457.937	87.12
458.157	101.12
458.377	86.12
458.598	97.12
458.818	141.12
459.038	147.12
459.258	106.12
459.478	87.12
459.698	91.12
459.918	86.12
460.138	82.12
460.358	86.12
460.578	84.12
460.798	78.12
461.018	95.12
461.238	78.12
461.458	93.12
461.678	74.12
461.898	78.12
462.118	78.12
462.338	90.12
462.558	86.12
462.777	88.12
462.997	107.12
463.217	77.12
463.437	81.12
463.657	75.12
463.876	85.12
464.096	90.12
464.316	99.12
464.536	100.12
464.755	95.12
464.975	106.12
465.195	165.12
465.414	148.12
465.634	84.12
465.854	93.12
466.073	79.12
466.293	86.12
466.512	72.12
466.732	72.12
466.951	80.12
467.171	95.12
467.391	83.12
467.61	96.12
467.829	93.12
468.049	92.12
468.268	93.12
468.488	85.12
468.707	94.12
468.927	83.12
469.146	80.12
469.365	89.12
469.585	95.12
469.804	100.12
470.023	104.12
470.243	103.12
470.462	89.12
470.681	108.12
470.901	84.12
471.12	80.12
471.339	85.12
471.558	80.12
471.777	81.12
471.997	91.12
472.216	89.12
472.435	107.12
472.654	86.12
472.873	78.12
473.092	74.12
473.311	92.12
473.53	82.12
473.749	88.12
473.968	78.12
474.187	99.12
474.406	90.12
474.625	90.12
474.844	103.12
475.063	99.12
475.282	91.12
475.501	84.12
475.72	106.12
475.939	93.12
476.158	82.12
476.377	80.12
476.596	94.12
476.814	88.12
477.033	96.12
477.252	81.12
477.471	84.12
477.69	90.12
477.908	94.12
478.127	80.12
478.346	84.12
478.564	98.12
478.783	103.12
479.002	87.12
479.22	98.12
479.439	98.12
479.658	107.12
479.876	89.12
480.095	88.12
480.313	95.12
480.532	88.12
480.751	115.12
480.969	93.12
481.188	138.12
481.406	117.12
481.624	83.12
481.843	92.12
482.061	80.12
482.28	93.12
482.498	89.12
482.717	80.12
482.935	80.12
483.153	79.12
483.372	74.12
483.59	77.12
483.808	71.12
484.027	90.12
484.245	94.12
484.463	96.12
484.681	95.12
484.9	90.12
485.118	84.12
485.336	103.12
485.554	104.12
485.772	104.12
485.99	104.12
486.209	92.12
486.427	94.12
486.645	117.12
486.863	116.12
487.081	104.12
487.299	105.12
487.517	109.12
487.735	84.12
487.953	99.12
488.171	90.12
488.389	94.12
488.607	81.12
488.825	84.12
489.043	85.12
489.261	99.12
489.479	83.12
489.696	90.12
489.914	100.12
490.132	82.12
490.35	78.12
490.568	87.12
490.786	79.12
491.003	92.12
491.221	80.12
491.439	86.12
491.657	94.12
491.874	124.12
492.092	79.12
492.31	85.12
492.527	92.12
492.745	84.12
492.963	87.12
493.18	94.12
493.398	101.12
493.615	90.12
493.833	108.12
494.05	96.12
494.268	96.12
494.485	90.12
494.703	90.12
494.92	84.12
495.138	93.12
495.355	99.12
495.573	97.12
495.79	88.12
496.008	89.12
496.225	85.12
496.442	89.12
496.66	110.12
496.877	86.12
497.094	92.12
497.312	85.12
497.529	102.12
497.746	99.12
497.963	88.12
498.181	97.12
498.398	94.12
498.615	116.12
498.832	90.12
499.049	89.12
499.267	85.12
499.484	89.12
499.701	102.12
499.918	97.12
500.135	86.12
500.352	80.12
500.569	86.12
500.786	78.12
501.003	96.12
501.22	86.12
501.437	95.12
501.654	104.12
501.871	87.12
502.088	106.12
502.305	99.12
502.522	99.12
502.739	76.12
502.956	79.12
503.172	98.12
503.389	93.12
503.606	99.12
503.823	84.12
504.04	98.12
504.256	91.12
504.473	92.12
504.69	91.12
504.907	101.12
505.123	86.12
505.34	91.12
505.557	87.12
505.773	76.12
505.99	100.12
506.207	97.12
506.423	90.12
506.64	90.12
506.856	83.12
507.073	95.12
507.289	90.12
507.506	103.12
507.722	116.12
507.939	107.12
508.155	92.12
508.372	105.12
508.588	98.12
508.805	103.12
509.021	106.12
509.238	103.12
509.454	89.12
509.67	91.12
509.887	128.12
510.103	131.12
510.319	216.12
510.536	732.12
510.752	2131.12
510.968	600.12
511.184	152.12
511.401	113.12
511.617	90.12
511.833	87.12
512.049	89.12
512.265	82.12
512.481	92.12
512.698	103.12
512.914	93.12
513.13	79.12
513.346	89.12
513.562	95.12
513.778	95.12
513.994	88.12
514.21	109.12
514.426	114.12
514.642	126.12
514.858	112.12
515.074	156.12
515.29	421.12
515.506	1314.12
515.721	505.12
