Data from Uncirc_2004_H10_HRD10591_00076.txt Node
Date: Wed Jan 03 10:32:28 EST 2024
User: Yrep
Spectrometer: HR+D1059
Trigger mode: 1
Integration Time (sec): 1.000000E-1
Scans to average: 1
Electric dark correction enabled: true
Nonlinearity correction enabled: false
Boxcar width: 0
XAxis mode: Wavelengths
Number of Pixels in Spectrum: 2048
>>>>>Begin Spectral Data<<<<<
223.165	-19
223.4	-19
223.635	-19
223.869	-3
224.104	-19
224.338	-13
224.573	-2
224.808	-30
225.042	-4
225.277	-1
225.511	-3
225.746	0
225.98	3
226.215	5
226.449	23
226.683	19
226.918	20
227.152	24
227.387	39
227.621	44
227.856	56
228.09	54
228.324	42
228.559	66
228.793	58
229.027	78
229.262	72
229.496	71
229.73	73
229.964	91
230.199	81
230.433	86
230.667	90
230.901	75
231.136	74
231.37	66
231.604	84
231.838	87
232.072	72
232.306	85
232.541	77
232.775	74
233.009	80
233.243	75
233.477	74
233.711	76
233.945	69
234.179	80
234.413	80
234.647	77
234.881	66
235.115	82
235.349	82
235.583	85
235.817	80
236.051	61
236.285	73
236.519	82
236.753	70
236.987	90
237.221	80
237.455	91
237.689	73
237.922	81
238.156	82
238.39	80
238.624	80
238.858	65
239.091	84
239.325	85
239.559	73
239.793	79
240.027	77
240.26	85
240.494	76
240.728	74
240.961	75
241.195	73
241.429	78
241.662	76
241.896	85
242.13	79
242.363	89
242.597	73
242.83	81
243.064	83
243.298	78
243.531	75
243.765	85
243.998	65
244.232	89
244.465	96
244.699	85
244.932	87
245.166	84
245.399	74
245.633	79
245.866	77
246.099	70
246.333	75
246.566	80
246.8	69
247.033	80
247.266	82
247.5	86
247.733	81
247.966	85
248.2	90
248.433	71
248.666	74
248.899	73
249.133	80
249.366	107
249.599	90
249.832	85
250.066	81
250.299	78
250.532	85
250.765	77
250.998	90
251.231	88
251.465	96
251.698	89
251.931	80
252.164	83
252.397	97
252.63	83
252.863	75
253.096	86
253.329	86
253.562	80
253.795	80
254.028	96
254.261	101
254.494	90
254.727	89
254.96	82
255.193	80
255.426	73
255.659	82
255.892	80
256.124	73
256.357	77
256.59	94
256.823	95
257.056	75
257.289	94
257.521	84
257.754	83
257.987	90
258.22	79
258.452	78
258.685	84
258.918	90
259.151	69
259.383	77
259.616	77
259.849	85
260.081	90
260.314	67
260.547	79
260.779	82
261.012	93
261.244	93
261.477	90
261.71	104
261.942	105
262.175	114
262.407	74
262.64	97
262.872	90
263.105	90
263.337	108
263.57	91
263.802	87
264.035	88
264.267	89
264.499	89
264.732	90
264.964	87
265.197	91
265.429	96
265.661	76
265.894	94
266.126	98
266.358	90
266.591	90
266.823	75
267.055	83
267.287	88
267.52	89
267.752	88
267.984	78
268.216	82
268.448	94
268.681	96
268.913	102
269.145	93
269.377	85
269.609	79
269.841	92
270.073	85
270.306	79
270.538	85
270.77	94
271.002	71
271.234	101
271.466	92
271.698	92
271.93	91
272.162	87
272.394	103
272.626	100
272.858	90
273.09	79
273.322	83
273.553	82
273.785	80
274.017	93
274.249	93
274.481	87
274.713	83
274.945	86
275.176	87
275.408	89
275.64	85
275.872	79
276.104	88
276.335	84
276.567	101
276.799	112
277.031	94
277.262	81
277.494	96
277.726	91
277.957	86
278.189	83
278.421	83
278.652	94
278.884	90
279.115	79
279.347	82
279.579	85
279.81	90
280.042	94
280.273	90
280.505	91
280.736	86
280.968	90
281.199	84
281.431	91
281.662	84
281.894	97
282.125	92
282.356	115
282.588	134
282.819	123
283.051	87
283.282	84
283.513	88
283.745	77
283.976	84
284.207	86
284.439	89
284.67	94
284.901	89
285.132	82
285.364	91
285.595	90
285.826	81
286.057	89
286.288	87
286.52	80
286.751	81
286.982	86
287.213	95
287.444	109
287.675	99
287.906	82
288.138	87
288.369	83
288.6	91
288.831	96
289.062	81
289.293	90
289.524	77
289.755	86
289.986	84
290.217	91
290.448	85
290.679	104
290.91	69
291.141	88
291.371	93
291.602	87
291.833	97
292.064	84
292.295	75
292.526	115
292.757	119
292.987	91
293.218	95
293.449	75
293.68	87
293.91	87
294.141	96
294.372	95
294.603	94
294.833	85
295.064	95
295.295	86
295.525	98
295.756	89
295.987	99
296.217	139
296.448	125
296.679	94
296.909	86
297.14	94
297.37	86
297.601	78
297.831	91
298.062	84
298.292	95
298.523	90
298.753	105
298.984	94
299.214	84
299.445	89
299.675	103
299.905	95
300.136	96
300.366	87
300.597	90
300.827	85
301.057	97
301.288	103
301.518	87
301.748	82
301.979	110
302.209	95
302.439	89
302.669	94
302.9	88
303.13	95
303.36	96
303.59	102
303.82	118
304.051	98
304.281	91
304.511	92
304.741	89
304.971	84
305.201	109
305.431	94
305.661	83
305.891	93
306.121	104
306.352	113
306.582	101
306.812	104
307.042	91
307.272	89
307.502	97
307.731	99
307.961	95
308.191	85
308.421	86
308.651	82
308.881	89
309.111	103
309.341	102
309.571	85
309.8	95
310.03	95
310.26	94
310.49	90
310.72	97
310.949	93
311.179	99
311.409	110
311.639	99
311.868	98
312.098	95
312.328	93
312.557	88
312.787	99
313.017	106
313.246	99
313.476	103
313.706	87
313.935	98
314.165	102
314.394	113
314.624	108
314.853	96
315.083	102
315.312	84
315.542	87
315.771	85
316.001	96
316.23	88
316.46	91
316.689	86
316.919	100
317.148	97
317.377	82
317.607	93
317.836	95
318.065	86
318.295	90
318.524	92
318.753	92
318.983	101
319.212	88
319.441	109
319.67	98
319.9	89
320.129	93
320.358	101
320.587	105
320.816	99
321.046	91
321.275	96
321.504	95
321.733	74
321.962	87
322.191	90
322.42	102
322.649	123
322.878	109
323.108	117
323.337	135
323.566	150
323.795	147
324.024	217
324.253	399
324.482	866
324.71	1762
324.939	2277
325.168	854
325.397	244
325.626	153
325.855	126
326.084	143
326.313	142
326.542	163
326.77	237
326.999	489
327.228	991
327.457	1778
327.686	1369
327.914	377
328.143	175
328.372	145
328.6	134
328.829	123
329.058	134
329.287	131
329.515	109
329.744	109
329.972	100
330.201	106
330.43	110
330.658	115
330.887	136
331.115	111
331.344	101
331.572	109
331.801	106
332.03	85
332.258	83
332.486	102
332.715	90
332.943	119
333.172	104
333.4	110
333.629	102
333.857	104
334.085	100
334.314	94
334.542	92
334.771	108
334.999	96
335.227	105
335.455	97
335.684	104
335.912	100
336.14	105
336.369	106
336.597	113
336.825	104
337.053	94
337.281	91
337.51	83
337.738	101
337.966	94
338.194	95
338.422	84
338.65	92
338.878	94
339.106	90
339.334	92
339.562	92
339.79	113
340.018	82
340.246	86
340.474	86
340.702	91
340.93	83
341.158	78
341.386	91
341.614	106
341.842	94
342.07	90
342.298	83
342.526	103
342.754	90
342.981	92
343.209	86
343.437	89
343.665	90
343.893	96
344.12	110
344.348	93
344.576	97
344.804	85
345.031	82
345.259	86
345.487	94
345.714	96
345.942	106
346.17	96
346.397	93
346.625	92
346.853	87
347.08	92
347.308	93
347.535	104
347.763	87
347.99	97
348.218	93
348.445	107
348.673	100
348.9	95
349.128	78
349.355	80
349.583	111
349.81	97
350.037	109
350.265	91
350.492	122
350.72	110
350.947	95
351.174	98
351.402	108
351.629	107
351.856	99
352.083	109
352.311	111
352.538	107
352.765	106
352.992	105
353.22	96
353.447	99
353.674	99
353.901	97
354.128	109
354.355	109
354.583	106
354.81	100
355.037	99
355.264	92
355.491	99
355.718	93
355.945	111
356.172	84
356.399	102
356.626	97
356.853	102
357.08	105
357.307	78
357.534	95
357.761	105
357.988	98
358.215	93
358.441	97
358.668	104
358.895	82
359.122	97
359.349	85
359.576	95
359.802	102
360.029	127
360.256	119
360.483	100
360.709	95
360.936	85
361.163	110
361.39	97
361.616	82
361.843	96
362.07	91
362.296	102
362.523	88
362.749	91
362.976	85
363.203	100
363.429	87
363.656	91
363.882	98
364.109	106
364.335	89
364.562	97
364.788	89
365.015	97
365.241	95
365.468	106
365.694	86
365.92	98
366.147	90
366.373	102
366.599	88
366.826	82
367.052	85
367.278	91
367.505	95
367.731	90
367.957	92
368.184	111
368.41	106
368.636	100
368.862	125
369.089	113
369.315	107
369.541	104
369.767	97
369.993	101
370.219	89
370.445	90
370.672	89
370.898	90
371.124	85
371.35	94
371.576	82
371.802	97
372.028	88
372.254	90
372.48	86
372.706	85
372.932	96
373.158	90
373.384	104
373.61	100
373.835	82
374.061	95
374.287	87
374.513	70
374.739	89
374.965	89
375.191	89
375.416	99
375.642	100
375.868	95
376.094	95
376.319	92
376.545	91
376.771	72
376.997	81
377.222	81
377.448	82
377.674	92
377.899	94
378.125	83
378.35	81
378.576	87
378.802	87
379.027	89
379.253	102
379.478	95
379.704	89
379.929	88
380.155	94
380.38	92
380.606	85
380.831	102
381.057	99
381.282	94
381.507	103
381.733	90
381.958	89
382.184	91
382.409	99
382.634	100
382.86	109
383.085	103
383.31	95
383.535	99
383.761	110
383.986	95
384.211	81
384.436	77
384.662	104
384.887	115
385.112	87
385.337	105
385.562	98
385.787	94
386.013	121
386.238	116
386.463	101
386.688	116
386.913	98
387.138	99
387.363	105
387.588	101
387.813	113
388.038	118
388.263	109
388.488	118
388.713	111
388.938	103
389.163	96
389.387	99
389.612	98
389.837	84
390.062	105
390.287	95
390.512	92
390.736	102
390.961	98
391.186	101
391.411	104
391.636	95
391.86	88
392.085	96
392.31	88
392.534	86
392.759	88
392.984	94
393.208	91
393.433	98
393.658	88
393.882	80
394.107	64
394.331	96
394.556	95
394.78	101
395.005	91
395.229	80
395.454	88
395.678	88
395.903	90
396.127	95
396.352	84
396.576	78
396.801	93
397.025	77
397.249	111
397.474	86
397.698	83
397.922	78
398.147	85
398.371	87
398.595	90
398.82	91
399.044	90
399.268	94
399.492	92
399.717	87
399.941	88
400.165	81
400.389	73
400.613	96
400.837	91
401.062	91
401.286	88
401.51	94
401.734	90
401.958	117
402.182	128
402.406	176
402.63	112
402.854	96
403.078	93
403.302	102
403.526	93
403.75	82
403.974	77
404.198	92
404.422	77
404.645	90
404.869	91
405.093	102
405.317	84
405.541	84
405.765	95
405.988	113
406.212	159
406.436	230
406.66	153
406.883	110
407.107	115
407.331	97
407.555	96
407.778	89
408.002	95
408.226	96
408.449	78
408.673	86
408.896	89
409.12	81
409.344	97
409.567	93
409.791	103
410.014	109
410.238	105
410.461	90
410.685	89
410.908	95
411.132	105
411.355	97
411.578	86
411.802	99
412.025	91
412.249	93
412.472	99
412.695	91
412.919	89
413.142	93
413.365	79
413.589	96
413.812	89
414.035	94
414.258	96
414.482	85
414.705	75
414.928	89
415.151	89
415.374	98
415.597	83
415.821	86
416.044	89
416.267	91
416.49	80
416.713	99
416.936	85
417.159	84
417.382	88
417.605	105
417.828	102
418.051	99
418.274	90
418.497	87
418.72	88
418.943	104
419.166	106
419.389	75
419.611	100
419.834	79
420.057	91
420.28	90
420.503	80
420.726	72
420.948	92
421.171	76
421.394	101
421.617	87
421.839	94
422.062	89
422.285	102
422.507	95
422.73	89
422.953	92
423.175	83
423.398	98
423.621	94
423.843	82
424.066	91
424.288	87
424.511	73
424.733	103
424.956	96
425.178	102
425.401	94
425.623	111
425.846	102
426.068	103
426.291	94
426.513	103
426.735	84
426.958	84
427.18	99
427.402	128
427.625	161
427.847	126
428.069	123
428.292	98
428.514	83
428.736	95
428.958	92
429.181	90
429.403	90
429.625	85
429.847	85
430.069	89
430.292	104
430.514	88
430.736	96
430.958	76
431.18	89
431.402	93
431.624	93
431.846	91
432.068	86
432.29	98
432.512	94
432.734	89
432.956	89
433.178	103
433.4	98
433.622	87
433.844	92
434.066	97
434.287	87
434.509	94
434.731	83
434.953	77
435.175	89
435.397	91
435.618	106
435.84	106
436.062	127
436.284	114
436.505	99
436.727	99
436.949	108
437.17	89
437.392	85
437.614	80
437.835	105
438.057	125
438.278	108
438.5	93
438.721	118
438.943	100
439.165	82
439.386	91
439.608	101
439.829	99
440.05	106
440.272	138
440.493	89
440.715	95
440.936	86
441.158	90
441.379	96
441.6	97
441.822	92
442.043	96
442.264	106
442.486	100
442.707	94
442.928	102
443.149	119
443.371	130
443.592	96
443.813	103
444.034	99
444.255	90
444.476	96
444.698	90
444.919	95
445.14	120
445.361	119
445.582	128
445.803	123
446.024	138
446.245	130
446.466	101
446.687	93
446.908	98
447.129	91
447.35	83
447.571	100
447.792	87
448.013	95
448.234	120
448.455	105
448.675	114
448.896	129
449.117	109
449.338	107
449.559	117
449.779	130
450	81
450.221	101
450.442	84
450.662	104
450.883	103
451.104	110
451.324	90
451.545	95
451.766	80
451.986	84
452.207	101
452.428	94
452.648	109
452.869	106
453.089	108
453.31	118
453.53	86
453.751	93
453.971	95
454.192	102
454.412	83
454.633	89
454.853	83
455.073	88
455.294	92
455.514	100
455.734	91
455.955	85
456.175	86
456.395	99
456.616	89
456.836	86
457.056	98
457.276	101
457.497	75
457.717	104
457.937	83
458.157	104
458.377	93
458.598	98
458.818	161
459.038	166
459.258	109
459.478	99
459.698	98
459.918	67
460.138	101
460.358	80
460.578	98
460.798	76
461.018	89
461.238	91
461.458	83
461.678	89
461.898	89
462.118	75
462.338	81
462.558	93
462.777	83
462.997	72
463.217	90
463.437	77
463.657	89
463.876	107
464.096	92
464.316	104
464.536	103
464.755	81
464.975	98
465.195	157
465.414	159
465.634	88
465.854	84
466.073	97
466.293	88
466.512	78
466.732	90
466.951	96
467.171	101
467.391	95
467.61	95
467.829	104
468.049	95
468.268	96
468.488	100
468.707	90
468.927	89
469.146	97
469.365	80
469.585	98
469.804	89
470.023	102
470.243	92
470.462	99
470.681	120
470.901	86
471.12	82
471.339	87
471.558	94
471.777	103
471.997	100
472.216	117
472.435	104
472.654	91
472.873	101
473.092	93
473.311	81
473.53	83
473.749	87
473.968	87
474.187	91
474.406	81
474.625	84
474.844	82
475.063	75
475.282	99
475.501	88
475.72	75
475.939	81
476.158	90
476.377	85
476.596	77
476.814	81
477.033	91
477.252	82
477.471	81
477.69	97
477.908	95
478.127	89
478.346	92
478.564	83
478.783	83
479.002	96
479.22	111
479.439	86
479.658	102
479.876	87
480.095	90
480.313	98
480.532	93
480.751	77
480.969	96
481.188	120
481.406	107
481.624	87
481.843	96
482.061	91
482.28	85
482.498	81
482.717	85
482.935	87
483.153	89
483.372	92
483.59	95
483.808	89
484.027	89
484.245	78
484.463	89
484.681	99
484.9	89
485.118	87
485.336	100
485.554	113
485.772	99
485.99	120
486.209	94
486.427	112
486.645	120
486.863	106
487.081	95
487.299	116
487.517	97
487.735	101
487.953	97
488.171	88
488.389	102
488.607	109
488.825	89
489.043	97
489.261	94
489.479	103
489.696	100
489.914	78
490.132	97
490.35	90
490.568	103
490.786	100
491.003	101
491.221	105
491.439	92
491.657	97
491.874	102
492.092	85
492.31	103
492.527	97
492.745	73
492.963	87
493.18	96
493.398	101
493.615	101
493.833	96
494.05	96
494.268	86
494.485	82
494.703	91
494.92	101
495.138	94
495.355	103
495.573	93
495.79	92
496.008	88
496.225	100
496.442	88
496.66	99
496.877	108
497.094	91
497.312	79
497.529	95
497.746	101
497.963	90
498.181	100
498.398	107
498.615	109
498.832	117
499.049	102
499.267	94
499.484	97
499.701	98
499.918	90
500.135	89
500.352	92
500.569	97
500.786	110
501.003	98
501.22	78
501.437	80
501.654	88
501.871	102
502.088	89
502.305	97
502.522	99
502.739	90
502.956	99
503.172	96
503.389	100
503.606	110
503.823	110
504.04	106
504.256	76
504.473	95
504.69	80
504.907	91
505.123	93
505.34	86
505.557	93
505.773	84
505.99	89
506.207	86
506.423	83
506.64	79
506.856	98
507.073	88
507.289	102
507.506	105
507.722	121
507.939	126
508.155	103
508.372	89
508.588	106
508.805	104
509.021	114
509.238	85
509.454	106
509.67	98
509.887	126
510.103	143
510.319	216
510.536	827
510.752	2703
510.968	759
511.184	162
511.401	114
511.617	91
511.833	95
512.049	86
512.265	97
512.481	95
512.698	94
512.914	101
513.13	104
513.346	95
513.562	91
513.778	91
513.994	101
514.21	109
514.426	118
514.642	141
514.858	133
515.074	168
515.29	475
515.506	1655
515.721	595
515.937	168
516.153	131
516.369	93
516.585	98
516.801	85
517.016	106
517.232	90
517.448	102
517.664	86
517.879	100
518.095	96
518.311	90
518.527	96
518.742	89
518.958	99
519.173	89
519.389	78
519.605	81
519.82	96
520.036	87
520.251	104
520.467	114
520.682	114
520.898	125
521.113	127
521.329	133
521.544	221
521.76	637
521.975	2688
522.19	1635
522.406	341
522.621	130
522.836	101
523.052	109
523.267	91
523.482	104
523.698	95
523.913	126
524.128	101
524.343	116
524.559	100
524.774	97
524.989	105
525.204	117
525.419	112
525.634	87
525.849	91
526.064	89
526.28	98
526.495	82
526.71	100
526.925	90
527.14	98
527.355	84
527.57	95
527.785	91
527.999	83
528.214	95
528.429	80
528.644	98
528.859	100
529.074	87
529.289	135
529.503	182
529.718	100
529.933	99
530.148	94
530.363	106
530.577	90
530.792	96
531.007	77
531.221	90
531.436	107
531.651	89
531.865	97
532.08	89
532.295	82
532.509	104
532.724	108
532.938	88
533.153	94
533.367	84
533.582	110
533.796	98
534.011	95
534.225	84
534.44	103
534.654	95
534.868	76
535.083	82
535.297	98
535.511	108
535.726	107
535.94	109
536.154	96
536.369	107
536.583	97
536.797	85
537.011	74
537.225	83
537.44	97
537.654	99
537.868	97
538.082	101
538.296	104
538.51	88
538.724	91
538.938	93
539.153	95
539.367	107
539.581	96
539.795	101
540.009	90
540.222	95
540.436	72
540.65	91
540.864	91
541.078	95
541.292	83
541.506	87
541.72	87
541.934	94
542.147	83
542.361	81
542.575	98
542.789	83
543.002	99
543.216	90
543.43	99
543.644	85
543.857	98
544.071	85
544.285	96
544.498	92
544.712	110
544.925	83
545.139	89
545.352	96
545.566	78
545.779	85
545.993	91
546.206	107
546.42	98
546.633	89
546.847	89
547.06	87
547.274	92
547.487	91
547.7	95
547.914	102
548.127	91
548.34	98
548.554	80
548.767	95
548.98	71
549.193	90
549.407	92
549.62	87
549.833	86
550.046	101
550.259	85
550.473	93
550.686	98
550.899	78
551.112	88
551.325	79
551.538	77
551.751	90
551.964	86
552.177	105
552.39	105
552.603	75
552.816	88
553.029	91
553.242	100
553.455	85
553.667	109
553.88	104
554.093	94
554.306	89
554.519	83
554.732	77
554.944	76
555.157	89
555.37	86
555.583	78
555.795	98
556.008	92
556.221	72
556.433	92
556.646	92
556.859	103
557.071	84
557.284	91
557.496	95
557.709	89
557.921	96
558.134	105
558.346	99
558.559	96
558.771	95
558.984	71
559.196	93
559.409	80
559.621	85
559.833	81
560.046	91
560.258	86
560.47	87
560.683	91
560.895	86
561.107	81
561.32	89
561.532	92
561.744	99
561.956	92
562.168	90
562.381	89
562.593	67
562.805	86
563.017	85
563.229	85
563.441	94
563.653	95
563.865	94
564.077	79
564.289	92
564.501	101
564.713	95
564.925	89
565.137	106
565.349	102
565.561	93
565.773	95
565.985	73
566.197	93
566.408	84
566.62	90
566.832	87
567.044	81
567.255	85
567.467	86
567.679	93
567.891	85
568.102	102
568.314	100
568.526	95
568.737	95
568.949	87
569.161	102
569.372	102
569.584	105
569.795	95
570.007	110
570.218	269
570.43	145
570.641	90
570.853	105
571.064	103
571.276	91
571.487	73
571.698	79
571.91	95
572.121	86
572.333	97
572.544	83
572.755	89
572.966	91
573.178	90
573.389	94
573.6	96
573.811	80
574.023	95
574.234	95
574.445	91
574.656	82
574.867	100
575.078	81
575.289	120
575.501	90
575.712	82
575.923	90
576.134	96
576.345	97
576.556	100
576.767	85
576.978	92
577.188	84
577.399	86
577.61	104
577.821	106
578.032	112
578.243	273
578.454	872
578.665	241
578.875	95
579.086	98
579.297	91
579.508	89
579.718	96
579.929	84
580.14	82
580.35	92
580.561	95
580.772	78
580.982	79
581.193	88
581.403	90
581.614	91
581.825	77
582.035	90
582.246	98
582.456	79
582.667	93
582.877	99
583.087	102
583.298	98
