Data from Uncirc_2004_H10_HRD10591_00007.txt Node
Date: Wed Jan 03 10:32:14 EST 2024
User: Yrep
Spectrometer: HR+D1059
Trigger mode: 1
Integration Time (sec): 1.000000E-1
Scans to average: 1
Electric dark correction enabled: true
Nonlinearity correction enabled: false
Boxcar width: 0
XAxis mode: Wavelengths
Number of Pixels in Spectrum: 2048
>>>>>Begin Spectral Data<<<<<
223.165	-20.62
223.4	-20.62
223.635	-20.62
223.869	-15.62
224.104	-18.62
224.338	-11.62
224.573	-9.62
224.808	-9.62
225.042	-1.62
225.277	-11.62
225.511	8.38
225.746	5.38
225.98	-9.62
226.215	7.38
226.449	21.38
226.683	14.38
226.918	26.38
227.152	25.38
227.387	32.38
227.621	46.38
227.856	57.38
228.09	58.38
228.324	42.38
228.559	49.38
228.793	51.38
229.027	59.38
229.262	69.38
229.496	76.38
229.73	81.38
229.964	80.38
230.199	71.38
230.433	93.38
230.667	81.38
230.901	74.38
231.136	66.38
231.37	71.38
231.604	91.38
231.838	82.38
232.072	83.38
232.306	72.38
232.541	79.38
232.775	89.38
233.009	85.38
233.243	82.38
233.477	78.38
233.711	79.38
233.945	81.38
234.179	96.38
234.413	76.38
234.647	90.38
234.881	90.38
235.115	81.38
235.349	82.38
235.583	74.38
235.817	80.38
236.051	81.38
236.285	84.38
236.519	74.38
236.753	84.38
236.987	74.38
237.221	92.38
237.455	81.38
237.689	73.38
237.922	80.38
238.156	94.38
238.39	66.38
238.624	77.38
238.858	60.38
239.091	84.38
239.325	76.38
239.559	88.38
239.793	80.38
240.027	79.38
240.26	82.38
240.494	83.38
240.728	83.38
240.961	77.38
241.195	73.38
241.429	82.38
241.662	64.38
241.896	78.38
242.13	72.38
242.363	78.38
242.597	76.38
242.83	104.38
243.064	84.38
243.298	76.38
243.531	77.38
243.765	70.38
243.998	80.38
244.232	73.38
244.465	90.38
244.699	69.38
244.932	83.38
245.166	77.38
245.399	69.38
245.633	87.38
245.866	75.38
246.099	88.38
246.333	68.38
246.566	75.38
246.8	82.38
247.033	81.38
247.266	78.38
247.5	77.38
247.733	82.38
247.966	88.38
248.2	75.38
248.433	89.38
248.666	98.38
248.899	80.38
249.133	79.38
249.366	97.38
249.599	96.38
249.832	83.38
250.066	82.38
250.299	88.38
250.532	89.38
250.765	82.38
250.998	76.38
251.231	89.38
251.465	76.38
251.698	66.38
251.931	74.38
252.164	66.38
252.397	95.38
252.63	83.38
252.863	88.38
253.096	72.38
253.329	83.38
253.562	86.38
253.795	86.38
254.028	75.38
254.261	76.38
254.494	83.38
254.727	95.38
254.96	93.38
255.193	83.38
255.426	93.38
255.659	81.38
255.892	75.38
256.124	66.38
256.357	78.38
256.59	76.38
256.823	88.38
257.056	89.38
257.289	85.38
257.521	77.38
257.754	76.38
257.987	90.38
258.22	97.38
258.452	84.38
258.685	86.38
258.918	77.38
259.151	82.38
259.383	78.38
259.616	78.38
259.849	73.38
260.081	76.38
260.314	79.38
260.547	89.38
260.779	73.38
261.012	77.38
261.244	72.38
261.477	89.38
261.71	76.38
261.942	97.38
262.175	95.38
262.407	91.38
262.64	85.38
262.872	74.38
263.105	73.38
263.337	81.38
263.57	72.38
263.802	80.38
264.035	69.38
264.267	78.38
264.499	67.38
264.732	85.38
264.964	86.38
265.197	87.38
265.429	87.38
265.661	89.38
265.894	81.38
266.126	90.38
266.358	80.38
266.591	87.38
266.823	81.38
267.055	91.38
267.287	96.38
267.52	82.38
267.752	69.38
267.984	72.38
268.216	88.38
268.448	89.38
268.681	85.38
268.913	87.38
269.145	88.38
269.377	82.38
269.609	75.38
269.841	86.38
270.073	84.38
270.306	71.38
270.538	80.38
270.77	86.38
271.002	87.38
271.234	83.38
271.466	76.38
271.698	68.38
271.93	85.38
272.162	85.38
272.394	88.38
272.626	80.38
272.858	100.38
273.09	93.38
273.322	74.38
273.553	85.38
273.785	80.38
274.017	81.38
274.249	95.38
274.481	88.38
274.713	88.38
274.945	101.38
275.176	84.38
275.408	80.38
275.64	89.38
275.872	75.38
276.104	96.38
276.335	98.38
276.567	89.38
276.799	96.38
277.031	101.38
277.262	87.38
277.494	81.38
277.726	89.38
277.957	85.38
278.189	73.38
278.421	73.38
278.652	79.38
278.884	58.38
279.115	94.38
279.347	86.38
279.579	87.38
279.81	89.38
280.042	75.38
280.273	84.38
280.505	88.38
280.736	83.38
280.968	81.38
281.199	100.38
281.431	83.38
281.662	71.38
281.894	81.38
282.125	102.38
282.356	109.38
282.588	133.38
282.819	109.38
283.051	89.38
283.282	77.38
283.513	97.38
283.745	83.38
283.976	79.38
284.207	68.38
284.439	74.38
284.67	85.38
284.901	93.38
285.132	86.38
285.364	100.38
285.595	93.38
285.826	65.38
286.057	95.38
286.288	72.38
286.52	82.38
286.751	92.38
286.982	83.38
287.213	81.38
287.444	99.38
287.675	92.38
287.906	73.38
288.138	88.38
288.369	95.38
288.6	90.38
288.831	90.38
289.062	88.38
289.293	89.38
289.524	82.38
289.755	105.38
289.986	83.38
290.217	98.38
290.448	92.38
290.679	87.38
290.91	88.38
291.141	92.38
291.371	85.38
291.602	87.38
291.833	83.38
292.064	88.38
292.295	90.38
292.526	95.38
292.757	83.38
292.987	88.38
293.218	81.38
293.449	84.38
293.68	87.38
293.91	70.38
294.141	86.38
294.372	77.38
294.603	81.38
294.833	83.38
295.064	89.38
295.295	85.38
295.525	85.38
295.756	77.38
295.987	105.38
296.217	136.38
296.448	105.38
296.679	90.38
296.909	83.38
297.14	85.38
297.37	83.38
297.601	103.38
297.831	92.38
298.062	99.38
298.292	98.38
298.523	89.38
298.753	92.38
298.984	94.38
299.214	95.38
299.445	101.38
299.675	88.38
299.905	76.38
300.136	81.38
300.366	99.38
300.597	92.38
300.827	88.38
301.057	88.38
301.288	94.38
301.518	81.38
301.748	82.38
301.979	104.38
302.209	96.38
302.439	78.38
302.669	90.38
302.9	89.38
303.13	83.38
303.36	101.38
303.59	93.38
303.82	97.38
304.051	83.38
304.281	83.38
304.511	82.38
304.741	78.38
304.971	97.38
305.201	89.38
305.431	101.38
305.661	87.38
305.891	89.38
306.121	95.38
306.352	96.38
306.582	99.38
306.812	87.38
307.042	85.38
307.272	94.38
307.502	95.38
307.731	104.38
307.961	86.38
308.191	86.38
308.421	90.38
308.651	100.38
308.881	88.38
309.111	88.38
309.341	88.38
309.571	100.38
309.8	94.38
310.03	85.38
310.26	97.38
310.49	88.38
310.72	85.38
310.949	95.38
311.179	93.38
311.409	93.38
311.639	98.38
311.868	96.38
312.098	106.38
312.328	98.38
312.557	101.38
312.787	100.38
313.017	99.38
313.246	96.38
313.476	84.38
313.706	95.38
313.935	98.38
314.165	95.38
314.394	102.38
314.624	81.38
314.853	100.38
315.083	89.38
315.312	98.38
315.542	92.38
315.771	93.38
316.001	98.38
316.23	82.38
316.46	90.38
316.689	98.38
316.919	93.38
317.148	87.38
317.377	89.38
317.607	87.38
317.836	90.38
318.065	97.38
318.295	82.38
318.524	87.38
318.753	99.38
318.983	96.38
319.212	98.38
319.441	107.38
319.67	93.38
319.9	80.38
320.129	97.38
320.358	86.38
320.587	84.38
320.816	85.38
321.046	106.38
321.275	95.38
321.504	97.38
321.733	86.38
321.962	94.38
322.191	98.38
322.42	105.38
322.649	96.38
322.878	106.38
323.108	119.38
323.337	116.38
323.566	114.38
323.795	145.38
324.024	208.38
324.253	393.38
324.482	794.38
324.71	1651.38
324.939	2128.38
325.168	813.38
325.397	231.38
325.626	162.38
325.855	130.38
326.084	115.38
326.313	133.38
326.542	153.38
326.77	230.38
326.999	477.38
327.228	947.38
327.457	1654.38
327.686	1303.38
327.914	369.38
328.143	186.38
328.372	140.38
328.6	110.38
328.829	106.38
329.058	122.38
329.287	119.38
329.515	96.38
329.744	104.38
329.972	105.38
330.201	109.38
330.43	103.38
330.658	127.38
330.887	130.38
331.115	110.38
331.344	93.38
331.572	98.38
331.801	102.38
332.03	90.38
332.258	102.38
332.486	97.38
332.715	92.38
332.943	105.38
333.172	82.38
333.4	93.38
333.629	88.38
333.857	96.38
334.085	92.38
334.314	90.38
334.542	95.38
334.771	98.38
334.999	91.38
335.227	92.38
335.455	81.38
335.684	92.38
335.912	102.38
336.14	103.38
336.369	92.38
336.597	92.38
336.825	95.38
337.053	86.38
337.281	89.38
337.51	107.38
337.738	100.38
337.966	100.38
338.194	102.38
338.422	104.38
338.65	90.38
338.878	83.38
339.106	89.38
339.334	102.38
339.562	93.38
339.79	69.38
340.018	90.38
340.246	98.38
340.474	95.38
340.702	84.38
340.93	85.38
341.158	89.38
341.386	105.38
341.614	87.38
341.842	100.38
342.07	90.38
342.298	98.38
342.526	85.38
342.754	93.38
342.981	86.38
343.209	82.38
343.437	104.38
343.665	94.38
343.893	101.38
344.12	88.38
344.348	92.38
344.576	94.38
344.804	77.38
345.031	96.38
345.259	98.38
345.487	94.38
345.714	96.38
345.942	86.38
346.17	80.38
346.397	90.38
346.625	87.38
346.853	88.38
347.08	94.38
347.308	111.38
347.535	88.38
347.763	97.38
347.99	103.38
348.218	101.38
348.445	107.38
348.673	91.38
348.9	100.38
349.128	90.38
349.355	89.38
349.583	94.38
349.81	95.38
350.037	98.38
350.265	92.38
350.492	93.38
350.72	102.38
350.947	101.38
351.174	112.38
351.402	114.38
351.629	85.38
351.856	92.38
352.083	95.38
352.311	115.38
352.538	105.38
352.765	95.38
352.992	110.38
353.22	114.38
353.447	104.38
353.674	116.38
353.901	95.38
354.128	108.38
354.355	97.38
354.583	102.38
354.81	104.38
355.037	87.38
355.264	100.38
355.491	99.38
355.718	94.38
355.945	94.38
356.172	101.38
356.399	110.38
356.626	98.38
356.853	90.38
357.08	96.38
357.307	69.38
357.534	102.38
357.761	88.38
357.988	99.38
358.215	105.38
358.441	85.38
358.668	92.38
358.895	103.38
359.122	94.38
359.349	96.38
359.576	94.38
359.802	101.38
360.029	93.38
360.256	104.38
360.483	106.38
360.709	71.38
360.936	92.38
361.163	91.38
361.39	82.38
361.616	104.38
361.843	93.38
362.07	96.38
362.296	93.38
362.523	92.38
362.749	95.38
362.976	94.38
363.203	82.38
363.429	86.38
363.656	85.38
363.882	92.38
364.109	85.38
364.335	85.38
364.562	99.38
364.788	84.38
365.015	95.38
365.241	104.38
365.468	96.38
365.694	85.38
365.92	89.38
366.147	105.38
366.373	92.38
366.599	89.38
366.826	92.38
367.052	80.38
367.278	83.38
367.505	98.38
367.731	100.38
367.957	101.38
368.184	89.38
368.41	88.38
368.636	119.38
368.862	120.38
369.089	107.38
369.315	94.38
369.541	98.38
369.767	104.38
369.993	101.38
370.219	93.38
370.445	84.38
370.672	87.38
370.898	88.38
371.124	83.38
371.35	104.38
371.576	107.38
371.802	90.38
372.028	92.38
372.254	80.38
372.48	82.38
372.706	78.38
372.932	78.38
373.158	91.38
373.384	95.38
373.61	90.38
373.835	78.38
374.061	90.38
374.287	94.38
374.513	106.38
374.739	95.38
374.965	93.38
375.191	80.38
375.416	70.38
375.642	94.38
375.868	94.38
376.094	94.38
376.319	79.38
376.545	88.38
376.771	84.38
376.997	95.38
377.222	79.38
377.448	94.38
377.674	104.38
377.899	99.38
378.125	88.38
378.35	97.38
378.576	100.38
378.802	96.38
379.027	94.38
379.253	96.38
379.478	97.38
379.704	98.38
379.929	102.38
380.155	103.38
380.38	104.38
380.606	111.38
380.831	100.38
381.057	100.38
381.282	104.38
381.507	112.38
381.733	100.38
381.958	120.38
382.184	98.38
382.409	114.38
382.634	108.38
382.86	112.38
383.085	109.38
383.31	111.38
383.535	114.38
383.761	97.38
383.986	90.38
384.211	100.38
384.436	108.38
384.662	116.38
384.887	117.38
385.112	126.38
385.337	128.38
385.562	136.38
385.787	121.38
386.013	116.38
386.238	129.38
386.463	116.38
386.688	135.38
386.913	116.38
387.138	134.38
387.363	115.38
387.588	121.38
387.813	110.38
388.038	126.38
388.263	139.38
388.488	115.38
388.713	105.38
388.938	103.38
389.163	105.38
389.387	107.38
389.612	88.38
389.837	95.38
390.062	84.38
390.287	95.38
390.512	98.38
390.736	108.38
390.961	90.38
391.186	100.38
391.411	100.38
391.636	93.38
391.86	82.38
392.085	92.38
392.31	94.38
392.534	79.38
392.759	97.38
392.984	86.38
393.208	82.38
393.433	110.38
393.658	99.38
393.882	88.38
394.107	90.38
394.331	89.38
394.556	84.38
394.78	82.38
395.005	95.38
395.229	80.38
395.454	84.38
395.678	83.38
395.903	88.38
396.127	72.38
396.352	91.38
396.576	86.38
396.801	94.38
397.025	94.38
397.249	97.38
397.474	87.38
397.698	84.38
397.922	88.38
398.147	90.38
398.371	84.38
398.595	99.38
398.82	97.38
399.044	98.38
399.268	81.38
399.492	100.38
399.717	94.38
399.941	98.38
400.165	79.38
400.389	83.38
400.613	83.38
400.837	88.38
401.062	82.38
401.286	93.38
401.51	90.38
401.734	89.38
401.958	103.38
402.182	115.38
402.406	146.38
402.63	119.38
402.854	92.38
403.078	92.38
403.302	90.38
403.526	88.38
403.75	99.38
403.974	94.38
404.198	90.38
404.422	91.38
404.645	92.38
404.869	86.38
405.093	86.38
405.317	90.38
405.541	103.38
405.765	94.38
405.988	108.38
406.212	156.38
406.436	211.38
406.66	142.38
406.883	100.38
407.107	72.38
407.331	101.38
407.555	101.38
407.778	96.38
408.002	85.38
408.226	98.38
408.449	87.38
408.673	96.38
408.896	94.38
409.12	90.38
409.344	93.38
409.567	85.38
409.791	98.38
410.014	103.38
410.238	86.38
410.461	100.38
410.685	86.38
410.908	108.38
411.132	108.38
411.355	97.38
411.578	102.38
411.802	98.38
412.025	82.38
412.249	99.38
412.472	94.38
412.695	92.38
412.919	87.38
413.142	86.38
413.365	105.38
413.589	91.38
413.812	84.38
414.035	107.38
414.258	95.38
414.482	97.38
414.705	82.38
414.928	86.38
415.151	106.38
415.374	93.38
415.597	87.38
415.821	90.38
416.044	82.38
416.267	89.38
416.49	93.38
416.713	90.38
416.936	98.38
417.159	86.38
417.382	89.38
417.605	91.38
417.828	100.38
418.051	85.38
418.274	98.38
418.497	100.38
418.72	102.38
418.943	88.38
419.166	98.38
419.389	96.38
419.611	83.38
419.834	94.38
420.057	96.38
420.28	97.38
420.503	92.38
420.726	89.38
420.948	92.38
421.171	87.38
421.394	90.38
421.617	94.38
421.839	97.38
422.062	86.38
422.285	93.38
422.507	113.38
422.73	101.38
422.953	94.38
423.175	87.38
423.398	74.38
423.621	87.38
423.843	99.38
424.066	89.38
424.288	80.38
424.511	87.38
424.733	89.38
424.956	104.38
425.178	101.38
425.401	97.38
425.623	85.38
425.846	65.38
426.068	93.38
426.291	104.38
426.513	97.38
426.735	97.38
426.958	93.38
427.18	101.38
427.402	111.38
427.625	155.38
427.847	115.38
428.069	100.38
428.292	101.38
428.514	91.38
428.736	84.38
428.958	82.38
429.181	88.38
429.403	85.38
429.625	93.38
429.847	97.38
430.069	94.38
430.292	94.38
430.514	83.38
430.736	80.38
430.958	80.38
431.18	91.38
431.402	91.38
431.624	88.38
431.846	96.38
432.068	80.38
432.29	101.38
432.512	107.38
432.734	91.38
432.956	108.38
433.178	104.38
433.4	100.38
433.622	100.38
433.844	98.38
434.066	88.38
434.287	79.38
434.509	92.38
434.731	93.38
434.953	86.38
435.175	80.38
435.397	97.38
435.618	84.38
435.84	91.38
436.062	124.38
436.284	110.38
436.505	96.38
436.727	90.38
436.949	93.38
437.17	92.38
437.392	81.38
437.614	83.38
437.835	100.38
438.057	108.38
438.278	108.38
438.5	85.38
438.721	107.38
438.943	106.38
439.165	74.38
439.386	82.38
439.608	97.38
439.829	106.38
440.05	123.38
440.272	101.38
440.493	92.38
440.715	101.38
440.936	95.38
441.158	85.38
441.379	87.38
441.6	83.38
441.822	109.38
442.043	102.38
442.264	86.38
442.486	100.38
442.707	99.38
442.928	109.38
443.149	128.38
443.371	120.38
443.592	105.38
443.813	108.38
444.034	98.38
444.255	94.38
444.476	102.38
444.698	75.38
444.919	96.38
445.14	126.38
445.361	110.38
445.582	112.38
445.803	136.38
446.024	113.38
446.245	127.38
446.466	100.38
446.687	88.38
446.908	79.38
447.129	89.38
447.35	102.38
447.571	89.38
447.792	89.38
448.013	94.38
448.234	90.38
448.455	97.38
448.675	101.38
448.896	102.38
449.117	93.38
449.338	98.38
449.559	130.38
449.779	119.38
450	89.38
450.221	95.38
450.442	97.38
450.662	90.38
450.883	104.38
451.104	105.38
451.324	96.38
451.545	86.38
451.766	88.38
451.986	87.38
452.207	91.38
452.428	81.38
452.648	88.38
452.869	103.38
453.089	105.38
453.31	111.38
453.53	81.38
453.751	109.38
453.971	116.38
454.192	94.38
454.412	79.38
454.633	72.38
454.853	79.38
455.073	97.38
455.294	92.38
455.514	88.38
455.734	104.38
455.955	77.38
456.175	74.38
456.395	93.38
456.616	93.38
456.836	77.38
457.056	83.38
457.276	82.38
457.497	87.38
457.717	89.38
457.937	96.38
458.157	90.38
458.377	84.38
458.598	102.38
458.818	113.38
459.038	154.38
459.258	98.38
459.478	87.38
459.698	86.38
459.918	81.38
460.138	81.38
460.358	86.38
460.578	80.38
460.798	93.38
461.018	87.38
461.238	89.38
461.458	77.38
461.678	80.38
461.898	83.38
462.118	89.38
462.338	95.38
462.558	94.38
462.777	89.38
462.997	90.38
463.217	86.38
463.437	90.38
463.657	84.38
463.876	83.38
464.096	82.38
464.316	93.38
464.536	95.38
464.755	88.38
464.975	111.38
465.195	171.38
465.414	141.38
465.634	101.38
465.854	76.38
466.073	80.38
466.293	86.38
466.512	85.38
466.732	80.38
466.951	77.38
467.171	78.38
467.391	79.38
467.61	100.38
467.829	92.38
468.049	109.38
468.268	97.38
468.488	81.38
468.707	88.38
468.927	83.38
469.146	73.38
469.365	89.38
469.585	79.38
469.804	87.38
470.023	93.38
470.243	94.38
470.462	97.38
470.681	89.38
470.901	88.38
471.12	77.38
471.339	80.38
471.558	89.38
471.777	82.38
471.997	96.38
472.216	96.38
472.435	105.38
472.654	82.38
472.873	80.38
473.092	92.38
473.311	91.38
473.53	95.38
473.749	100.38
473.968	88.38
474.187	98.38
474.406	92.38
474.625	91.38
474.844	86.38
475.063	92.38
475.282	99.38
475.501	94.38
475.72	84.38
475.939	90.38
476.158	79.38
476.377	103.38
476.596	89.38
476.814	94.38
477.033	81.38
477.252	85.38
477.471	86.38
477.69	75.38
477.908	81.38
478.127	83.38
478.346	91.38
478.564	87.38
478.783	102.38
479.002	101.38
479.22	85.38
479.439	109.38
479.658	90.38
479.876	103.38
480.095	99.38
480.313	98.38
480.532	84.38
480.751	92.38
480.969	91.38
481.188	106.38
481.406	108.38
481.624	98.38
481.843	94.38
482.061	85.38
482.28	92.38
482.498	84.38
482.717	88.38
482.935	81.38
483.153	99.38
483.372	96.38
483.59	89.38
483.808	88.38
484.027	88.38
484.245	83.38
484.463	88.38
484.681	95.38
484.9	89.38
485.118	91.38
485.336	87.38
485.554	116.38
485.772	109.38
485.99	93.38
486.209	100.38
486.427	115.38
486.645	106.38
486.863	105.38
487.081	106.38
487.299	101.38
487.517	98.38
487.735	88.38
487.953	96.38
488.171	79.38
488.389	88.38
488.607	94.38
488.825	102.38
489.043	83.38
489.261	91.38
489.479	82.38
489.696	80.38
489.914	92.38
490.132	95.38
490.35	107.38
490.568	96.38
490.786	86.38
491.003	95.38
491.221	90.38
491.439	99.38
491.657	99.38
491.874	103.38
492.092	98.38
492.31	79.38
492.527	100.38
492.745	91.38
492.963	92.38
493.18	80.38
493.398	88.38
493.615	99.38
493.833	114.38
494.05	93.38
494.268	92.38
494.485	91.38
494.703	89.38
494.92	97.38
495.138	89.38
495.355	94.38
495.573	89.38
495.79	92.38
496.008	104.38
496.225	102.38
496.442	89.38
496.66	104.38
496.877	103.38
497.094	101.38
497.312	99.38
497.529	95.38
497.746	97.38
497.963	88.38
498.181	91.38
498.398	89.38
498.615	108.38
498.832	104.38
499.049	96.38
499.267	97.38
499.484	87.38
499.701	86.38
499.918	91.38
500.135	105.38
500.352	81.38
500.569	84.38
500.786	95.38
501.003	88.38
501.22	91.38
501.437	90.38
501.654	86.38
501.871	89.38
502.088	85.38
502.305	94.38
502.522	94.38
502.739	82.38
502.956	82.38
503.172	86.38
503.389	84.38
503.606	99.38
503.823	99.38
504.04	105.38
504.256	97.38
504.473	90.38
504.69	91.38
504.907	109.38
505.123	97.38
505.34	86.38
505.557	81.38
505.773	95.38
505.99	97.38
506.207	100.38
506.423	97.38
506.64	79.38
506.856	94.38
507.073	96.38
507.289	87.38
507.506	86.38
507.722	113.38
507.939	93.38
508.155	86.38
508.372	93.38
508.588	97.38
508.805	84.38
509.021	84.38
509.238	94.38
509.454	96.38
509.67	92.38
509.887	104.38
510.103	142.38
510.319	198.38
510.536	719.38
510.752	2154.38
510.968	621.38
511.184	142.38
511.401	115.38
511.617	107.38
511.833	98.38
512.049	95.38
512.265	81.38
512.481	88.38
512.698	100.38
512.914	93.38
513.13	96.38
513.346	109.38
513.562	104.38
513.778	90.38
513.994	100.38
514.21	85.38
514.426	92.38
514.642	130.38
514.858	116.38
515.074	166.38
515.29	409.38
515.506	1325.38
515.721	478.38
