Data from HP_3_HRD10591_00023.txt Node
Date: Mon Jan 19 14:17:12 EST 2026
User: Yrep
Spectrometer: HR+D1059
Trigger mode: 1
Integration Time (sec): 1.000000E-1
Scans to average: 1
Electric dark correction enabled: true
Nonlinearity correction enabled: false
Boxcar width: 0
XAxis mode: Wavelengths
Number of Pixels in Spectrum: 2048
>>>>>Begin Spectral Data<<<<<
223.165	-31.12
223.4	-31.12
223.635	-31.12
223.869	-21.12
224.104	-16.12
224.338	-7.12
224.573	-2.12
224.808	-22.12
225.042	-15.12
225.277	-4.12
225.511	3.88
225.746	4.88
225.98	5.88
226.215	16.88
226.449	15.88
226.683	14.88
226.918	27.88
227.152	28.88
227.387	45.88
227.621	46.88
227.856	28.88
228.09	52.88
228.324	34.88
228.559	63.88
228.793	58.88
229.027	60.88
229.262	64.88
229.496	63.88
229.73	71.88
229.964	68.88
230.199	66.88
230.433	73.88
230.667	95.88
230.901	75.88
231.136	89.88
231.37	79.88
231.604	91.88
231.838	90.88
232.072	84.88
232.306	77.88
232.541	87.88
232.775	75.88
233.009	86.88
233.243	73.88
233.477	78.88
233.711	70.88
233.945	86.88
234.179	86.88
234.413	84.88
234.647	83.88
234.881	71.88
235.115	74.88
235.349	76.88
235.583	70.88
235.817	68.88
236.051	83.88
236.285	77.88
236.519	84.88
236.753	76.88
236.987	73.88
237.221	78.88
237.455	88.88
237.689	82.88
237.922	84.88
238.156	75.88
238.39	68.88
238.624	69.88
238.858	81.88
239.091	56.88
239.325	75.88
239.559	81.88
239.793	68.88
240.027	79.88
240.26	79.88
240.494	67.88
240.728	87.88
240.961	62.88
241.195	75.88
241.429	74.88
241.662	72.88
241.896	73.88
242.13	72.88
242.363	71.88
242.597	75.88
242.83	75.88
243.064	85.88
243.298	69.88
243.531	64.88
243.765	86.88
243.998	82.88
244.232	89.88
244.465	103.88
244.699	74.88
244.932	70.88
245.166	82.88
245.399	76.88
245.633	75.88
245.866	84.88
246.099	74.88
246.333	77.88
246.566	81.88
246.8	63.88
247.033	70.88
247.266	67.88
247.5	69.88
247.733	70.88
247.966	83.88
248.2	69.88
248.433	88.88
248.666	78.88
248.899	76.88
249.133	76.88
249.366	88.88
249.599	58.88
249.832	88.88
250.066	81.88
250.299	78.88
250.532	79.88
250.765	60.88
250.998	73.88
251.231	63.88
251.465	84.88
251.698	66.88
251.931	67.88
252.164	73.88
252.397	82.88
252.63	73.88
252.863	66.88
253.096	88.88
253.329	67.88
253.562	82.88
253.795	86.88
254.028	88.88
254.261	88.88
254.494	71.88
254.727	86.88
254.96	78.88
255.193	80.88
255.426	91.88
255.659	82.88
255.892	50.88
256.124	65.88
256.357	78.88
256.59	83.88
256.823	80.88
257.056	75.88
257.289	83.88
257.521	76.88
257.754	86.88
257.987	78.88
258.22	84.88
258.452	76.88
258.685	76.88
258.918	84.88
259.151	76.88
259.383	82.88
259.616	88.88
259.849	75.88
260.081	74.88
260.314	74.88
260.547	75.88
260.779	73.88
261.012	72.88
261.244	81.88
261.477	75.88
261.71	85.88
261.942	73.88
262.175	73.88
262.407	82.88
262.64	93.88
262.872	74.88
263.105	91.88
263.337	68.88
263.57	89.88
263.802	76.88
264.035	88.88
264.267	79.88
264.499	78.88
264.732	82.88
264.964	80.88
265.197	83.88
265.429	83.88
265.661	79.88
265.894	75.88
266.126	89.88
266.358	67.88
266.591	72.88
266.823	67.88
267.055	81.88
267.287	69.88
267.52	82.88
267.752	95.88
267.984	80.88
268.216	74.88
268.448	78.88
268.681	88.88
268.913	74.88
269.145	59.88
269.377	78.88
269.609	68.88
269.841	73.88
270.073	72.88
270.306	82.88
270.538	73.88
270.77	86.88
271.002	80.88
271.234	66.88
271.466	84.88
271.698	73.88
271.93	84.88
272.162	76.88
272.394	88.88
272.626	72.88
272.858	103.88
273.09	84.88
273.322	74.88
273.553	74.88
273.785	81.88
274.017	68.88
274.249	92.88
274.481	75.88
274.713	70.88
274.945	80.88
275.176	81.88
275.408	83.88
275.64	82.88
275.872	83.88
276.104	98.88
276.335	92.88
276.567	83.88
276.799	80.88
277.031	85.88
277.262	80.88
277.494	74.88
277.726	72.88
277.957	75.88
278.189	85.88
278.421	80.88
278.652	76.88
278.884	92.88
279.115	88.88
279.347	80.88
279.579	103.88
279.81	86.88
280.042	80.88
280.273	74.88
280.505	81.88
280.736	92.88
280.968	91.88
281.199	79.88
281.431	84.88
281.662	73.88
281.894	83.88
282.125	84.88
282.356	80.88
282.588	73.88
282.819	77.88
283.051	83.88
283.282	90.88
283.513	79.88
283.745	78.88
283.976	93.88
284.207	74.88
284.439	78.88
284.67	104.88
284.901	75.88
285.132	85.88
285.364	99.88
285.595	94.88
285.826	90.88
286.057	88.88
286.288	80.88
286.52	83.88
286.751	91.88
286.982	78.88
287.213	81.88
287.444	83.88
287.675	74.88
287.906	74.88
288.138	72.88
288.369	80.88
288.6	90.88
288.831	94.88
289.062	101.88
289.293	86.88
289.524	80.88
289.755	72.88
289.986	79.88
290.217	90.88
290.448	92.88
290.679	86.88
290.91	95.88
291.141	71.88
291.371	76.88
291.602	89.88
291.833	91.88
292.064	72.88
292.295	90.88
292.526	63.88
292.757	65.88
292.987	94.88
293.218	86.88
293.449	76.88
293.68	88.88
293.91	83.88
294.141	88.88
294.372	99.88
294.603	80.88
294.833	86.88
295.064	90.88
295.295	76.88
295.525	76.88
295.756	78.88
295.987	86.88
296.217	87.88
296.448	62.88
296.679	82.88
296.909	96.88
297.14	92.88
297.37	78.88
297.601	90.88
297.831	80.88
298.062	73.88
298.292	90.88
298.523	84.88
298.753	90.88
298.984	86.88
299.214	74.88
299.445	87.88
299.675	92.88
299.905	86.88
300.136	87.88
300.366	88.88
300.597	84.88
300.827	95.88
301.057	89.88
301.288	76.88
301.518	75.88
301.748	74.88
301.979	88.88
302.209	74.88
302.439	86.88
302.669	74.88
302.9	76.88
303.13	89.88
303.36	90.88
303.59	94.88
303.82	90.88
304.051	80.88
304.281	83.88
304.511	84.88
304.741	95.88
304.971	89.88
305.201	83.88
305.431	75.88
305.661	78.88
305.891	88.88
306.121	95.88
306.352	81.88
306.582	89.88
306.812	97.88
307.042	82.88
307.272	82.88
307.502	85.88
307.731	90.88
307.961	88.88
308.191	94.88
308.421	86.88
308.651	81.88
308.881	92.88
309.111	89.88
309.341	92.88
309.571	85.88
309.8	71.88
310.03	75.88
310.26	87.88
310.49	93.88
310.72	83.88
310.949	88.88
311.179	87.88
311.409	75.88
311.639	86.88
311.868	101.88
312.098	98.88
312.328	80.88
312.557	88.88
312.787	79.88
313.017	95.88
313.246	80.88
313.476	86.88
313.706	81.88
313.935	85.88
314.165	88.88
314.394	82.88
314.624	74.88
314.853	97.88
315.083	89.88
315.312	96.88
315.542	94.88
315.771	74.88
316.001	73.88
316.23	74.88
316.46	83.88
316.689	82.88
316.919	80.88
317.148	84.88
317.377	92.88
317.607	80.88
317.836	76.88
318.065	80.88
318.295	82.88
318.524	73.88
318.753	72.88
318.983	82.88
319.212	77.88
319.441	84.88
319.67	80.88
319.9	78.88
320.129	90.88
320.358	80.88
320.587	69.88
320.816	81.88
321.046	89.88
321.275	98.88
321.504	68.88
321.733	78.88
321.962	89.88
322.191	86.88
322.42	101.88
322.649	100.88
322.878	79.88
323.108	88.88
323.337	82.88
323.566	94.88
323.795	93.88
324.024	78.88
324.253	96.88
324.482	87.88
324.71	91.88
324.939	79.88
325.168	80.88
325.397	93.88
325.626	82.88
325.855	94.88
326.084	76.88
326.313	83.88
326.542	82.88
326.77	92.88
326.999	91.88
327.228	79.88
327.457	76.88
327.686	97.88
327.914	86.88
328.143	84.88
328.372	81.88
328.6	77.88
328.829	82.88
329.058	68.88
329.287	76.88
329.515	85.88
329.744	83.88
329.972	82.88
330.201	90.88
330.43	84.88
330.658	86.88
330.887	64.88
331.115	90.88
331.344	76.88
331.572	96.88
331.801	70.88
332.03	88.88
332.258	95.88
332.486	87.88
332.715	102.88
332.943	84.88
333.172	94.88
333.4	87.88
333.629	70.88
333.857	91.88
334.085	84.88
334.314	77.88
334.542	67.88
334.771	84.88
334.999	80.88
335.227	98.88
335.455	83.88
335.684	86.88
335.912	76.88
336.14	83.88
336.369	85.88
336.597	79.88
336.825	89.88
337.053	90.88
337.281	91.88
337.51	86.88
337.738	85.88
337.966	83.88
338.194	79.88
338.422	87.88
338.65	86.88
338.878	83.88
339.106	84.88
339.334	88.88
339.562	64.88
339.79	78.88
340.018	94.88
340.246	90.88
340.474	80.88
340.702	66.88
340.93	68.88
341.158	94.88
341.386	78.88
341.614	87.88
341.842	86.88
342.07	81.88
342.298	80.88
342.526	87.88
342.754	88.88
342.981	94.88
343.209	75.88
343.437	91.88
343.665	99.88
343.893	96.88
344.12	100.88
344.348	88.88
344.576	96.88
344.804	82.88
345.031	67.88
345.259	82.88
345.487	89.88
345.714	75.88
345.942	83.88
346.17	92.88
346.397	83.88
346.625	92.88
346.853	93.88
347.08	89.88
347.308	95.88
347.535	73.88
347.763	89.88
347.99	97.88
348.218	87.88
348.445	87.88
348.673	75.88
348.9	81.88
349.128	94.88
349.355	88.88
349.583	91.88
349.81	99.88
350.037	84.88
350.265	88.88
350.492	78.88
350.72	72.88
350.947	90.88
351.174	92.88
351.402	83.88
351.629	86.88
351.856	97.88
352.083	80.88
352.311	89.88
352.538	84.88
352.765	87.88
352.992	95.88
353.22	66.88
353.447	78.88
353.674	86.88
353.901	74.88
354.128	79.88
354.355	73.88
354.583	82.88
354.81	76.88
355.037	77.88
355.264	86.88
355.491	71.88
355.718	68.88
355.945	88.88
356.172	91.88
356.399	93.88
356.626	98.88
356.853	102.88
357.08	87.88
357.307	88.88
357.534	88.88
357.761	85.88
357.988	79.88
358.215	101.88
358.441	89.88
358.668	83.88
358.895	91.88
359.122	73.88
359.349	74.88
359.576	91.88
359.802	90.88
360.029	92.88
360.256	91.88
360.483	86.88
360.709	85.88
360.936	111.88
361.163	90.88
361.39	73.88
361.616	76.88
361.843	89.88
362.07	90.88
362.296	90.88
362.523	97.88
362.749	92.88
362.976	96.88
363.203	111.88
363.429	84.88
363.656	98.88
363.882	75.88
364.109	89.88
364.335	99.88
364.562	112.88
364.788	85.88
365.015	90.88
365.241	67.88
365.468	84.88
365.694	76.88
365.92	86.88
366.147	86.88
366.373	88.88
366.599	94.88
366.826	87.88
367.052	87.88
367.278	83.88
367.505	91.88
367.731	85.88
367.957	82.88
368.184	80.88
368.41	83.88
368.636	89.88
368.862	78.88
369.089	81.88
369.315	86.88
369.541	88.88
369.767	80.88
369.993	80.88
370.219	90.88
370.445	80.88
370.672	93.88
370.898	96.88
371.124	88.88
371.35	83.88
371.576	91.88
371.802	80.88
372.028	95.88
372.254	100.88
372.48	95.88
372.706	84.88
372.932	78.88
373.158	72.88
373.384	86.88
373.61	106.88
373.835	96.88
374.061	110.88
374.287	82.88
374.513	97.88
374.739	110.88
374.965	100.88
375.191	95.88
375.416	80.88
375.642	96.88
375.868	90.88
376.094	99.88
376.319	73.88
376.545	90.88
376.771	86.88
376.997	77.88
377.222	83.88
377.448	76.88
377.674	83.88
377.899	79.88
378.125	87.88
378.35	76.88
378.576	87.88
378.802	87.88
379.027	90.88
379.253	83.88
379.478	91.88
379.704	88.88
379.929	84.88
380.155	89.88
380.38	74.88
380.606	83.88
380.831	89.88
381.057	88.88
381.282	84.88
381.507	94.88
381.733	84.88
381.958	99.88
382.184	105.88
382.409	83.88
382.634	93.88
382.86	90.88
383.085	106.88
383.31	80.88
383.535	103.88
383.761	110.88
383.986	94.88
384.211	95.88
384.436	86.88
384.662	92.88
384.887	78.88
385.112	88.88
385.337	100.88
385.562	71.88
385.787	92.88
386.013	96.88
386.238	99.88
386.463	90.88
386.688	105.88
386.913	75.88
387.138	89.88
387.363	78.88
387.588	77.88
387.813	91.88
388.038	78.88
388.263	84.88
388.488	84.88
388.713	94.88
388.938	78.88
389.163	81.88
389.387	80.88
389.612	86.88
389.837	77.88
390.062	90.88
390.287	94.88
390.512	92.88
390.736	84.88
390.961	87.88
391.186	87.88
391.411	77.88
391.636	82.88
391.86	86.88
392.085	76.88
392.31	100.88
392.534	87.88
392.759	113.88
392.984	110.88
393.208	211.88
393.433	252.88
393.658	214.88
393.882	117.88
394.107	94.88
394.331	118.88
394.556	119.88
394.78	91.88
395.005	100.88
395.229	90.88
395.454	83.88
395.678	98.88
395.903	113.88
396.127	114.88
396.352	116.88
396.576	127.88
396.801	193.88
397.025	229.88
397.249	139.88
397.474	114.88
397.698	76.88
397.922	83.88
398.147	87.88
398.371	84.88
398.595	79.88
398.82	78.88
399.044	78.88
399.268	71.88
399.492	86.88
399.717	82.88
399.941	69.88
400.165	94.88
400.389	73.88
400.613	84.88
400.837	89.88
401.062	85.88
401.286	85.88
401.51	87.88
401.734	77.88
401.958	90.88
402.182	76.88
402.406	76.88
402.63	83.88
402.854	85.88
403.078	73.88
403.302	84.88
403.526	86.88
403.75	84.88
403.974	79.88
404.198	89.88
404.422	79.88
404.645	89.88
404.869	96.88
405.093	81.88
405.317	80.88
405.541	63.88
405.765	75.88
405.988	80.88
406.212	80.88
406.436	90.88
406.66	75.88
406.883	85.88
407.107	77.88
407.331	79.88
407.555	95.88
407.778	105.88
408.002	82.88
408.226	75.88
408.449	84.88
408.673	97.88
408.896	97.88
409.12	100.88
409.344	86.88
409.567	75.88
409.791	78.88
410.014	89.88
410.238	86.88
410.461	84.88
410.685	81.88
410.908	87.88
411.132	80.88
411.355	82.88
411.578	86.88
411.802	84.88
412.025	88.88
412.249	74.88
412.472	68.88
412.695	79.88
412.919	79.88
413.142	75.88
413.365	83.88
413.589	77.88
413.812	75.88
414.035	88.88
414.258	73.88
414.482	76.88
414.705	77.88
414.928	79.88
415.151	84.88
415.374	96.88
415.597	92.88
415.821	83.88
416.044	87.88
416.267	93.88
416.49	84.88
416.713	74.88
416.936	82.88
417.159	87.88
417.382	86.88
417.605	72.88
417.828	74.88
418.051	81.88
418.274	75.88
418.497	87.88
418.72	80.88
418.943	76.88
419.166	80.88
419.389	66.88
419.611	70.88
419.834	93.88
420.057	88.88
420.28	76.88
420.503	80.88
420.726	81.88
420.948	87.88
421.171	76.88
421.394	91.88
421.617	99.88
421.839	102.88
422.062	100.88
422.285	96.88
422.507	177.88
422.73	302.88
422.953	248.88
423.175	124.88
423.398	94.88
423.621	92.88
423.843	84.88
424.066	73.88
424.288	90.88
424.511	75.88
424.733	80.88
424.956	84.88
425.178	90.88
425.401	84.88
425.623	92.88
425.846	74.88
426.068	76.88
426.291	63.88
426.513	101.88
426.735	85.88
426.958	78.88
427.18	71.88
427.402	78.88
427.625	82.88
427.847	75.88
428.069	94.88
428.292	113.88
428.514	114.88
428.736	105.88
428.958	100.88
429.181	99.88
429.403	96.88
429.625	92.88
429.847	106.88
430.069	135.88
430.292	131.88
430.514	125.88
430.736	106.88
430.958	115.88
431.18	83.88
431.402	90.88
431.624	84.88
431.846	105.88
432.068	117.88
432.29	87.88
432.512	85.88
432.734	89.88
432.956	84.88
433.178	89.88
433.4	86.88
433.622	84.88
433.844	87.88
434.066	70.88
434.287	81.88
434.509	79.88
434.731	82.88
434.953	84.88
435.175	75.88
435.397	80.88
435.618	91.88
435.84	91.88
436.062	85.88
436.284	86.88
436.505	89.88
436.727	71.88
436.949	66.88
437.17	74.88
437.392	72.88
437.614	81.88
437.835	86.88
438.057	72.88
438.278	88.88
438.5	86.88
438.721	83.88
438.943	89.88
439.165	82.88
439.386	88.88
439.608	79.88
439.829	83.88
440.05	79.88
440.272	99.88
440.493	60.88
440.715	66.88
440.936	66.88
441.158	97.88
441.379	84.88
441.6	93.88
441.822	97.88
442.043	66.88
442.264	74.88
442.486	98.88
442.707	111.88
442.928	95.88
443.149	83.88
443.371	128.88
443.592	157.88
443.813	135.88
444.034	82.88
444.255	86.88
444.476	83.88
444.698	75.88
444.919	82.88
445.14	186.88
445.361	157.88
445.582	183.88
445.803	162.88
446.024	93.88
446.245	89.88
446.466	86.88
446.687	82.88
446.908	87.88
447.129	82.88
447.35	94.88
447.571	82.88
447.792	80.88
448.013	79.88
448.234	92.88
448.455	91.88
448.675	81.88
448.896	76.88
449.117	72.88
449.338	74.88
449.559	83.88
449.779	84.88
450	82.88
450.221	80.88
450.442	90.88
450.662	71.88
450.883	84.88
451.104	77.88
451.324	83.88
451.545	75.88
451.766	88.88
451.986	88.88
452.207	85.88
452.428	70.88
452.648	80.88
452.869	90.88
453.089	86.88
453.31	85.88
453.53	92.88
453.751	95.88
453.971	94.88
454.192	68.88
454.412	83.88
454.633	81.88
454.853	68.88
455.073	82.88
455.294	76.88
455.514	76.88
455.734	77.88
455.955	80.88
456.175	83.88
456.395	84.88
456.616	94.88
456.836	69.88
457.056	87.88
457.276	75.88
457.497	89.88
457.717	75.88
457.937	97.88
458.157	89.88
458.377	106.88
458.598	94.88
458.818	80.88
459.038	76.88
459.258	76.88
459.478	90.88
459.698	82.88
459.918	85.88
460.138	71.88
460.358	82.88
460.578	84.88
460.798	114.88
461.018	100.88
461.238	86.88
461.458	80.88
461.678	80.88
461.898	90.88
462.118	89.88
462.338	74.88
462.558	75.88
462.777	79.88
462.997	90.88
463.217	77.88
463.437	79.88
463.657	82.88
463.876	84.88
464.096	86.88
464.316	82.88
464.536	83.88
464.755	91.88
464.975	71.88
465.195	69.88
465.414	75.88
465.634	86.88
465.854	74.88
466.073	80.88
466.293	70.88
466.512	82.88
466.732	73.88
466.951	83.88
467.171	92.88
467.391	84.88
467.61	78.88
467.829	87.88
468.049	96.88
468.268	69.88
468.488	88.88
468.707	77.88
468.927	64.88
469.146	72.88
469.365	85.88
469.585	83.88
469.804	91.88
470.023	84.88
470.243	83.88
470.462	88.88
470.681	72.88
470.901	78.88
471.12	73.88
471.339	82.88
471.558	90.88
471.777	85.88
471.997	87.88
472.216	71.88
472.435	85.88
472.654	78.88
472.873	86.88
473.092	88.88
473.311	80.88
473.53	79.88
473.749	89.88
473.968	88.88
474.187	82.88
474.406	87.88
474.625	90.88
474.844	87.88
475.063	82.88
475.282	74.88
475.501	82.88
475.72	101.88
475.939	74.88
476.158	78.88
476.377	89.88
476.596	82.88
476.814	71.88
477.033	82.88
477.252	82.88
477.471	71.88
477.69	86.88
477.908	82.88
478.127	92.88
478.346	77.88
478.564	89.88
478.783	76.88
479.002	83.88
479.22	71.88
479.439	75.88
479.658	88.88
479.876	77.88
480.095	84.88
480.313	90.88
480.532	84.88
480.751	75.88
480.969	76.88
481.188	86.88
481.406	84.88
481.624	94.88
481.843	88.88
482.061	80.88
482.28	98.88
482.498	86.88
482.717	90.88
482.935	86.88
483.153	88.88
483.372	90.88
483.59	79.88
483.808	75.88
484.027	85.88
484.245	100.88
484.463	68.88
484.681	100.88
484.9	84.88
485.118	95.88
485.336	81.88
485.554	82.88
485.772	91.88
485.99	76.88
486.209	78.88
486.427	90.88
486.645	73.88
486.863	82.88
487.081	83.88
487.299	80.88
487.517	93.88
487.735	106.88
487.953	110.88
488.171	93.88
488.389	75.88
488.607	81.88
488.825	91.88
489.043	86.88
489.261	91.88
489.479	88.88
489.696	88.88
489.914	87.88
490.132	81.88
490.35	82.88
490.568	84.88
490.786	79.88
491.003	76.88
491.221	80.88
491.439	79.88
491.657	98.88
491.874	83.88
492.092	84.88
492.31	73.88
492.527	80.88
492.745	83.88
492.963	74.88
493.18	80.88
493.398	94.88
493.615	91.88
493.833	86.88
494.05	96.88
494.268	82.88
494.485	89.88
494.703	99.88
494.92	80.88
495.138	75.88
495.355	86.88
495.573	99.88
495.79	82.88
496.008	90.88
496.225	89.88
496.442	91.88
496.66	82.88
496.877	87.88
497.094	93.88
497.312	88.88
497.529	72.88
497.746	77.88
497.963	70.88
498.181	78.88
498.398	95.88
498.615	79.88
498.832	81.88
499.049	84.88
499.267	106.88
499.484	77.88
499.701	82.88
499.918	86.88
500.135	94.88
500.352	94.88
500.569	82.88
500.786	88.88
501.003	101.88
501.22	87.88
501.437	75.88
501.654	92.88
501.871	87.88
502.088	92.88
502.305	87.88
502.522	85.88
502.739	86.88
502.956	78.88
503.172	92.88
503.389	91.88
503.606	87.88
503.823	87.88
504.04	92.88
504.256	95.88
504.473	104.88
504.69	88.88
504.907	102.88
505.123	102.88
505.34	86.88
505.557	90.88
505.773	95.88
505.99	82.88
506.207	88.88
506.423	70.88
506.64	78.88
506.856	89.88
507.073	85.88
507.289	81.88
507.506	99.88
507.722	85.88
507.939	80.88
508.155	81.88
508.372	86.88
508.588	99.88
508.805	94.88
509.021	82.88
509.238	84.88
509.454	95.88
509.67	96.88
509.887	96.88
510.103	95.88
510.319	88.88
510.536	74.88
510.752	75.88
510.968	77.88
511.184	75.88
511.401	78.88
511.617	78.88
511.833	88.88
512.049	90.88
512.265	76.88
512.481	70.88
512.698	94.88
512.914	82.88
513.13	82.88
513.346	83.88
513.562	90.88
513.778	105.88
513.994	82.88
514.21	90.88
514.426	97.88
514.642	75.88
514.858	94.88
515.074	81.88
515.29	88.88
515.506	89.88
515.721	99.88
515.937	90.88
516.153	78.88
516.369	95.88
516.585	70.88
516.801	72.88
517.016	63.88
517.232	90.88
517.448	79.88
517.664	89.88
517.879	94.88
518.095	83.88
518.311	98.88
518.527	108.88
518.742	94.88
518.958	101.88
519.173	112.88
