Data from HP_3_HRD10591_00001.txt Node
Date: Mon Jan 19 14:17:01 EST 2026
User: Yrep
Spectrometer: HR+D1059
Trigger mode: 1
Integration Time (sec): 1.000000E-1
Scans to average: 1
Electric dark correction enabled: true
Nonlinearity correction enabled: false
Boxcar width: 0
XAxis mode: Wavelengths
Number of Pixels in Spectrum: 2048
>>>>>Begin Spectral Data<<<<<
223.165	-14
223.4	-14
223.635	-14
223.869	-11
224.104	-12
224.338	-21
224.573	-19
224.808	-36
225.042	-10
225.277	1
225.511	15
225.746	7
225.98	12
226.215	7
226.449	14
226.683	15
226.918	23
227.152	29
227.387	47
227.621	33
227.856	42
228.09	52
228.324	46
228.559	48
228.793	56
229.027	66
229.262	69
229.496	67
229.73	60
229.964	76
230.199	59
230.433	62
230.667	76
230.901	90
231.136	74
231.37	63
231.604	65
231.838	73
232.072	99
232.306	86
232.541	82
232.775	85
233.009	80
233.243	76
233.477	70
233.711	67
233.945	95
234.179	69
234.413	89
234.647	79
234.881	88
235.115	82
235.349	94
235.583	81
235.817	67
236.051	72
236.285	73
236.519	82
236.753	80
236.987	80
237.221	77
237.455	68
237.689	62
237.922	71
238.156	73
238.39	69
238.624	68
238.858	81
239.091	76
239.325	62
239.559	74
239.793	76
240.027	78
240.26	68
240.494	62
240.728	77
240.961	76
241.195	66
241.429	70
241.662	78
241.896	71
242.13	74
242.363	68
242.597	70
242.83	73
243.064	56
243.298	71
243.531	74
243.765	75
243.998	72
244.232	79
244.465	72
244.699	73
244.932	77
245.166	73
245.399	67
245.633	62
245.866	84
246.099	89
246.333	76
246.566	66
246.8	70
247.033	80
247.266	69
247.5	69
247.733	79
247.966	69
248.2	88
248.433	79
248.666	76
248.899	75
249.133	81
249.366	71
249.599	76
249.832	81
250.066	78
250.299	90
250.532	75
250.765	77
250.998	94
251.231	81
251.465	66
251.698	92
251.931	82
252.164	91
252.397	74
252.63	81
252.863	76
253.096	90
253.329	72
253.562	64
253.795	84
254.028	80
254.261	81
254.494	76
254.727	76
254.96	73
255.193	82
255.426	75
255.659	87
255.892	88
256.124	71
256.357	85
256.59	94
256.823	68
257.056	57
257.289	88
257.521	80
257.754	83
257.987	87
258.22	75
258.452	73
258.685	76
258.918	73
259.151	76
259.383	76
259.616	79
259.849	67
260.081	71
260.314	91
260.547	80
260.779	67
261.012	69
261.244	82
261.477	80
261.71	78
261.942	78
262.175	73
262.407	74
262.64	77
262.872	78
263.105	79
263.337	66
263.57	70
263.802	77
264.035	82
264.267	70
264.499	91
264.732	80
264.964	76
265.197	76
265.429	77
265.661	74
265.894	64
266.126	80
266.358	83
266.591	73
266.823	87
267.055	83
267.287	67
267.52	76
267.752	81
267.984	86
268.216	89
268.448	84
268.681	76
268.913	86
269.145	75
269.377	75
269.609	89
269.841	71
270.073	73
270.306	87
270.538	76
270.77	63
271.002	73
271.234	94
271.466	88
271.698	86
271.93	82
272.162	89
272.394	84
272.626	86
272.858	73
273.09	82
273.322	73
273.553	75
273.785	90
274.017	73
274.249	74
274.481	74
274.713	79
274.945	66
275.176	95
275.408	68
275.64	78
275.872	79
276.104	82
276.335	78
276.567	83
276.799	73
277.031	88
277.262	81
277.494	87
277.726	79
277.957	74
278.189	80
278.421	82
278.652	76
278.884	83
279.115	84
279.347	87
279.579	94
279.81	93
280.042	97
280.273	102
280.505	97
280.736	85
280.968	82
281.199	85
281.431	88
281.662	85
281.894	82
282.125	87
282.356	86
282.588	95
282.819	70
283.051	70
283.282	83
283.513	85
283.745	95
283.976	82
284.207	84
284.439	81
284.67	82
284.901	94
285.132	84
285.364	95
285.595	94
285.826	85
286.057	76
286.288	99
286.52	74
286.751	74
286.982	86
287.213	94
287.444	93
287.675	84
287.906	73
288.138	84
288.369	94
288.6	86
288.831	98
289.062	96
289.293	82
289.524	104
289.755	93
289.986	73
290.217	74
290.448	66
290.679	76
290.91	89
291.141	78
291.371	82
291.602	90
291.833	90
292.064	90
292.295	72
292.526	74
292.757	84
292.987	75
293.218	82
293.449	87
293.68	73
293.91	72
294.141	96
294.372	85
294.603	76
294.833	91
295.064	83
295.295	86
295.525	94
295.756	92
295.987	88
296.217	78
296.448	78
296.679	86
296.909	95
297.14	84
297.37	62
297.601	86
297.831	95
298.062	89
298.292	86
298.523	90
298.753	85
298.984	85
299.214	82
299.445	90
299.675	86
299.905	92
300.136	80
300.366	98
300.597	92
300.827	89
301.057	91
301.288	80
301.518	87
301.748	79
301.979	105
302.209	92
302.439	85
302.669	76
302.9	102
303.13	86
303.36	87
303.59	88
303.82	85
304.051	84
304.281	91
304.511	84
304.741	71
304.971	90
305.201	82
305.431	81
305.661	77
305.891	85
306.121	96
306.352	75
306.582	72
306.812	77
307.042	88
307.272	78
307.502	74
307.731	82
307.961	82
308.191	104
308.421	96
308.651	96
308.881	96
309.111	98
309.341	96
309.571	97
309.8	72
310.03	79
310.26	80
310.49	77
310.72	83
310.949	91
311.179	95
311.409	69
311.639	68
311.868	80
312.098	89
312.328	81
312.557	85
312.787	89
313.017	94
313.246	87
313.476	76
313.706	82
313.935	82
314.165	89
314.394	93
314.624	95
314.853	67
315.083	88
315.312	88
315.542	88
315.771	90
316.001	83
316.23	78
316.46	80
316.689	82
316.919	76
317.148	79
317.377	96
317.607	92
317.836	96
318.065	88
318.295	88
318.524	93
318.753	94
318.983	92
319.212	76
319.441	87
319.67	82
319.9	85
320.129	77
320.358	102
320.587	97
320.816	94
321.046	89
321.275	85
321.504	98
321.733	87
321.962	67
322.191	97
322.42	92
322.649	91
322.878	98
323.108	104
323.337	90
323.566	101
323.795	90
324.024	89
324.253	68
324.482	79
324.71	82
324.939	92
325.168	84
325.397	91
325.626	87
325.855	79
326.084	94
326.313	80
326.542	78
326.77	99
326.999	84
327.228	85
327.457	84
327.686	77
327.914	83
328.143	91
328.372	79
328.6	92
328.829	97
329.058	78
329.287	79
329.515	79
329.744	80
329.972	92
330.201	94
330.43	84
330.658	85
330.887	75
331.115	80
331.344	85
331.572	76
331.801	82
332.03	86
332.258	83
332.486	76
332.715	82
332.943	82
333.172	86
333.4	87
333.629	86
333.857	75
334.085	82
334.314	96
334.542	83
334.771	95
334.999	105
335.227	92
335.455	81
335.684	87
335.912	105
336.14	108
336.369	97
336.597	100
336.825	87
337.053	85
337.281	84
337.51	86
337.738	94
337.966	79
338.194	91
338.422	96
338.65	75
338.878	86
339.106	84
339.334	86
339.562	75
339.79	90
340.018	89
340.246	76
340.474	92
340.702	88
340.93	80
341.158	88
341.386	85
341.614	88
341.842	88
342.07	86
342.298	89
342.526	82
342.754	87
342.981	74
343.209	74
343.437	106
343.665	98
343.893	90
344.12	83
344.348	105
344.576	98
344.804	84
345.031	97
345.259	99
345.487	94
345.714	76
345.942	91
346.17	85
346.397	90
346.625	91
346.853	87
347.08	74
347.308	68
347.535	94
347.763	96
347.99	87
348.218	75
348.445	83
348.673	90
348.9	96
349.128	106
349.355	96
349.583	98
349.81	91
350.037	86
350.265	92
350.492	87
350.72	74
350.947	74
351.174	99
351.402	69
351.629	85
351.856	97
352.083	87
352.311	86
352.538	80
352.765	89
352.992	90
353.22	75
353.447	84
353.674	72
353.901	89
354.128	78
354.355	91
354.583	84
354.81	86
355.037	71
355.264	77
355.491	72
355.718	84
355.945	74
356.172	93
356.399	91
356.626	88
356.853	115
357.08	104
357.307	96
357.534	81
357.761	95
357.988	88
358.215	104
358.441	106
358.668	95
358.895	98
359.122	94
359.349	88
359.576	75
359.802	78
360.029	94
360.256	86
360.483	86
360.709	88
360.936	89
361.163	95
361.39	92
361.616	86
361.843	99
362.07	110
362.296	115
362.523	120
362.749	111
362.976	136
363.203	136
363.429	117
363.656	98
363.882	103
364.109	119
364.335	138
364.562	164
364.788	120
365.015	102
365.241	88
365.468	88
365.694	81
365.92	91
366.147	82
366.373	79
366.599	92
366.826	94
367.052	89
367.278	96
367.505	77
367.731	87
367.957	101
368.184	98
368.41	87
368.636	94
368.862	90
369.089	88
369.315	80
369.541	94
369.767	93
369.993	83
370.219	73
370.445	87
370.672	94
370.898	90
371.124	96
371.35	100
371.576	96
371.802	100
372.028	114
372.254	109
372.48	96
372.706	103
372.932	102
373.158	98
373.384	116
373.61	119
373.835	117
374.061	112
374.287	94
374.513	114
374.739	117
374.965	108
375.191	99
375.416	104
375.642	92
375.868	93
376.094	94
376.319	88
376.545	93
376.771	86
376.997	82
377.222	84
377.448	93
377.674	94
377.899	93
378.125	84
378.35	83
378.576	92
378.802	101
379.027	97
379.253	101
379.478	94
379.704	97
379.929	100
380.155	90
380.38	88
380.606	87
380.831	98
381.057	92
381.282	96
381.507	104
381.733	102
381.958	118
382.184	88
382.409	114
382.634	112
382.86	99
383.085	102
383.31	103
383.535	98
383.761	100
383.986	115
384.211	112
384.436	87
384.662	110
384.887	102
385.112	87
385.337	96
385.562	113
385.787	107
386.013	104
386.238	97
386.463	88
386.688	104
386.913	90
387.138	103
387.363	104
387.588	104
387.813	107
388.038	105
388.263	94
388.488	108
388.713	111
388.938	94
389.163	82
389.387	89
389.612	84
389.837	105
390.062	100
390.287	83
390.512	97
390.736	79
390.961	83
391.186	97
391.411	106
391.636	103
391.86	86
392.085	97
392.31	98
392.534	103
392.759	128
392.984	207
393.208	319
393.433	466
393.658	358
393.882	164
394.107	134
394.331	145
394.556	158
394.78	118
395.005	105
395.229	115
395.454	105
395.678	127
395.903	142
396.127	179
396.352	194
396.576	214
396.801	342
397.025	386
397.249	207
397.474	149
397.698	116
397.922	94
398.147	100
398.371	93
398.595	94
398.82	105
399.044	84
399.268	80
399.492	99
399.717	76
399.941	82
400.165	105
400.389	96
400.613	97
400.837	85
401.062	99
401.286	99
401.51	81
401.734	91
401.958	84
402.182	86
402.406	94
402.63	90
402.854	95
403.078	90
403.302	98
403.526	97
403.75	102
403.974	90
404.198	104
404.422	110
404.645	122
404.869	122
405.093	98
405.317	96
405.541	83
405.765	75
405.988	97
406.212	107
406.436	93
406.66	94
406.883	90
407.107	90
407.331	97
407.555	104
407.778	120
408.002	122
408.226	95
408.449	92
408.673	89
408.896	79
409.12	91
409.344	119
409.567	116
409.791	97
410.014	116
410.238	121
410.461	86
410.685	96
410.908	107
411.132	95
411.355	82
411.578	97
411.802	83
412.025	110
412.249	88
412.472	99
412.695	82
412.919	84
413.142	83
413.365	81
413.589	67
413.812	70
414.035	94
414.258	91
414.482	84
414.705	97
414.928	91
415.151	73
415.374	93
415.597	90
415.821	86
416.044	84
416.267	85
416.49	87
416.713	84
416.936	88
417.159	72
417.382	75
417.605	84
417.828	94
418.051	80
418.274	87
418.497	96
418.72	83
418.943	88
419.166	85
419.389	103
419.611	89
419.834	95
420.057	106
420.28	90
420.503	102
420.726	86
420.948	90
421.171	112
421.394	118
421.617	152
421.839	149
422.062	163
422.285	223
422.507	390
422.73	585
422.953	538
423.175	291
423.398	156
423.621	143
423.843	115
424.066	108
424.288	123
424.511	111
424.733	101
424.956	103
425.178	85
425.401	92
425.623	94
425.846	90
426.068	92
426.291	90
426.513	75
426.735	89
426.958	103
427.18	85
427.402	116
427.625	90
427.847	92
428.069	113
428.292	142
428.514	158
428.736	132
428.958	147
429.181	166
429.403	100
429.625	103
429.847	157
430.069	205
430.292	228
430.514	225
430.736	170
430.958	199
431.18	120
431.402	98
431.624	105
431.846	144
432.068	154
432.29	110
432.512	97
432.734	102
432.956	92
433.178	84
433.4	79
433.622	77
433.844	87
434.066	81
434.287	90
434.509	86
434.731	80
434.953	74
435.175	92
435.397	100
435.618	73
435.84	99
436.062	82
436.284	101
436.505	94
436.727	87
436.949	72
437.17	82
437.392	86
437.614	90
437.835	83
438.057	88
438.278	106
438.5	94
438.721	99
438.943	88
439.165	80
439.386	92
439.608	76
439.829	90
440.05	82
440.272	108
440.493	105
440.715	94
440.936	79
441.158	92
441.379	96
441.6	103
441.822	100
442.043	89
442.264	94
442.486	176
442.707	229
442.928	160
443.149	132
443.371	176
443.592	313
443.813	298
444.034	125
444.255	96
444.476	84
444.698	89
444.919	115
445.14	215
445.361	243
445.582	394
445.803	338
446.024	150
446.245	102
446.466	91
446.687	90
446.908	90
447.129	91
447.35	98
447.571	87
447.792	80
448.013	91
448.234	91
448.455	81
448.675	92
448.896	94
449.117	93
449.338	89
449.559	94
449.779	90
450	74
450.221	81
450.442	89
450.662	84
450.883	91
451.104	88
451.324	93
451.545	81
451.766	101
451.986	76
452.207	92
452.428	91
452.648	116
452.869	119
453.089	98
453.31	98
453.53	87
453.751	90
453.971	80
454.192	69
454.412	85
454.633	98
454.853	82
455.073	88
455.294	78
455.514	95
455.734	93
455.955	83
456.175	80
456.395	76
456.616	90
456.836	81
457.056	91
457.276	83
457.497	83
457.717	105
457.937	128
458.157	137
458.377	148
458.598	145
458.818	162
459.038	104
459.258	87
459.478	87
459.698	86
459.918	93
460.138	79
460.358	97
460.578	104
460.798	150
461.018	143
461.238	98
461.458	80
461.678	82
461.898	86
462.118	100
462.338	96
462.558	83
462.777	83
462.997	82
463.217	74
463.437	84
463.657	84
463.876	74
464.096	89
464.316	86
464.536	98
464.755	74
464.975	95
465.195	101
465.414	83
465.634	88
465.854	82
466.073	85
466.293	94
466.512	90
466.732	82
466.951	91
467.171	98
467.391	88
467.61	77
467.829	80
468.049	75
468.268	91
468.488	93
468.707	104
468.927	95
469.146	82
469.365	94
469.585	88
469.804	83
470.023	87
470.243	90
470.462	99
470.681	97
470.901	102
471.12	81
471.339	90
471.558	79
471.777	82
471.997	78
472.216	92
472.435	104
472.654	98
472.873	83
473.092	77
473.311	98
473.53	75
473.749	79
473.968	82
474.187	74
474.406	88
474.625	89
474.844	76
475.063	81
475.282	99
475.501	80
475.72	80
475.939	88
476.158	97
476.377	86
476.596	90
476.814	93
477.033	98
477.252	86
477.471	75
477.69	80
477.908	83
478.127	81
478.346	103
478.564	75
478.783	89
479.002	88
479.22	95
479.439	91
479.658	78
479.876	85
480.095	81
480.313	81
480.532	95
480.751	92
480.969	83
481.188	80
481.406	92
481.624	94
481.843	89
482.061	83
482.28	89
482.498	95
482.717	65
482.935	86
483.153	93
483.372	92
483.59	87
483.808	90
484.027	99
484.245	102
484.463	93
484.681	91
484.9	97
485.118	90
485.336	98
485.554	97
485.772	76
485.99	90
486.209	90
486.427	94
486.645	90
486.863	84
487.081	104
487.299	116
487.517	120
487.735	138
487.953	230
488.171	192
488.389	104
488.607	92
488.825	103
489.043	107
489.261	91
489.479	99
489.696	99
489.914	98
490.132	107
490.35	87
490.568	91
490.786	88
491.003	98
491.221	86
491.439	107
491.657	96
491.874	88
492.092	95
492.31	96
492.527	86
492.745	91
492.963	79
493.18	88
493.398	101
493.615	93
493.833	86
494.05	79
494.268	86
494.485	104
494.703	101
494.92	86
495.138	84
495.355	98
495.573	87
495.79	94
496.008	110
496.225	90
496.442	107
496.66	98
496.877	91
497.094	96
497.312	78
497.529	84
497.746	86
497.963	103
498.181	104
498.398	100
498.615	98
498.832	89
499.049	78
499.267	102
499.484	88
499.701	78
499.918	82
500.135	104
500.352	110
500.569	93
500.786	99
501.003	99
501.22	89
501.437	99
501.654	100
501.871	100
502.088	102
502.305	95
502.522	91
502.739	84
502.956	87
503.172	98
503.389	104
503.606	82
503.823	92
504.04	123
504.256	162
504.473	167
504.69	103
504.907	101
505.123	89
505.34	106
505.557	86
505.773	94
505.99	86
506.207	88
506.423	118
506.64	89
506.856	80
507.073	85
507.289	81
507.506	84
507.722	89
507.939	85
508.155	95
508.372	82
508.588	75
508.805	83
509.021	87
509.238	75
509.454	86
509.67	84
509.887	98
510.103	88
510.319	90
510.536	84
510.752	78
510.968	100
511.184	87
511.401	89
511.617	96
511.833	98
512.049	97
512.265	99
512.481	96
512.698	104
512.914	98
513.13	99
513.346	81
513.562	100
513.778	104
513.994	88
514.21	83
514.426	100
514.642	119
514.858	101
515.074	83
515.29	96
515.506	93
515.721	89
515.937	88
516.153	80
516.369	86
516.585	83
516.801	105
517.016	108
517.232	108
517.448	114
517.664	94
517.879	84
518.095	98
518.311	110
518.527	136
518.742	128
518.958	202
519.173	209
519.389	118
519.605	116
519.82	89
520.036	89
520.251	87
520.467	89
520.682	99
520.898	96
521.113	113
521.329	110
521.544	101
521.76	87
521.975	71
522.19	92
522.406	90
522.621	99
522.836	96
523.052	100
523.267	94
523.482	96
523.698	95
523.913	93
524.128	79
524.343	90
524.559	101
524.774	90
524.989	89
525.204	85
525.419	96
525.634	92
525.849	118
526.064	130
526.28	305
526.495	449
526.71	500
526.925	314
527.14	408
527.355	349
527.57	138
527.785	92
527.999	92
528.214	94
528.429	87
528.644	85
528.859	86
529.074	83
529.289	82
529.503	94
529.718	84
529.933	98
530.148	100
530.363	115
530.577	97
530.792	105
531.007	109
531.221	104
531.436	102
531.651	110
531.865	97
532.08	100
532.295	104
532.509	105
532.724	106
532.938	113
533.153	95
533.367	106
533.582	102
533.796	93
534.011	105
534.225	98
534.44	110
534.654	117
534.868	130
535.083	230
535.297	190
535.511	111
535.726	105
535.94	101
536.154	116
536.369	97
536.583	88
536.797	97
537.011	94
537.225	107
537.44	116
537.654	107
537.868	126
538.082	94
538.296	106
538.51	112
538.724	117
538.938	117
539.153	115
539.367	115
539.581	121
539.795	102
540.009	107
540.222	106
540.436	118
540.65	114
540.864	120
541.078	107
541.292	98
541.506	116
541.72	115
541.934	105
542.147	112
542.361	106
542.575	110
542.789	120
543.002	106
543.216	118
543.43	104
543.644	102
543.857	114
544.071	106
544.285	118
544.498	107
544.712	110
544.925	126
545.139	99
545.352	113
545.566	111
545.779	117
545.993	110
546.206	120
546.42	123
546.633	134
546.847	164
547.06	161
547.274	166
547.487	217
547.7	216
547.914	240
548.127	268
548.34	249
548.554	252
548.767	251
548.98	278
549.193	258
549.407	249
549.62	269
549.833	294
550.046	344
550.259	329
550.473	313
550.686	328
550.899	386
551.112	377
551.325	440
551.538	466
551.751	441
551.964	405
552.177	383
552.39	393
552.603	384
552.816	378
553.029	379
553.242	394
553.455	381
553.667	411
553.88	413
554.093	427
554.306	432
554.519	414
554.732	425
554.944	400
555.157	392
555.37	380
555.583	355
555.795	332
556.008	311
556.221	309
556.433	299
556.646	294
556.859	277
557.071	242
557.284	242
557.496	213
557.709	229
557.921	215
558.134	218
558.346	300
558.559	255
558.771	246
558.984	446
559.196	549
559.409	294
559.621	424
559.833	327
560.046	388
560.258	325
560.47	330
560.683	191
560.895	144
561.107	137
561.32	114
561.532	136
561.744	108
561.956	119
562.168	121
562.381	110
562.593	120
562.805	111
563.017	118
563.229	113
563.441	112
563.653	122
563.865	120
564.077	115
564.289	116
564.501	115
564.713	119
564.925	106
565.137	106
565.349	107
565.561	115
565.773	117
565.985	105
566.197	96
566.408	101
566.62	112
566.832	105
567.044	107
567.255	122
567.467	108
567.679	111
567.891	119
568.102	115
568.314	112
568.526	127
568.737	116
568.949	128
569.161	128
569.372	111
569.584	114
569.795	102
570.007	115
570.218	106
570.43	130
570.641	102
570.853	106
571.064	121
571.276	98
571.487	90
571.698	122
571.91	94
572.121	98
572.333	109
572.544	106
572.755	117
572.966	103
573.178	122
573.389	123
573.6	103
573.811	85
574.023	103
574.234	96
574.445	105
574.656	118
574.867	92
575.078	105
575.289	91
575.501	97
575.712	97
575.923	96
576.134	102
576.345	96
576.556	98
576.767	99
576.978	91
577.188	106
577.399	90
577.61	105
577.821	95
578.032	100
578.243	107
578.454	88
578.665	105
578.875	96
579.086	106
579.297	98
579.508	97
579.718	112
579.929	93
580.14	121
580.35	110
580.561	99
580.772	107
580.982	95
581.193	94
581.403	107
581.614	106
581.825	90
582.035	94
582.246	102
582.456	103
582.667	91
