Data from HP_3_HRD10591_00024.txt Node
Date: Mon Jan 19 14:17:12 EST 2026
User: Yrep
Spectrometer: HR+D1059
Trigger mode: 1
Integration Time (sec): 1.000000E-1
Scans to average: 1
Electric dark correction enabled: true
Nonlinearity correction enabled: false
Boxcar width: 0
XAxis mode: Wavelengths
Number of Pixels in Spectrum: 2048
>>>>>Begin Spectral Data<<<<<
223.165	-11.56
223.4	-11.56
223.635	-11.56
223.869	-17.56
224.104	-29.56
224.338	-27.56
224.573	-18.56
224.808	-3.56
225.042	-12.56
225.277	2.44
225.511	5.44
225.746	1.44
225.98	3.44
226.215	13.44
226.449	12.44
226.683	18.44
226.918	29.44
227.152	34.44
227.387	44.44
227.621	22.44
227.856	49.44
228.09	50.44
228.324	44.44
228.559	50.44
228.793	67.44
229.027	63.44
229.262	58.44
229.496	62.44
229.73	71.44
229.964	84.44
230.199	79.44
230.433	75.44
230.667	73.44
230.901	67.44
231.136	98.44
231.37	72.44
231.604	98.44
231.838	77.44
232.072	77.44
232.306	95.44
232.541	64.44
232.775	82.44
233.009	81.44
233.243	83.44
233.477	86.44
233.711	84.44
233.945	95.44
234.179	84.44
234.413	86.44
234.647	85.44
234.881	78.44
235.115	88.44
235.349	76.44
235.583	72.44
235.817	80.44
236.051	84.44
236.285	76.44
236.519	74.44
236.753	75.44
236.987	80.44
237.221	83.44
237.455	70.44
237.689	63.44
237.922	86.44
238.156	79.44
238.39	67.44
238.624	75.44
238.858	94.44
239.091	75.44
239.325	78.44
239.559	73.44
239.793	81.44
240.027	93.44
240.26	88.44
240.494	81.44
240.728	75.44
240.961	88.44
241.195	79.44
241.429	73.44
241.662	89.44
241.896	90.44
242.13	75.44
242.363	90.44
242.597	82.44
242.83	74.44
243.064	85.44
243.298	76.44
243.531	67.44
243.765	59.44
243.998	77.44
244.232	81.44
244.465	67.44
244.699	76.44
244.932	81.44
245.166	77.44
245.399	80.44
245.633	86.44
245.866	84.44
246.099	79.44
246.333	90.44
246.566	84.44
246.8	81.44
247.033	78.44
247.266	83.44
247.5	86.44
247.733	68.44
247.966	78.44
248.2	75.44
248.433	91.44
248.666	75.44
248.899	91.44
249.133	89.44
249.366	79.44
249.599	88.44
249.832	92.44
250.066	83.44
250.299	72.44
250.532	75.44
250.765	86.44
250.998	102.44
251.231	87.44
251.465	65.44
251.698	92.44
251.931	68.44
252.164	80.44
252.397	78.44
252.63	61.44
252.863	66.44
253.096	80.44
253.329	78.44
253.562	79.44
253.795	70.44
254.028	58.44
254.261	68.44
254.494	77.44
254.727	76.44
254.96	84.44
255.193	78.44
255.426	73.44
255.659	102.44
255.892	85.44
256.124	80.44
256.357	86.44
256.59	80.44
256.823	83.44
257.056	87.44
257.289	93.44
257.521	100.44
257.754	85.44
257.987	96.44
258.22	87.44
258.452	85.44
258.685	77.44
258.918	89.44
259.151	95.44
259.383	90.44
259.616	82.44
259.849	78.44
260.081	72.44
260.314	89.44
260.547	84.44
260.779	81.44
261.012	79.44
261.244	83.44
261.477	85.44
261.71	75.44
261.942	84.44
262.175	72.44
262.407	72.44
262.64	75.44
262.872	75.44
263.105	86.44
263.337	83.44
263.57	92.44
263.802	70.44
264.035	78.44
264.267	82.44
264.499	84.44
264.732	80.44
264.964	76.44
265.197	79.44
265.429	71.44
265.661	85.44
265.894	85.44
266.126	106.44
266.358	74.44
266.591	83.44
266.823	91.44
267.055	78.44
267.287	91.44
267.52	88.44
267.752	80.44
267.984	100.44
268.216	78.44
268.448	86.44
268.681	76.44
268.913	85.44
269.145	85.44
269.377	75.44
269.609	77.44
269.841	86.44
270.073	84.44
270.306	84.44
270.538	87.44
270.77	100.44
271.002	91.44
271.234	103.44
271.466	92.44
271.698	102.44
271.93	84.44
272.162	90.44
272.394	95.44
272.626	81.44
272.858	89.44
273.09	88.44
273.322	63.44
273.553	86.44
273.785	82.44
274.017	85.44
274.249	90.44
274.481	84.44
274.713	77.44
274.945	82.44
275.176	84.44
275.408	78.44
275.64	88.44
275.872	83.44
276.104	85.44
276.335	88.44
276.567	85.44
276.799	83.44
277.031	102.44
277.262	91.44
277.494	68.44
277.726	78.44
277.957	95.44
278.189	86.44
278.421	84.44
278.652	91.44
278.884	101.44
279.115	86.44
279.347	85.44
279.579	92.44
279.81	91.44
280.042	87.44
280.273	96.44
280.505	87.44
280.736	92.44
280.968	99.44
281.199	85.44
281.431	86.44
281.662	85.44
281.894	82.44
282.125	80.44
282.356	96.44
282.588	90.44
282.819	79.44
283.051	79.44
283.282	100.44
283.513	93.44
283.745	81.44
283.976	85.44
284.207	94.44
284.439	82.44
284.67	81.44
284.901	86.44
285.132	86.44
285.364	91.44
285.595	100.44
285.826	89.44
286.057	89.44
286.288	84.44
286.52	91.44
286.751	85.44
286.982	98.44
287.213	92.44
287.444	88.44
287.675	74.44
287.906	86.44
288.138	94.44
288.369	106.44
288.6	76.44
288.831	90.44
289.062	85.44
289.293	82.44
289.524	85.44
289.755	72.44
289.986	83.44
290.217	88.44
290.448	88.44
290.679	98.44
290.91	74.44
291.141	90.44
291.371	98.44
291.602	75.44
291.833	103.44
292.064	90.44
292.295	94.44
292.526	98.44
292.757	85.44
292.987	88.44
293.218	97.44
293.449	96.44
293.68	92.44
293.91	92.44
294.141	92.44
294.372	84.44
294.603	89.44
294.833	87.44
295.064	90.44
295.295	94.44
295.525	83.44
295.756	107.44
295.987	83.44
296.217	74.44
296.448	90.44
296.679	79.44
296.909	86.44
297.14	90.44
297.37	96.44
297.601	100.44
297.831	95.44
298.062	77.44
298.292	92.44
298.523	74.44
298.753	90.44
298.984	80.44
299.214	90.44
299.445	83.44
299.675	97.44
299.905	90.44
300.136	98.44
300.366	96.44
300.597	89.44
300.827	79.44
301.057	82.44
301.288	96.44
301.518	91.44
301.748	92.44
301.979	99.44
302.209	94.44
302.439	100.44
302.669	95.44
302.9	79.44
303.13	93.44
303.36	96.44
303.59	80.44
303.82	81.44
304.051	90.44
304.281	86.44
304.511	100.44
304.741	86.44
304.971	92.44
305.201	98.44
305.431	92.44
305.661	103.44
305.891	101.44
306.121	104.44
306.352	86.44
306.582	99.44
306.812	86.44
307.042	93.44
307.272	78.44
307.502	91.44
307.731	92.44
307.961	84.44
308.191	98.44
308.421	94.44
308.651	88.44
308.881	86.44
309.111	92.44
309.341	91.44
309.571	94.44
309.8	96.44
310.03	90.44
310.26	93.44
310.49	79.44
310.72	80.44
310.949	85.44
311.179	94.44
311.409	95.44
311.639	90.44
311.868	100.44
312.098	76.44
312.328	91.44
312.557	98.44
312.787	100.44
313.017	83.44
313.246	90.44
313.476	80.44
313.706	112.44
313.935	96.44
314.165	101.44
314.394	97.44
314.624	95.44
314.853	95.44
315.083	100.44
315.312	90.44
315.542	85.44
315.771	82.44
316.001	102.44
316.23	97.44
316.46	77.44
316.689	92.44
316.919	84.44
317.148	95.44
317.377	105.44
317.607	94.44
317.836	102.44
318.065	103.44
318.295	90.44
318.524	91.44
318.753	97.44
318.983	86.44
319.212	86.44
319.441	90.44
319.67	87.44
319.9	93.44
320.129	86.44
320.358	90.44
320.587	95.44
320.816	111.44
321.046	97.44
321.275	88.44
321.504	92.44
321.733	100.44
321.962	77.44
322.191	68.44
322.42	82.44
322.649	88.44
322.878	96.44
323.108	85.44
323.337	98.44
323.566	86.44
323.795	89.44
324.024	69.44
324.253	81.44
324.482	100.44
324.71	84.44
324.939	93.44
325.168	74.44
325.397	96.44
325.626	80.44
325.855	96.44
326.084	84.44
326.313	106.44
326.542	78.44
326.77	92.44
326.999	90.44
327.228	105.44
327.457	93.44
327.686	91.44
327.914	86.44
328.143	102.44
328.372	91.44
328.6	82.44
328.829	86.44
329.058	91.44
329.287	85.44
329.515	86.44
329.744	85.44
329.972	84.44
330.201	90.44
330.43	75.44
330.658	85.44
330.887	84.44
331.115	87.44
331.344	80.44
331.572	92.44
331.801	82.44
332.03	93.44
332.258	97.44
332.486	94.44
332.715	87.44
332.943	88.44
333.172	85.44
333.4	88.44
333.629	84.44
333.857	106.44
334.085	94.44
334.314	79.44
334.542	85.44
334.771	86.44
334.999	98.44
335.227	96.44
335.455	93.44
335.684	108.44
335.912	89.44
336.14	86.44
336.369	91.44
336.597	86.44
336.825	92.44
337.053	80.44
337.281	89.44
337.51	102.44
337.738	88.44
337.966	98.44
338.194	84.44
338.422	93.44
338.65	86.44
338.878	82.44
339.106	80.44
339.334	94.44
339.562	87.44
339.79	90.44
340.018	92.44
340.246	91.44
340.474	79.44
340.702	89.44
340.93	75.44
341.158	95.44
341.386	93.44
341.614	84.44
341.842	84.44
342.07	81.44
342.298	96.44
342.526	98.44
342.754	86.44
342.981	90.44
343.209	94.44
343.437	102.44
343.665	94.44
343.893	104.44
344.12	106.44
344.348	92.44
344.576	88.44
344.804	77.44
345.031	93.44
345.259	87.44
345.487	90.44
345.714	102.44
345.942	76.44
346.17	86.44
346.397	99.44
346.625	69.44
346.853	90.44
347.08	86.44
347.308	81.44
347.535	85.44
347.763	92.44
347.99	91.44
348.218	87.44
348.445	96.44
348.673	87.44
348.9	78.44
349.128	90.44
349.355	88.44
349.583	92.44
349.81	82.44
350.037	98.44
350.265	109.44
350.492	99.44
350.72	82.44
350.947	79.44
351.174	84.44
351.402	87.44
351.629	95.44
351.856	88.44
352.083	95.44
352.311	94.44
352.538	81.44
352.765	89.44
352.992	81.44
353.22	81.44
353.447	87.44
353.674	80.44
353.901	71.44
354.128	80.44
354.355	89.44
354.583	77.44
354.81	78.44
355.037	89.44
355.264	101.44
355.491	85.44
355.718	99.44
355.945	79.44
356.172	92.44
356.399	86.44
356.626	80.44
356.853	86.44
357.08	99.44
357.307	95.44
357.534	84.44
357.761	95.44
357.988	86.44
358.215	102.44
358.441	97.44
358.668	99.44
358.895	69.44
359.122	92.44
359.349	83.44
359.576	87.44
359.802	92.44
360.029	80.44
360.256	86.44
360.483	104.44
360.709	74.44
360.936	87.44
361.163	88.44
361.39	87.44
361.616	108.44
361.843	95.44
362.07	91.44
362.296	104.44
362.523	89.44
362.749	83.44
362.976	90.44
363.203	99.44
363.429	89.44
363.656	94.44
363.882	102.44
364.109	96.44
364.335	110.44
364.562	104.44
364.788	98.44
365.015	96.44
365.241	75.44
365.468	93.44
365.694	100.44
365.92	94.44
366.147	90.44
366.373	102.44
366.599	93.44
366.826	106.44
367.052	87.44
367.278	75.44
367.505	88.44
367.731	95.44
367.957	78.44
368.184	90.44
368.41	80.44
368.636	97.44
368.862	84.44
369.089	78.44
369.315	73.44
369.541	90.44
369.767	90.44
369.993	81.44
370.219	82.44
370.445	102.44
370.672	92.44
370.898	95.44
371.124	100.44
371.35	85.44
371.576	91.44
371.802	85.44
372.028	95.44
372.254	90.44
372.48	102.44
372.706	85.44
372.932	96.44
373.158	100.44
373.384	118.44
373.61	103.44
373.835	115.44
374.061	86.44
374.287	88.44
374.513	92.44
374.739	98.44
374.965	115.44
375.191	95.44
375.416	78.44
375.642	96.44
375.868	91.44
376.094	88.44
376.319	92.44
376.545	93.44
376.771	96.44
376.997	77.44
377.222	81.44
377.448	92.44
377.674	89.44
377.899	86.44
378.125	81.44
378.35	90.44
378.576	89.44
378.802	83.44
379.027	87.44
379.253	99.44
379.478	91.44
379.704	83.44
379.929	83.44
380.155	75.44
380.38	87.44
380.606	110.44
380.831	90.44
381.057	95.44
381.282	90.44
381.507	86.44
381.733	84.44
381.958	92.44
382.184	87.44
382.409	90.44
382.634	98.44
382.86	101.44
383.085	104.44
383.31	79.44
383.535	103.44
383.761	99.44
383.986	99.44
384.211	103.44
384.436	102.44
384.662	87.44
384.887	80.44
385.112	109.44
385.337	92.44
385.562	79.44
385.787	95.44
386.013	98.44
386.238	82.44
386.463	104.44
386.688	101.44
386.913	87.44
387.138	86.44
387.363	91.44
387.588	81.44
387.813	93.44
388.038	112.44
388.263	92.44
388.488	102.44
388.713	98.44
388.938	75.44
389.163	88.44
389.387	74.44
389.612	83.44
389.837	91.44
390.062	94.44
390.287	85.44
390.512	95.44
390.736	84.44
390.961	93.44
391.186	79.44
391.411	97.44
391.636	91.44
391.86	95.44
392.085	94.44
392.31	83.44
392.534	104.44
392.759	104.44
392.984	155.44
393.208	253.44
393.433	398.44
393.658	285.44
393.882	140.44
394.107	95.44
394.331	111.44
394.556	112.44
394.78	94.44
395.005	94.44
395.229	85.44
395.454	89.44
395.678	102.44
395.903	111.44
396.127	131.44
396.352	134.44
396.576	161.44
396.801	261.44
397.025	299.44
397.249	159.44
397.474	108.44
397.698	104.44
397.922	97.44
398.147	98.44
398.371	93.44
398.595	101.44
398.82	76.44
399.044	90.44
399.268	94.44
399.492	85.44
399.717	75.44
399.941	94.44
400.165	96.44
400.389	87.44
400.613	89.44
400.837	90.44
401.062	79.44
401.286	88.44
401.51	104.44
401.734	81.44
401.958	98.44
402.182	82.44
402.406	80.44
402.63	93.44
402.854	78.44
403.078	101.44
403.302	79.44
403.526	85.44
403.75	96.44
403.974	88.44
404.198	83.44
404.422	91.44
404.645	102.44
404.869	89.44
405.093	89.44
405.317	92.44
405.541	86.44
405.765	95.44
405.988	93.44
406.212	75.44
406.436	86.44
406.66	89.44
406.883	88.44
407.107	91.44
407.331	87.44
407.555	111.44
407.778	102.44
408.002	103.44
408.226	98.44
408.449	81.44
408.673	85.44
408.896	81.44
409.12	95.44
409.344	94.44
409.567	103.44
409.791	88.44
410.014	97.44
410.238	90.44
410.461	78.44
410.685	85.44
410.908	79.44
411.132	90.44
411.355	82.44
411.578	90.44
411.802	110.44
412.025	89.44
412.249	78.44
412.472	79.44
412.695	99.44
412.919	81.44
413.142	86.44
413.365	88.44
413.589	83.44
413.812	99.44
414.035	100.44
414.258	86.44
414.482	95.44
414.705	90.44
414.928	85.44
415.151	90.44
415.374	101.44
415.597	86.44
415.821	83.44
416.044	83.44
416.267	91.44
416.49	87.44
416.713	87.44
416.936	72.44
417.159	90.44
417.382	75.44
417.605	89.44
417.828	88.44
418.051	82.44
418.274	94.44
418.497	83.44
418.72	94.44
418.943	77.44
419.166	88.44
419.389	79.44
419.611	88.44
419.834	84.44
420.057	83.44
420.28	72.44
420.503	102.44
420.726	95.44
420.948	82.44
421.171	96.44
421.394	105.44
421.617	130.44
421.839	105.44
422.062	114.44
422.285	139.44
422.507	220.44
422.73	358.44
422.953	335.44
423.175	149.44
423.398	109.44
423.621	86.44
423.843	98.44
424.066	88.44
424.288	98.44
424.511	94.44
424.733	87.44
424.956	95.44
425.178	88.44
425.401	84.44
425.623	86.44
425.846	78.44
426.068	88.44
426.291	88.44
426.513	100.44
426.735	85.44
426.958	68.44
427.18	97.44
427.402	82.44
427.625	90.44
427.847	91.44
428.069	112.44
428.292	100.44
428.514	109.44
428.736	111.44
428.958	116.44
429.181	109.44
429.403	96.44
429.625	98.44
429.847	102.44
430.069	122.44
430.292	163.44
430.514	122.44
430.736	94.44
430.958	118.44
431.18	96.44
431.402	84.44
431.624	103.44
431.846	114.44
432.068	114.44
432.29	100.44
432.512	91.44
432.734	88.44
432.956	85.44
433.178	88.44
433.4	75.44
433.622	92.44
433.844	80.44
434.066	90.44
434.287	78.44
434.509	90.44
434.731	71.44
434.953	84.44
435.175	84.44
435.397	74.44
435.618	100.44
435.84	95.44
436.062	81.44
436.284	82.44
436.505	88.44
436.727	84.44
436.949	85.44
437.17	77.44
437.392	98.44
437.614	91.44
437.835	86.44
438.057	91.44
438.278	94.44
438.5	102.44
438.721	97.44
438.943	84.44
439.165	87.44
439.386	84.44
439.608	87.44
439.829	84.44
440.05	98.44
440.272	83.44
440.493	70.44
440.715	74.44
440.936	90.44
441.158	95.44
441.379	84.44
441.6	74.44
441.822	79.44
442.043	92.44
442.264	94.44
442.486	111.44
442.707	128.44
442.928	93.44
443.149	104.44
443.371	112.44
443.592	199.44
443.813	165.44
444.034	105.44
444.255	103.44
444.476	88.44
444.698	90.44
444.919	88.44
445.14	201.44
445.361	166.44
445.582	206.44
445.803	178.44
446.024	100.44
446.245	80.44
446.466	101.44
446.687	98.44
446.908	73.44
447.129	96.44
447.35	74.44
447.571	94.44
447.792	82.44
448.013	83.44
448.234	87.44
448.455	82.44
448.675	94.44
448.896	88.44
449.117	78.44
449.338	84.44
449.559	99.44
449.779	96.44
450	95.44
450.221	90.44
450.442	84.44
450.662	96.44
450.883	94.44
451.104	84.44
451.324	84.44
451.545	94.44
451.766	82.44
451.986	94.44
452.207	78.44
452.428	84.44
452.648	79.44
452.869	96.44
453.089	110.44
453.31	80.44
453.53	91.44
453.751	86.44
453.971	80.44
454.192	80.44
454.412	97.44
454.633	94.44
454.853	95.44
455.073	83.44
455.294	87.44
455.514	83.44
455.734	83.44
455.955	90.44
456.175	84.44
456.395	72.44
456.616	90.44
456.836	98.44
457.056	81.44
457.276	84.44
457.497	67.44
457.717	92.44
457.937	91.44
458.157	97.44
458.377	108.44
458.598	106.44
458.818	110.44
459.038	81.44
459.258	94.44
459.478	87.44
459.698	83.44
459.918	79.44
460.138	77.44
460.358	102.44
460.578	96.44
460.798	135.44
461.018	122.44
461.238	86.44
461.458	94.44
461.678	88.44
461.898	96.44
462.118	93.44
462.338	102.44
462.558	86.44
462.777	79.44
462.997	95.44
463.217	84.44
463.437	95.44
463.657	84.44
463.876	91.44
464.096	81.44
464.316	85.44
464.536	85.44
464.755	83.44
464.975	87.44
465.195	74.44
465.414	103.44
465.634	88.44
465.854	76.44
466.073	87.44
466.293	86.44
466.512	75.44
466.732	89.44
466.951	89.44
467.171	91.44
467.391	77.44
467.61	70.44
467.829	89.44
468.049	94.44
468.268	81.44
468.488	81.44
468.707	99.44
468.927	96.44
469.146	80.44
469.365	80.44
469.585	85.44
469.804	89.44
470.023	92.44
470.243	90.44
470.462	94.44
470.681	92.44
470.901	90.44
471.12	88.44
471.339	92.44
471.558	69.44
471.777	84.44
471.997	91.44
472.216	94.44
472.435	85.44
472.654	81.44
472.873	80.44
473.092	86.44
473.311	85.44
473.53	94.44
473.749	84.44
473.968	90.44
474.187	83.44
474.406	92.44
474.625	82.44
474.844	86.44
475.063	99.44
475.282	84.44
475.501	77.44
475.72	96.44
475.939	86.44
476.158	100.44
476.377	87.44
476.596	91.44
476.814	91.44
477.033	77.44
477.252	75.44
477.471	83.44
477.69	79.44
477.908	86.44
478.127	92.44
478.346	81.44
478.564	90.44
478.783	102.44
479.002	95.44
479.22	76.44
479.439	79.44
479.658	79.44
479.876	93.44
480.095	89.44
480.313	87.44
480.532	80.44
480.751	83.44
480.969	78.44
481.188	76.44
481.406	82.44
481.624	88.44
481.843	88.44
482.061	81.44
482.28	87.44
482.498	96.44
482.717	90.44
482.935	91.44
483.153	88.44
483.372	87.44
483.59	84.44
483.808	86.44
484.027	89.44
484.245	84.44
484.463	87.44
484.681	90.44
484.9	103.44
485.118	86.44
485.336	86.44
485.554	75.44
485.772	80.44
485.99	91.44
486.209	86.44
486.427	84.44
486.645	96.44
486.863	90.44
487.081	74.44
487.299	92.44
487.517	100.44
487.735	103.44
487.953	139.44
488.171	133.44
488.389	99.44
488.607	84.44
488.825	90.44
489.043	93.44
489.261	99.44
489.479	95.44
489.696	93.44
489.914	86.44
490.132	91.44
490.35	70.44
490.568	87.44
490.786	93.44
491.003	78.44
491.221	79.44
491.439	91.44
491.657	79.44
491.874	81.44
492.092	89.44
492.31	90.44
492.527	87.44
492.745	98.44
492.963	103.44
493.18	75.44
493.398	79.44
493.615	82.44
493.833	78.44
494.05	98.44
494.268	86.44
494.485	83.44
494.703	92.44
494.92	91.44
495.138	80.44
495.355	102.44
495.573	81.44
495.79	90.44
496.008	93.44
496.225	92.44
496.442	99.44
496.66	91.44
496.877	80.44
497.094	92.44
497.312	84.44
497.529	82.44
497.746	96.44
497.963	103.44
498.181	87.44
498.398	84.44
498.615	76.44
498.832	92.44
499.049	90.44
499.267	87.44
499.484	81.44
499.701	90.44
499.918	101.44
500.135	78.44
500.352	66.44
500.569	86.44
500.786	87.44
501.003	93.44
501.22	72.44
501.437	91.44
501.654	75.44
501.871	103.44
502.088	87.44
502.305	95.44
502.522	80.44
502.739	90.44
502.956	79.44
503.172	84.44
503.389	93.44
503.606	86.44
503.823	76.44
504.04	91.44
504.256	99.44
504.473	110.44
504.69	89.44
504.907	90.44
505.123	85.44
505.34	87.44
505.557	87.44
505.773	77.44
505.99	91.44
506.207	88.44
506.423	88.44
506.64	92.44
506.856	78.44
507.073	72.44
507.289	71.44
507.506	81.44
507.722	89.44
507.939	107.44
508.155	101.44
508.372	75.44
508.588	89.44
508.805	94.44
509.021	86.44
509.238	79.44
509.454	80.44
509.67	90.44
509.887	98.44
510.103	98.44
510.319	79.44
510.536	92.44
510.752	94.44
510.968	80.44
511.184	90.44
511.401	95.44
511.617	90.44
511.833	97.44
512.049	94.44
512.265	88.44
512.481	98.44
512.698	91.44
512.914	86.44
513.13	95.44
513.346	83.44
513.562	91.44
513.778	94.44
513.994	91.44
514.21	94.44
514.426	91.44
514.642	104.44
514.858	95.44
515.074	66.44
515.29	92.44
515.506	88.44
515.721	91.44
515.937	78.44
516.153	92.44
516.369	100.44
516.585	96.44
516.801	98.44
517.016	80.44
517.232	90.44
517.448	102.44
517.664	89.44
517.879	90.44
