Data from HP_3_HRD10591_00037.txt Node
Date: Mon Jan 19 14:17:19 EST 2026
User: Yrep
Spectrometer: HR+D1059
Trigger mode: 1
Integration Time (sec): 1.000000E-1
Scans to average: 1
Electric dark correction enabled: true
Nonlinearity correction enabled: false
Boxcar width: 0
XAxis mode: Wavelengths
Number of Pixels in Spectrum: 2048
>>>>>Begin Spectral Data<<<<<
223.165	-19.44
223.4	-19.44
223.635	-19.44
223.869	-31.44
224.104	-27.44
224.338	-10.44
224.573	-5.44
224.808	-18.44
225.042	3.56
225.277	-25.44
225.511	7.56
225.746	15.56
225.98	-5.44
226.215	5.56
226.449	9.56
226.683	28.56
226.918	37.56
227.152	35.56
227.387	32.56
227.621	40.56
227.856	34.56
228.09	53.56
228.324	39.56
228.559	62.56
228.793	46.56
229.027	63.56
229.262	59.56
229.496	60.56
229.73	73.56
229.964	67.56
230.199	65.56
230.433	68.56
230.667	74.56
230.901	78.56
231.136	93.56
231.37	69.56
231.604	80.56
231.838	78.56
232.072	73.56
232.306	86.56
232.541	83.56
232.775	71.56
233.009	83.56
233.243	92.56
233.477	86.56
233.711	74.56
233.945	83.56
234.179	72.56
234.413	82.56
234.647	70.56
234.881	84.56
235.115	70.56
235.349	72.56
235.583	69.56
235.817	65.56
236.051	78.56
236.285	78.56
236.519	74.56
236.753	76.56
236.987	85.56
237.221	69.56
237.455	68.56
237.689	60.56
237.922	85.56
238.156	80.56
238.39	79.56
238.624	68.56
238.858	72.56
239.091	66.56
239.325	75.56
239.559	75.56
239.793	69.56
240.027	68.56
240.26	81.56
240.494	74.56
240.728	72.56
240.961	69.56
241.195	69.56
241.429	64.56
241.662	75.56
241.896	69.56
242.13	68.56
242.363	78.56
242.597	60.56
242.83	86.56
243.064	55.56
243.298	80.56
243.531	80.56
243.765	69.56
243.998	74.56
244.232	92.56
244.465	73.56
244.699	68.56
244.932	53.56
245.166	81.56
245.399	79.56
245.633	61.56
245.866	65.56
246.099	64.56
246.333	65.56
246.566	71.56
246.8	65.56
247.033	88.56
247.266	74.56
247.5	76.56
247.733	74.56
247.966	80.56
248.2	74.56
248.433	74.56
248.666	72.56
248.899	82.56
249.133	72.56
249.366	71.56
249.599	74.56
249.832	77.56
250.066	80.56
250.299	73.56
250.532	74.56
250.765	72.56
250.998	81.56
251.231	82.56
251.465	65.56
251.698	76.56
251.931	76.56
252.164	79.56
252.397	74.56
252.63	93.56
252.863	61.56
253.096	69.56
253.329	80.56
253.562	74.56
253.795	82.56
254.028	81.56
254.261	80.56
254.494	73.56
254.727	84.56
254.96	74.56
255.193	82.56
255.426	80.56
255.659	78.56
255.892	87.56
256.124	72.56
256.357	77.56
256.59	84.56
256.823	77.56
257.056	89.56
257.289	90.56
257.521	86.56
257.754	78.56
257.987	64.56
258.22	84.56
258.452	73.56
258.685	74.56
258.918	80.56
259.151	72.56
259.383	92.56
259.616	75.56
259.849	68.56
260.081	72.56
260.314	73.56
260.547	77.56
260.779	80.56
261.012	79.56
261.244	80.56
261.477	77.56
261.71	72.56
261.942	72.56
262.175	84.56
262.407	66.56
262.64	86.56
262.872	81.56
263.105	85.56
263.337	71.56
263.57	80.56
263.802	84.56
264.035	84.56
264.267	82.56
264.499	73.56
264.732	70.56
264.964	81.56
265.197	90.56
265.429	74.56
265.661	80.56
265.894	84.56
266.126	87.56
266.358	87.56
266.591	82.56
266.823	83.56
267.055	87.56
267.287	86.56
267.52	75.56
267.752	64.56
267.984	74.56
268.216	80.56
268.448	84.56
268.681	84.56
268.913	68.56
269.145	73.56
269.377	78.56
269.609	71.56
269.841	83.56
270.073	84.56
270.306	75.56
270.538	70.56
270.77	76.56
271.002	80.56
271.234	74.56
271.466	87.56
271.698	84.56
271.93	90.56
272.162	73.56
272.394	85.56
272.626	83.56
272.858	86.56
273.09	86.56
273.322	93.56
273.553	80.56
273.785	86.56
274.017	71.56
274.249	87.56
274.481	74.56
274.713	74.56
274.945	81.56
275.176	75.56
275.408	84.56
275.64	79.56
275.872	76.56
276.104	81.56
276.335	76.56
276.567	96.56
276.799	72.56
277.031	79.56
277.262	90.56
277.494	70.56
277.726	86.56
277.957	78.56
278.189	90.56
278.421	69.56
278.652	90.56
278.884	89.56
279.115	88.56
279.347	88.56
279.579	94.56
279.81	69.56
280.042	78.56
280.273	87.56
280.505	84.56
280.736	72.56
280.968	82.56
281.199	68.56
281.431	80.56
281.662	72.56
281.894	90.56
282.125	66.56
282.356	83.56
282.588	91.56
282.819	86.56
283.051	94.56
283.282	80.56
283.513	85.56
283.745	88.56
283.976	80.56
284.207	71.56
284.439	74.56
284.67	84.56
284.901	80.56
285.132	87.56
285.364	87.56
285.595	78.56
285.826	93.56
286.057	81.56
286.288	79.56
286.52	83.56
286.751	65.56
286.982	69.56
287.213	78.56
287.444	80.56
287.675	89.56
287.906	80.56
288.138	92.56
288.369	82.56
288.6	83.56
288.831	78.56
289.062	79.56
289.293	68.56
289.524	85.56
289.755	92.56
289.986	68.56
290.217	86.56
290.448	84.56
290.679	93.56
290.91	82.56
291.141	102.56
291.371	91.56
291.602	86.56
291.833	84.56
292.064	88.56
292.295	79.56
292.526	88.56
292.757	76.56
292.987	89.56
293.218	68.56
293.449	91.56
293.68	85.56
293.91	94.56
294.141	82.56
294.372	92.56
294.603	85.56
294.833	82.56
295.064	73.56
295.295	74.56
295.525	84.56
295.756	82.56
295.987	73.56
296.217	80.56
296.448	80.56
296.679	78.56
296.909	78.56
297.14	80.56
297.37	80.56
297.601	80.56
297.831	82.56
298.062	94.56
298.292	80.56
298.523	73.56
298.753	74.56
298.984	90.56
299.214	77.56
299.445	86.56
299.675	94.56
299.905	74.56
300.136	80.56
300.366	86.56
300.597	86.56
300.827	85.56
301.057	85.56
301.288	103.56
301.518	88.56
301.748	65.56
301.979	100.56
302.209	82.56
302.439	103.56
302.669	93.56
302.9	80.56
303.13	77.56
303.36	82.56
303.59	102.56
303.82	86.56
304.051	61.56
304.281	100.56
304.511	97.56
304.741	80.56
304.971	82.56
305.201	83.56
305.431	80.56
305.661	76.56
305.891	71.56
306.121	68.56
306.352	80.56
306.582	78.56
306.812	78.56
307.042	88.56
307.272	72.56
307.502	65.56
307.731	87.56
307.961	96.56
308.191	82.56
308.421	77.56
308.651	72.56
308.881	78.56
309.111	94.56
309.341	96.56
309.571	95.56
309.8	82.56
310.03	82.56
310.26	69.56
310.49	65.56
310.72	86.56
310.949	70.56
311.179	72.56
311.409	85.56
311.639	70.56
311.868	72.56
312.098	94.56
312.328	78.56
312.557	96.56
312.787	76.56
313.017	88.56
313.246	93.56
313.476	74.56
313.706	80.56
313.935	97.56
314.165	86.56
314.394	73.56
314.624	84.56
314.853	82.56
315.083	71.56
315.312	78.56
315.542	82.56
315.771	93.56
316.001	87.56
316.23	75.56
316.46	90.56
316.689	88.56
316.919	81.56
317.148	82.56
317.377	88.56
317.607	84.56
317.836	101.56
318.065	119.56
318.295	102.56
318.524	75.56
318.753	72.56
318.983	62.56
319.212	81.56
319.441	81.56
319.67	92.56
319.9	76.56
320.129	101.56
320.358	80.56
320.587	80.56
320.816	90.56
321.046	66.56
321.275	82.56
321.504	89.56
321.733	97.56
321.962	97.56
322.191	83.56
322.42	72.56
322.649	74.56
322.878	85.56
323.108	88.56
323.337	81.56
323.566	85.56
323.795	79.56
324.024	87.56
324.253	68.56
324.482	68.56
324.71	79.56
324.939	86.56
325.168	78.56
325.397	70.56
325.626	76.56
325.855	87.56
326.084	78.56
326.313	80.56
326.542	80.56
326.77	84.56
326.999	72.56
327.228	80.56
327.457	77.56
327.686	79.56
327.914	76.56
328.143	86.56
328.372	99.56
328.6	83.56
328.829	68.56
329.058	78.56
329.287	55.56
329.515	79.56
329.744	78.56
329.972	88.56
330.201	87.56
330.43	75.56
330.658	71.56
330.887	79.56
331.115	80.56
331.344	80.56
331.572	83.56
331.801	81.56
332.03	81.56
332.258	88.56
332.486	90.56
332.715	97.56
332.943	76.56
333.172	76.56
333.4	88.56
333.629	88.56
333.857	69.56
334.085	71.56
334.314	81.56
334.542	94.56
334.771	87.56
334.999	87.56
335.227	80.56
335.455	81.56
335.684	95.56
335.912	96.56
336.14	72.56
336.369	94.56
336.597	98.56
336.825	81.56
337.053	76.56
337.281	92.56
337.51	80.56
337.738	80.56
337.966	90.56
338.194	81.56
338.422	88.56
338.65	92.56
338.878	80.56
339.106	77.56
339.334	97.56
339.562	80.56
339.79	69.56
340.018	76.56
340.246	87.56
340.474	73.56
340.702	81.56
340.93	73.56
341.158	87.56
341.386	80.56
341.614	70.56
341.842	69.56
342.07	78.56
342.298	84.56
342.526	95.56
342.754	80.56
342.981	85.56
343.209	93.56
343.437	99.56
343.665	78.56
343.893	76.56
344.12	83.56
344.348	73.56
344.576	80.56
344.804	82.56
345.031	81.56
345.259	76.56
345.487	82.56
345.714	77.56
345.942	82.56
346.17	83.56
346.397	62.56
346.625	81.56
346.853	86.56
347.08	62.56
347.308	88.56
347.535	86.56
347.763	79.56
347.99	82.56
348.218	87.56
348.445	81.56
348.673	94.56
348.9	73.56
349.128	81.56
349.355	79.56
349.583	83.56
349.81	89.56
350.037	74.56
350.265	76.56
350.492	85.56
350.72	86.56
350.947	85.56
351.174	85.56
351.402	86.56
351.629	89.56
351.856	69.56
352.083	80.56
352.311	86.56
352.538	95.56
352.765	92.56
352.992	102.56
353.22	71.56
353.447	74.56
353.674	99.56
353.901	78.56
354.128	93.56
354.355	83.56
354.583	80.56
354.81	71.56
355.037	91.56
355.264	79.56
355.491	90.56
355.718	87.56
355.945	88.56
356.172	73.56
356.399	81.56
356.626	93.56
356.853	89.56
357.08	90.56
357.307	83.56
357.534	86.56
357.761	92.56
357.988	81.56
358.215	80.56
358.441	73.56
358.668	84.56
358.895	91.56
359.122	93.56
359.349	66.56
359.576	75.56
359.802	76.56
360.029	67.56
360.256	90.56
360.483	88.56
360.709	82.56
360.936	87.56
361.163	74.56
361.39	88.56
361.616	84.56
361.843	89.56
362.07	68.56
362.296	80.56
362.523	86.56
362.749	92.56
362.976	96.56
363.203	104.56
363.429	90.56
363.656	78.56
363.882	80.56
364.109	90.56
364.335	103.56
364.562	104.56
364.788	83.56
365.015	80.56
365.241	91.56
365.468	93.56
365.694	81.56
365.92	80.56
366.147	78.56
366.373	74.56
366.599	88.56
366.826	89.56
367.052	97.56
367.278	81.56
367.505	74.56
367.731	83.56
367.957	84.56
368.184	96.56
368.41	74.56
368.636	65.56
368.862	87.56
369.089	84.56
369.315	68.56
369.541	88.56
369.767	103.56
369.993	102.56
370.219	93.56
370.445	91.56
370.672	86.56
370.898	74.56
371.124	70.56
371.35	92.56
371.576	81.56
371.802	97.56
372.028	91.56
372.254	87.56
372.48	90.56
372.706	85.56
372.932	69.56
373.158	66.56
373.384	98.56
373.61	113.56
373.835	106.56
374.061	76.56
374.287	84.56
374.513	94.56
374.739	96.56
374.965	82.56
375.191	79.56
375.416	80.56
375.642	102.56
375.868	93.56
376.094	97.56
376.319	101.56
376.545	82.56
376.771	98.56
376.997	85.56
377.222	78.56
377.448	76.56
377.674	75.56
377.899	74.56
378.125	88.56
378.35	72.56
378.576	94.56
378.802	80.56
379.027	74.56
379.253	82.56
379.478	78.56
379.704	96.56
379.929	84.56
380.155	72.56
380.38	81.56
380.606	97.56
380.831	79.56
381.057	100.56
381.282	74.56
381.507	69.56
381.733	80.56
381.958	96.56
382.184	74.56
382.409	93.56
382.634	95.56
382.86	79.56
383.085	105.56
383.31	93.56
383.535	90.56
383.761	94.56
383.986	99.56
384.211	85.56
384.436	78.56
384.662	77.56
384.887	73.56
385.112	85.56
385.337	95.56
385.562	72.56
385.787	84.56
386.013	86.56
386.238	80.56
386.463	84.56
386.688	99.56
386.913	83.56
387.138	92.56
387.363	95.56
387.588	93.56
387.813	88.56
388.038	105.56
388.263	84.56
388.488	86.56
388.713	79.56
388.938	87.56
389.163	83.56
389.387	77.56
389.612	83.56
389.837	84.56
390.062	88.56
390.287	71.56
390.512	71.56
390.736	83.56
390.961	64.56
391.186	78.56
391.411	82.56
391.636	82.56
391.86	75.56
392.085	86.56
392.31	93.56
392.534	98.56
392.759	109.56
392.984	144.56
393.208	267.56
393.433	414.56
393.658	322.56
393.882	150.56
394.107	92.56
394.331	110.56
394.556	98.56
394.78	102.56
395.005	71.56
395.229	83.56
395.454	90.56
395.678	102.56
395.903	110.56
396.127	135.56
396.352	152.56
396.576	182.56
396.801	278.56
397.025	326.56
397.249	167.56
397.474	96.56
397.698	96.56
397.922	71.56
398.147	90.56
398.371	80.56
398.595	92.56
398.82	77.56
399.044	85.56
399.268	86.56
399.492	75.56
399.717	69.56
399.941	75.56
400.165	80.56
400.389	64.56
400.613	83.56
400.837	96.56
401.062	90.56
401.286	71.56
401.51	82.56
401.734	90.56
401.958	95.56
402.182	85.56
402.406	77.56
402.63	78.56
402.854	74.56
403.078	76.56
403.302	75.56
403.526	70.56
403.75	74.56
403.974	88.56
404.198	68.56
404.422	84.56
404.645	83.56
404.869	74.56
405.093	88.56
405.317	85.56
405.541	80.56
405.765	80.56
405.988	85.56
406.212	63.56
406.436	72.56
406.66	90.56
406.883	86.56
407.107	90.56
407.331	85.56
407.555	99.56
407.778	125.56
408.002	126.56
408.226	89.56
408.449	74.56
408.673	84.56
408.896	78.56
409.12	80.56
409.344	80.56
409.567	96.56
409.791	81.56
410.014	93.56
410.238	87.56
410.461	101.56
410.685	77.56
410.908	84.56
411.132	91.56
411.355	78.56
411.578	73.56
411.802	65.56
412.025	80.56
412.249	79.56
412.472	79.56
412.695	71.56
412.919	75.56
413.142	81.56
413.365	74.56
413.589	83.56
413.812	82.56
414.035	97.56
414.258	88.56
414.482	72.56
414.705	82.56
414.928	95.56
415.151	91.56
415.374	62.56
415.597	85.56
415.821	80.56
416.044	58.56
416.267	86.56
416.49	70.56
416.713	77.56
416.936	76.56
417.159	89.56
417.382	73.56
417.605	77.56
417.828	90.56
418.051	80.56
418.274	75.56
418.497	61.56
418.72	74.56
418.943	89.56
419.166	83.56
419.389	80.56
419.611	82.56
419.834	81.56
420.057	75.56
420.28	91.56
420.503	93.56
420.726	84.56
420.948	85.56
421.171	93.56
421.394	95.56
421.617	97.56
421.839	114.56
422.062	100.56
422.285	119.56
422.507	194.56
422.73	330.56
422.953	277.56
423.175	137.56
423.398	98.56
423.621	88.56
423.843	87.56
424.066	68.56
424.288	85.56
424.511	78.56
424.733	88.56
424.956	85.56
425.178	78.56
425.401	81.56
425.623	71.56
425.846	85.56
426.068	70.56
426.291	63.56
426.513	92.56
426.735	91.56
426.958	89.56
427.18	92.56
427.402	83.56
427.625	83.56
427.847	98.56
428.069	86.56
428.292	112.56
428.514	118.56
428.736	108.56
428.958	98.56
429.181	105.56
429.403	84.56
429.625	84.56
429.847	106.56
430.069	111.56
430.292	121.56
430.514	135.56
430.736	113.56
430.958	120.56
431.18	87.56
431.402	74.56
431.624	96.56
431.846	112.56
432.068	109.56
432.29	111.56
432.512	90.56
432.734	85.56
432.956	85.56
433.178	87.56
433.4	72.56
433.622	82.56
433.844	88.56
434.066	65.56
434.287	72.56
434.509	82.56
434.731	84.56
434.953	80.56
435.175	78.56
435.397	84.56
435.618	86.56
435.84	81.56
436.062	71.56
436.284	76.56
436.505	87.56
436.727	86.56
436.949	79.56
437.17	79.56
437.392	89.56
437.614	74.56
437.835	76.56
438.057	77.56
438.278	72.56
438.5	96.56
438.721	91.56
438.943	92.56
439.165	84.56
439.386	74.56
439.608	86.56
439.829	84.56
440.05	76.56
440.272	85.56
440.493	91.56
440.715	84.56
440.936	77.56
441.158	94.56
441.379	84.56
441.6	87.56
441.822	88.56
442.043	70.56
442.264	87.56
442.486	111.56
442.707	120.56
442.928	89.56
443.149	82.56
443.371	115.56
443.592	162.56
443.813	156.56
444.034	72.56
444.255	92.56
444.476	87.56
444.698	69.56
444.919	98.56
445.14	150.56
445.361	141.56
445.582	214.56
445.803	156.56
446.024	100.56
446.245	80.56
446.466	62.56
446.687	71.56
446.908	83.56
447.129	92.56
447.35	75.56
447.571	76.56
447.792	89.56
448.013	78.56
448.234	90.56
448.455	87.56
448.675	68.56
448.896	80.56
449.117	83.56
449.338	64.56
449.559	84.56
449.779	69.56
450	97.56
450.221	66.56
450.442	67.56
450.662	77.56
450.883	87.56
451.104	79.56
451.324	71.56
451.545	70.56
451.766	72.56
451.986	80.56
452.207	75.56
452.428	83.56
452.648	98.56
452.869	87.56
453.089	98.56
453.31	84.56
453.53	93.56
453.751	78.56
453.971	79.56
454.192	76.56
454.412	76.56
454.633	85.56
454.853	76.56
455.073	86.56
455.294	73.56
455.514	82.56
455.734	74.56
455.955	84.56
456.175	83.56
456.395	76.56
456.616	84.56
456.836	78.56
457.056	85.56
457.276	78.56
457.497	92.56
457.717	81.56
457.937	96.56
458.157	83.56
458.377	100.56
458.598	96.56
458.818	100.56
459.038	94.56
459.258	90.56
459.478	82.56
459.698	78.56
459.918	78.56
460.138	74.56
460.358	80.56
460.578	92.56
460.798	118.56
461.018	106.56
461.238	95.56
461.458	80.56
461.678	84.56
461.898	78.56
462.118	81.56
462.338	75.56
462.558	69.56
462.777	77.56
462.997	81.56
463.217	80.56
463.437	93.56
463.657	89.56
463.876	79.56
464.096	92.56
464.316	71.56
464.536	75.56
464.755	80.56
464.975	73.56
465.195	81.56
465.414	64.56
465.634	85.56
465.854	80.56
466.073	76.56
466.293	69.56
466.512	72.56
466.732	69.56
466.951	87.56
467.171	84.56
467.391	89.56
467.61	95.56
467.829	73.56
468.049	82.56
468.268	83.56
468.488	89.56
468.707	72.56
468.927	85.56
469.146	82.56
469.365	88.56
469.585	82.56
469.804	86.56
470.023	89.56
470.243	87.56
470.462	89.56
470.681	96.56
470.901	71.56
471.12	84.56
471.339	84.56
471.558	87.56
471.777	80.56
471.997	74.56
472.216	74.56
472.435	80.56
472.654	88.56
472.873	91.56
473.092	72.56
473.311	78.56
473.53	85.56
473.749	84.56
473.968	96.56
474.187	89.56
474.406	82.56
474.625	88.56
474.844	89.56
475.063	84.56
475.282	85.56
475.501	89.56
475.72	109.56
475.939	86.56
476.158	82.56
476.377	74.56
476.596	87.56
476.814	84.56
477.033	78.56
477.252	87.56
477.471	92.56
477.69	75.56
477.908	70.56
478.127	81.56
478.346	75.56
478.564	90.56
478.783	73.56
479.002	88.56
479.22	84.56
479.439	91.56
479.658	76.56
479.876	80.56
480.095	85.56
480.313	72.56
480.532	86.56
480.751	70.56
480.969	74.56
481.188	87.56
481.406	78.56
481.624	94.56
481.843	86.56
482.061	89.56
482.28	97.56
482.498	93.56
482.717	95.56
482.935	82.56
483.153	84.56
483.372	76.56
483.59	81.56
483.808	75.56
484.027	92.56
484.245	92.56
484.463	70.56
484.681	95.56
484.9	84.56
485.118	80.56
485.336	80.56
485.554	64.56
485.772	88.56
485.99	76.56
486.209	90.56
486.427	88.56
486.645	84.56
486.863	78.56
487.081	75.56
487.299	89.56
487.517	91.56
487.735	94.56
487.953	114.56
488.171	92.56
488.389	88.56
488.607	80.56
488.825	94.56
489.043	74.56
489.261	74.56
489.479	88.56
489.696	85.56
489.914	90.56
490.132	80.56
490.35	89.56
490.568	86.56
490.786	66.56
491.003	77.56
491.221	84.56
491.439	101.56
491.657	77.56
491.874	75.56
492.092	92.56
492.31	71.56
492.527	92.56
492.745	82.56
492.963	87.56
493.18	88.56
493.398	85.56
493.615	93.56
493.833	78.56
494.05	94.56
494.268	73.56
494.485	85.56
494.703	83.56
494.92	98.56
495.138	84.56
495.355	85.56
495.573	75.56
495.79	68.56
496.008	87.56
496.225	91.56
496.442	88.56
496.66	82.56
496.877	92.56
497.094	76.56
497.312	81.56
497.529	76.56
497.746	80.56
497.963	94.56
498.181	73.56
498.398	75.56
498.615	98.56
498.832	94.56
499.049	95.56
499.267	88.56
499.484	94.56
499.701	90.56
499.918	80.56
500.135	90.56
500.352	86.56
500.569	86.56
500.786	86.56
501.003	91.56
501.22	88.56
501.437	63.56
501.654	93.56
501.871	84.56
502.088	73.56
502.305	77.56
502.522	72.56
502.739	86.56
502.956	80.56
503.172	82.56
503.389	87.56
503.606	93.56
503.823	100.56
504.04	90.56
504.256	112.56
504.473	105.56
504.69	88.56
504.907	83.56
505.123	97.56
505.34	84.56
505.557	97.56
505.773	74.56
505.99	68.56
506.207	89.56
506.423	73.56
506.64	88.56
506.856	77.56
507.073	85.56
507.289	80.56
507.506	79.56
507.722	71.56
507.939	92.56
508.155	75.56
508.372	87.56
508.588	88.56
508.805	94.56
509.021	90.56
509.238	80.56
509.454	84.56
509.67	97.56
509.887	72.56
510.103	86.56
510.319	84.56
510.536	91.56
510.752	68.56
510.968	77.56
511.184	90.56
511.401	84.56
511.617	84.56
511.833	73.56
512.049	76.56
512.265	85.56
512.481	93.56
512.698	82.56
512.914	81.56
513.13	89.56
513.346	86.56
513.562	80.56
513.778	80.56
513.994	93.56
514.21	108.56
514.426	81.56
514.642	71.56
514.858	96.56
515.074	91.56
515.29	84.56
515.506	94.56
515.721	77.56
515.937	86.56
516.153	89.56
516.369	86.56
516.585	89.56
516.801	94.56
517.016	86.56
517.232	104.56
517.448	98.56
517.664	86.56
517.879	80.56
518.095	86.56
518.311	72.56
518.527	112.56
518.742	95.56
518.958	102.56
519.173	113.56
