Data from HP_3_HRD10591_00018.txt Node
Date: Mon Jan 19 14:17:09 EST 2026
User: Yrep
Spectrometer: HR+D1059
Trigger mode: 1
Integration Time (sec): 1.000000E-1
Scans to average: 1
Electric dark correction enabled: true
Nonlinearity correction enabled: false
Boxcar width: 0
XAxis mode: Wavelengths
Number of Pixels in Spectrum: 2048
>>>>>Begin Spectral Data<<<<<
223.165	-21.5
223.4	-21.5
223.635	-21.5
223.869	-9.5
224.104	-16.5
224.338	-2.5
224.573	-2.5
224.808	-25.5
225.042	-25.5
225.277	0.5
225.511	-10.5
225.746	3.5
225.98	7.5
226.215	1.5
226.449	8.5
226.683	25.5
226.918	23.5
227.152	43.5
227.387	32.5
227.621	24.5
227.856	30.5
228.09	41.5
228.324	35.5
228.559	52.5
228.793	61.5
229.027	56.5
229.262	53.5
229.496	67.5
229.73	61.5
229.964	69.5
230.199	82.5
230.433	67.5
230.667	64.5
230.901	65.5
231.136	66.5
231.37	78.5
231.604	67.5
231.838	69.5
232.072	76.5
232.306	75.5
232.541	71.5
232.775	61.5
233.009	72.5
233.243	83.5
233.477	95.5
233.711	77.5
233.945	71.5
234.179	83.5
234.413	81.5
234.647	78.5
234.881	68.5
235.115	55.5
235.349	65.5
235.583	64.5
235.817	78.5
236.051	76.5
236.285	79.5
236.519	66.5
236.753	65.5
236.987	79.5
237.221	70.5
237.455	62.5
237.689	77.5
237.922	69.5
238.156	71.5
238.39	77.5
238.624	72.5
238.858	52.5
239.091	65.5
239.325	65.5
239.559	57.5
239.793	72.5
240.027	67.5
240.26	65.5
240.494	59.5
240.728	56.5
240.961	68.5
241.195	71.5
241.429	72.5
241.662	53.5
241.896	77.5
242.13	61.5
242.363	63.5
242.597	76.5
242.83	67.5
243.064	65.5
243.298	86.5
243.531	81.5
243.765	77.5
243.998	77.5
244.232	74.5
244.465	79.5
244.699	73.5
244.932	67.5
245.166	61.5
245.399	81.5
245.633	65.5
245.866	64.5
246.099	68.5
246.333	74.5
246.566	72.5
246.8	79.5
247.033	66.5
247.266	62.5
247.5	63.5
247.733	81.5
247.966	87.5
248.2	75.5
248.433	72.5
248.666	65.5
248.899	67.5
249.133	69.5
249.366	70.5
249.599	66.5
249.832	55.5
250.066	71.5
250.299	66.5
250.532	67.5
250.765	80.5
250.998	66.5
251.231	66.5
251.465	77.5
251.698	68.5
251.931	61.5
252.164	67.5
252.397	62.5
252.63	77.5
252.863	77.5
253.096	68.5
253.329	76.5
253.562	65.5
253.795	75.5
254.028	65.5
254.261	61.5
254.494	63.5
254.727	72.5
254.96	77.5
255.193	67.5
255.426	75.5
255.659	67.5
255.892	78.5
256.124	70.5
256.357	59.5
256.59	77.5
256.823	72.5
257.056	75.5
257.289	68.5
257.521	60.5
257.754	76.5
257.987	72.5
258.22	68.5
258.452	67.5
258.685	59.5
258.918	72.5
259.151	79.5
259.383	72.5
259.616	66.5
259.849	82.5
260.081	70.5
260.314	69.5
260.547	82.5
260.779	84.5
261.012	79.5
261.244	84.5
261.477	65.5
261.71	70.5
261.942	84.5
262.175	75.5
262.407	89.5
262.64	77.5
262.872	71.5
263.105	79.5
263.337	82.5
263.57	78.5
263.802	70.5
264.035	69.5
264.267	67.5
264.499	75.5
264.732	82.5
264.964	82.5
265.197	81.5
265.429	86.5
265.661	53.5
265.894	74.5
266.126	83.5
266.358	69.5
266.591	68.5
266.823	66.5
267.055	60.5
267.287	74.5
267.52	88.5
267.752	76.5
267.984	73.5
268.216	67.5
268.448	87.5
268.681	80.5
268.913	73.5
269.145	95.5
269.377	66.5
269.609	68.5
269.841	83.5
270.073	74.5
270.306	86.5
270.538	80.5
270.77	65.5
271.002	82.5
271.234	67.5
271.466	60.5
271.698	76.5
271.93	65.5
272.162	89.5
272.394	78.5
272.626	68.5
272.858	74.5
273.09	71.5
273.322	83.5
273.553	84.5
273.785	70.5
274.017	76.5
274.249	80.5
274.481	66.5
274.713	65.5
274.945	75.5
275.176	71.5
275.408	76.5
275.64	85.5
275.872	77.5
276.104	71.5
276.335	57.5
276.567	83.5
276.799	88.5
277.031	57.5
277.262	86.5
277.494	81.5
277.726	69.5
277.957	61.5
278.189	85.5
278.421	78.5
278.652	81.5
278.884	82.5
279.115	79.5
279.347	75.5
279.579	83.5
279.81	66.5
280.042	73.5
280.273	81.5
280.505	68.5
280.736	69.5
280.968	77.5
281.199	83.5
281.431	69.5
281.662	71.5
281.894	82.5
282.125	68.5
282.356	69.5
282.588	59.5
282.819	61.5
283.051	69.5
283.282	79.5
283.513	79.5
283.745	83.5
283.976	75.5
284.207	80.5
284.439	70.5
284.67	71.5
284.901	78.5
285.132	69.5
285.364	80.5
285.595	70.5
285.826	72.5
286.057	78.5
286.288	71.5
286.52	69.5
286.751	56.5
286.982	71.5
287.213	76.5
287.444	85.5
287.675	83.5
287.906	92.5
288.138	86.5
288.369	92.5
288.6	79.5
288.831	70.5
289.062	82.5
289.293	81.5
289.524	80.5
289.755	87.5
289.986	71.5
290.217	77.5
290.448	74.5
290.679	78.5
290.91	83.5
291.141	81.5
291.371	95.5
291.602	86.5
291.833	77.5
292.064	85.5
292.295	69.5
292.526	86.5
292.757	68.5
292.987	74.5
293.218	69.5
293.449	76.5
293.68	86.5
293.91	65.5
294.141	78.5
294.372	65.5
294.603	76.5
294.833	63.5
295.064	72.5
295.295	65.5
295.525	75.5
295.756	79.5
295.987	71.5
296.217	73.5
296.448	70.5
296.679	79.5
296.909	95.5
297.14	91.5
297.37	75.5
297.601	63.5
297.831	81.5
298.062	89.5
298.292	84.5
298.523	76.5
298.753	86.5
298.984	87.5
299.214	72.5
299.445	78.5
299.675	76.5
299.905	89.5
300.136	86.5
300.366	92.5
300.597	80.5
300.827	65.5
301.057	69.5
301.288	74.5
301.518	67.5
301.748	77.5
301.979	85.5
302.209	71.5
302.439	73.5
302.669	77.5
302.9	61.5
303.13	91.5
303.36	86.5
303.59	68.5
303.82	80.5
304.051	66.5
304.281	80.5
304.511	86.5
304.741	71.5
304.971	72.5
305.201	89.5
305.431	74.5
305.661	73.5
305.891	79.5
306.121	77.5
306.352	77.5
306.582	79.5
306.812	69.5
307.042	63.5
307.272	79.5
307.502	81.5
307.731	77.5
307.961	83.5
308.191	87.5
308.421	74.5
308.651	83.5
308.881	76.5
309.111	91.5
309.341	80.5
309.571	94.5
309.8	70.5
310.03	81.5
310.26	77.5
310.49	83.5
310.72	70.5
310.949	78.5
311.179	72.5
311.409	78.5
311.639	69.5
311.868	75.5
312.098	82.5
312.328	78.5
312.557	82.5
312.787	75.5
313.017	82.5
313.246	78.5
313.476	74.5
313.706	71.5
313.935	69.5
314.165	89.5
314.394	77.5
314.624	81.5
314.853	77.5
315.083	74.5
315.312	69.5
315.542	93.5
315.771	80.5
316.001	65.5
316.23	82.5
316.46	77.5
316.689	76.5
316.919	77.5
317.148	78.5
317.377	85.5
317.607	91.5
317.836	71.5
318.065	82.5
318.295	79.5
318.524	70.5
318.753	73.5
318.983	76.5
319.212	81.5
319.441	75.5
319.67	84.5
319.9	70.5
320.129	83.5
320.358	83.5
320.587	82.5
320.816	80.5
321.046	75.5
321.275	97.5
321.504	64.5
321.733	75.5
321.962	85.5
322.191	83.5
322.42	60.5
322.649	70.5
322.878	81.5
323.108	85.5
323.337	77.5
323.566	84.5
323.795	93.5
324.024	81.5
324.253	79.5
324.482	86.5
324.71	79.5
324.939	68.5
325.168	81.5
325.397	78.5
325.626	78.5
325.855	62.5
326.084	74.5
326.313	81.5
326.542	75.5
326.77	82.5
326.999	81.5
327.228	77.5
327.457	80.5
327.686	76.5
327.914	76.5
328.143	67.5
328.372	77.5
328.6	77.5
328.829	82.5
329.058	90.5
329.287	85.5
329.515	78.5
329.744	86.5
329.972	89.5
330.201	83.5
330.43	73.5
330.658	88.5
330.887	79.5
331.115	72.5
331.344	80.5
331.572	89.5
331.801	57.5
332.03	80.5
332.258	79.5
332.486	82.5
332.715	83.5
332.943	76.5
333.172	62.5
333.4	78.5
333.629	85.5
333.857	86.5
334.085	83.5
334.314	84.5
334.542	79.5
334.771	84.5
334.999	86.5
335.227	90.5
335.455	70.5
335.684	77.5
335.912	75.5
336.14	79.5
336.369	83.5
336.597	93.5
336.825	69.5
337.053	72.5
337.281	83.5
337.51	64.5
337.738	73.5
337.966	72.5
338.194	77.5
338.422	70.5
338.65	75.5
338.878	61.5
339.106	80.5
339.334	63.5
339.562	75.5
339.79	70.5
340.018	82.5
340.246	78.5
340.474	67.5
340.702	75.5
340.93	73.5
341.158	79.5
341.386	72.5
341.614	84.5
341.842	64.5
342.07	72.5
342.298	86.5
342.526	71.5
342.754	77.5
342.981	75.5
343.209	70.5
343.437	91.5
343.665	78.5
343.893	78.5
344.12	83.5
344.348	72.5
344.576	68.5
344.804	83.5
345.031	72.5
345.259	75.5
345.487	80.5
345.714	75.5
345.942	77.5
346.17	58.5
346.397	80.5
346.625	79.5
346.853	72.5
347.08	75.5
347.308	77.5
347.535	76.5
347.763	81.5
347.99	71.5
348.218	84.5
348.445	71.5
348.673	70.5
348.9	67.5
349.128	77.5
349.355	86.5
349.583	66.5
349.81	86.5
350.037	87.5
350.265	87.5
350.492	71.5
350.72	71.5
350.947	66.5
351.174	75.5
351.402	71.5
351.629	75.5
351.856	79.5
352.083	84.5
352.311	79.5
352.538	70.5
352.765	85.5
352.992	86.5
353.22	71.5
353.447	66.5
353.674	78.5
353.901	88.5
354.128	70.5
354.355	85.5
354.583	77.5
354.81	82.5
355.037	74.5
355.264	94.5
355.491	90.5
355.718	74.5
355.945	74.5
356.172	74.5
356.399	80.5
356.626	82.5
356.853	64.5
357.08	75.5
357.307	77.5
357.534	81.5
357.761	86.5
357.988	76.5
358.215	67.5
358.441	77.5
358.668	71.5
358.895	74.5
359.122	71.5
359.349	96.5
359.576	82.5
359.802	69.5
360.029	73.5
360.256	78.5
360.483	84.5
360.709	84.5
360.936	79.5
361.163	108.5
361.39	71.5
361.616	86.5
361.843	77.5
362.07	72.5
362.296	74.5
362.523	89.5
362.749	81.5
362.976	96.5
363.203	94.5
363.429	101.5
363.656	69.5
363.882	81.5
364.109	79.5
364.335	107.5
364.562	95.5
364.788	76.5
365.015	85.5
365.241	79.5
365.468	74.5
365.694	77.5
365.92	76.5
366.147	82.5
366.373	87.5
366.599	78.5
366.826	77.5
367.052	68.5
367.278	78.5
367.505	83.5
367.731	74.5
367.957	72.5
368.184	76.5
368.41	85.5
368.636	70.5
368.862	80.5
369.089	68.5
369.315	77.5
369.541	91.5
369.767	79.5
369.993	77.5
370.219	75.5
370.445	74.5
370.672	78.5
370.898	80.5
371.124	76.5
371.35	68.5
371.576	86.5
371.802	82.5
372.028	76.5
372.254	81.5
372.48	77.5
372.706	78.5
372.932	81.5
373.158	85.5
373.384	76.5
373.61	76.5
373.835	78.5
374.061	76.5
374.287	75.5
374.513	80.5
374.739	84.5
374.965	85.5
375.191	83.5
375.416	91.5
375.642	61.5
375.868	100.5
376.094	84.5
376.319	83.5
376.545	69.5
376.771	87.5
376.997	83.5
377.222	78.5
377.448	88.5
377.674	77.5
377.899	71.5
378.125	76.5
378.35	95.5
378.576	80.5
378.802	79.5
379.027	79.5
379.253	92.5
379.478	75.5
379.704	82.5
379.929	81.5
380.155	79.5
380.38	71.5
380.606	76.5
380.831	82.5
381.057	88.5
381.282	86.5
381.507	77.5
381.733	75.5
381.958	79.5
382.184	71.5
382.409	75.5
382.634	97.5
382.86	92.5
383.085	83.5
383.31	71.5
383.535	84.5
383.761	92.5
383.986	87.5
384.211	79.5
384.436	80.5
384.662	64.5
384.887	85.5
385.112	83.5
385.337	95.5
385.562	83.5
385.787	76.5
386.013	80.5
386.238	83.5
386.463	74.5
386.688	93.5
386.913	74.5
387.138	76.5
387.363	69.5
387.588	83.5
387.813	75.5
388.038	79.5
388.263	66.5
388.488	86.5
388.713	75.5
388.938	79.5
389.163	75.5
389.387	75.5
389.612	65.5
389.837	85.5
390.062	86.5
390.287	95.5
390.512	67.5
390.736	70.5
390.961	75.5
391.186	78.5
391.411	75.5
391.636	62.5
391.86	72.5
392.085	75.5
392.31	66.5
392.534	85.5
392.759	94.5
392.984	88.5
393.208	140.5
393.433	162.5
393.658	134.5
393.882	89.5
394.107	86.5
394.331	89.5
394.556	94.5
394.78	91.5
395.005	78.5
395.229	65.5
395.454	89.5
395.678	86.5
395.903	91.5
396.127	98.5
396.352	110.5
396.576	110.5
396.801	127.5
397.025	156.5
397.249	98.5
397.474	92.5
397.698	69.5
397.922	82.5
398.147	93.5
398.371	83.5
398.595	83.5
398.82	78.5
399.044	87.5
399.268	64.5
399.492	67.5
399.717	76.5
399.941	61.5
400.165	89.5
400.389	94.5
400.613	64.5
400.837	63.5
401.062	77.5
401.286	73.5
401.51	83.5
401.734	79.5
401.958	88.5
402.182	82.5
402.406	87.5
402.63	83.5
402.854	78.5
403.078	62.5
403.302	72.5
403.526	72.5
403.75	86.5
403.974	83.5
404.198	87.5
404.422	90.5
404.645	75.5
404.869	83.5
405.093	76.5
405.317	75.5
405.541	84.5
405.765	72.5
405.988	76.5
406.212	84.5
406.436	73.5
406.66	77.5
406.883	92.5
407.107	65.5
407.331	66.5
407.555	83.5
407.778	86.5
408.002	86.5
408.226	80.5
408.449	63.5
408.673	80.5
408.896	82.5
409.12	76.5
409.344	70.5
409.567	66.5
409.791	75.5
410.014	79.5
410.238	72.5
410.461	62.5
410.685	70.5
410.908	80.5
411.132	81.5
411.355	68.5
411.578	79.5
411.802	79.5
412.025	87.5
412.249	67.5
412.472	79.5
412.695	89.5
412.919	69.5
413.142	74.5
413.365	80.5
413.589	83.5
413.812	72.5
414.035	80.5
414.258	67.5
414.482	63.5
414.705	68.5
414.928	78.5
415.151	78.5
415.374	68.5
415.597	77.5
415.821	71.5
416.044	82.5
416.267	65.5
416.49	83.5
416.713	75.5
416.936	65.5
417.159	71.5
417.382	86.5
417.605	72.5
417.828	71.5
418.051	82.5
418.274	82.5
418.497	56.5
418.72	74.5
418.943	72.5
419.166	86.5
419.389	78.5
419.611	78.5
419.834	69.5
420.057	79.5
420.28	63.5
420.503	77.5
420.726	69.5
420.948	84.5
421.171	75.5
421.394	82.5
421.617	93.5
421.839	83.5
422.062	91.5
422.285	97.5
422.507	134.5
422.73	214.5
422.953	187.5
423.175	121.5
423.398	79.5
423.621	94.5
423.843	82.5
424.066	77.5
424.288	71.5
424.511	75.5
424.733	77.5
424.956	73.5
425.178	67.5
425.401	76.5
425.623	69.5
425.846	77.5
426.068	77.5
426.291	76.5
426.513	74.5
426.735	73.5
426.958	79.5
427.18	65.5
427.402	85.5
427.625	77.5
427.847	68.5
428.069	81.5
428.292	82.5
428.514	86.5
428.736	82.5
428.958	93.5
429.181	85.5
429.403	85.5
429.625	74.5
429.847	87.5
430.069	103.5
430.292	111.5
430.514	105.5
430.736	115.5
430.958	85.5
431.18	89.5
431.402	79.5
431.624	64.5
431.846	93.5
432.068	105.5
432.29	82.5
432.512	78.5
432.734	83.5
432.956	76.5
433.178	77.5
433.4	76.5
433.622	78.5
433.844	62.5
434.066	67.5
434.287	69.5
434.509	72.5
434.731	75.5
434.953	70.5
435.175	72.5
435.397	87.5
435.618	82.5
435.84	75.5
436.062	72.5
436.284	68.5
436.505	75.5
436.727	75.5
436.949	71.5
437.17	61.5
437.392	62.5
437.614	85.5
437.835	75.5
438.057	83.5
438.278	69.5
438.5	71.5
438.721	77.5
438.943	74.5
439.165	75.5
439.386	82.5
439.608	81.5
439.829	78.5
440.05	73.5
440.272	79.5
440.493	89.5
440.715	89.5
440.936	78.5
441.158	72.5
441.379	81.5
441.6	81.5
441.822	75.5
442.043	91.5
442.264	79.5
442.486	87.5
442.707	108.5
442.928	89.5
443.149	89.5
443.371	94.5
443.592	131.5
443.813	118.5
444.034	83.5
444.255	70.5
444.476	89.5
444.698	83.5
444.919	75.5
445.14	171.5
445.361	131.5
445.582	141.5
445.803	137.5
446.024	92.5
446.245	75.5
446.466	77.5
446.687	60.5
446.908	79.5
447.129	77.5
447.35	93.5
447.571	70.5
447.792	60.5
448.013	70.5
448.234	67.5
448.455	80.5
448.675	71.5
448.896	71.5
449.117	76.5
449.338	71.5
449.559	94.5
449.779	81.5
450	87.5
450.221	71.5
450.442	75.5
450.662	81.5
450.883	69.5
451.104	86.5
451.324	75.5
451.545	71.5
451.766	73.5
451.986	82.5
452.207	62.5
452.428	65.5
452.648	81.5
452.869	69.5
453.089	74.5
453.31	66.5
453.53	73.5
453.751	75.5
453.971	76.5
454.192	64.5
454.412	85.5
454.633	73.5
454.853	72.5
455.073	75.5
455.294	68.5
455.514	80.5
455.734	56.5
455.955	94.5
456.175	93.5
456.395	74.5
456.616	77.5
456.836	74.5
457.056	83.5
457.276	80.5
457.497	79.5
457.717	69.5
457.937	81.5
458.157	77.5
458.377	81.5
458.598	81.5
458.818	76.5
459.038	88.5
459.258	76.5
459.478	72.5
459.698	86.5
459.918	76.5
460.138	92.5
460.358	79.5
460.578	74.5
460.798	95.5
461.018	86.5
461.238	84.5
461.458	78.5
461.678	78.5
461.898	78.5
462.118	78.5
462.338	73.5
462.558	81.5
462.777	69.5
462.997	79.5
463.217	65.5
463.437	77.5
463.657	77.5
463.876	66.5
464.096	81.5
464.316	97.5
464.536	65.5
464.755	85.5
464.975	81.5
465.195	76.5
465.414	70.5
465.634	69.5
465.854	65.5
466.073	89.5
466.293	73.5
466.512	81.5
466.732	68.5
466.951	60.5
467.171	74.5
467.391	81.5
467.61	81.5
467.829	77.5
468.049	71.5
468.268	78.5
468.488	72.5
468.707	70.5
468.927	75.5
469.146	70.5
469.365	70.5
469.585	73.5
469.804	87.5
470.023	85.5
470.243	81.5
470.462	75.5
470.681	94.5
470.901	94.5
471.12	67.5
471.339	93.5
471.558	73.5
471.777	84.5
471.997	77.5
472.216	79.5
472.435	77.5
472.654	76.5
472.873	75.5
473.092	72.5
473.311	68.5
473.53	93.5
473.749	73.5
473.968	86.5
474.187	77.5
474.406	75.5
474.625	90.5
474.844	83.5
475.063	73.5
475.282	87.5
475.501	85.5
475.72	86.5
475.939	66.5
476.158	81.5
476.377	77.5
476.596	86.5
476.814	70.5
477.033	69.5
477.252	82.5
477.471	58.5
477.69	75.5
477.908	71.5
478.127	86.5
478.346	80.5
478.564	82.5
478.783	69.5
479.002	60.5
479.22	73.5
479.439	75.5
479.658	78.5
479.876	80.5
480.095	82.5
480.313	78.5
480.532	90.5
480.751	79.5
480.969	72.5
481.188	67.5
481.406	73.5
481.624	73.5
481.843	68.5
482.061	77.5
482.28	87.5
482.498	86.5
482.717	69.5
482.935	78.5
483.153	77.5
483.372	75.5
483.59	78.5
483.808	81.5
484.027	78.5
484.245	66.5
484.463	84.5
484.681	81.5
484.9	74.5
485.118	75.5
485.336	78.5
485.554	85.5
485.772	82.5
485.99	85.5
486.209	74.5
486.427	84.5
486.645	77.5
486.863	81.5
487.081	78.5
487.299	81.5
487.517	70.5
487.735	88.5
487.953	85.5
488.171	93.5
488.389	91.5
488.607	71.5
488.825	77.5
489.043	77.5
489.261	82.5
489.479	73.5
489.696	77.5
489.914	80.5
490.132	86.5
490.35	70.5
490.568	75.5
490.786	76.5
491.003	70.5
491.221	68.5
491.439	83.5
491.657	74.5
491.874	72.5
492.092	74.5
492.31	79.5
492.527	70.5
492.745	76.5
492.963	84.5
493.18	60.5
493.398	70.5
493.615	84.5
493.833	78.5
494.05	66.5
494.268	83.5
494.485	62.5
494.703	79.5
494.92	83.5
495.138	70.5
495.355	82.5
495.573	82.5
495.79	81.5
496.008	85.5
496.225	85.5
496.442	77.5
496.66	83.5
496.877	84.5
497.094	77.5
497.312	71.5
497.529	65.5
497.746	86.5
497.963	77.5
498.181	82.5
498.398	84.5
498.615	65.5
498.832	83.5
499.049	89.5
499.267	85.5
499.484	63.5
499.701	71.5
499.918	106.5
500.135	91.5
500.352	84.5
500.569	77.5
500.786	77.5
501.003	94.5
501.22	83.5
501.437	65.5
501.654	88.5
501.871	74.5
502.088	88.5
502.305	69.5
502.522	79.5
502.739	97.5
502.956	73.5
503.172	76.5
503.389	82.5
503.606	82.5
503.823	81.5
504.04	89.5
504.256	79.5
504.473	83.5
504.69	88.5
504.907	96.5
505.123	74.5
505.34	77.5
505.557	81.5
505.773	87.5
505.99	71.5
506.207	81.5
506.423	79.5
506.64	70.5
506.856	74.5
507.073	83.5
507.289	78.5
507.506	83.5
507.722	71.5
507.939	74.5
508.155	89.5
508.372	81.5
508.588	66.5
508.805	94.5
509.021	78.5
509.238	78.5
509.454	83.5
509.67	85.5
509.887	73.5
510.103	69.5
510.319	90.5
510.536	82.5
510.752	74.5
510.968	67.5
511.184	80.5
511.401	71.5
511.617	64.5
511.833	65.5
512.049	79.5
512.265	93.5
512.481	91.5
512.698	87.5
512.914	78.5
513.13	80.5
513.346	61.5
513.562	84.5
513.778	75.5
513.994	75.5
514.21	83.5
514.426	93.5
514.642	83.5
514.858	74.5
515.074	65.5
515.29	89.5
515.506	71.5
515.721	78.5
515.937	86.5
516.153	86.5
516.369	72.5
516.585	86.5
516.801	82.5
517.016	73.5
517.232	83.5
517.448	94.5
517.664	73.5
517.879	75.5
518.095	91.5
518.311	95.5
518.527	91.5
518.742	90.5
518.958	93.5
519.173	99.5
519.389	72.5
519.605	92.5
519.82	86.5
520.036	73.5
520.251	73.5
520.467	85.5
520.682	67.5
520.898	75.5
521.113	72.5
521.329	89.5
521.544	70.5
521.76	68.5
521.975	84.5
522.19	78.5
522.406	93.5
522.621	77.5
522.836	82.5
523.052	82.5
523.267	77.5
523.482	83.5
523.698	87.5
523.913	81.5
524.128	65.5
524.343	82.5
524.559	81.5
524.774	96.5
524.989	87.5
525.204	88.5
525.419	78.5
525.634	94.5
525.849	79.5
526.064	79.5
526.28	119.5
526.495	142.5
526.71	139.5
526.925	114.5
527.14	140.5
527.355	129.5
527.57	84.5
527.785	83.5
527.999	81.5
528.214	82.5
528.429	79.5
528.644	84.5
528.859	85.5
529.074	75.5
529.289	75.5
529.503	96.5
529.718	84.5
529.933	74.5
530.148	80.5
530.363	84.5
530.577	88.5
530.792	82.5
531.007	90.5
531.221	93.5
531.436	82.5
531.651	86.5
531.865	81.5
532.08	82.5
532.295	76.5
532.509	83.5
532.724	91.5
532.938	92.5
533.153	82.5
533.367	93.5
533.582	92.5
533.796	85.5
534.011	84.5
534.225	91.5
534.44	91.5
534.654	73.5
534.868	85.5
535.083	91.5
535.297	82.5
535.511	94.5
535.726	84.5
535.94	84.5
536.154	86.5
536.369	68.5
536.583	70.5
536.797	86.5
537.011	82.5
537.225	88.5
537.44	85.5
537.654	89.5
537.868	71.5
538.082	83.5
538.296	72.5
538.51	78.5
538.724	81.5
538.938	78.5
539.153	85.5
539.367	82.5
539.581	89.5
539.795	86.5
540.009	78.5
540.222	73.5
