Data from HP_3_HRD10591_00019.txt Node
Date: Mon Jan 19 14:17:10 EST 2026
User: Yrep
Spectrometer: HR+D1059
Trigger mode: 1
Integration Time (sec): 1.000000E-1
Scans to average: 1
Electric dark correction enabled: true
Nonlinearity correction enabled: false
Boxcar width: 0
XAxis mode: Wavelengths
Number of Pixels in Spectrum: 2048
>>>>>Begin Spectral Data<<<<<
223.165	-14.12
223.4	-14.12
223.635	-14.12
223.869	-29.12
224.104	-20.12
224.338	-22.12
224.573	-11.12
224.808	-6.12
225.042	-13.12
225.277	7.88
225.511	-5.12
225.746	-5.12
225.98	12.88
226.215	-2.12
226.449	15.88
226.683	19.88
226.918	26.88
227.152	44.88
227.387	33.88
227.621	32.88
227.856	43.88
228.09	58.88
228.324	56.88
228.559	61.88
228.793	61.88
229.027	67.88
229.262	79.88
229.496	62.88
229.73	71.88
229.964	72.88
230.199	77.88
230.433	68.88
230.667	73.88
230.901	74.88
231.136	68.88
231.37	82.88
231.604	81.88
231.838	63.88
232.072	76.88
232.306	85.88
232.541	76.88
232.775	80.88
233.009	76.88
233.243	73.88
233.477	61.88
233.711	85.88
233.945	81.88
234.179	82.88
234.413	78.88
234.647	80.88
234.881	72.88
235.115	74.88
235.349	72.88
235.583	76.88
235.817	70.88
236.051	72.88
236.285	74.88
236.519	87.88
236.753	77.88
236.987	84.88
237.221	78.88
237.455	63.88
237.689	69.88
237.922	69.88
238.156	84.88
238.39	77.88
238.624	75.88
238.858	80.88
239.091	75.88
239.325	70.88
239.559	73.88
239.793	73.88
240.027	92.88
240.26	77.88
240.494	73.88
240.728	78.88
240.961	71.88
241.195	78.88
241.429	76.88
241.662	91.88
241.896	73.88
242.13	67.88
242.363	76.88
242.597	79.88
242.83	91.88
243.064	85.88
243.298	70.88
243.531	67.88
243.765	82.88
243.998	77.88
244.232	88.88
244.465	67.88
244.699	64.88
244.932	65.88
245.166	79.88
245.399	69.88
245.633	78.88
245.866	68.88
246.099	74.88
246.333	81.88
246.566	70.88
246.8	94.88
247.033	92.88
247.266	71.88
247.5	78.88
247.733	80.88
247.966	93.88
248.2	74.88
248.433	71.88
248.666	82.88
248.899	61.88
249.133	75.88
249.366	76.88
249.599	75.88
249.832	67.88
250.066	62.88
250.299	62.88
250.532	76.88
250.765	83.88
250.998	87.88
251.231	73.88
251.465	84.88
251.698	93.88
251.931	81.88
252.164	82.88
252.397	75.88
252.63	73.88
252.863	67.88
253.096	80.88
253.329	88.88
253.562	79.88
253.795	77.88
254.028	71.88
254.261	81.88
254.494	65.88
254.727	77.88
254.96	86.88
255.193	96.88
255.426	82.88
255.659	73.88
255.892	78.88
256.124	65.88
256.357	81.88
256.59	68.88
256.823	75.88
257.056	80.88
257.289	79.88
257.521	94.88
257.754	91.88
257.987	78.88
258.22	71.88
258.452	71.88
258.685	88.88
258.918	76.88
259.151	76.88
259.383	71.88
259.616	84.88
259.849	78.88
260.081	70.88
260.314	79.88
260.547	85.88
260.779	76.88
261.012	71.88
261.244	83.88
261.477	76.88
261.71	87.88
261.942	82.88
262.175	81.88
262.407	90.88
262.64	73.88
262.872	88.88
263.105	76.88
263.337	84.88
263.57	81.88
263.802	81.88
264.035	94.88
264.267	54.88
264.499	77.88
264.732	72.88
264.964	64.88
265.197	78.88
265.429	75.88
265.661	86.88
265.894	88.88
266.126	73.88
266.358	67.88
266.591	71.88
266.823	84.88
267.055	63.88
267.287	79.88
267.52	86.88
267.752	88.88
267.984	73.88
268.216	81.88
268.448	86.88
268.681	85.88
268.913	87.88
269.145	77.88
269.377	67.88
269.609	79.88
269.841	85.88
270.073	90.88
270.306	76.88
270.538	88.88
270.77	71.88
271.002	83.88
271.234	77.88
271.466	99.88
271.698	78.88
271.93	85.88
272.162	81.88
272.394	82.88
272.626	89.88
272.858	78.88
273.09	68.88
273.322	86.88
273.553	95.88
273.785	85.88
274.017	65.88
274.249	83.88
274.481	79.88
274.713	72.88
274.945	93.88
275.176	73.88
275.408	77.88
275.64	84.88
275.872	82.88
276.104	77.88
276.335	80.88
276.567	74.88
276.799	84.88
277.031	74.88
277.262	75.88
277.494	92.88
277.726	80.88
277.957	73.88
278.189	81.88
278.421	87.88
278.652	87.88
278.884	96.88
279.115	85.88
279.347	79.88
279.579	87.88
279.81	82.88
280.042	82.88
280.273	72.88
280.505	75.88
280.736	95.88
280.968	82.88
281.199	77.88
281.431	74.88
281.662	80.88
281.894	83.88
282.125	75.88
282.356	92.88
282.588	82.88
282.819	91.88
283.051	84.88
283.282	66.88
283.513	95.88
283.745	95.88
283.976	84.88
284.207	77.88
284.439	76.88
284.67	83.88
284.901	87.88
285.132	89.88
285.364	91.88
285.595	94.88
285.826	77.88
286.057	87.88
286.288	83.88
286.52	90.88
286.751	83.88
286.982	92.88
287.213	81.88
287.444	84.88
287.675	87.88
287.906	92.88
288.138	82.88
288.369	75.88
288.6	73.88
288.831	83.88
289.062	82.88
289.293	83.88
289.524	77.88
289.755	85.88
289.986	84.88
290.217	87.88
290.448	89.88
290.679	95.88
290.91	83.88
291.141	90.88
291.371	78.88
291.602	92.88
291.833	83.88
292.064	76.88
292.295	91.88
292.526	87.88
292.757	89.88
292.987	88.88
293.218	95.88
293.449	83.88
293.68	90.88
293.91	88.88
294.141	84.88
294.372	87.88
294.603	95.88
294.833	81.88
295.064	87.88
295.295	79.88
295.525	77.88
295.756	99.88
295.987	95.88
296.217	88.88
296.448	79.88
296.679	87.88
296.909	83.88
297.14	96.88
297.37	93.88
297.601	83.88
297.831	73.88
298.062	78.88
298.292	75.88
298.523	93.88
298.753	93.88
298.984	80.88
299.214	96.88
299.445	82.88
299.675	83.88
299.905	96.88
300.136	90.88
300.366	91.88
300.597	87.88
300.827	79.88
301.057	83.88
301.288	92.88
301.518	75.88
301.748	81.88
301.979	104.88
302.209	80.88
302.439	111.88
302.669	91.88
302.9	83.88
303.13	64.88
303.36	83.88
303.59	85.88
303.82	69.88
304.051	85.88
304.281	79.88
304.511	87.88
304.741	74.88
304.971	78.88
305.201	88.88
305.431	82.88
305.661	88.88
305.891	79.88
306.121	96.88
306.352	80.88
306.582	81.88
306.812	90.88
307.042	89.88
307.272	88.88
307.502	74.88
307.731	87.88
307.961	72.88
308.191	82.88
308.421	89.88
308.651	69.88
308.881	98.88
309.111	78.88
309.341	88.88
309.571	81.88
309.8	82.88
310.03	84.88
310.26	69.88
310.49	92.88
310.72	92.88
310.949	92.88
311.179	75.88
311.409	72.88
311.639	73.88
311.868	80.88
312.098	77.88
312.328	101.88
312.557	86.88
312.787	74.88
313.017	75.88
313.246	85.88
313.476	75.88
313.706	93.88
313.935	75.88
314.165	88.88
314.394	82.88
314.624	92.88
314.853	86.88
315.083	89.88
315.312	66.88
315.542	87.88
315.771	90.88
316.001	103.88
316.23	95.88
316.46	88.88
316.689	71.88
316.919	85.88
317.148	94.88
317.377	73.88
317.607	63.88
317.836	83.88
318.065	78.88
318.295	83.88
318.524	82.88
318.753	68.88
318.983	82.88
319.212	98.88
319.441	85.88
319.67	85.88
319.9	97.88
320.129	88.88
320.358	95.88
320.587	93.88
320.816	80.88
321.046	85.88
321.275	96.88
321.504	77.88
321.733	79.88
321.962	91.88
322.191	83.88
322.42	62.88
322.649	83.88
322.878	83.88
323.108	80.88
323.337	76.88
323.566	73.88
323.795	85.88
324.024	95.88
324.253	89.88
324.482	87.88
324.71	85.88
324.939	81.88
325.168	84.88
325.397	97.88
325.626	76.88
325.855	97.88
326.084	76.88
326.313	91.88
326.542	96.88
326.77	93.88
326.999	92.88
327.228	75.88
327.457	83.88
327.686	90.88
327.914	91.88
328.143	83.88
328.372	88.88
328.6	91.88
328.829	95.88
329.058	91.88
329.287	92.88
329.515	78.88
329.744	73.88
329.972	99.88
330.201	81.88
330.43	100.88
330.658	91.88
330.887	79.88
331.115	83.88
331.344	91.88
331.572	85.88
331.801	73.88
332.03	103.88
332.258	81.88
332.486	88.88
332.715	88.88
332.943	78.88
333.172	86.88
333.4	87.88
333.629	85.88
333.857	73.88
334.085	87.88
334.314	79.88
334.542	79.88
334.771	86.88
334.999	76.88
335.227	78.88
335.455	89.88
335.684	79.88
335.912	92.88
336.14	90.88
336.369	87.88
336.597	90.88
336.825	71.88
337.053	92.88
337.281	89.88
337.51	80.88
337.738	97.88
337.966	85.88
338.194	89.88
338.422	87.88
338.65	93.88
338.878	97.88
339.106	91.88
339.334	100.88
339.562	94.88
339.79	72.88
340.018	64.88
340.246	81.88
340.474	79.88
340.702	72.88
340.93	78.88
341.158	61.88
341.386	76.88
341.614	86.88
341.842	89.88
342.07	78.88
342.298	89.88
342.526	81.88
342.754	83.88
342.981	80.88
343.209	73.88
343.437	94.88
343.665	90.88
343.893	89.88
344.12	100.88
344.348	88.88
344.576	63.88
344.804	92.88
345.031	85.88
345.259	92.88
345.487	91.88
345.714	89.88
345.942	84.88
346.17	84.88
346.397	98.88
346.625	91.88
346.853	85.88
347.08	89.88
347.308	82.88
347.535	95.88
347.763	89.88
347.99	92.88
348.218	73.88
348.445	92.88
348.673	91.88
348.9	87.88
349.128	85.88
349.355	91.88
349.583	85.88
349.81	90.88
350.037	87.88
350.265	94.88
350.492	78.88
350.72	74.88
350.947	83.88
351.174	84.88
351.402	85.88
351.629	95.88
351.856	80.88
352.083	81.88
352.311	93.88
352.538	86.88
352.765	90.88
352.992	89.88
353.22	86.88
353.447	72.88
353.674	75.88
353.901	79.88
354.128	84.88
354.355	75.88
354.583	90.88
354.81	90.88
355.037	75.88
355.264	85.88
355.491	69.88
355.718	101.88
355.945	75.88
356.172	81.88
356.399	76.88
356.626	77.88
356.853	86.88
357.08	88.88
357.307	87.88
357.534	84.88
357.761	83.88
357.988	90.88
358.215	91.88
358.441	84.88
358.668	99.88
358.895	90.88
359.122	100.88
359.349	73.88
359.576	83.88
359.802	84.88
360.029	83.88
360.256	86.88
360.483	79.88
360.709	80.88
360.936	93.88
361.163	101.88
361.39	93.88
361.616	88.88
361.843	105.88
362.07	78.88
362.296	74.88
362.523	87.88
362.749	92.88
362.976	102.88
363.203	90.88
363.429	87.88
363.656	83.88
363.882	85.88
364.109	89.88
364.335	100.88
364.562	92.88
364.788	83.88
365.015	77.88
365.241	97.88
365.468	87.88
365.694	73.88
365.92	80.88
366.147	84.88
366.373	73.88
366.599	85.88
366.826	89.88
367.052	74.88
367.278	101.88
367.505	89.88
367.731	91.88
367.957	104.88
368.184	102.88
368.41	89.88
368.636	95.88
368.862	81.88
369.089	80.88
369.315	79.88
369.541	98.88
369.767	77.88
369.993	86.88
370.219	73.88
370.445	93.88
370.672	85.88
370.898	79.88
371.124	74.88
371.35	81.88
371.576	77.88
371.802	76.88
372.028	91.88
372.254	99.88
372.48	71.88
372.706	96.88
372.932	85.88
373.158	87.88
373.384	98.88
373.61	98.88
373.835	102.88
374.061	89.88
374.287	81.88
374.513	96.88
374.739	94.88
374.965	88.88
375.191	78.88
375.416	94.88
375.642	59.88
375.868	98.88
376.094	71.88
376.319	90.88
376.545	86.88
376.771	85.88
376.997	75.88
377.222	88.88
377.448	89.88
377.674	89.88
377.899	91.88
378.125	86.88
378.35	96.88
378.576	78.88
378.802	65.88
379.027	85.88
379.253	92.88
379.478	83.88
379.704	89.88
379.929	82.88
380.155	73.88
380.38	91.88
380.606	87.88
380.831	86.88
381.057	88.88
381.282	91.88
381.507	81.88
381.733	91.88
381.958	95.88
382.184	87.88
382.409	93.88
382.634	91.88
382.86	97.88
383.085	101.88
383.31	88.88
383.535	93.88
383.761	81.88
383.986	87.88
384.211	87.88
384.436	91.88
384.662	81.88
384.887	83.88
385.112	85.88
385.337	84.88
385.562	89.88
385.787	95.88
386.013	86.88
386.238	97.88
386.463	89.88
386.688	88.88
386.913	80.88
387.138	89.88
387.363	83.88
387.588	90.88
387.813	97.88
388.038	82.88
388.263	84.88
388.488	93.88
388.713	100.88
388.938	83.88
389.163	86.88
389.387	83.88
389.612	79.88
389.837	77.88
390.062	73.88
390.287	75.88
390.512	78.88
390.736	88.88
390.961	74.88
391.186	79.88
391.411	88.88
391.636	79.88
391.86	80.88
392.085	74.88
392.31	91.88
392.534	89.88
392.759	104.88
392.984	114.88
393.208	181.88
393.433	269.88
393.658	221.88
393.882	113.88
394.107	94.88
394.331	101.88
394.556	97.88
394.78	100.88
395.005	85.88
395.229	82.88
395.454	81.88
395.678	88.88
395.903	83.88
396.127	113.88
396.352	129.88
396.576	130.88
396.801	198.88
397.025	242.88
397.249	141.88
397.474	111.88
397.698	92.88
397.922	96.88
398.147	91.88
398.371	84.88
398.595	93.88
398.82	85.88
399.044	88.88
399.268	82.88
399.492	97.88
399.717	85.88
399.941	92.88
400.165	81.88
400.389	76.88
400.613	72.88
400.837	87.88
401.062	87.88
401.286	89.88
401.51	94.88
401.734	85.88
401.958	79.88
402.182	83.88
402.406	80.88
402.63	101.88
402.854	84.88
403.078	80.88
403.302	88.88
403.526	90.88
403.75	77.88
403.974	83.88
404.198	67.88
404.422	82.88
404.645	98.88
404.869	90.88
405.093	78.88
405.317	87.88
405.541	77.88
405.765	88.88
405.988	84.88
406.212	95.88
406.436	86.88
406.66	92.88
406.883	101.88
407.107	91.88
407.331	84.88
407.555	92.88
407.778	104.88
408.002	101.88
408.226	81.88
408.449	92.88
408.673	76.88
408.896	83.88
409.12	97.88
409.344	80.88
409.567	90.88
409.791	82.88
410.014	95.88
410.238	91.88
410.461	74.88
410.685	92.88
410.908	84.88
411.132	94.88
411.355	90.88
411.578	94.88
411.802	88.88
412.025	88.88
412.249	99.88
412.472	80.88
412.695	67.88
412.919	85.88
413.142	80.88
413.365	76.88
413.589	88.88
413.812	94.88
414.035	84.88
414.258	78.88
414.482	75.88
414.705	76.88
414.928	74.88
415.151	90.88
415.374	92.88
415.597	80.88
415.821	76.88
416.044	89.88
416.267	88.88
416.49	85.88
416.713	81.88
416.936	82.88
417.159	87.88
417.382	85.88
417.605	88.88
417.828	74.88
418.051	88.88
418.274	70.88
418.497	101.88
418.72	79.88
418.943	83.88
419.166	90.88
419.389	84.88
419.611	81.88
419.834	75.88
420.057	82.88
420.28	91.88
420.503	93.88
420.726	76.88
420.948	89.88
421.171	107.88
421.394	88.88
421.617	106.88
421.839	96.88
422.062	106.88
422.285	117.88
422.507	201.88
422.73	294.88
422.953	275.88
423.175	128.88
423.398	113.88
423.621	99.88
423.843	87.88
424.066	84.88
424.288	85.88
424.511	81.88
424.733	91.88
424.956	87.88
425.178	82.88
425.401	89.88
425.623	74.88
425.846	83.88
426.068	81.88
426.291	88.88
426.513	75.88
426.735	77.88
426.958	73.88
427.18	77.88
427.402	91.88
427.625	93.88
427.847	72.88
428.069	101.88
428.292	119.88
428.514	115.88
428.736	114.88
428.958	100.88
429.181	101.88
429.403	83.88
429.625	104.88
429.847	90.88
430.069	123.88
430.292	139.88
430.514	121.88
430.736	113.88
430.958	119.88
431.18	98.88
431.402	97.88
431.624	78.88
431.846	102.88
432.068	121.88
432.29	93.88
432.512	87.88
432.734	92.88
432.956	86.88
433.178	103.88
433.4	71.88
433.622	72.88
433.844	91.88
434.066	75.88
434.287	63.88
434.509	83.88
434.731	78.88
434.953	77.88
435.175	75.88
435.397	77.88
435.618	103.88
435.84	101.88
436.062	75.88
436.284	75.88
436.505	88.88
436.727	76.88
436.949	99.88
437.17	77.88
437.392	68.88
437.614	90.88
437.835	87.88
438.057	79.88
438.278	83.88
438.5	87.88
438.721	82.88
438.943	79.88
439.165	82.88
439.386	90.88
439.608	92.88
439.829	87.88
440.05	81.88
440.272	71.88
440.493	80.88
440.715	59.88
440.936	81.88
441.158	80.88
441.379	81.88
441.6	79.88
441.822	121.88
442.043	89.88
442.264	101.88
442.486	113.88
442.707	123.88
442.928	96.88
443.149	88.88
443.371	111.88
443.592	166.88
443.813	147.88
444.034	103.88
444.255	84.88
444.476	91.88
444.698	74.88
444.919	88.88
445.14	166.88
445.361	151.88
445.582	194.88
445.803	167.88
446.024	102.88
446.245	91.88
446.466	78.88
446.687	73.88
446.908	78.88
447.129	85.88
447.35	107.88
447.571	93.88
447.792	89.88
448.013	87.88
448.234	82.88
448.455	96.88
448.675	76.88
448.896	92.88
449.117	83.88
449.338	82.88
449.559	83.88
449.779	82.88
450	93.88
450.221	74.88
450.442	80.88
450.662	86.88
450.883	76.88
451.104	93.88
451.324	69.88
451.545	87.88
451.766	76.88
451.986	75.88
452.207	72.88
452.428	95.88
452.648	85.88
452.869	91.88
453.089	91.88
453.31	76.88
453.53	85.88
453.751	97.88
453.971	95.88
454.192	88.88
454.412	81.88
454.633	96.88
454.853	74.88
455.073	70.88
455.294	72.88
455.514	97.88
455.734	84.88
455.955	76.88
456.175	73.88
456.395	72.88
456.616	81.88
456.836	88.88
457.056	71.88
457.276	79.88
457.497	81.88
457.717	83.88
457.937	93.88
458.157	105.88
458.377	95.88
458.598	85.88
458.818	106.88
459.038	80.88
459.258	74.88
459.478	88.88
459.698	79.88
459.918	87.88
460.138	82.88
460.358	78.88
460.578	75.88
460.798	104.88
461.018	93.88
461.238	85.88
461.458	87.88
461.678	88.88
461.898	85.88
462.118	86.88
462.338	81.88
462.558	75.88
462.777	83.88
462.997	90.88
463.217	67.88
463.437	81.88
463.657	82.88
463.876	92.88
464.096	76.88
464.316	92.88
464.536	74.88
464.755	91.88
464.975	73.88
465.195	78.88
465.414	69.88
465.634	75.88
465.854	90.88
466.073	92.88
466.293	99.88
466.512	95.88
466.732	75.88
466.951	88.88
467.171	81.88
467.391	63.88
467.61	77.88
467.829	82.88
468.049	80.88
468.268	65.88
468.488	82.88
468.707	91.88
468.927	73.88
469.146	81.88
469.365	78.88
469.585	72.88
469.804	83.88
470.023	93.88
470.243	91.88
470.462	85.88
470.681	80.88
470.901	90.88
471.12	65.88
471.339	94.88
471.558	71.88
471.777	86.88
471.997	98.88
472.216	83.88
472.435	87.88
472.654	85.88
472.873	91.88
473.092	82.88
473.311	96.88
473.53	86.88
473.749	83.88
473.968	95.88
474.187	74.88
474.406	79.88
474.625	81.88
474.844	86.88
475.063	72.88
475.282	81.88
475.501	91.88
475.72	78.88
475.939	96.88
476.158	83.88
476.377	77.88
476.596	85.88
476.814	78.88
477.033	88.88
477.252	95.88
477.471	82.88
477.69	86.88
477.908	80.88
478.127	81.88
478.346	93.88
478.564	80.88
478.783	74.88
479.002	80.88
479.22	89.88
479.439	71.88
479.658	75.88
479.876	84.88
480.095	73.88
480.313	87.88
480.532	95.88
480.751	90.88
480.969	79.88
481.188	88.88
481.406	89.88
481.624	75.88
481.843	84.88
482.061	69.88
482.28	91.88
482.498	86.88
482.717	87.88
482.935	77.88
483.153	85.88
483.372	91.88
483.59	73.88
483.808	94.88
484.027	82.88
484.245	100.88
484.463	81.88
484.681	91.88
484.9	80.88
485.118	89.88
485.336	75.88
485.554	91.88
485.772	78.88
485.99	82.88
486.209	89.88
486.427	93.88
486.645	97.88
486.863	83.88
487.081	93.88
487.299	91.88
487.517	94.88
487.735	84.88
487.953	117.88
488.171	114.88
488.389	91.88
488.607	91.88
488.825	91.88
489.043	83.88
489.261	53.88
489.479	72.88
489.696	93.88
489.914	79.88
490.132	91.88
490.35	89.88
490.568	84.88
490.786	83.88
491.003	85.88
491.221	76.88
491.439	77.88
491.657	98.88
491.874	76.88
492.092	87.88
492.31	92.88
492.527	85.88
492.745	84.88
492.963	90.88
493.18	71.88
493.398	78.88
493.615	89.88
493.833	69.88
494.05	84.88
494.268	85.88
494.485	97.88
494.703	76.88
494.92	89.88
495.138	79.88
495.355	76.88
495.573	99.88
495.79	71.88
496.008	78.88
496.225	89.88
496.442	94.88
496.66	82.88
496.877	67.88
497.094	89.88
497.312	89.88
497.529	83.88
497.746	85.88
497.963	70.88
498.181	94.88
498.398	91.88
498.615	90.88
498.832	101.88
499.049	96.88
499.267	100.88
499.484	88.88
499.701	69.88
499.918	79.88
500.135	93.88
500.352	82.88
500.569	93.88
500.786	89.88
501.003	95.88
501.22	83.88
501.437	80.88
501.654	86.88
501.871	91.88
502.088	92.88
502.305	100.88
502.522	85.88
502.739	80.88
502.956	77.88
503.172	91.88
503.389	87.88
503.606	84.88
503.823	88.88
504.04	88.88
504.256	103.88
504.473	114.88
504.69	78.88
504.907	94.88
505.123	93.88
505.34	87.88
505.557	92.88
505.773	75.88
505.99	80.88
506.207	71.88
506.423	86.88
506.64	77.88
506.856	78.88
507.073	83.88
507.289	85.88
507.506	82.88
507.722	69.88
507.939	83.88
508.155	73.88
508.372	81.88
508.588	76.88
508.805	95.88
509.021	96.88
509.238	76.88
509.454	89.88
509.67	95.88
509.887	85.88
510.103	89.88
510.319	67.88
510.536	95.88
510.752	87.88
510.968	87.88
511.184	84.88
511.401	83.88
511.617	89.88
511.833	74.88
512.049	92.88
512.265	90.88
512.481	94.88
512.698	88.88
512.914	87.88
513.13	69.88
513.346	76.88
513.562	89.88
513.778	86.88
513.994	79.88
514.21	80.88
514.426	85.88
514.642	87.88
514.858	81.88
515.074	85.88
515.29	89.88
515.506	106.88
515.721	88.88
515.937	92.88
516.153	85.88
516.369	87.88
516.585	82.88
516.801	85.88
517.016	81.88
517.232	74.88
517.448	105.88
517.664	91.88
517.879	94.88
518.095	101.88
518.311	98.88
518.527	90.88
518.742	95.88
518.958	104.88
