Data from HP_3_HRD10591_00034.txt Node
Date: Mon Jan 19 14:17:17 EST 2026
User: Yrep
Spectrometer: HR+D1059
Trigger mode: 1
Integration Time (sec): 1.000000E-1
Scans to average: 1
Electric dark correction enabled: true
Nonlinearity correction enabled: false
Boxcar width: 0
XAxis mode: Wavelengths
Number of Pixels in Spectrum: 2048
>>>>>Begin Spectral Data<<<<<
223.165	-27.12
223.4	-27.12
223.635	-27.12
223.869	-11.12
224.104	-30.12
224.338	-6.12
224.573	-27.12
224.808	-13.12
225.042	-1.12
225.277	1.88
225.511	-5.12
225.746	8.88
225.98	1.88
226.215	11.88
226.449	24.88
226.683	20.88
226.918	24.88
227.152	25.88
227.387	36.88
227.621	37.88
227.856	57.88
228.09	58.88
228.324	55.88
228.559	55.88
228.793	64.88
229.027	70.88
229.262	65.88
229.496	66.88
229.73	63.88
229.964	74.88
230.199	65.88
230.433	78.88
230.667	81.88
230.901	88.88
231.136	85.88
231.37	77.88
231.604	68.88
231.838	84.88
232.072	80.88
232.306	72.88
232.541	75.88
232.775	67.88
233.009	82.88
233.243	88.88
233.477	78.88
233.711	83.88
233.945	84.88
234.179	72.88
234.413	72.88
234.647	78.88
234.881	74.88
235.115	89.88
235.349	66.88
235.583	88.88
235.817	84.88
236.051	84.88
236.285	89.88
236.519	67.88
236.753	76.88
236.987	83.88
237.221	84.88
237.455	73.88
237.689	79.88
237.922	78.88
238.156	81.88
238.39	86.88
238.624	62.88
238.858	68.88
239.091	79.88
239.325	73.88
239.559	77.88
239.793	69.88
240.027	82.88
240.26	77.88
240.494	78.88
240.728	93.88
240.961	73.88
241.195	75.88
241.429	77.88
241.662	59.88
241.896	61.88
242.13	63.88
242.363	81.88
242.597	81.88
242.83	80.88
243.064	83.88
243.298	70.88
243.531	75.88
243.765	75.88
243.998	85.88
244.232	66.88
244.465	81.88
244.699	85.88
244.932	79.88
245.166	73.88
245.399	90.88
245.633	74.88
245.866	78.88
246.099	73.88
246.333	91.88
246.566	72.88
246.8	94.88
247.033	74.88
247.266	86.88
247.5	79.88
247.733	80.88
247.966	76.88
248.2	74.88
248.433	85.88
248.666	58.88
248.899	66.88
249.133	68.88
249.366	89.88
249.599	73.88
249.832	83.88
250.066	74.88
250.299	72.88
250.532	57.88
250.765	62.88
250.998	70.88
251.231	78.88
251.465	83.88
251.698	85.88
251.931	83.88
252.164	83.88
252.397	73.88
252.63	72.88
252.863	84.88
253.096	78.88
253.329	90.88
253.562	88.88
253.795	74.88
254.028	80.88
254.261	81.88
254.494	89.88
254.727	58.88
254.96	80.88
255.193	88.88
255.426	72.88
255.659	77.88
255.892	78.88
256.124	89.88
256.357	69.88
256.59	78.88
256.823	83.88
257.056	78.88
257.289	73.88
257.521	78.88
257.754	77.88
257.987	75.88
258.22	81.88
258.452	81.88
258.685	75.88
258.918	73.88
259.151	87.88
259.383	87.88
259.616	75.88
259.849	79.88
260.081	91.88
260.314	84.88
260.547	72.88
260.779	72.88
261.012	65.88
261.244	83.88
261.477	78.88
261.71	77.88
261.942	83.88
262.175	72.88
262.407	80.88
262.64	68.88
262.872	79.88
263.105	84.88
263.337	79.88
263.57	91.88
263.802	79.88
264.035	79.88
264.267	72.88
264.499	82.88
264.732	83.88
264.964	65.88
265.197	84.88
265.429	84.88
265.661	83.88
265.894	78.88
266.126	78.88
266.358	93.88
266.591	76.88
266.823	77.88
267.055	76.88
267.287	73.88
267.52	92.88
267.752	84.88
267.984	80.88
268.216	88.88
268.448	86.88
268.681	89.88
268.913	89.88
269.145	79.88
269.377	81.88
269.609	78.88
269.841	85.88
270.073	83.88
270.306	82.88
270.538	87.88
270.77	84.88
271.002	86.88
271.234	90.88
271.466	86.88
271.698	98.88
271.93	80.88
272.162	82.88
272.394	96.88
272.626	90.88
272.858	86.88
273.09	87.88
273.322	80.88
273.553	92.88
273.785	82.88
274.017	100.88
274.249	85.88
274.481	84.88
274.713	93.88
274.945	79.88
275.176	94.88
275.408	81.88
275.64	64.88
275.872	83.88
276.104	94.88
276.335	90.88
276.567	73.88
276.799	71.88
277.031	77.88
277.262	82.88
277.494	88.88
277.726	104.88
277.957	79.88
278.189	82.88
278.421	89.88
278.652	78.88
278.884	73.88
279.115	96.88
279.347	88.88
279.579	80.88
279.81	80.88
280.042	75.88
280.273	77.88
280.505	85.88
280.736	104.88
280.968	83.88
281.199	84.88
281.431	87.88
281.662	80.88
281.894	92.88
282.125	89.88
282.356	92.88
282.588	79.88
282.819	85.88
283.051	89.88
283.282	86.88
283.513	81.88
283.745	82.88
283.976	92.88
284.207	74.88
284.439	74.88
284.67	83.88
284.901	78.88
285.132	72.88
285.364	84.88
285.595	111.88
285.826	69.88
286.057	78.88
286.288	74.88
286.52	83.88
286.751	86.88
286.982	81.88
287.213	78.88
287.444	88.88
287.675	84.88
287.906	78.88
288.138	87.88
288.369	94.88
288.6	82.88
288.831	82.88
289.062	91.88
289.293	78.88
289.524	73.88
289.755	79.88
289.986	88.88
290.217	94.88
290.448	81.88
290.679	70.88
290.91	86.88
291.141	96.88
291.371	94.88
291.602	86.88
291.833	84.88
292.064	85.88
292.295	93.88
292.526	92.88
292.757	77.88
292.987	78.88
293.218	87.88
293.449	93.88
293.68	99.88
293.91	75.88
294.141	106.88
294.372	83.88
294.603	86.88
294.833	84.88
295.064	73.88
295.295	90.88
295.525	88.88
295.756	75.88
295.987	90.88
296.217	76.88
296.448	91.88
296.679	84.88
296.909	89.88
297.14	80.88
297.37	77.88
297.601	91.88
297.831	87.88
298.062	84.88
298.292	81.88
298.523	101.88
298.753	77.88
298.984	88.88
299.214	84.88
299.445	64.88
299.675	77.88
299.905	78.88
300.136	89.88
300.366	96.88
300.597	72.88
300.827	70.88
301.057	75.88
301.288	78.88
301.518	86.88
301.748	78.88
301.979	96.88
302.209	75.88
302.439	87.88
302.669	88.88
302.9	76.88
303.13	75.88
303.36	77.88
303.59	89.88
303.82	86.88
304.051	101.88
304.281	82.88
304.511	91.88
304.741	85.88
304.971	76.88
305.201	80.88
305.431	90.88
305.661	82.88
305.891	90.88
306.121	102.88
306.352	77.88
306.582	82.88
306.812	90.88
307.042	97.88
307.272	87.88
307.502	89.88
307.731	78.88
307.961	81.88
308.191	78.88
308.421	88.88
308.651	80.88
308.881	99.88
309.111	89.88
309.341	84.88
309.571	86.88
309.8	77.88
310.03	82.88
310.26	82.88
310.49	78.88
310.72	90.88
310.949	77.88
311.179	84.88
311.409	82.88
311.639	88.88
311.868	81.88
312.098	91.88
312.328	90.88
312.557	76.88
312.787	96.88
313.017	94.88
313.246	87.88
313.476	86.88
313.706	88.88
313.935	77.88
314.165	79.88
314.394	80.88
314.624	78.88
314.853	95.88
315.083	103.88
315.312	79.88
315.542	76.88
315.771	82.88
316.001	92.88
316.23	94.88
316.46	89.88
316.689	77.88
316.919	89.88
317.148	86.88
317.377	92.88
317.607	88.88
317.836	78.88
318.065	78.88
318.295	105.88
318.524	74.88
318.753	90.88
318.983	81.88
319.212	91.88
319.441	79.88
319.67	88.88
319.9	92.88
320.129	88.88
320.358	88.88
320.587	96.88
320.816	84.88
321.046	75.88
321.275	90.88
321.504	82.88
321.733	80.88
321.962	82.88
322.191	79.88
322.42	89.88
322.649	76.88
322.878	86.88
323.108	86.88
323.337	89.88
323.566	74.88
323.795	99.88
324.024	84.88
324.253	76.88
324.482	88.88
324.71	86.88
324.939	88.88
325.168	80.88
325.397	89.88
325.626	84.88
325.855	77.88
326.084	86.88
326.313	76.88
326.542	74.88
326.77	83.88
326.999	89.88
327.228	85.88
327.457	91.88
327.686	77.88
327.914	93.88
328.143	87.88
328.372	86.88
328.6	68.88
328.829	73.88
329.058	74.88
329.287	91.88
329.515	87.88
329.744	77.88
329.972	85.88
330.201	83.88
330.43	88.88
330.658	75.88
330.887	78.88
331.115	73.88
331.344	85.88
331.572	75.88
331.801	86.88
332.03	78.88
332.258	89.88
332.486	85.88
332.715	87.88
332.943	81.88
333.172	92.88
333.4	82.88
333.629	70.88
333.857	87.88
334.085	78.88
334.314	88.88
334.542	76.88
334.771	90.88
334.999	79.88
335.227	87.88
335.455	91.88
335.684	93.88
335.912	95.88
336.14	90.88
336.369	88.88
336.597	78.88
336.825	90.88
337.053	77.88
337.281	76.88
337.51	85.88
337.738	91.88
337.966	84.88
338.194	87.88
338.422	74.88
338.65	91.88
338.878	86.88
339.106	68.88
339.334	92.88
339.562	90.88
339.79	70.88
340.018	84.88
340.246	81.88
340.474	89.88
340.702	92.88
340.93	68.88
341.158	79.88
341.386	78.88
341.614	62.88
341.842	90.88
342.07	79.88
342.298	75.88
342.526	81.88
342.754	77.88
342.981	76.88
343.209	96.88
343.437	91.88
343.665	84.88
343.893	81.88
344.12	75.88
344.348	68.88
344.576	74.88
344.804	78.88
345.031	88.88
345.259	83.88
345.487	86.88
345.714	89.88
345.942	89.88
346.17	90.88
346.397	84.88
346.625	82.88
346.853	91.88
347.08	96.88
347.308	82.88
347.535	90.88
347.763	75.88
347.99	88.88
348.218	88.88
348.445	81.88
348.673	78.88
348.9	85.88
349.128	79.88
349.355	65.88
349.583	79.88
349.81	84.88
350.037	78.88
350.265	82.88
350.492	78.88
350.72	76.88
350.947	82.88
351.174	90.88
351.402	86.88
351.629	84.88
351.856	85.88
352.083	82.88
352.311	87.88
352.538	68.88
352.765	88.88
352.992	83.88
353.22	72.88
353.447	90.88
353.674	89.88
353.901	87.88
354.128	79.88
354.355	99.88
354.583	71.88
354.81	73.88
355.037	88.88
355.264	92.88
355.491	102.88
355.718	83.88
355.945	101.88
356.172	85.88
356.399	86.88
356.626	69.88
356.853	81.88
357.08	95.88
357.307	75.88
357.534	80.88
357.761	101.88
357.988	89.88
358.215	86.88
358.441	78.88
358.668	91.88
358.895	82.88
359.122	83.88
359.349	82.88
359.576	66.88
359.802	79.88
360.029	88.88
360.256	91.88
360.483	89.88
360.709	88.88
360.936	94.88
361.163	91.88
361.39	81.88
361.616	78.88
361.843	70.88
362.07	85.88
362.296	77.88
362.523	95.88
362.749	93.88
362.976	85.88
363.203	104.88
363.429	76.88
363.656	91.88
363.882	76.88
364.109	87.88
364.335	89.88
364.562	77.88
364.788	85.88
365.015	86.88
365.241	73.88
365.468	80.88
365.694	77.88
365.92	81.88
366.147	78.88
366.373	88.88
366.599	85.88
366.826	82.88
367.052	86.88
367.278	88.88
367.505	96.88
367.731	83.88
367.957	82.88
368.184	77.88
368.41	99.88
368.636	102.88
368.862	95.88
369.089	84.88
369.315	87.88
369.541	89.88
369.767	83.88
369.993	86.88
370.219	94.88
370.445	81.88
370.672	85.88
370.898	72.88
371.124	84.88
371.35	93.88
371.576	87.88
371.802	75.88
372.028	82.88
372.254	80.88
372.48	86.88
372.706	98.88
372.932	77.88
373.158	88.88
373.384	97.88
373.61	96.88
373.835	85.88
374.061	76.88
374.287	90.88
374.513	68.88
374.739	74.88
374.965	82.88
375.191	78.88
375.416	97.88
375.642	81.88
375.868	88.88
376.094	56.88
376.319	78.88
376.545	73.88
376.771	86.88
376.997	74.88
377.222	79.88
377.448	86.88
377.674	81.88
377.899	96.88
378.125	66.88
378.35	76.88
378.576	70.88
378.802	83.88
379.027	79.88
379.253	71.88
379.478	76.88
379.704	75.88
379.929	84.88
380.155	86.88
380.38	76.88
380.606	76.88
380.831	75.88
381.057	92.88
381.282	91.88
381.507	99.88
381.733	93.88
381.958	100.88
382.184	81.88
382.409	76.88
382.634	81.88
382.86	89.88
383.085	73.88
383.31	80.88
383.535	93.88
383.761	81.88
383.986	76.88
384.211	72.88
384.436	88.88
384.662	82.88
384.887	105.88
385.112	84.88
385.337	101.88
385.562	89.88
385.787	66.88
386.013	83.88
386.238	89.88
386.463	75.88
386.688	91.88
386.913	73.88
387.138	78.88
387.363	83.88
387.588	86.88
387.813	90.88
388.038	89.88
388.263	91.88
388.488	77.88
388.713	90.88
388.938	75.88
389.163	81.88
389.387	85.88
389.612	94.88
389.837	81.88
390.062	89.88
390.287	85.88
390.512	73.88
390.736	82.88
390.961	82.88
391.186	84.88
391.411	89.88
391.636	79.88
391.86	92.88
392.085	88.88
392.31	88.88
392.534	78.88
392.759	100.88
392.984	92.88
393.208	115.88
393.433	121.88
393.658	90.88
393.882	79.88
394.107	86.88
394.331	88.88
394.556	81.88
394.78	84.88
395.005	68.88
395.229	76.88
395.454	101.88
395.678	73.88
395.903	82.88
396.127	93.88
396.352	81.88
396.576	94.88
396.801	109.88
397.025	120.88
397.249	101.88
397.474	82.88
397.698	93.88
397.922	89.88
398.147	80.88
398.371	86.88
398.595	78.88
398.82	88.88
399.044	95.88
399.268	78.88
399.492	81.88
399.717	82.88
399.941	85.88
400.165	75.88
400.389	80.88
400.613	87.88
400.837	89.88
401.062	79.88
401.286	94.88
401.51	79.88
401.734	80.88
401.958	80.88
402.182	82.88
402.406	84.88
402.63	82.88
402.854	73.88
403.078	72.88
403.302	86.88
403.526	76.88
403.75	90.88
403.974	84.88
404.198	77.88
404.422	76.88
404.645	79.88
404.869	73.88
405.093	71.88
405.317	79.88
405.541	77.88
405.765	80.88
405.988	88.88
406.212	106.88
406.436	84.88
406.66	89.88
406.883	89.88
407.107	83.88
407.331	91.88
407.555	73.88
407.778	93.88
408.002	79.88
408.226	68.88
408.449	75.88
408.673	73.88
408.896	81.88
409.12	70.88
409.344	91.88
409.567	81.88
409.791	82.88
410.014	59.88
410.238	84.88
410.461	96.88
410.685	82.88
410.908	95.88
411.132	77.88
411.355	74.88
411.578	83.88
411.802	70.88
412.025	88.88
412.249	78.88
412.472	78.88
412.695	79.88
412.919	86.88
413.142	80.88
413.365	99.88
413.589	84.88
413.812	84.88
414.035	96.88
414.258	92.88
414.482	79.88
414.705	84.88
414.928	78.88
415.151	75.88
415.374	73.88
415.597	80.88
415.821	81.88
416.044	97.88
416.267	85.88
416.49	84.88
416.713	80.88
416.936	101.88
417.159	87.88
417.382	78.88
417.605	79.88
417.828	98.88
418.051	67.88
418.274	88.88
418.497	79.88
418.72	82.88
418.943	75.88
419.166	75.88
419.389	74.88
419.611	88.88
419.834	77.88
420.057	93.88
420.28	74.88
420.503	80.88
420.726	82.88
420.948	93.88
421.171	83.88
421.394	92.88
421.617	93.88
421.839	70.88
422.062	84.88
422.285	85.88
422.507	110.88
422.73	132.88
422.953	105.88
423.175	93.88
423.398	80.88
423.621	79.88
423.843	77.88
424.066	77.88
424.288	82.88
424.511	72.88
424.733	79.88
424.956	78.88
425.178	80.88
425.401	94.88
425.623	91.88
425.846	72.88
426.068	73.88
426.291	75.88
426.513	84.88
426.735	89.88
426.958	80.88
427.18	81.88
427.402	71.88
427.625	78.88
427.847	80.88
428.069	75.88
428.292	74.88
428.514	84.88
428.736	85.88
428.958	86.88
429.181	87.88
429.403	88.88
429.625	85.88
429.847	84.88
430.069	90.88
430.292	96.88
430.514	101.88
430.736	85.88
430.958	75.88
431.18	84.88
431.402	87.88
431.624	90.88
431.846	88.88
432.068	80.88
432.29	80.88
432.512	78.88
432.734	83.88
432.956	97.88
433.178	86.88
433.4	98.88
433.622	79.88
433.844	77.88
434.066	84.88
434.287	77.88
434.509	83.88
434.731	77.88
434.953	68.88
435.175	77.88
435.397	64.88
435.618	78.88
435.84	77.88
436.062	59.88
436.284	75.88
436.505	80.88
436.727	73.88
436.949	75.88
437.17	82.88
437.392	72.88
437.614	90.88
437.835	75.88
438.057	96.88
438.278	96.88
438.5	86.88
438.721	81.88
438.943	83.88
439.165	68.88
439.386	78.88
439.608	90.88
439.829	77.88
440.05	93.88
440.272	73.88
440.493	75.88
440.715	86.88
440.936	87.88
441.158	56.88
441.379	67.88
441.6	79.88
441.822	86.88
442.043	86.88
442.264	84.88
442.486	86.88
442.707	99.88
442.928	74.88
443.149	88.88
443.371	102.88
443.592	87.88
443.813	84.88
444.034	86.88
444.255	88.88
444.476	72.88
444.698	72.88
444.919	75.88
445.14	172.88
445.361	128.88
445.582	92.88
445.803	104.88
446.024	76.88
446.245	80.88
446.466	81.88
446.687	70.88
446.908	80.88
447.129	81.88
447.35	80.88
447.571	89.88
447.792	89.88
448.013	76.88
448.234	85.88
448.455	77.88
448.675	70.88
448.896	75.88
449.117	82.88
449.338	78.88
449.559	78.88
449.779	93.88
450	82.88
450.221	78.88
450.442	78.88
450.662	87.88
450.883	82.88
451.104	83.88
451.324	83.88
451.545	96.88
451.766	77.88
451.986	76.88
452.207	83.88
452.428	96.88
452.648	87.88
452.869	82.88
453.089	90.88
453.31	79.88
453.53	82.88
453.751	82.88
453.971	90.88
454.192	83.88
454.412	83.88
454.633	77.88
454.853	86.88
455.073	104.88
455.294	86.88
455.514	69.88
455.734	86.88
455.955	83.88
456.175	72.88
456.395	77.88
456.616	85.88
456.836	80.88
457.056	92.88
457.276	74.88
457.497	82.88
457.717	89.88
457.937	74.88
458.157	68.88
458.377	74.88
458.598	86.88
458.818	93.88
459.038	86.88
459.258	72.88
459.478	64.88
459.698	86.88
459.918	79.88
460.138	71.88
460.358	87.88
460.578	78.88
460.798	78.88
461.018	93.88
461.238	89.88
461.458	70.88
461.678	75.88
461.898	79.88
462.118	93.88
462.338	83.88
462.558	89.88
462.777	84.88
462.997	71.88
463.217	87.88
463.437	79.88
463.657	75.88
463.876	78.88
464.096	79.88
464.316	84.88
464.536	73.88
464.755	88.88
464.975	76.88
465.195	88.88
465.414	79.88
465.634	76.88
465.854	86.88
466.073	86.88
466.293	72.88
466.512	72.88
466.732	81.88
466.951	91.88
467.171	82.88
467.391	89.88
467.61	97.88
467.829	85.88
468.049	90.88
468.268	74.88
468.488	84.88
468.707	65.88
468.927	78.88
469.146	81.88
469.365	98.88
469.585	78.88
469.804	74.88
470.023	76.88
470.243	84.88
470.462	71.88
470.681	75.88
470.901	78.88
471.12	83.88
471.339	72.88
471.558	85.88
471.777	76.88
471.997	77.88
472.216	84.88
472.435	83.88
472.654	75.88
472.873	88.88
473.092	87.88
473.311	96.88
473.53	84.88
473.749	80.88
473.968	90.88
474.187	84.88
474.406	84.88
474.625	88.88
474.844	78.88
475.063	85.88
475.282	82.88
475.501	89.88
475.72	86.88
475.939	81.88
476.158	70.88
476.377	87.88
476.596	88.88
476.814	89.88
477.033	89.88
477.252	79.88
477.471	84.88
477.69	70.88
477.908	83.88
478.127	84.88
478.346	81.88
478.564	81.88
478.783	77.88
479.002	74.88
479.22	76.88
479.439	96.88
479.658	79.88
479.876	101.88
480.095	80.88
480.313	88.88
480.532	84.88
480.751	77.88
480.969	96.88
481.188	88.88
481.406	83.88
481.624	83.88
481.843	91.88
482.061	84.88
482.28	81.88
482.498	72.88
482.717	80.88
482.935	86.88
483.153	88.88
483.372	73.88
483.59	83.88
483.808	81.88
484.027	82.88
484.245	85.88
484.463	81.88
484.681	87.88
484.9	86.88
485.118	100.88
485.336	100.88
485.554	81.88
485.772	77.88
485.99	74.88
486.209	80.88
486.427	74.88
486.645	71.88
486.863	74.88
487.081	70.88
487.299	84.88
487.517	77.88
487.735	92.88
487.953	93.88
488.171	102.88
488.389	77.88
488.607	83.88
488.825	77.88
489.043	82.88
489.261	80.88
489.479	96.88
489.696	73.88
489.914	76.88
490.132	74.88
490.35	91.88
490.568	89.88
490.786	79.88
491.003	87.88
491.221	91.88
491.439	76.88
491.657	84.88
491.874	84.88
492.092	87.88
492.31	105.88
492.527	86.88
492.745	86.88
492.963	94.88
493.18	87.88
493.398	78.88
493.615	94.88
493.833	85.88
494.05	73.88
494.268	64.88
494.485	78.88
494.703	92.88
494.92	93.88
495.138	83.88
495.355	84.88
495.573	81.88
495.79	95.88
496.008	78.88
496.225	89.88
496.442	86.88
496.66	90.88
496.877	92.88
497.094	92.88
497.312	88.88
497.529	82.88
497.746	72.88
497.963	97.88
498.181	72.88
498.398	73.88
498.615	93.88
498.832	81.88
499.049	72.88
499.267	82.88
499.484	72.88
499.701	82.88
499.918	93.88
500.135	78.88
500.352	63.88
500.569	85.88
500.786	100.88
501.003	90.88
501.22	86.88
501.437	89.88
501.654	88.88
501.871	84.88
502.088	85.88
502.305	84.88
502.522	89.88
502.739	90.88
502.956	84.88
503.172	97.88
503.389	84.88
503.606	81.88
503.823	72.88
504.04	94.88
504.256	90.88
504.473	88.88
504.69	70.88
504.907	89.88
505.123	96.88
505.34	83.88
505.557	68.88
505.773	81.88
505.99	79.88
506.207	91.88
506.423	79.88
506.64	99.88
506.856	95.88
507.073	87.88
507.289	76.88
507.506	88.88
507.722	85.88
507.939	72.88
508.155	84.88
508.372	78.88
508.588	72.88
508.805	97.88
509.021	92.88
509.238	84.88
509.454	77.88
509.67	83.88
509.887	79.88
510.103	83.88
510.319	87.88
510.536	77.88
510.752	87.88
510.968	85.88
511.184	88.88
511.401	86.88
511.617	77.88
511.833	84.88
512.049	76.88
512.265	85.88
512.481	86.88
512.698	73.88
512.914	83.88
513.13	69.88
513.346	74.88
513.562	85.88
513.778	85.88
513.994	78.88
514.21	72.88
514.426	87.88
514.642	83.88
514.858	83.88
515.074	83.88
515.29	92.88
515.506	87.88
515.721	79.88
515.937	89.88
516.153	78.88
516.369	82.88
516.585	82.88
516.801	77.88
517.016	83.88
517.232	81.88
517.448	89.88
517.664	92.88
517.879	82.88
518.095	71.88
518.311	91.88
518.527	92.88
518.742	84.88
518.958	98.88
519.173	78.88
519.389	97.88
519.605	77.88
519.82	79.88
