Data from HP_3_HRD10591_00039.txt Node
Date: Mon Jan 19 14:17:20 EST 2026
User: Yrep
Spectrometer: HR+D1059
Trigger mode: 1
Integration Time (sec): 1.000000E-1
Scans to average: 1
Electric dark correction enabled: true
Nonlinearity correction enabled: false
Boxcar width: 0
XAxis mode: Wavelengths
Number of Pixels in Spectrum: 2048
>>>>>Begin Spectral Data<<<<<
223.165	-18.31
223.4	-18.31
223.635	-18.31
223.869	-18.31
224.104	-13.31
224.338	-22.31
224.573	-7.31
224.808	-9.31
225.042	-5.31
225.277	-8.31
225.511	-10.31
225.746	-6.31
225.98	6.69
226.215	7.69
226.449	1.69
226.683	24.69
226.918	31.69
227.152	46.69
227.387	23.69
227.621	33.69
227.856	41.69
228.09	56.69
228.324	54.69
228.559	52.69
228.793	50.69
229.027	65.69
229.262	80.69
229.496	65.69
229.73	67.69
229.964	79.69
230.199	72.69
230.433	66.69
230.667	74.69
230.901	62.69
231.136	72.69
231.37	83.69
231.604	73.69
231.838	80.69
232.072	84.69
232.306	82.69
232.541	72.69
232.775	70.69
233.009	89.69
233.243	85.69
233.477	86.69
233.711	97.69
233.945	78.69
234.179	80.69
234.413	80.69
234.647	75.69
234.881	84.69
235.115	86.69
235.349	58.69
235.583	82.69
235.817	78.69
236.051	82.69
236.285	81.69
236.519	77.69
236.753	71.69
236.987	71.69
237.221	75.69
237.455	64.69
237.689	63.69
237.922	76.69
238.156	75.69
238.39	70.69
238.624	78.69
238.858	77.69
239.091	77.69
239.325	61.69
239.559	65.69
239.793	75.69
240.027	69.69
240.26	79.69
240.494	73.69
240.728	85.69
240.961	73.69
241.195	83.69
241.429	70.69
241.662	62.69
241.896	89.69
242.13	65.69
242.363	82.69
242.597	72.69
242.83	81.69
243.064	71.69
243.298	81.69
243.531	86.69
243.765	69.69
243.998	75.69
244.232	79.69
244.465	83.69
244.699	74.69
244.932	71.69
245.166	74.69
245.399	73.69
245.633	80.69
245.866	74.69
246.099	74.69
246.333	72.69
246.566	72.69
246.8	66.69
247.033	82.69
247.266	68.69
247.5	74.69
247.733	66.69
247.966	65.69
248.2	69.69
248.433	80.69
248.666	74.69
248.899	70.69
249.133	76.69
249.366	78.69
249.599	81.69
249.832	74.69
250.066	76.69
250.299	78.69
250.532	87.69
250.765	82.69
250.998	71.69
251.231	89.69
251.465	92.69
251.698	83.69
251.931	86.69
252.164	77.69
252.397	69.69
252.63	74.69
252.863	74.69
253.096	95.69
253.329	76.69
253.562	78.69
253.795	73.69
254.028	70.69
254.261	62.69
254.494	98.69
254.727	95.69
254.96	78.69
255.193	86.69
255.426	89.69
255.659	74.69
255.892	84.69
256.124	72.69
256.357	76.69
256.59	70.69
256.823	81.69
257.056	70.69
257.289	80.69
257.521	78.69
257.754	84.69
257.987	71.69
258.22	81.69
258.452	86.69
258.685	84.69
258.918	64.69
259.151	84.69
259.383	86.69
259.616	79.69
259.849	80.69
260.081	73.69
260.314	75.69
260.547	64.69
260.779	80.69
261.012	81.69
261.244	78.69
261.477	77.69
261.71	80.69
261.942	67.69
262.175	82.69
262.407	80.69
262.64	96.69
262.872	83.69
263.105	81.69
263.337	80.69
263.57	84.69
263.802	63.69
264.035	78.69
264.267	80.69
264.499	64.69
264.732	86.69
264.964	74.69
265.197	86.69
265.429	71.69
265.661	89.69
265.894	82.69
266.126	81.69
266.358	85.69
266.591	75.69
266.823	65.69
267.055	81.69
267.287	90.69
267.52	78.69
267.752	87.69
267.984	67.69
268.216	78.69
268.448	73.69
268.681	82.69
268.913	70.69
269.145	89.69
269.377	73.69
269.609	65.69
269.841	80.69
270.073	66.69
270.306	86.69
270.538	103.69
270.77	76.69
271.002	80.69
271.234	78.69
271.466	86.69
271.698	74.69
271.93	90.69
272.162	94.69
272.394	86.69
272.626	81.69
272.858	84.69
273.09	69.69
273.322	96.69
273.553	86.69
273.785	91.69
274.017	87.69
274.249	86.69
274.481	96.69
274.713	84.69
274.945	87.69
275.176	83.69
275.408	84.69
275.64	84.69
275.872	83.69
276.104	72.69
276.335	78.69
276.567	77.69
276.799	69.69
277.031	76.69
277.262	86.69
277.494	68.69
277.726	86.69
277.957	80.69
278.189	88.69
278.421	90.69
278.652	86.69
278.884	87.69
279.115	92.69
279.347	96.69
279.579	73.69
279.81	78.69
280.042	86.69
280.273	78.69
280.505	96.69
280.736	96.69
280.968	81.69
281.199	76.69
281.431	67.69
281.662	75.69
281.894	89.69
282.125	80.69
282.356	67.69
282.588	80.69
282.819	74.69
283.051	85.69
283.282	78.69
283.513	76.69
283.745	82.69
283.976	84.69
284.207	80.69
284.439	81.69
284.67	83.69
284.901	95.69
285.132	78.69
285.364	85.69
285.595	75.69
285.826	84.69
286.057	71.69
286.288	70.69
286.52	72.69
286.751	92.69
286.982	81.69
287.213	86.69
287.444	77.69
287.675	85.69
287.906	84.69
288.138	65.69
288.369	88.69
288.6	77.69
288.831	76.69
289.062	79.69
289.293	86.69
289.524	77.69
289.755	62.69
289.986	84.69
290.217	73.69
290.448	76.69
290.679	73.69
290.91	71.69
291.141	78.69
291.371	80.69
291.602	80.69
291.833	81.69
292.064	95.69
292.295	84.69
292.526	96.69
292.757	84.69
292.987	95.69
293.218	87.69
293.449	85.69
293.68	76.69
293.91	76.69
294.141	90.69
294.372	67.69
294.603	82.69
294.833	78.69
295.064	82.69
295.295	72.69
295.525	82.69
295.756	86.69
295.987	98.69
296.217	85.69
296.448	73.69
296.679	85.69
296.909	77.69
297.14	78.69
297.37	103.69
297.601	80.69
297.831	75.69
298.062	73.69
298.292	83.69
298.523	82.69
298.753	92.69
298.984	84.69
299.214	80.69
299.445	83.69
299.675	74.69
299.905	86.69
300.136	91.69
300.366	77.69
300.597	57.69
300.827	75.69
301.057	81.69
301.288	71.69
301.518	74.69
301.748	80.69
301.979	86.69
302.209	88.69
302.439	82.69
302.669	85.69
302.9	76.69
303.13	84.69
303.36	82.69
303.59	71.69
303.82	77.69
304.051	84.69
304.281	89.69
304.511	88.69
304.741	72.69
304.971	78.69
305.201	94.69
305.431	73.69
305.661	84.69
305.891	84.69
306.121	95.69
306.352	84.69
306.582	86.69
306.812	81.69
307.042	76.69
307.272	80.69
307.502	80.69
307.731	74.69
307.961	65.69
308.191	81.69
308.421	85.69
308.651	78.69
308.881	86.69
309.111	78.69
309.341	83.69
309.571	84.69
309.8	94.69
310.03	81.69
310.26	83.69
310.49	94.69
310.72	74.69
310.949	81.69
311.179	91.69
311.409	79.69
311.639	70.69
311.868	80.69
312.098	85.69
312.328	84.69
312.557	80.69
312.787	76.69
313.017	93.69
313.246	94.69
313.476	84.69
313.706	74.69
313.935	82.69
314.165	88.69
314.394	82.69
314.624	84.69
314.853	90.69
315.083	70.69
315.312	80.69
315.542	71.69
315.771	80.69
316.001	97.69
316.23	84.69
316.46	92.69
316.689	80.69
316.919	77.69
317.148	75.69
317.377	77.69
317.607	85.69
317.836	81.69
318.065	82.69
318.295	89.69
318.524	86.69
318.753	91.69
318.983	83.69
319.212	73.69
319.441	76.69
319.67	80.69
319.9	89.69
320.129	87.69
320.358	87.69
320.587	78.69
320.816	90.69
321.046	84.69
321.275	74.69
321.504	88.69
321.733	81.69
321.962	87.69
322.191	70.69
322.42	68.69
322.649	80.69
322.878	87.69
323.108	95.69
323.337	89.69
323.566	77.69
323.795	69.69
324.024	88.69
324.253	86.69
324.482	92.69
324.71	74.69
324.939	85.69
325.168	81.69
325.397	88.69
325.626	77.69
325.855	93.69
326.084	84.69
326.313	80.69
326.542	81.69
326.77	69.69
326.999	92.69
327.228	87.69
327.457	85.69
327.686	74.69
327.914	93.69
328.143	93.69
328.372	78.69
328.6	86.69
328.829	80.69
329.058	66.69
329.287	85.69
329.515	70.69
329.744	79.69
329.972	88.69
330.201	83.69
330.43	88.69
330.658	80.69
330.887	90.69
331.115	84.69
331.344	77.69
331.572	99.69
331.801	83.69
332.03	87.69
332.258	74.69
332.486	83.69
332.715	74.69
332.943	81.69
333.172	74.69
333.4	74.69
333.629	70.69
333.857	73.69
334.085	83.69
334.314	80.69
334.542	95.69
334.771	81.69
334.999	86.69
335.227	86.69
335.455	74.69
335.684	85.69
335.912	71.69
336.14	86.69
336.369	91.69
336.597	80.69
336.825	89.69
337.053	89.69
337.281	85.69
337.51	74.69
337.738	85.69
337.966	76.69
338.194	84.69
338.422	83.69
338.65	67.69
338.878	88.69
339.106	90.69
339.334	98.69
339.562	86.69
339.79	84.69
340.018	84.69
340.246	83.69
340.474	74.69
340.702	75.69
340.93	78.69
341.158	83.69
341.386	80.69
341.614	81.69
341.842	71.69
342.07	75.69
342.298	85.69
342.526	71.69
342.754	80.69
342.981	78.69
343.209	82.69
343.437	91.69
343.665	84.69
343.893	82.69
344.12	81.69
344.348	86.69
344.576	96.69
344.804	78.69
345.031	68.69
345.259	90.69
345.487	89.69
345.714	79.69
345.942	82.69
346.17	70.69
346.397	85.69
346.625	65.69
346.853	81.69
347.08	86.69
347.308	70.69
347.535	81.69
347.763	77.69
347.99	74.69
348.218	100.69
348.445	71.69
348.673	85.69
348.9	73.69
349.128	78.69
349.355	85.69
349.583	84.69
349.81	70.69
350.037	81.69
350.265	87.69
350.492	72.69
350.72	80.69
350.947	87.69
351.174	83.69
351.402	73.69
351.629	58.69
351.856	84.69
352.083	89.69
352.311	73.69
352.538	84.69
352.765	82.69
352.992	92.69
353.22	72.69
353.447	82.69
353.674	90.69
353.901	84.69
354.128	71.69
354.355	63.69
354.583	77.69
354.81	63.69
355.037	75.69
355.264	85.69
355.491	79.69
355.718	85.69
355.945	70.69
356.172	78.69
356.399	82.69
356.626	80.69
356.853	85.69
357.08	73.69
357.307	80.69
357.534	68.69
357.761	92.69
357.988	84.69
358.215	85.69
358.441	83.69
358.668	82.69
358.895	66.69
359.122	82.69
359.349	72.69
359.576	68.69
359.802	84.69
360.029	78.69
360.256	78.69
360.483	74.69
360.709	80.69
360.936	82.69
361.163	80.69
361.39	74.69
361.616	85.69
361.843	81.69
362.07	86.69
362.296	79.69
362.523	80.69
362.749	87.69
362.976	72.69
363.203	93.69
363.429	82.69
363.656	82.69
363.882	77.69
364.109	76.69
364.335	82.69
364.562	77.69
364.788	92.69
365.015	80.69
365.241	91.69
365.468	90.69
365.694	69.69
365.92	83.69
366.147	96.69
366.373	88.69
366.599	88.69
366.826	81.69
367.052	92.69
367.278	92.69
367.505	79.69
367.731	89.69
367.957	81.69
368.184	87.69
368.41	87.69
368.636	80.69
368.862	84.69
369.089	72.69
369.315	81.69
369.541	87.69
369.767	58.69
369.993	88.69
370.219	70.69
370.445	73.69
370.672	86.69
370.898	78.69
371.124	82.69
371.35	75.69
371.576	84.69
371.802	85.69
372.028	80.69
372.254	92.69
372.48	85.69
372.706	79.69
372.932	89.69
373.158	76.69
373.384	88.69
373.61	94.69
373.835	85.69
374.061	97.69
374.287	83.69
374.513	94.69
374.739	76.69
374.965	89.69
375.191	86.69
375.416	82.69
375.642	87.69
375.868	82.69
376.094	82.69
376.319	90.69
376.545	75.69
376.771	96.69
376.997	87.69
377.222	73.69
377.448	82.69
377.674	86.69
377.899	82.69
378.125	73.69
378.35	87.69
378.576	67.69
378.802	80.69
379.027	90.69
379.253	84.69
379.478	80.69
379.704	77.69
379.929	89.69
380.155	84.69
380.38	79.69
380.606	82.69
380.831	82.69
381.057	88.69
381.282	91.69
381.507	92.69
381.733	85.69
381.958	86.69
382.184	87.69
382.409	77.69
382.634	77.69
382.86	78.69
383.085	85.69
383.31	97.69
383.535	80.69
383.761	80.69
383.986	75.69
384.211	90.69
384.436	76.69
384.662	74.69
384.887	91.69
385.112	74.69
385.337	88.69
385.562	89.69
385.787	82.69
386.013	80.69
386.238	85.69
386.463	82.69
386.688	81.69
386.913	77.69
387.138	85.69
387.363	75.69
387.588	102.69
387.813	87.69
388.038	89.69
388.263	84.69
388.488	86.69
388.713	67.69
388.938	80.69
389.163	87.69
389.387	89.69
389.612	82.69
389.837	78.69
390.062	80.69
390.287	89.69
390.512	76.69
390.736	69.69
390.961	66.69
391.186	80.69
391.411	72.69
391.636	85.69
391.86	83.69
392.085	72.69
392.31	88.69
392.534	72.69
392.759	91.69
392.984	132.69
393.208	192.69
393.433	292.69
393.658	224.69
393.882	101.69
394.107	98.69
394.331	92.69
394.556	94.69
394.78	90.69
395.005	92.69
395.229	100.69
395.454	93.69
395.678	79.69
395.903	94.69
396.127	97.69
396.352	114.69
396.576	120.69
396.801	206.69
397.025	222.69
397.249	118.69
397.474	88.69
397.698	85.69
397.922	83.69
398.147	90.69
398.371	76.69
398.595	73.69
398.82	85.69
399.044	78.69
399.268	48.69
399.492	74.69
399.717	80.69
399.941	84.69
400.165	77.69
400.389	84.69
400.613	78.69
400.837	78.69
401.062	69.69
401.286	76.69
401.51	80.69
401.734	88.69
401.958	84.69
402.182	77.69
402.406	83.69
402.63	75.69
402.854	87.69
403.078	63.69
403.302	62.69
403.526	72.69
403.75	80.69
403.974	73.69
404.198	82.69
404.422	75.69
404.645	86.69
404.869	83.69
405.093	79.69
405.317	64.69
405.541	69.69
405.765	72.69
405.988	69.69
406.212	79.69
406.436	72.69
406.66	76.69
406.883	76.69
407.107	68.69
407.331	79.69
407.555	110.69
407.778	100.69
408.002	88.69
408.226	96.69
408.449	85.69
408.673	70.69
408.896	72.69
409.12	96.69
409.344	85.69
409.567	88.69
409.791	90.69
410.014	87.69
410.238	70.69
410.461	84.69
410.685	87.69
410.908	84.69
411.132	78.69
411.355	71.69
411.578	74.69
411.802	78.69
412.025	80.69
412.249	89.69
412.472	82.69
412.695	73.69
412.919	84.69
413.142	66.69
413.365	74.69
413.589	84.69
413.812	85.69
414.035	80.69
414.258	91.69
414.482	74.69
414.705	79.69
414.928	90.69
415.151	75.69
415.374	80.69
415.597	77.69
415.821	78.69
416.044	76.69
416.267	88.69
416.49	94.69
416.713	76.69
416.936	72.69
417.159	78.69
417.382	80.69
417.605	71.69
417.828	92.69
418.051	61.69
418.274	74.69
418.497	85.69
418.72	73.69
418.943	81.69
419.166	90.69
419.389	82.69
419.611	81.69
419.834	73.69
420.057	84.69
420.28	64.69
420.503	76.69
420.726	82.69
420.948	80.69
421.171	88.69
421.394	85.69
421.617	105.69
421.839	95.69
422.062	90.69
422.285	101.69
422.507	144.69
422.73	218.69
422.953	183.69
423.175	101.69
423.398	80.69
423.621	90.69
423.843	92.69
424.066	78.69
424.288	81.69
424.511	73.69
424.733	93.69
424.956	87.69
425.178	85.69
425.401	68.69
425.623	74.69
425.846	94.69
426.068	68.69
426.291	87.69
426.513	72.69
426.735	66.69
426.958	87.69
427.18	70.69
427.402	61.69
427.625	84.69
427.847	67.69
428.069	81.69
428.292	99.69
428.514	84.69
428.736	96.69
428.958	103.69
429.181	103.69
429.403	83.69
429.625	91.69
429.847	95.69
430.069	106.69
430.292	128.69
430.514	100.69
430.736	85.69
430.958	92.69
431.18	68.69
431.402	92.69
431.624	87.69
431.846	82.69
432.068	88.69
432.29	93.69
432.512	82.69
432.734	80.69
432.956	77.69
433.178	80.69
433.4	78.69
433.622	88.69
433.844	78.69
434.066	87.69
434.287	76.69
434.509	77.69
434.731	76.69
434.953	67.69
435.175	90.69
435.397	81.69
435.618	61.69
435.84	73.69
436.062	73.69
436.284	73.69
436.505	65.69
436.727	73.69
436.949	77.69
437.17	70.69
437.392	69.69
437.614	75.69
437.835	78.69
438.057	68.69
438.278	84.69
438.5	78.69
438.721	89.69
438.943	77.69
439.165	96.69
439.386	67.69
439.608	82.69
439.829	71.69
440.05	75.69
440.272	85.69
440.493	77.69
440.715	83.69
440.936	83.69
441.158	66.69
441.379	79.69
441.6	78.69
441.822	67.69
442.043	75.69
442.264	72.69
442.486	88.69
442.707	115.69
442.928	72.69
443.149	82.69
443.371	116.69
443.592	111.69
443.813	103.69
444.034	88.69
444.255	89.69
444.476	70.69
444.698	85.69
444.919	73.69
445.14	174.69
445.361	153.69
445.582	143.69
445.803	118.69
446.024	96.69
446.245	88.69
446.466	69.69
446.687	71.69
446.908	69.69
447.129	74.69
447.35	85.69
447.571	75.69
447.792	73.69
448.013	98.69
448.234	90.69
448.455	80.69
448.675	77.69
448.896	89.69
449.117	82.69
449.338	77.69
449.559	72.69
449.779	86.69
450	78.69
450.221	83.69
450.442	85.69
450.662	68.69
450.883	70.69
451.104	63.69
451.324	84.69
451.545	77.69
451.766	77.69
451.986	82.69
452.207	92.69
452.428	80.69
452.648	83.69
452.869	82.69
453.089	87.69
453.31	70.69
453.53	72.69
453.751	78.69
453.971	73.69
454.192	76.69
454.412	80.69
454.633	95.69
454.853	79.69
455.073	79.69
455.294	90.69
455.514	74.69
455.734	81.69
455.955	87.69
456.175	89.69
456.395	80.69
456.616	83.69
456.836	80.69
457.056	78.69
457.276	76.69
457.497	80.69
457.717	85.69
457.937	89.69
458.157	81.69
458.377	87.69
458.598	78.69
458.818	98.69
459.038	89.69
459.258	82.69
459.478	83.69
459.698	73.69
459.918	74.69
460.138	84.69
460.358	79.69
460.578	88.69
460.798	100.69
461.018	89.69
461.238	72.69
461.458	74.69
461.678	74.69
461.898	85.69
462.118	66.69
462.338	82.69
462.558	81.69
462.777	78.69
462.997	66.69
463.217	80.69
463.437	74.69
463.657	78.69
463.876	74.69
464.096	70.69
464.316	79.69
464.536	74.69
464.755	76.69
464.975	89.69
465.195	75.69
465.414	73.69
465.634	76.69
465.854	80.69
466.073	73.69
466.293	87.69
466.512	80.69
466.732	85.69
466.951	82.69
467.171	92.69
467.391	88.69
467.61	91.69
467.829	84.69
468.049	73.69
468.268	85.69
468.488	94.69
468.707	93.69
468.927	93.69
469.146	84.69
469.365	81.69
469.585	66.69
469.804	65.69
470.023	74.69
470.243	94.69
470.462	78.69
470.681	64.69
470.901	69.69
471.12	73.69
471.339	73.69
471.558	66.69
471.777	63.69
471.997	78.69
472.216	88.69
472.435	73.69
472.654	74.69
472.873	96.69
473.092	75.69
473.311	81.69
473.53	85.69
473.749	75.69
473.968	69.69
474.187	70.69
474.406	75.69
474.625	76.69
474.844	85.69
475.063	89.69
475.282	83.69
475.501	84.69
475.72	80.69
475.939	74.69
476.158	85.69
476.377	73.69
476.596	71.69
476.814	76.69
477.033	81.69
477.252	73.69
477.471	70.69
477.69	76.69
477.908	93.69
478.127	75.69
478.346	83.69
478.564	89.69
478.783	93.69
479.002	86.69
479.22	79.69
479.439	86.69
479.658	79.69
479.876	68.69
480.095	80.69
480.313	62.69
480.532	82.69
480.751	81.69
480.969	79.69
481.188	84.69
481.406	93.69
481.624	77.69
481.843	72.69
482.061	80.69
482.28	82.69
482.498	84.69
482.717	82.69
482.935	81.69
483.153	68.69
483.372	88.69
483.59	80.69
483.808	63.69
484.027	85.69
484.245	74.69
484.463	80.69
484.681	77.69
484.9	85.69
485.118	92.69
485.336	96.69
485.554	86.69
485.772	78.69
485.99	91.69
486.209	78.69
486.427	84.69
486.645	90.69
486.863	78.69
487.081	92.69
487.299	84.69
487.517	68.69
487.735	88.69
487.953	87.69
488.171	84.69
488.389	90.69
488.607	92.69
488.825	74.69
489.043	71.69
489.261	82.69
489.479	83.69
489.696	89.69
489.914	76.69
490.132	69.69
490.35	89.69
490.568	75.69
490.786	85.69
491.003	85.69
491.221	89.69
491.439	82.69
491.657	94.69
491.874	88.69
492.092	84.69
492.31	94.69
492.527	84.69
492.745	73.69
492.963	92.69
493.18	94.69
493.398	96.69
493.615	81.69
493.833	65.69
494.05	78.69
494.268	76.69
494.485	85.69
494.703	71.69
494.92	76.69
495.138	93.69
495.355	76.69
495.573	79.69
495.79	83.69
496.008	73.69
496.225	74.69
496.442	83.69
496.66	77.69
496.877	97.69
497.094	89.69
497.312	72.69
497.529	77.69
497.746	82.69
497.963	70.69
498.181	80.69
498.398	75.69
498.615	84.69
498.832	80.69
499.049	81.69
499.267	75.69
499.484	80.69
499.701	94.69
499.918	94.69
500.135	79.69
500.352	83.69
500.569	85.69
500.786	95.69
501.003	93.69
501.22	85.69
501.437	73.69
501.654	72.69
501.871	94.69
502.088	81.69
502.305	73.69
502.522	80.69
502.739	89.69
502.956	95.69
503.172	92.69
503.389	72.69
503.606	90.69
503.823	73.69
504.04	84.69
504.256	88.69
504.473	73.69
504.69	80.69
504.907	94.69
505.123	93.69
505.34	77.69
505.557	74.69
505.773	66.69
505.99	80.69
506.207	72.69
506.423	77.69
506.64	86.69
506.856	82.69
507.073	82.69
507.289	75.69
507.506	68.69
507.722	79.69
507.939	80.69
508.155	91.69
508.372	87.69
508.588	74.69
508.805	71.69
509.021	71.69
509.238	66.69
509.454	84.69
509.67	84.69
509.887	77.69
510.103	82.69
510.319	80.69
510.536	80.69
510.752	79.69
510.968	64.69
511.184	79.69
511.401	78.69
511.617	88.69
511.833	82.69
512.049	78.69
512.265	85.69
512.481	100.69
512.698	75.69
512.914	98.69
513.13	92.69
513.346	70.69
513.562	76.69
513.778	77.69
513.994	78.69
514.21	80.69
514.426	89.69
514.642	83.69
514.858	98.69
515.074	87.69
515.29	86.69
515.506	73.69
515.721	80.69
515.937	78.69
516.153	84.69
516.369	83.69
516.585	86.69
516.801	101.69
517.016	67.69
517.232	70.69
517.448	82.69
517.664	69.69
517.879	88.69
518.095	84.69
518.311	85.69
518.527	78.69
518.742	78.69
518.958	73.69
519.173	96.69
519.389	87.69
519.605	80.69
519.82	73.69
