Data from HP_3_HRD10591_00021.txt Node
Date: Mon Jan 19 14:17:11 EST 2026
User: Yrep
Spectrometer: HR+D1059
Trigger mode: 1
Integration Time (sec): 1.000000E-1
Scans to average: 1
Electric dark correction enabled: true
Nonlinearity correction enabled: false
Boxcar width: 0
XAxis mode: Wavelengths
Number of Pixels in Spectrum: 2048
>>>>>Begin Spectral Data<<<<<
223.165	-25.56
223.4	-25.56
223.635	-25.56
223.869	-26.56
224.104	-27.56
224.338	-22.56
224.573	-13.56
224.808	-8.56
225.042	-3.56
225.277	-8.56
225.511	10.44
225.746	1.44
225.98	9.44
226.215	6.44
226.449	28.44
226.683	13.44
226.918	27.44
227.152	39.44
227.387	27.44
227.621	35.44
227.856	33.44
228.09	33.44
228.324	44.44
228.559	62.44
228.793	55.44
229.027	59.44
229.262	60.44
229.496	75.44
229.73	59.44
229.964	78.44
230.199	75.44
230.433	88.44
230.667	86.44
230.901	60.44
231.136	68.44
231.37	80.44
231.604	97.44
231.838	79.44
232.072	83.44
232.306	71.44
232.541	69.44
232.775	79.44
233.009	83.44
233.243	84.44
233.477	83.44
233.711	80.44
233.945	87.44
234.179	87.44
234.413	90.44
234.647	92.44
234.881	88.44
235.115	77.44
235.349	80.44
235.583	79.44
235.817	73.44
236.051	79.44
236.285	87.44
236.519	73.44
236.753	72.44
236.987	76.44
237.221	76.44
237.455	75.44
237.689	73.44
237.922	67.44
238.156	76.44
238.39	79.44
238.624	80.44
238.858	61.44
239.091	75.44
239.325	87.44
239.559	74.44
239.793	71.44
240.027	76.44
240.26	80.44
240.494	76.44
240.728	72.44
240.961	76.44
241.195	84.44
241.429	82.44
241.662	85.44
241.896	85.44
242.13	78.44
242.363	80.44
242.597	78.44
242.83	68.44
243.064	73.44
243.298	69.44
243.531	73.44
243.765	90.44
243.998	81.44
244.232	85.44
244.465	82.44
244.699	83.44
244.932	82.44
245.166	75.44
245.399	72.44
245.633	72.44
245.866	73.44
246.099	71.44
246.333	68.44
246.566	71.44
246.8	77.44
247.033	69.44
247.266	82.44
247.5	75.44
247.733	76.44
247.966	87.44
248.2	92.44
248.433	75.44
248.666	83.44
248.899	76.44
249.133	75.44
249.366	76.44
249.599	73.44
249.832	84.44
250.066	83.44
250.299	66.44
250.532	78.44
250.765	75.44
250.998	85.44
251.231	67.44
251.465	87.44
251.698	69.44
251.931	83.44
252.164	80.44
252.397	73.44
252.63	75.44
252.863	91.44
253.096	60.44
253.329	88.44
253.562	83.44
253.795	77.44
254.028	71.44
254.261	67.44
254.494	81.44
254.727	90.44
254.96	88.44
255.193	86.44
255.426	92.44
255.659	85.44
255.892	82.44
256.124	60.44
256.357	83.44
256.59	82.44
256.823	80.44
257.056	78.44
257.289	86.44
257.521	78.44
257.754	80.44
257.987	82.44
258.22	95.44
258.452	83.44
258.685	91.44
258.918	76.44
259.151	78.44
259.383	89.44
259.616	70.44
259.849	76.44
260.081	67.44
260.314	83.44
260.547	76.44
260.779	83.44
261.012	79.44
261.244	90.44
261.477	90.44
261.71	88.44
261.942	73.44
262.175	73.44
262.407	76.44
262.64	96.44
262.872	73.44
263.105	81.44
263.337	84.44
263.57	98.44
263.802	92.44
264.035	92.44
264.267	70.44
264.499	69.44
264.732	71.44
264.964	79.44
265.197	67.44
265.429	71.44
265.661	67.44
265.894	67.44
266.126	72.44
266.358	87.44
266.591	79.44
266.823	78.44
267.055	73.44
267.287	85.44
267.52	87.44
267.752	91.44
267.984	90.44
268.216	73.44
268.448	75.44
268.681	75.44
268.913	92.44
269.145	82.44
269.377	82.44
269.609	93.44
269.841	84.44
270.073	87.44
270.306	90.44
270.538	79.44
270.77	80.44
271.002	92.44
271.234	76.44
271.466	88.44
271.698	99.44
271.93	75.44
272.162	78.44
272.394	90.44
272.626	69.44
272.858	88.44
273.09	75.44
273.322	88.44
273.553	66.44
273.785	81.44
274.017	85.44
274.249	99.44
274.481	88.44
274.713	87.44
274.945	87.44
275.176	81.44
275.408	71.44
275.64	82.44
275.872	80.44
276.104	89.44
276.335	93.44
276.567	77.44
276.799	76.44
277.031	81.44
277.262	70.44
277.494	89.44
277.726	79.44
277.957	84.44
278.189	76.44
278.421	92.44
278.652	75.44
278.884	77.44
279.115	65.44
279.347	83.44
279.579	83.44
279.81	84.44
280.042	78.44
280.273	88.44
280.505	101.44
280.736	88.44
280.968	84.44
281.199	84.44
281.431	72.44
281.662	83.44
281.894	71.44
282.125	80.44
282.356	79.44
282.588	84.44
282.819	92.44
283.051	67.44
283.282	85.44
283.513	94.44
283.745	71.44
283.976	81.44
284.207	77.44
284.439	87.44
284.67	81.44
284.901	87.44
285.132	88.44
285.364	95.44
285.595	89.44
285.826	84.44
286.057	95.44
286.288	81.44
286.52	77.44
286.751	76.44
286.982	74.44
287.213	70.44
287.444	82.44
287.675	74.44
287.906	100.44
288.138	77.44
288.369	75.44
288.6	79.44
288.831	77.44
289.062	81.44
289.293	81.44
289.524	91.44
289.755	88.44
289.986	93.44
290.217	91.44
290.448	80.44
290.679	84.44
290.91	98.44
291.141	77.44
291.371	93.44
291.602	91.44
291.833	83.44
292.064	97.44
292.295	89.44
292.526	79.44
292.757	86.44
292.987	75.44
293.218	76.44
293.449	79.44
293.68	89.44
293.91	93.44
294.141	90.44
294.372	80.44
294.603	75.44
294.833	77.44
295.064	93.44
295.295	96.44
295.525	91.44
295.756	96.44
295.987	61.44
296.217	81.44
296.448	98.44
296.679	88.44
296.909	96.44
297.14	97.44
297.37	89.44
297.601	92.44
297.831	88.44
298.062	76.44
298.292	88.44
298.523	88.44
298.753	76.44
298.984	80.44
299.214	95.44
299.445	92.44
299.675	84.44
299.905	90.44
300.136	85.44
300.366	76.44
300.597	69.44
300.827	92.44
301.057	85.44
301.288	84.44
301.518	92.44
301.748	95.44
301.979	87.44
302.209	70.44
302.439	83.44
302.669	83.44
302.9	84.44
303.13	93.44
303.36	81.44
303.59	96.44
303.82	91.44
304.051	90.44
304.281	87.44
304.511	81.44
304.741	79.44
304.971	74.44
305.201	104.44
305.431	97.44
305.661	78.44
305.891	80.44
306.121	89.44
306.352	87.44
306.582	78.44
306.812	107.44
307.042	95.44
307.272	87.44
307.502	82.44
307.731	87.44
307.961	85.44
308.191	85.44
308.421	70.44
308.651	81.44
308.881	83.44
309.111	84.44
309.341	73.44
309.571	79.44
309.8	90.44
310.03	82.44
310.26	90.44
310.49	83.44
310.72	78.44
310.949	84.44
311.179	80.44
311.409	84.44
311.639	88.44
311.868	93.44
312.098	95.44
312.328	75.44
312.557	84.44
312.787	83.44
313.017	75.44
313.246	85.44
313.476	91.44
313.706	81.44
313.935	87.44
314.165	85.44
314.394	94.44
314.624	83.44
314.853	86.44
315.083	76.44
315.312	83.44
315.542	77.44
315.771	84.44
316.001	92.44
316.23	92.44
316.46	81.44
316.689	72.44
316.919	77.44
317.148	81.44
317.377	92.44
317.607	102.44
317.836	80.44
318.065	85.44
318.295	77.44
318.524	85.44
318.753	93.44
318.983	89.44
319.212	82.44
319.441	68.44
319.67	80.44
319.9	79.44
320.129	85.44
320.358	90.44
320.587	88.44
320.816	81.44
321.046	81.44
321.275	89.44
321.504	81.44
321.733	94.44
321.962	82.44
322.191	79.44
322.42	85.44
322.649	73.44
322.878	85.44
323.108	101.44
323.337	88.44
323.566	82.44
323.795	99.44
324.024	89.44
324.253	96.44
324.482	85.44
324.71	86.44
324.939	100.44
325.168	81.44
325.397	80.44
325.626	79.44
325.855	85.44
326.084	76.44
326.313	76.44
326.542	96.44
326.77	91.44
326.999	83.44
327.228	85.44
327.457	89.44
327.686	87.44
327.914	68.44
328.143	82.44
328.372	87.44
328.6	87.44
328.829	74.44
329.058	83.44
329.287	75.44
329.515	95.44
329.744	87.44
329.972	80.44
330.201	91.44
330.43	81.44
330.658	92.44
330.887	90.44
331.115	96.44
331.344	81.44
331.572	76.44
331.801	87.44
332.03	95.44
332.258	91.44
332.486	85.44
332.715	80.44
332.943	76.44
333.172	78.44
333.4	79.44
333.629	74.44
333.857	89.44
334.085	79.44
334.314	91.44
334.542	95.44
334.771	91.44
334.999	102.44
335.227	89.44
335.455	92.44
335.684	73.44
335.912	99.44
336.14	88.44
336.369	77.44
336.597	79.44
336.825	75.44
337.053	85.44
337.281	86.44
337.51	81.44
337.738	91.44
337.966	83.44
338.194	76.44
338.422	83.44
338.65	91.44
338.878	87.44
339.106	93.44
339.334	88.44
339.562	88.44
339.79	79.44
340.018	81.44
340.246	75.44
340.474	77.44
340.702	92.44
340.93	86.44
341.158	82.44
341.386	101.44
341.614	87.44
341.842	83.44
342.07	93.44
342.298	92.44
342.526	91.44
342.754	83.44
342.981	72.44
343.209	79.44
343.437	79.44
343.665	86.44
343.893	77.44
344.12	89.44
344.348	83.44
344.576	90.44
344.804	82.44
345.031	85.44
345.259	83.44
345.487	94.44
345.714	87.44
345.942	89.44
346.17	85.44
346.397	81.44
346.625	91.44
346.853	75.44
347.08	97.44
347.308	89.44
347.535	104.44
347.763	85.44
347.99	89.44
348.218	97.44
348.445	87.44
348.673	79.44
348.9	88.44
349.128	98.44
349.355	82.44
349.583	85.44
349.81	92.44
350.037	103.44
350.265	75.44
350.492	86.44
350.72	92.44
350.947	94.44
351.174	91.44
351.402	83.44
351.629	83.44
351.856	96.44
352.083	93.44
352.311	80.44
352.538	77.44
352.765	77.44
352.992	88.44
353.22	87.44
353.447	81.44
353.674	90.44
353.901	79.44
354.128	67.44
354.355	91.44
354.583	64.44
354.81	76.44
355.037	77.44
355.264	89.44
355.491	85.44
355.718	92.44
355.945	74.44
356.172	83.44
356.399	76.44
356.626	83.44
356.853	89.44
357.08	88.44
357.307	78.44
357.534	90.44
357.761	107.44
357.988	89.44
358.215	89.44
358.441	90.44
358.668	75.44
358.895	85.44
359.122	83.44
359.349	83.44
359.576	87.44
359.802	77.44
360.029	83.44
360.256	83.44
360.483	76.44
360.709	85.44
360.936	87.44
361.163	84.44
361.39	83.44
361.616	81.44
361.843	87.44
362.07	90.44
362.296	90.44
362.523	98.44
362.749	61.44
362.976	74.44
363.203	92.44
363.429	78.44
363.656	90.44
363.882	88.44
364.109	81.44
364.335	97.44
364.562	89.44
364.788	85.44
365.015	93.44
365.241	98.44
365.468	81.44
365.694	95.44
365.92	92.44
366.147	83.44
366.373	83.44
366.599	91.44
366.826	88.44
367.052	91.44
367.278	85.44
367.505	85.44
367.731	90.44
367.957	87.44
368.184	77.44
368.41	75.44
368.636	88.44
368.862	88.44
369.089	93.44
369.315	88.44
369.541	78.44
369.767	88.44
369.993	94.44
370.219	77.44
370.445	87.44
370.672	91.44
370.898	74.44
371.124	81.44
371.35	85.44
371.576	71.44
371.802	86.44
372.028	79.44
372.254	84.44
372.48	101.44
372.706	83.44
372.932	91.44
373.158	84.44
373.384	96.44
373.61	81.44
373.835	85.44
374.061	76.44
374.287	78.44
374.513	77.44
374.739	93.44
374.965	84.44
375.191	89.44
375.416	84.44
375.642	95.44
375.868	81.44
376.094	73.44
376.319	87.44
376.545	101.44
376.771	83.44
376.997	85.44
377.222	75.44
377.448	87.44
377.674	87.44
377.899	83.44
378.125	89.44
378.35	85.44
378.576	86.44
378.802	81.44
379.027	63.44
379.253	94.44
379.478	108.44
379.704	77.44
379.929	86.44
380.155	87.44
380.38	73.44
380.606	81.44
380.831	77.44
381.057	90.44
381.282	83.44
381.507	81.44
381.733	79.44
381.958	83.44
382.184	107.44
382.409	83.44
382.634	84.44
382.86	85.44
383.085	82.44
383.31	98.44
383.535	85.44
383.761	92.44
383.986	88.44
384.211	78.44
384.436	88.44
384.662	85.44
384.887	88.44
385.112	87.44
385.337	80.44
385.562	80.44
385.787	90.44
386.013	96.44
386.238	80.44
386.463	76.44
386.688	99.44
386.913	78.44
387.138	81.44
387.363	107.44
387.588	85.44
387.813	84.44
388.038	80.44
388.263	87.44
388.488	82.44
388.713	97.44
388.938	73.44
389.163	90.44
389.387	76.44
389.612	76.44
389.837	73.44
390.062	80.44
390.287	95.44
390.512	90.44
390.736	80.44
390.961	91.44
391.186	83.44
391.411	86.44
391.636	91.44
391.86	91.44
392.085	82.44
392.31	83.44
392.534	91.44
392.759	101.44
392.984	101.44
393.208	131.44
393.433	163.44
393.658	145.44
393.882	87.44
394.107	86.44
394.331	93.44
394.556	87.44
394.78	94.44
395.005	67.44
395.229	80.44
395.454	107.44
395.678	85.44
395.903	93.44
396.127	87.44
396.352	115.44
396.576	115.44
396.801	121.44
397.025	136.44
397.249	105.44
397.474	92.44
397.698	73.44
397.922	97.44
398.147	87.44
398.371	85.44
398.595	79.44
398.82	84.44
399.044	76.44
399.268	95.44
399.492	90.44
399.717	89.44
399.941	73.44
400.165	79.44
400.389	99.44
400.613	87.44
400.837	96.44
401.062	87.44
401.286	81.44
401.51	82.44
401.734	83.44
401.958	90.44
402.182	97.44
402.406	82.44
402.63	91.44
402.854	74.44
403.078	76.44
403.302	71.44
403.526	91.44
403.75	76.44
403.974	73.44
404.198	81.44
404.422	81.44
404.645	96.44
404.869	92.44
405.093	79.44
405.317	79.44
405.541	82.44
405.765	78.44
405.988	90.44
406.212	76.44
406.436	83.44
406.66	81.44
406.883	88.44
407.107	89.44
407.331	94.44
407.555	83.44
407.778	97.44
408.002	92.44
408.226	78.44
408.449	74.44
408.673	92.44
408.896	92.44
409.12	83.44
409.344	72.44
409.567	83.44
409.791	102.44
410.014	98.44
410.238	88.44
410.461	73.44
410.685	84.44
410.908	100.44
411.132	74.44
411.355	89.44
411.578	77.44
411.802	83.44
412.025	72.44
412.249	69.44
412.472	84.44
412.695	102.44
412.919	89.44
413.142	87.44
413.365	86.44
413.589	89.44
413.812	89.44
414.035	72.44
414.258	79.44
414.482	87.44
414.705	80.44
414.928	100.44
415.151	69.44
415.374	83.44
415.597	88.44
415.821	82.44
416.044	81.44
416.267	79.44
416.49	80.44
416.713	91.44
416.936	80.44
417.159	93.44
417.382	94.44
417.605	83.44
417.828	100.44
418.051	85.44
418.274	73.44
418.497	95.44
418.72	84.44
418.943	71.44
419.166	74.44
419.389	79.44
419.611	85.44
419.834	75.44
420.057	78.44
420.28	69.44
420.503	80.44
420.726	92.44
420.948	100.44
421.171	95.44
421.394	98.44
421.617	90.44
421.839	96.44
422.062	95.44
422.285	108.44
422.507	134.44
422.73	180.44
422.953	167.44
423.175	107.44
423.398	97.44
423.621	80.44
423.843	79.44
424.066	82.44
424.288	86.44
424.511	95.44
424.733	73.44
424.956	94.44
425.178	85.44
425.401	87.44
425.623	92.44
425.846	90.44
426.068	93.44
426.291	81.44
426.513	89.44
426.735	92.44
426.958	75.44
427.18	87.44
427.402	79.44
427.625	83.44
427.847	91.44
428.069	94.44
428.292	99.44
428.514	101.44
428.736	98.44
428.958	100.44
429.181	105.44
429.403	82.44
429.625	86.44
429.847	89.44
430.069	91.44
430.292	102.44
430.514	99.44
430.736	95.44
430.958	94.44
431.18	106.44
431.402	105.44
431.624	82.44
431.846	94.44
432.068	93.44
432.29	73.44
432.512	95.44
432.734	83.44
432.956	84.44
433.178	85.44
433.4	77.44
433.622	92.44
433.844	74.44
434.066	75.44
434.287	79.44
434.509	83.44
434.731	92.44
434.953	74.44
435.175	78.44
435.397	84.44
435.618	94.44
435.84	91.44
436.062	83.44
436.284	100.44
436.505	90.44
436.727	70.44
436.949	78.44
437.17	78.44
437.392	88.44
437.614	77.44
437.835	87.44
438.057	88.44
438.278	85.44
438.5	86.44
438.721	87.44
438.943	81.44
439.165	96.44
439.386	82.44
439.608	91.44
439.829	82.44
440.05	87.44
440.272	94.44
440.493	96.44
440.715	82.44
440.936	88.44
441.158	85.44
441.379	84.44
441.6	89.44
441.822	85.44
442.043	78.44
442.264	89.44
442.486	96.44
442.707	104.44
442.928	102.44
443.149	89.44
443.371	107.44
443.592	127.44
443.813	113.44
444.034	85.44
444.255	88.44
444.476	78.44
444.698	80.44
444.919	83.44
445.14	169.44
445.361	137.44
445.582	137.44
445.803	108.44
446.024	78.44
446.245	87.44
446.466	85.44
446.687	89.44
446.908	88.44
447.129	89.44
447.35	84.44
447.571	83.44
447.792	89.44
448.013	80.44
448.234	87.44
448.455	80.44
448.675	91.44
448.896	75.44
449.117	75.44
449.338	83.44
449.559	89.44
449.779	84.44
450	81.44
450.221	87.44
450.442	90.44
450.662	81.44
450.883	84.44
451.104	76.44
451.324	81.44
451.545	82.44
451.766	87.44
451.986	79.44
452.207	78.44
452.428	80.44
452.648	68.44
452.869	94.44
453.089	83.44
453.31	81.44
453.53	77.44
453.751	85.44
453.971	85.44
454.192	75.44
454.412	81.44
454.633	59.44
454.853	95.44
455.073	78.44
455.294	84.44
455.514	79.44
455.734	92.44
455.955	78.44
456.175	93.44
456.395	89.44
456.616	64.44
456.836	73.44
457.056	86.44
457.276	81.44
457.497	85.44
457.717	72.44
457.937	84.44
458.157	89.44
458.377	86.44
458.598	98.44
458.818	89.44
459.038	81.44
459.258	82.44
459.478	94.44
459.698	77.44
459.918	85.44
460.138	75.44
460.358	84.44
460.578	92.44
460.798	101.44
461.018	99.44
461.238	92.44
461.458	86.44
461.678	88.44
461.898	80.44
462.118	84.44
462.338	76.44
462.558	75.44
462.777	80.44
462.997	80.44
463.217	70.44
463.437	90.44
463.657	85.44
463.876	81.44
464.096	73.44
464.316	88.44
464.536	79.44
464.755	85.44
464.975	76.44
465.195	86.44
465.414	81.44
465.634	81.44
465.854	80.44
466.073	79.44
466.293	89.44
466.512	72.44
466.732	85.44
466.951	76.44
467.171	89.44
467.391	81.44
467.61	89.44
467.829	74.44
468.049	79.44
468.268	80.44
468.488	92.44
468.707	77.44
468.927	80.44
469.146	71.44
469.365	95.44
469.585	92.44
469.804	75.44
470.023	73.44
470.243	91.44
470.462	73.44
470.681	88.44
470.901	77.44
471.12	85.44
471.339	80.44
471.558	77.44
471.777	78.44
471.997	77.44
472.216	84.44
472.435	95.44
472.654	81.44
472.873	84.44
473.092	85.44
473.311	78.44
473.53	87.44
473.749	91.44
473.968	92.44
474.187	91.44
474.406	87.44
474.625	90.44
474.844	82.44
475.063	72.44
475.282	96.44
475.501	89.44
475.72	86.44
475.939	82.44
476.158	87.44
476.377	87.44
476.596	81.44
476.814	84.44
477.033	81.44
477.252	76.44
477.471	77.44
477.69	82.44
477.908	89.44
478.127	77.44
478.346	90.44
478.564	89.44
478.783	79.44
479.002	81.44
479.22	97.44
479.439	83.44
479.658	85.44
479.876	91.44
480.095	88.44
480.313	92.44
480.532	96.44
480.751	64.44
480.969	78.44
481.188	83.44
481.406	70.44
481.624	83.44
481.843	77.44
482.061	86.44
482.28	83.44
482.498	94.44
482.717	78.44
482.935	77.44
483.153	85.44
483.372	76.44
483.59	80.44
483.808	85.44
484.027	81.44
484.245	76.44
484.463	91.44
484.681	61.44
484.9	89.44
485.118	90.44
485.336	85.44
485.554	83.44
485.772	90.44
485.99	77.44
486.209	79.44
486.427	73.44
486.645	75.44
486.863	91.44
487.081	97.44
487.299	97.44
487.517	89.44
487.735	93.44
487.953	101.44
488.171	88.44
488.389	88.44
488.607	74.44
488.825	93.44
489.043	103.44
489.261	81.44
489.479	78.44
489.696	73.44
489.914	90.44
490.132	94.44
490.35	83.44
490.568	88.44
490.786	77.44
491.003	92.44
491.221	86.44
491.439	93.44
491.657	77.44
491.874	81.44
492.092	80.44
492.31	96.44
492.527	85.44
492.745	69.44
492.963	91.44
493.18	98.44
493.398	94.44
493.615	87.44
493.833	86.44
494.05	95.44
494.268	85.44
494.485	96.44
494.703	92.44
494.92	77.44
495.138	95.44
495.355	89.44
495.573	79.44
495.79	78.44
496.008	93.44
496.225	78.44
496.442	73.44
496.66	84.44
496.877	82.44
497.094	76.44
497.312	93.44
497.529	80.44
497.746	75.44
497.963	73.44
498.181	83.44
498.398	83.44
498.615	84.44
498.832	89.44
499.049	87.44
499.267	81.44
499.484	85.44
499.701	94.44
499.918	87.44
500.135	91.44
500.352	91.44
500.569	81.44
500.786	91.44
501.003	90.44
501.22	86.44
501.437	86.44
501.654	87.44
501.871	92.44
502.088	89.44
502.305	83.44
502.522	78.44
502.739	84.44
502.956	91.44
503.172	81.44
503.389	83.44
503.606	90.44
503.823	88.44
504.04	84.44
504.256	93.44
504.473	89.44
504.69	80.44
504.907	91.44
505.123	77.44
505.34	87.44
505.557	90.44
505.773	87.44
505.99	87.44
506.207	88.44
506.423	92.44
506.64	83.44
506.856	77.44
507.073	76.44
507.289	97.44
507.506	85.44
507.722	97.44
507.939	77.44
508.155	83.44
508.372	77.44
508.588	71.44
508.805	100.44
509.021	83.44
509.238	87.44
509.454	87.44
509.67	98.44
509.887	90.44
510.103	91.44
510.319	82.44
510.536	96.44
510.752	91.44
510.968	97.44
511.184	84.44
511.401	81.44
511.617	87.44
511.833	83.44
512.049	85.44
512.265	92.44
512.481	87.44
512.698	91.44
512.914	91.44
513.13	81.44
513.346	80.44
513.562	99.44
513.778	79.44
513.994	83.44
514.21	90.44
514.426	77.44
514.642	75.44
514.858	96.44
515.074	77.44
515.29	87.44
515.506	91.44
515.721	87.44
515.937	85.44
516.153	87.44
516.369	81.44
516.585	91.44
516.801	83.44
517.016	99.44
517.232	83.44
517.448	95.44
517.664	84.44
517.879	91.44
518.095	97.44
518.311	86.44
518.527	85.44
518.742	87.44
518.958	93.44
519.173	104.44
519.389	104.44
