Data from HP_3_HRD10591_00004.txt Node
Date: Mon Jan 19 14:17:02 EST 2026
User: Yrep
Spectrometer: HR+D1059
Trigger mode: 1
Integration Time (sec): 1.000000E-1
Scans to average: 1
Electric dark correction enabled: true
Nonlinearity correction enabled: false
Boxcar width: 0
XAxis mode: Wavelengths
Number of Pixels in Spectrum: 2048
>>>>>Begin Spectral Data<<<<<
223.165	-17.06
223.4	-17.06
223.635	-17.06
223.869	-5.06
224.104	-30.06
224.338	-14.06
224.573	-6.06
224.808	-5.06
225.042	-12.06
225.277	3.94
225.511	5.94
225.746	-3.06
225.98	13.94
226.215	1.94
226.449	7.94
226.683	17.94
226.918	24.94
227.152	15.94
227.387	31.94
227.621	54.94
227.856	37.94
228.09	46.94
228.324	48.94
228.559	55.94
228.793	55.94
229.027	60.94
229.262	61.94
229.496	72.94
229.73	72.94
229.964	79.94
230.199	62.94
230.433	89.94
230.667	73.94
230.901	71.94
231.136	81.94
231.37	83.94
231.604	84.94
231.838	79.94
232.072	80.94
232.306	73.94
232.541	73.94
232.775	86.94
233.009	75.94
233.243	86.94
233.477	71.94
233.711	86.94
233.945	78.94
234.179	102.94
234.413	86.94
234.647	78.94
234.881	77.94
235.115	79.94
235.349	82.94
235.583	74.94
235.817	77.94
236.051	78.94
236.285	71.94
236.519	82.94
236.753	71.94
236.987	75.94
237.221	67.94
237.455	85.94
237.689	71.94
237.922	74.94
238.156	79.94
238.39	94.94
238.624	82.94
238.858	75.94
239.091	77.94
239.325	77.94
239.559	87.94
239.793	74.94
240.027	84.94
240.26	67.94
240.494	90.94
240.728	65.94
240.961	74.94
241.195	73.94
241.429	73.94
241.662	78.94
241.896	93.94
242.13	74.94
242.363	75.94
242.597	89.94
242.83	80.94
243.064	87.94
243.298	75.94
243.531	76.94
243.765	74.94
243.998	87.94
244.232	78.94
244.465	85.94
244.699	87.94
244.932	67.94
245.166	77.94
245.399	75.94
245.633	69.94
245.866	99.94
246.099	71.94
246.333	77.94
246.566	89.94
246.8	88.94
247.033	88.94
247.266	85.94
247.5	79.94
247.733	82.94
247.966	80.94
248.2	90.94
248.433	78.94
248.666	83.94
248.899	77.94
249.133	69.94
249.366	86.94
249.599	76.94
249.832	78.94
250.066	96.94
250.299	78.94
250.532	72.94
250.765	87.94
250.998	87.94
251.231	83.94
251.465	67.94
251.698	89.94
251.931	82.94
252.164	81.94
252.397	78.94
252.63	74.94
252.863	84.94
253.096	80.94
253.329	70.94
253.562	73.94
253.795	85.94
254.028	83.94
254.261	73.94
254.494	69.94
254.727	77.94
254.96	78.94
255.193	73.94
255.426	79.94
255.659	81.94
255.892	79.94
256.124	77.94
256.357	86.94
256.59	82.94
256.823	85.94
257.056	74.94
257.289	93.94
257.521	84.94
257.754	88.94
257.987	75.94
258.22	90.94
258.452	89.94
258.685	93.94
258.918	81.94
259.151	88.94
259.383	86.94
259.616	90.94
259.849	69.94
260.081	90.94
260.314	86.94
260.547	90.94
260.779	79.94
261.012	81.94
261.244	72.94
261.477	84.94
261.71	105.94
261.942	93.94
262.175	98.94
262.407	97.94
262.64	83.94
262.872	89.94
263.105	84.94
263.337	72.94
263.57	76.94
263.802	87.94
264.035	85.94
264.267	83.94
264.499	97.94
264.732	83.94
264.964	87.94
265.197	70.94
265.429	82.94
265.661	85.94
265.894	84.94
266.126	100.94
266.358	92.94
266.591	94.94
266.823	71.94
267.055	99.94
267.287	86.94
267.52	70.94
267.752	84.94
267.984	83.94
268.216	82.94
268.448	74.94
268.681	84.94
268.913	94.94
269.145	89.94
269.377	79.94
269.609	80.94
269.841	76.94
270.073	83.94
270.306	85.94
270.538	84.94
270.77	86.94
271.002	89.94
271.234	91.94
271.466	77.94
271.698	86.94
271.93	85.94
272.162	93.94
272.394	73.94
272.626	86.94
272.858	95.94
273.09	94.94
273.322	83.94
273.553	75.94
273.785	77.94
274.017	77.94
274.249	85.94
274.481	88.94
274.713	91.94
274.945	86.94
275.176	89.94
275.408	96.94
275.64	71.94
275.872	67.94
276.104	74.94
276.335	95.94
276.567	77.94
276.799	84.94
277.031	100.94
277.262	89.94
277.494	83.94
277.726	99.94
277.957	74.94
278.189	87.94
278.421	92.94
278.652	83.94
278.884	93.94
279.115	82.94
279.347	95.94
279.579	73.94
279.81	84.94
280.042	93.94
280.273	84.94
280.505	94.94
280.736	88.94
280.968	97.94
281.199	103.94
281.431	84.94
281.662	91.94
281.894	89.94
282.125	84.94
282.356	75.94
282.588	91.94
282.819	71.94
283.051	93.94
283.282	93.94
283.513	75.94
283.745	91.94
283.976	86.94
284.207	92.94
284.439	86.94
284.67	93.94
284.901	93.94
285.132	91.94
285.364	96.94
285.595	91.94
285.826	76.94
286.057	89.94
286.288	98.94
286.52	83.94
286.751	83.94
286.982	73.94
287.213	94.94
287.444	85.94
287.675	79.94
287.906	106.94
288.138	88.94
288.369	92.94
288.6	98.94
288.831	93.94
289.062	89.94
289.293	111.94
289.524	86.94
289.755	96.94
289.986	82.94
290.217	83.94
290.448	90.94
290.679	86.94
290.91	84.94
291.141	84.94
291.371	86.94
291.602	91.94
291.833	86.94
292.064	95.94
292.295	86.94
292.526	72.94
292.757	91.94
292.987	85.94
293.218	85.94
293.449	95.94
293.68	83.94
293.91	98.94
294.141	88.94
294.372	89.94
294.603	71.94
294.833	90.94
295.064	85.94
295.295	87.94
295.525	74.94
295.756	94.94
295.987	83.94
296.217	85.94
296.448	89.94
296.679	86.94
296.909	90.94
297.14	99.94
297.37	99.94
297.601	94.94
297.831	87.94
298.062	88.94
298.292	94.94
298.523	98.94
298.753	75.94
298.984	98.94
299.214	82.94
299.445	97.94
299.675	92.94
299.905	91.94
300.136	86.94
300.366	72.94
300.597	86.94
300.827	81.94
301.057	94.94
301.288	82.94
301.518	91.94
301.748	92.94
301.979	106.94
302.209	87.94
302.439	91.94
302.669	91.94
302.9	90.94
303.13	88.94
303.36	86.94
303.59	82.94
303.82	82.94
304.051	95.94
304.281	93.94
304.511	83.94
304.741	93.94
304.971	93.94
305.201	90.94
305.431	96.94
305.661	100.94
305.891	91.94
306.121	90.94
306.352	88.94
306.582	100.94
306.812	101.94
307.042	102.94
307.272	92.94
307.502	87.94
307.731	81.94
307.961	81.94
308.191	78.94
308.421	89.94
308.651	100.94
308.881	97.94
309.111	97.94
309.341	98.94
309.571	83.94
309.8	94.94
310.03	94.94
310.26	66.94
310.49	85.94
310.72	77.94
310.949	88.94
311.179	85.94
311.409	79.94
311.639	78.94
311.868	94.94
312.098	91.94
312.328	82.94
312.557	85.94
312.787	91.94
313.017	83.94
313.246	83.94
313.476	88.94
313.706	83.94
313.935	89.94
314.165	81.94
314.394	99.94
314.624	86.94
314.853	80.94
315.083	80.94
315.312	86.94
315.542	82.94
315.771	92.94
316.001	94.94
316.23	99.94
316.46	79.94
316.689	97.94
316.919	85.94
317.148	98.94
317.377	92.94
317.607	91.94
317.836	84.94
318.065	97.94
318.295	85.94
318.524	97.94
318.753	93.94
318.983	84.94
319.212	63.94
319.441	90.94
319.67	97.94
319.9	81.94
320.129	79.94
320.358	85.94
320.587	78.94
320.816	87.94
321.046	91.94
321.275	89.94
321.504	91.94
321.733	87.94
321.962	89.94
322.191	90.94
322.42	96.94
322.649	90.94
322.878	89.94
323.108	97.94
323.337	90.94
323.566	98.94
323.795	101.94
324.024	100.94
324.253	89.94
324.482	101.94
324.71	93.94
324.939	71.94
325.168	85.94
325.397	94.94
325.626	86.94
325.855	84.94
326.084	91.94
326.313	89.94
326.542	90.94
326.77	85.94
326.999	100.94
327.228	101.94
327.457	91.94
327.686	100.94
327.914	87.94
328.143	89.94
328.372	94.94
328.6	83.94
328.829	82.94
329.058	83.94
329.287	83.94
329.515	89.94
329.744	96.94
329.972	93.94
330.201	93.94
330.43	94.94
330.658	94.94
330.887	96.94
331.115	97.94
331.344	88.94
331.572	98.94
331.801	89.94
332.03	67.94
332.258	75.94
332.486	81.94
332.715	85.94
332.943	104.94
333.172	88.94
333.4	100.94
333.629	83.94
333.857	79.94
334.085	90.94
334.314	92.94
334.542	96.94
334.771	90.94
334.999	94.94
335.227	92.94
335.455	86.94
335.684	84.94
335.912	103.94
336.14	90.94
336.369	102.94
336.597	89.94
336.825	84.94
337.053	99.94
337.281	93.94
337.51	89.94
337.738	90.94
337.966	90.94
338.194	95.94
338.422	101.94
338.65	77.94
338.878	89.94
339.106	97.94
339.334	88.94
339.562	85.94
339.79	90.94
340.018	80.94
340.246	86.94
340.474	90.94
340.702	90.94
340.93	93.94
341.158	95.94
341.386	91.94
341.614	90.94
341.842	89.94
342.07	92.94
342.298	92.94
342.526	94.94
342.754	93.94
342.981	105.94
343.209	83.94
343.437	113.94
343.665	97.94
343.893	89.94
344.12	89.94
344.348	99.94
344.576	92.94
344.804	85.94
345.031	68.94
345.259	96.94
345.487	87.94
345.714	85.94
345.942	86.94
346.17	92.94
346.397	89.94
346.625	91.94
346.853	82.94
347.08	94.94
347.308	95.94
347.535	88.94
347.763	81.94
347.99	88.94
348.218	100.94
348.445	76.94
348.673	104.94
348.9	87.94
349.128	99.94
349.355	94.94
349.583	94.94
349.81	94.94
350.037	89.94
350.265	89.94
350.492	87.94
350.72	76.94
350.947	84.94
351.174	86.94
351.402	99.94
351.629	85.94
351.856	79.94
352.083	82.94
352.311	85.94
352.538	86.94
352.765	91.94
352.992	98.94
353.22	89.94
353.447	86.94
353.674	95.94
353.901	82.94
354.128	94.94
354.355	85.94
354.583	78.94
354.81	84.94
355.037	86.94
355.264	92.94
355.491	89.94
355.718	82.94
355.945	88.94
356.172	92.94
356.399	83.94
356.626	101.94
356.853	106.94
357.08	108.94
357.307	91.94
357.534	98.94
357.761	87.94
357.988	105.94
358.215	105.94
358.441	89.94
358.668	77.94
358.895	97.94
359.122	87.94
359.349	83.94
359.576	93.94
359.802	95.94
360.029	96.94
360.256	106.94
360.483	87.94
360.709	78.94
360.936	106.94
361.163	84.94
361.39	92.94
361.616	87.94
361.843	86.94
362.07	95.94
362.296	100.94
362.523	94.94
362.749	97.94
362.976	105.94
363.203	113.94
363.429	100.94
363.656	95.94
363.882	97.94
364.109	96.94
364.335	115.94
364.562	123.94
364.788	117.94
365.015	98.94
365.241	95.94
365.468	94.94
365.694	84.94
365.92	89.94
366.147	84.94
366.373	87.94
366.599	98.94
366.826	87.94
367.052	89.94
367.278	109.94
367.505	103.94
367.731	111.94
367.957	93.94
368.184	95.94
368.41	103.94
368.636	95.94
368.862	93.94
369.089	99.94
369.315	99.94
369.541	97.94
369.767	79.94
369.993	96.94
370.219	89.94
370.445	90.94
370.672	85.94
370.898	89.94
371.124	101.94
371.35	96.94
371.576	94.94
371.802	86.94
372.028	97.94
372.254	88.94
372.48	100.94
372.706	93.94
372.932	84.94
373.158	94.94
373.384	101.94
373.61	101.94
373.835	109.94
374.061	105.94
374.287	91.94
374.513	107.94
374.739	97.94
374.965	95.94
375.191	118.94
375.416	94.94
375.642	101.94
375.868	97.94
376.094	87.94
376.319	82.94
376.545	83.94
376.771	87.94
376.997	89.94
377.222	85.94
377.448	84.94
377.674	74.94
377.899	88.94
378.125	102.94
378.35	100.94
378.576	90.94
378.802	95.94
379.027	93.94
379.253	106.94
379.478	101.94
379.704	98.94
379.929	99.94
380.155	83.94
380.38	79.94
380.606	90.94
380.831	89.94
381.057	103.94
381.282	89.94
381.507	110.94
381.733	97.94
381.958	104.94
382.184	102.94
382.409	98.94
382.634	102.94
382.86	118.94
383.085	120.94
383.31	97.94
383.535	95.94
383.761	108.94
383.986	120.94
384.211	113.94
384.436	90.94
384.662	102.94
384.887	99.94
385.112	85.94
385.337	91.94
385.562	93.94
385.787	98.94
386.013	99.94
386.238	98.94
386.463	90.94
386.688	106.94
386.913	86.94
387.138	97.94
387.363	100.94
387.588	106.94
387.813	95.94
388.038	99.94
388.263	100.94
388.488	94.94
388.713	98.94
388.938	104.94
389.163	80.94
389.387	79.94
389.612	82.94
389.837	84.94
390.062	98.94
390.287	111.94
390.512	93.94
390.736	80.94
390.961	69.94
391.186	93.94
391.411	103.94
391.636	101.94
391.86	103.94
392.085	92.94
392.31	97.94
392.534	107.94
392.759	127.94
392.984	141.94
393.208	253.94
393.433	345.94
393.658	262.94
393.882	145.94
394.107	122.94
394.331	100.94
394.556	127.94
394.78	118.94
395.005	97.94
395.229	87.94
395.454	94.94
395.678	106.94
395.903	121.94
396.127	125.94
396.352	156.94
396.576	178.94
396.801	244.94
397.025	270.94
397.249	152.94
397.474	116.94
397.698	96.94
397.922	94.94
398.147	93.94
398.371	94.94
398.595	92.94
398.82	107.94
399.044	98.94
399.268	105.94
399.492	95.94
399.717	105.94
399.941	97.94
400.165	96.94
400.389	73.94
400.613	87.94
400.837	85.94
401.062	89.94
401.286	98.94
401.51	95.94
401.734	91.94
401.958	81.94
402.182	95.94
402.406	85.94
402.63	94.94
402.854	77.94
403.078	94.94
403.302	107.94
403.526	85.94
403.75	99.94
403.974	93.94
404.198	84.94
404.422	99.94
404.645	105.94
404.869	89.94
405.093	93.94
405.317	102.94
405.541	103.94
405.765	94.94
405.988	102.94
406.212	84.94
406.436	85.94
406.66	100.94
406.883	89.94
407.107	103.94
407.331	89.94
407.555	99.94
407.778	142.94
408.002	123.94
408.226	106.94
408.449	99.94
408.673	85.94
408.896	93.94
409.12	98.94
409.344	81.94
409.567	103.94
409.791	116.94
410.014	117.94
410.238	97.94
410.461	90.94
410.685	110.94
410.908	80.94
411.132	101.94
411.355	83.94
411.578	86.94
411.802	92.94
412.025	86.94
412.249	93.94
412.472	84.94
412.695	89.94
412.919	84.94
413.142	104.94
413.365	99.94
413.589	85.94
413.812	82.94
414.035	108.94
414.258	104.94
414.482	93.94
414.705	86.94
414.928	87.94
415.151	88.94
415.374	103.94
415.597	99.94
415.821	105.94
416.044	83.94
416.267	94.94
416.49	94.94
416.713	83.94
416.936	102.94
417.159	85.94
417.382	74.94
417.605	91.94
417.828	85.94
418.051	76.94
418.274	71.94
418.497	77.94
418.72	89.94
418.943	90.94
419.166	90.94
419.389	82.94
419.611	85.94
419.834	87.94
420.057	106.94
420.28	99.94
420.503	105.94
420.726	94.94
420.948	91.94
421.171	97.94
421.394	107.94
421.617	130.94
421.839	126.94
422.062	115.94
422.285	168.94
422.507	249.94
422.73	342.94
422.953	316.94
423.175	187.94
423.398	122.94
423.621	124.94
423.843	108.94
424.066	114.94
424.288	99.94
424.511	92.94
424.733	94.94
424.956	97.94
425.178	94.94
425.401	90.94
425.623	101.94
425.846	87.94
426.068	79.94
426.291	95.94
426.513	102.94
426.735	89.94
426.958	96.94
427.18	90.94
427.402	114.94
427.625	83.94
427.847	87.94
428.069	110.94
428.292	120.94
428.514	131.94
428.736	107.94
428.958	124.94
429.181	122.94
429.403	98.94
429.625	99.94
429.847	117.94
430.069	145.94
430.292	168.94
430.514	173.94
430.736	110.94
430.958	133.94
431.18	89.94
431.402	96.94
431.624	101.94
431.846	107.94
432.068	136.94
432.29	93.94
432.512	89.94
432.734	101.94
432.956	89.94
433.178	85.94
433.4	62.94
433.622	101.94
433.844	92.94
434.066	94.94
434.287	107.94
434.509	92.94
434.731	85.94
434.953	79.94
435.175	91.94
435.397	101.94
435.618	91.94
435.84	91.94
436.062	100.94
436.284	93.94
436.505	87.94
436.727	84.94
436.949	103.94
437.17	77.94
437.392	88.94
437.614	80.94
437.835	85.94
438.057	95.94
438.278	94.94
438.5	103.94
438.721	97.94
438.943	95.94
439.165	96.94
439.386	97.94
439.608	98.94
439.829	83.94
440.05	85.94
440.272	99.94
440.493	99.94
440.715	94.94
440.936	97.94
441.158	87.94
441.379	79.94
441.6	101.94
441.822	96.94
442.043	89.94
442.264	125.94
442.486	119.94
442.707	180.94
442.928	123.94
443.149	105.94
443.371	140.94
443.592	213.94
443.813	195.94
444.034	113.94
444.255	98.94
444.476	97.94
444.698	99.94
444.919	97.94
445.14	191.94
445.361	201.94
445.582	255.94
445.803	232.94
446.024	130.94
446.245	92.94
446.466	77.94
446.687	69.94
446.908	101.94
447.129	97.94
447.35	91.94
447.571	87.94
447.792	103.94
448.013	77.94
448.234	69.94
448.455	87.94
448.675	111.94
448.896	83.94
449.117	83.94
449.338	81.94
449.559	97.94
449.779	101.94
450	77.94
450.221	85.94
450.442	87.94
450.662	71.94
450.883	102.94
451.104	89.94
451.324	87.94
451.545	84.94
451.766	97.94
451.986	86.94
452.207	94.94
452.428	99.94
452.648	96.94
452.869	105.94
453.089	93.94
453.31	78.94
453.53	97.94
453.751	87.94
453.971	90.94
454.192	97.94
454.412	89.94
454.633	93.94
454.853	89.94
455.073	93.94
455.294	91.94
455.514	98.94
455.734	89.94
455.955	85.94
456.175	92.94
456.395	101.94
456.616	73.94
456.836	110.94
457.056	99.94
457.276	95.94
457.497	81.94
457.717	99.94
457.937	116.94
458.157	121.94
458.377	122.94
458.598	114.94
458.818	142.94
459.038	90.94
459.258	84.94
459.478	81.94
459.698	97.94
459.918	87.94
460.138	88.94
460.358	105.94
460.578	121.94
460.798	134.94
461.018	114.94
461.238	107.94
461.458	98.94
461.678	88.94
461.898	90.94
462.118	97.94
462.338	99.94
462.558	89.94
462.777	103.94
462.997	78.94
463.217	75.94
463.437	91.94
463.657	85.94
463.876	91.94
464.096	88.94
464.316	82.94
464.536	94.94
464.755	84.94
464.975	86.94
465.195	89.94
465.414	92.94
465.634	92.94
465.854	95.94
466.073	91.94
466.293	91.94
466.512	93.94
466.732	99.94
466.951	90.94
467.171	81.94
467.391	98.94
467.61	86.94
467.829	99.94
468.049	85.94
468.268	82.94
468.488	81.94
468.707	86.94
468.927	85.94
469.146	91.94
469.365	79.94
469.585	92.94
469.804	81.94
470.023	89.94
470.243	96.94
470.462	99.94
470.681	91.94
470.901	109.94
471.12	101.94
471.339	93.94
471.558	87.94
471.777	85.94
471.997	103.94
472.216	87.94
472.435	89.94
472.654	82.94
472.873	85.94
473.092	87.94
473.311	95.94
473.53	87.94
473.749	99.94
473.968	84.94
474.187	89.94
474.406	91.94
474.625	87.94
474.844	109.94
475.063	94.94
475.282	91.94
475.501	75.94
475.72	113.94
475.939	106.94
476.158	99.94
476.377	103.94
476.596	76.94
476.814	97.94
477.033	83.94
477.252	97.94
477.471	85.94
477.69	74.94
477.908	98.94
478.127	87.94
478.346	82.94
478.564	90.94
478.783	83.94
479.002	86.94
479.22	91.94
479.439	93.94
479.658	82.94
479.876	79.94
480.095	102.94
480.313	108.94
480.532	94.94
480.751	97.94
480.969	86.94
481.188	93.94
481.406	96.94
481.624	93.94
481.843	81.94
482.061	85.94
482.28	92.94
482.498	93.94
482.717	85.94
482.935	104.94
483.153	99.94
483.372	105.94
483.59	79.94
483.808	93.94
484.027	98.94
484.245	103.94
484.463	90.94
484.681	97.94
484.9	100.94
485.118	85.94
485.336	89.94
485.554	98.94
485.772	98.94
485.99	110.94
486.209	107.94
486.427	106.94
486.645	85.94
486.863	103.94
487.081	88.94
487.299	103.94
487.517	102.94
487.735	115.94
487.953	168.94
488.171	131.94
488.389	93.94
488.607	97.94
488.825	93.94
489.043	100.94
489.261	98.94
489.479	102.94
489.696	87.94
489.914	103.94
490.132	96.94
490.35	99.94
490.568	92.94
490.786	99.94
491.003	103.94
491.221	82.94
491.439	91.94
491.657	100.94
491.874	81.94
492.092	96.94
492.31	92.94
492.527	100.94
492.745	103.94
492.963	95.94
493.18	114.94
493.398	89.94
493.615	90.94
493.833	96.94
494.05	87.94
494.268	85.94
494.485	110.94
494.703	103.94
494.92	93.94
495.138	111.94
495.355	100.94
495.573	109.94
495.79	83.94
496.008	85.94
496.225	102.94
496.442	111.94
496.66	111.94
496.877	105.94
497.094	102.94
497.312	87.94
497.529	86.94
497.746	78.94
497.963	98.94
498.181	95.94
498.398	106.94
498.615	110.94
498.832	104.94
499.049	97.94
499.267	105.94
499.484	97.94
499.701	97.94
499.918	99.94
500.135	87.94
500.352	93.94
500.569	89.94
500.786	98.94
501.003	90.94
501.22	97.94
501.437	104.94
501.654	105.94
501.871	104.94
502.088	95.94
502.305	96.94
502.522	93.94
502.739	94.94
502.956	93.94
503.172	87.94
503.389	89.94
503.606	86.94
503.823	93.94
504.04	96.94
504.256	129.94
504.473	132.94
504.69	97.94
504.907	95.94
505.123	89.94
505.34	88.94
505.557	74.94
505.773	82.94
505.99	97.94
506.207	83.94
506.423	102.94
506.64	99.94
506.856	93.94
507.073	83.94
507.289	94.94
507.506	89.94
507.722	85.94
507.939	103.94
508.155	91.94
508.372	92.94
508.588	75.94
508.805	94.94
509.021	94.94
509.238	89.94
509.454	101.94
509.67	99.94
509.887	80.94
510.103	95.94
510.319	84.94
510.536	91.94
510.752	81.94
510.968	94.94
511.184	89.94
511.401	89.94
511.617	91.94
511.833	100.94
512.049	94.94
512.265	93.94
512.481	99.94
512.698	92.94
512.914	83.94
513.13	95.94
513.346	97.94
513.562	80.94
513.778	92.94
513.994	98.94
514.21	87.94
514.426	104.94
514.642	104.94
514.858	90.94
515.074	98.94
515.29	101.94
515.506	92.94
515.721	94.94
515.937	91.94
516.153	91.94
516.369	93.94
516.585	94.94
516.801	93.94
