Data from HP_3_HRD10591_00010.txt Node
Date: Mon Jan 19 14:17:05 EST 2026
User: Yrep
Spectrometer: HR+D1059
Trigger mode: 1
Integration Time (sec): 1.000000E-1
Scans to average: 1
Electric dark correction enabled: true
Nonlinearity correction enabled: false
Boxcar width: 0
XAxis mode: Wavelengths
Number of Pixels in Spectrum: 2048
>>>>>Begin Spectral Data<<<<<
223.165	-15
223.4	-15
223.635	-15
223.869	-6
224.104	-22
224.338	-18
224.573	-10
224.808	-14
225.042	-14
225.277	-7
225.511	1
225.746	0
225.98	13
226.215	14
226.449	11
226.683	20
226.918	24
227.152	23
227.387	40
227.621	38
227.856	40
228.09	46
228.324	50
228.559	55
228.793	59
229.027	66
229.262	60
229.496	56
229.73	51
229.964	68
230.199	72
230.433	76
230.667	76
230.901	74
231.136	76
231.37	83
231.604	79
231.838	67
232.072	67
232.306	75
232.541	75
232.775	79
233.009	86
233.243	96
233.477	78
233.711	72
233.945	79
234.179	86
234.413	77
234.647	82
234.881	73
235.115	72
235.349	83
235.583	62
235.817	70
236.051	76
236.285	65
236.519	60
236.753	81
236.987	80
237.221	60
237.455	63
237.689	62
237.922	86
238.156	79
238.39	74
238.624	72
238.858	75
239.091	76
239.325	78
239.559	71
239.793	65
240.027	87
240.26	84
240.494	74
240.728	90
240.961	73
241.195	89
241.429	69
241.662	91
241.896	76
242.13	88
242.363	79
242.597	71
242.83	88
243.064	78
243.298	75
243.531	72
243.765	72
243.998	66
244.232	72
244.465	82
244.699	72
244.932	91
245.166	80
245.399	87
245.633	81
245.866	87
246.099	65
246.333	71
246.566	88
246.8	98
247.033	74
247.266	77
247.5	87
247.733	87
247.966	77
248.2	77
248.433	84
248.666	69
248.899	78
249.133	82
249.366	84
249.599	84
249.832	73
250.066	82
250.299	85
250.532	72
250.765	66
250.998	76
251.231	69
251.465	64
251.698	81
251.931	82
252.164	80
252.397	71
252.63	82
252.863	72
253.096	90
253.329	92
253.562	79
253.795	89
254.028	81
254.261	83
254.494	68
254.727	82
254.96	77
255.193	76
255.426	70
255.659	69
255.892	90
256.124	92
256.357	77
256.59	78
256.823	87
257.056	76
257.289	80
257.521	83
257.754	67
257.987	68
258.22	74
258.452	88
258.685	65
258.918	83
259.151	74
259.383	86
259.616	67
259.849	88
260.081	64
260.314	89
260.547	82
260.779	69
261.012	89
261.244	79
261.477	71
261.71	83
261.942	87
262.175	82
262.407	71
262.64	79
262.872	90
263.105	93
263.337	110
263.57	63
263.802	82
264.035	72
264.267	66
264.499	93
264.732	79
264.964	70
265.197	77
265.429	77
265.661	77
265.894	86
266.126	60
266.358	74
266.591	69
266.823	78
267.055	75
267.287	82
267.52	84
267.752	87
267.984	78
268.216	78
268.448	80
268.681	86
268.913	82
269.145	82
269.377	76
269.609	80
269.841	94
270.073	87
270.306	96
270.538	76
270.77	84
271.002	79
271.234	86
271.466	76
271.698	84
271.93	78
272.162	89
272.394	92
272.626	81
272.858	91
273.09	94
273.322	91
273.553	73
273.785	80
274.017	79
274.249	69
274.481	88
274.713	82
274.945	77
275.176	76
275.408	79
275.64	102
275.872	67
276.104	94
276.335	93
276.567	82
276.799	85
277.031	76
277.262	95
277.494	97
277.726	82
277.957	83
278.189	68
278.421	90
278.652	82
278.884	85
279.115	84
279.347	94
279.579	88
279.81	83
280.042	80
280.273	80
280.505	80
280.736	76
280.968	86
281.199	90
281.431	89
281.662	94
281.894	89
282.125	92
282.356	84
282.588	63
282.819	73
283.051	82
283.282	76
283.513	83
283.745	82
283.976	88
284.207	93
284.439	79
284.67	90
284.901	86
285.132	80
285.364	88
285.595	86
285.826	81
286.057	87
286.288	75
286.52	77
286.751	88
286.982	77
287.213	76
287.444	91
287.675	89
287.906	74
288.138	82
288.369	92
288.6	74
288.831	98
289.062	82
289.293	79
289.524	87
289.755	66
289.986	80
290.217	72
290.448	71
290.679	76
290.91	91
291.141	61
291.371	78
291.602	77
291.833	86
292.064	81
292.295	71
292.526	71
292.757	84
292.987	84
293.218	63
293.449	62
293.68	86
293.91	87
294.141	89
294.372	87
294.603	80
294.833	72
295.064	86
295.295	79
295.525	86
295.756	81
295.987	80
296.217	81
296.448	76
296.679	77
296.909	96
297.14	82
297.37	91
297.601	96
297.831	84
298.062	90
298.292	91
298.523	75
298.753	83
298.984	79
299.214	88
299.445	104
299.675	79
299.905	87
300.136	95
300.366	82
300.597	89
300.827	91
301.057	105
301.288	67
301.518	87
301.748	84
301.979	100
302.209	83
302.439	79
302.669	74
302.9	94
303.13	82
303.36	84
303.59	82
303.82	87
304.051	76
304.281	110
304.511	78
304.741	69
304.971	82
305.201	83
305.431	73
305.661	78
305.891	78
306.121	75
306.352	83
306.582	84
306.812	75
307.042	94
307.272	84
307.502	82
307.731	85
307.961	87
308.191	89
308.421	89
308.651	93
308.881	88
309.111	94
309.341	102
309.571	85
309.8	80
310.03	94
310.26	87
310.49	82
310.72	92
310.949	83
311.179	76
311.409	80
311.639	61
311.868	84
312.098	82
312.328	82
312.557	94
312.787	82
313.017	88
313.246	89
313.476	79
313.706	80
313.935	80
314.165	84
314.394	92
314.624	93
314.853	98
315.083	95
315.312	91
315.542	95
315.771	106
316.001	89
316.23	79
316.46	81
316.689	98
316.919	83
317.148	92
317.377	95
317.607	89
317.836	73
318.065	86
318.295	74
318.524	82
318.753	65
318.983	80
319.212	83
319.441	94
319.67	91
319.9	76
320.129	78
320.358	81
320.587	101
320.816	90
321.046	92
321.275	92
321.504	88
321.733	77
321.962	74
322.191	84
322.42	91
322.649	82
322.878	90
323.108	89
323.337	84
323.566	83
323.795	85
324.024	85
324.253	81
324.482	80
324.71	78
324.939	82
325.168	85
325.397	83
325.626	92
325.855	83
326.084	73
326.313	84
326.542	74
326.77	72
326.999	96
327.228	87
327.457	70
327.686	84
327.914	72
328.143	80
328.372	90
328.6	83
328.829	81
329.058	83
329.287	81
329.515	82
329.744	84
329.972	76
330.201	92
330.43	78
330.658	74
330.887	74
331.115	73
331.344	78
331.572	88
331.801	75
332.03	92
332.258	90
332.486	90
332.715	84
332.943	79
333.172	82
333.4	82
333.629	81
333.857	70
334.085	80
334.314	79
334.542	89
334.771	88
334.999	115
335.227	92
335.455	81
335.684	72
335.912	78
336.14	102
336.369	89
336.597	88
336.825	81
337.053	89
337.281	86
337.51	88
337.738	79
337.966	84
338.194	79
338.422	90
338.65	92
338.878	88
339.106	91
339.334	77
339.562	73
339.79	103
340.018	87
340.246	79
340.474	85
340.702	90
340.93	83
341.158	86
341.386	80
341.614	79
341.842	77
342.07	71
342.298	89
342.526	78
342.754	83
342.981	82
343.209	87
343.437	100
343.665	86
343.893	88
344.12	93
344.348	94
344.576	88
344.804	87
345.031	74
345.259	89
345.487	79
345.714	71
345.942	93
346.17	88
346.397	84
346.625	86
346.853	80
347.08	88
347.308	95
347.535	81
347.763	86
347.99	88
348.218	89
348.445	74
348.673	79
348.9	88
349.128	99
349.355	79
349.583	84
349.81	89
350.037	88
350.265	87
350.492	86
350.72	79
350.947	70
351.174	82
351.402	86
351.629	86
351.856	79
352.083	79
352.311	94
352.538	62
352.765	83
352.992	82
353.22	87
353.447	87
353.674	76
353.901	78
354.128	84
354.355	97
354.583	97
354.81	98
355.037	86
355.264	74
355.491	91
355.718	86
355.945	84
356.172	95
356.399	82
356.626	93
356.853	91
357.08	96
357.307	86
357.534	83
357.761	90
357.988	73
358.215	95
358.441	80
358.668	73
358.895	77
359.122	75
359.349	68
359.576	83
359.802	82
360.029	73
360.256	72
360.483	70
360.709	74
360.936	83
361.163	91
361.39	89
361.616	85
361.843	83
362.07	83
362.296	85
362.523	97
362.749	75
362.976	100
363.203	106
363.429	96
363.656	92
363.882	68
364.109	86
364.335	114
364.562	95
364.788	82
365.015	95
365.241	102
365.468	88
365.694	80
365.92	93
366.147	90
366.373	70
366.599	68
366.826	75
367.052	77
367.278	84
367.505	76
367.731	91
367.957	73
368.184	86
368.41	78
368.636	82
368.862	89
369.089	92
369.315	94
369.541	86
369.767	85
369.993	76
370.219	76
370.445	86
370.672	90
370.898	77
371.124	77
371.35	86
371.576	89
371.802	84
372.028	69
372.254	75
372.48	90
372.706	77
372.932	67
373.158	93
373.384	92
373.61	83
373.835	90
374.061	80
374.287	84
374.513	85
374.739	70
374.965	99
375.191	88
375.416	74
375.642	89
375.868	80
376.094	90
376.319	76
376.545	97
376.771	81
376.997	86
377.222	80
377.448	83
377.674	82
377.899	79
378.125	83
378.35	95
378.576	90
378.802	82
379.027	96
379.253	91
379.478	86
379.704	86
379.929	89
380.155	70
380.38	106
380.606	85
380.831	92
381.057	90
381.282	74
381.507	84
381.733	71
381.958	87
382.184	86
382.409	79
382.634	81
382.86	82
383.085	91
383.31	83
383.535	85
383.761	74
383.986	87
384.211	74
384.436	77
384.662	86
384.887	79
385.112	86
385.337	84
385.562	84
385.787	79
386.013	93
386.238	90
386.463	86
386.688	99
386.913	84
387.138	83
387.363	103
387.588	99
387.813	88
388.038	80
388.263	73
388.488	76
388.713	90
388.938	80
389.163	79
389.387	89
389.612	88
389.837	92
390.062	85
390.287	88
390.512	79
390.736	95
390.961	90
391.186	97
391.411	86
391.636	82
391.86	86
392.085	82
392.31	96
392.534	88
392.759	108
392.984	112
393.208	153
393.433	215
393.658	174
393.882	102
394.107	107
394.331	99
394.556	121
394.78	112
395.005	96
395.229	98
395.454	86
395.678	91
395.903	96
396.127	117
396.352	115
396.576	106
396.801	164
397.025	179
397.249	124
397.474	92
397.698	106
397.922	89
398.147	86
398.371	94
398.595	94
398.82	83
399.044	67
399.268	85
399.492	74
399.717	93
399.941	90
400.165	87
400.389	69
400.613	83
400.837	60
401.062	80
401.286	90
401.51	81
401.734	76
401.958	88
402.182	92
402.406	88
402.63	80
402.854	78
403.078	92
403.302	80
403.526	94
403.75	67
403.974	79
404.198	88
404.422	101
404.645	102
404.869	97
405.093	100
405.317	78
405.541	80
405.765	90
405.988	92
406.212	82
406.436	76
406.66	80
406.883	70
407.107	87
407.331	82
407.555	87
407.778	97
408.002	96
408.226	83
408.449	83
408.673	86
408.896	70
409.12	78
409.344	97
409.567	91
409.791	105
410.014	99
410.238	84
410.461	85
410.685	85
410.908	89
411.132	98
411.355	94
411.578	95
411.802	81
412.025	73
412.249	70
412.472	81
412.695	86
412.919	66
413.142	81
413.365	85
413.589	85
413.812	72
414.035	69
414.258	97
414.482	84
414.705	86
414.928	77
415.151	84
415.374	74
415.597	74
415.821	103
416.044	94
416.267	71
416.49	85
416.713	80
416.936	66
417.159	76
417.382	72
417.605	74
417.828	89
418.051	90
418.274	81
418.497	90
418.72	80
418.943	75
419.166	91
419.389	98
419.611	87
419.834	95
420.057	84
420.28	83
420.503	88
420.726	84
420.948	72
421.171	86
421.394	86
421.617	95
421.839	101
422.062	110
422.285	132
422.507	214
422.73	314
422.953	301
423.175	166
423.398	110
423.621	88
423.843	85
424.066	72
424.288	77
424.511	89
424.733	105
424.956	98
425.178	87
425.401	98
425.623	83
425.846	92
426.068	89
426.291	94
426.513	75
426.735	86
426.958	68
427.18	98
427.402	77
427.625	83
427.847	83
428.069	90
428.292	119
428.514	118
428.736	96
428.958	112
429.181	119
429.403	76
429.625	90
429.847	113
430.069	134
430.292	135
430.514	136
430.736	108
430.958	112
431.18	94
431.402	100
431.624	86
431.846	84
432.068	124
432.29	78
432.512	97
432.734	69
432.956	82
433.178	84
433.4	75
433.622	87
433.844	88
434.066	98
434.287	75
434.509	82
434.731	70
434.953	82
435.175	84
435.397	82
435.618	79
435.84	76
436.062	74
436.284	98
436.505	85
436.727	90
436.949	86
437.17	85
437.392	75
437.614	84
437.835	78
438.057	73
438.278	82
438.5	100
438.721	94
438.943	84
439.165	75
439.386	87
439.608	86
439.829	87
440.05	83
440.272	90
440.493	94
440.715	76
440.936	67
441.158	80
441.379	89
441.6	86
441.822	78
442.043	89
442.264	88
442.486	121
442.707	144
442.928	114
443.149	91
443.371	117
443.592	186
443.813	155
444.034	100
444.255	94
444.476	83
444.698	96
444.919	98
445.14	186
445.361	190
445.582	205
445.803	185
446.024	114
446.245	87
446.466	85
446.687	83
446.908	88
447.129	75
447.35	96
447.571	76
447.792	91
448.013	101
448.234	74
448.455	93
448.675	83
448.896	79
449.117	93
449.338	89
449.559	90
449.779	67
450	88
450.221	83
450.442	79
450.662	87
450.883	95
451.104	75
451.324	77
451.545	83
451.766	75
451.986	74
452.207	87
452.428	94
452.648	86
452.869	94
453.089	90
453.31	86
453.53	85
453.751	73
453.971	65
454.192	72
454.412	94
454.633	94
454.853	97
455.073	93
455.294	80
455.514	80
455.734	93
455.955	88
456.175	67
456.395	86
456.616	84
456.836	82
457.056	74
457.276	80
457.497	82
457.717	98
457.937	108
458.157	104
458.377	100
458.598	104
458.818	105
459.038	82
459.258	81
459.478	100
459.698	63
459.918	87
460.138	74
460.358	87
460.578	83
460.798	103
461.018	99
461.238	88
461.458	91
461.678	86
461.898	78
462.118	92
462.338	94
462.558	80
462.777	86
462.997	78
463.217	96
463.437	90
463.657	77
463.876	98
464.096	82
464.316	89
464.536	71
464.755	93
464.975	85
465.195	76
465.414	84
465.634	71
465.854	85
466.073	77
466.293	70
466.512	99
466.732	82
466.951	83
467.171	68
467.391	76
467.61	79
467.829	88
468.049	97
468.268	82
468.488	83
468.707	92
468.927	91
469.146	90
469.365	85
469.585	80
469.804	99
470.023	71
470.243	81
470.462	92
470.681	86
470.901	72
471.12	73
471.339	93
471.558	74
471.777	82
471.997	79
472.216	86
472.435	97
472.654	97
472.873	85
473.092	79
473.311	94
473.53	66
473.749	81
473.968	78
474.187	87
474.406	80
474.625	89
474.844	84
475.063	92
475.282	79
475.501	76
475.72	89
475.939	74
476.158	79
476.377	90
476.596	86
476.814	78
477.033	67
477.252	82
477.471	86
477.69	94
477.908	87
478.127	95
478.346	83
478.564	80
478.783	87
479.002	94
479.22	78
479.439	87
479.658	78
479.876	70
480.095	82
480.313	86
480.532	78
480.751	68
480.969	79
481.188	98
481.406	80
481.624	84
481.843	75
482.061	71
482.28	85
482.498	96
482.717	92
482.935	81
483.153	87
483.372	91
483.59	92
483.808	83
484.027	90
484.245	91
484.463	84
484.681	103
484.9	84
485.118	86
485.336	80
485.554	94
485.772	76
485.99	84
486.209	80
486.427	88
486.645	98
486.863	98
487.081	89
487.299	106
487.517	90
487.735	103
487.953	121
488.171	119
488.389	80
488.607	96
488.825	89
489.043	83
489.261	78
489.479	76
489.696	82
489.914	81
490.132	87
490.35	88
490.568	85
490.786	74
491.003	84
491.221	92
491.439	87
491.657	88
491.874	82
492.092	90
492.31	92
492.527	90
492.745	87
492.963	84
493.18	91
493.398	81
493.615	70
493.833	78
494.05	67
494.268	86
494.485	70
494.703	94
494.92	91
495.138	88
495.355	81
495.573	103
495.79	93
496.008	87
496.225	91
496.442	93
496.66	82
496.877	99
497.094	95
497.312	85
497.529	100
497.746	95
497.963	78
498.181	94
498.398	88
498.615	78
498.832	95
499.049	95
499.267	92
499.484	92
499.701	104
499.918	78
500.135	82
500.352	103
500.569	81
500.786	94
501.003	82
501.22	77
501.437	82
501.654	91
501.871	88
502.088	89
502.305	88
502.522	76
502.739	75
502.956	80
503.172	106
503.389	86
503.606	79
503.823	97
504.04	90
504.256	113
504.473	116
504.69	82
504.907	80
505.123	82
505.34	92
505.557	81
505.773	88
505.99	104
506.207	97
506.423	77
506.64	89
506.856	86
507.073	87
507.289	83
507.506	86
507.722	89
507.939	78
508.155	89
508.372	82
508.588	88
508.805	86
509.021	106
509.238	94
509.454	97
509.67	68
509.887	83
510.103	98
510.319	95
510.536	100
510.752	91
510.968	79
511.184	80
511.401	84
511.617	100
511.833	85
512.049	87
512.265	75
512.481	85
512.698	99
512.914	80
513.13	92
513.346	72
513.562	77
513.778	90
513.994	79
514.21	82
514.426	85
514.642	103
514.858	83
515.074	94
515.29	68
515.506	80
515.721	98
515.937	87
516.153	90
516.369	98
516.585	94
516.801	95
517.016	94
517.232	89
517.448	89
517.664	86
517.879	92
518.095	89
518.311	90
518.527	99
518.742	106
518.958	119
519.173	126
519.389	100
519.605	83
519.82	74
520.036	82
520.251	89
520.467	90
520.682	75
520.898	86
521.113	88
521.329	107
521.544	81
521.76	98
521.975	88
522.19	82
522.406	80
522.621	85
522.836	84
523.052	94
523.267	73
523.482	79
523.698	79
523.913	86
524.128	82
524.343	67
524.559	89
524.774	91
524.989	79
525.204	83
525.419	92
525.634	98
525.849	90
526.064	110
526.28	146
526.495	201
526.71	225
526.925	150
527.14	198
527.355	194
527.57	99
527.785	89
527.999	91
528.214	89
528.429	74
528.644	87
528.859	80
529.074	64
529.289	81
529.503	75
529.718	87
529.933	78
530.148	99
530.363	81
530.577	90
530.792	76
531.007	94
531.221	90
531.436	105
531.651	84
531.865	86
532.08	92
532.295	90
532.509	84
532.724	100
532.938	84
533.153	76
533.367	90
533.582	102
533.796	95
534.011	96
534.225	97
534.44	104
534.654	114
534.868	84
535.083	128
535.297	102
535.511	107
535.726	87
535.94	96
536.154	91
536.369	96
536.583	94
536.797	110
537.011	102
537.225	100
537.44	92
537.654	91
537.868	98
538.082	106
538.296	76
538.51	101
538.724	83
538.938	95
539.153	86
539.367	83
539.581	88
539.795	91
540.009	101
540.222	99
540.436	98
540.65	104
540.864	86
541.078	77
541.292	103
541.506	99
541.72	90
541.934	112
542.147	97
542.361	96
542.575	84
542.789	90
543.002	90
543.216	83
543.43	97
543.644	95
543.857	94
544.071	82
544.285	91
544.498	99
544.712	91
544.925	87
545.139	99
545.352	106
545.566	110
545.779	101
545.993	108
546.206	92
546.42	97
546.633	110
546.847	111
547.06	112
547.274	114
547.487	117
547.7	119
547.914	134
548.127	117
548.34	142
548.554	143
548.767	120
548.98	145
549.193	152
549.407	137
549.62	145
549.833	135
550.046	162
550.259	162
550.473	161
550.686	178
550.899	194
551.112	202
551.325	224
551.538	222
551.751	209
551.964	196
552.177	186
552.39	191
552.603	183
552.816	171
553.029	190
553.242	202
553.455	195
553.667	196
553.88	211
554.093	220
554.306	246
554.519	215
554.732	216
554.944	207
555.157	196
555.37	195
555.583	185
555.795	156
556.008	162
556.221	158
556.433	147
556.646	147
556.859	137
557.071	124
557.284	136
557.496	130
557.709	132
557.921	130
558.134	119
558.346	153
558.559	147
558.771	139
558.984	244
559.196	251
559.409	165
559.621	211
559.833	173
560.046	190
560.258	157
560.47	171
560.683	122
560.895	108
561.107	94
561.32	94
561.532	95
561.744	92
561.956	100
562.168	92
562.381	92
562.593	88
562.805	100
563.017	99
563.229	99
563.441	91
563.653	107
563.865	93
564.077	82
564.289	92
564.501	95
564.713	107
564.925	92
565.137	102
565.349	88
565.561	88
565.773	88
565.985	87
566.197	78
566.408	83
566.62	87
566.832	88
567.044	86
567.255	90
567.467	89
567.679	84
567.891	95
568.102	97
568.314	99
568.526	94
568.737	104
568.949	99
569.161	93
569.372	100
569.584	92
569.795	94
570.007	81
570.218	99
570.43	92
570.641	95
570.853	94
571.064	91
571.276	92
571.487	97
571.698	83
571.91	83
572.121	95
572.333	86
572.544	90
572.755	104
572.966	102
573.178	91
573.389	87
573.6	100
573.811	91
574.023	80
574.234	91
574.445	90
574.656	90
574.867	84
575.078	101
575.289	100
575.501	94
575.712	99
575.923	82
576.134	90
576.345	85
576.556	96
576.767	94
576.978	102
577.188	85
577.399	99
577.61	87
577.821	92
578.032	84
578.243	70
578.454	96
578.665	79
578.875	80
579.086	88
579.297	89
579.508	90
579.718	91
579.929	97
580.14	85
580.35	98
580.561	102
580.772	85
580.982	96
581.193	80
581.403	90
581.614	86
581.825	102
582.035	96
582.246	105
582.456	86
582.667	106
582.877	99
583.087	92
583.298	86
583.508	81
583.719	110
583.929	94
584.139	96
584.35	95
584.56	88
584.77	90
584.981	95
585.191	91
585.401	81
585.611	90
585.821	132
586.032	162
586.242	101
586.452	98
586.662	93
586.872	97
587.082	94
587.292	93
