Data from HP_3_HRD10591_00040.txt Node
Date: Mon Jan 19 14:17:20 EST 2026
User: Yrep
Spectrometer: HR+D1059
Trigger mode: 1
Integration Time (sec): 1.000000E-1
Scans to average: 1
Electric dark correction enabled: true
Nonlinearity correction enabled: false
Boxcar width: 0
XAxis mode: Wavelengths
Number of Pixels in Spectrum: 2048
>>>>>Begin Spectral Data<<<<<
223.165	-12.25
223.4	-12.25
223.635	-12.25
223.869	-35.25
224.104	-21.25
224.338	-16.25
224.573	-17.25
224.808	-20.25
225.042	1.75
225.277	-3.25
225.511	6.75
225.746	20.75
225.98	5.75
226.215	3.75
226.449	23.75
226.683	22.75
226.918	22.75
227.152	17.75
227.387	38.75
227.621	34.75
227.856	40.75
228.09	52.75
228.324	48.75
228.559	48.75
228.793	63.75
229.027	61.75
229.262	71.75
229.496	63.75
229.73	69.75
229.964	71.75
230.199	72.75
230.433	77.75
230.667	82.75
230.901	77.75
231.136	71.75
231.37	83.75
231.604	86.75
231.838	80.75
232.072	86.75
232.306	63.75
232.541	74.75
232.775	72.75
233.009	91.75
233.243	71.75
233.477	89.75
233.711	66.75
233.945	85.75
234.179	71.75
234.413	76.75
234.647	74.75
234.881	92.75
235.115	62.75
235.349	70.75
235.583	77.75
235.817	69.75
236.051	59.75
236.285	75.75
236.519	73.75
236.753	78.75
236.987	65.75
237.221	74.75
237.455	68.75
237.689	80.75
237.922	73.75
238.156	77.75
238.39	77.75
238.624	80.75
238.858	65.75
239.091	73.75
239.325	79.75
239.559	57.75
239.793	61.75
240.027	75.75
240.26	71.75
240.494	73.75
240.728	72.75
240.961	70.75
241.195	82.75
241.429	78.75
241.662	70.75
241.896	83.75
242.13	79.75
242.363	70.75
242.597	68.75
242.83	81.75
243.064	75.75
243.298	65.75
243.531	65.75
243.765	64.75
243.998	75.75
244.232	86.75
244.465	72.75
244.699	75.75
244.932	71.75
245.166	78.75
245.399	90.75
245.633	87.75
245.866	81.75
246.099	67.75
246.333	63.75
246.566	76.75
246.8	70.75
247.033	81.75
247.266	71.75
247.5	61.75
247.733	67.75
247.966	76.75
248.2	74.75
248.433	85.75
248.666	76.75
248.899	75.75
249.133	80.75
249.366	71.75
249.599	84.75
249.832	75.75
250.066	88.75
250.299	80.75
250.532	69.75
250.765	79.75
250.998	74.75
251.231	70.75
251.465	79.75
251.698	82.75
251.931	88.75
252.164	69.75
252.397	80.75
252.63	79.75
252.863	79.75
253.096	75.75
253.329	80.75
253.562	77.75
253.795	80.75
254.028	84.75
254.261	69.75
254.494	74.75
254.727	76.75
254.96	79.75
255.193	82.75
255.426	67.75
255.659	64.75
255.892	95.75
256.124	66.75
256.357	89.75
256.59	68.75
256.823	62.75
257.056	74.75
257.289	61.75
257.521	87.75
257.754	83.75
257.987	82.75
258.22	79.75
258.452	83.75
258.685	83.75
258.918	84.75
259.151	89.75
259.383	81.75
259.616	89.75
259.849	85.75
260.081	77.75
260.314	72.75
260.547	81.75
260.779	81.75
261.012	87.75
261.244	102.75
261.477	73.75
261.71	71.75
261.942	67.75
262.175	75.75
262.407	74.75
262.64	82.75
262.872	87.75
263.105	83.75
263.337	70.75
263.57	86.75
263.802	78.75
264.035	86.75
264.267	86.75
264.499	82.75
264.732	74.75
264.964	75.75
265.197	87.75
265.429	83.75
265.661	85.75
265.894	79.75
266.126	73.75
266.358	82.75
266.591	91.75
266.823	94.75
267.055	61.75
267.287	77.75
267.52	84.75
267.752	74.75
267.984	82.75
268.216	72.75
268.448	82.75
268.681	86.75
268.913	76.75
269.145	72.75
269.377	82.75
269.609	70.75
269.841	83.75
270.073	81.75
270.306	88.75
270.538	70.75
270.77	86.75
271.002	71.75
271.234	81.75
271.466	73.75
271.698	75.75
271.93	80.75
272.162	79.75
272.394	79.75
272.626	80.75
272.858	75.75
273.09	84.75
273.322	78.75
273.553	79.75
273.785	68.75
274.017	89.75
274.249	80.75
274.481	64.75
274.713	69.75
274.945	87.75
275.176	84.75
275.408	83.75
275.64	73.75
275.872	87.75
276.104	91.75
276.335	98.75
276.567	82.75
276.799	65.75
277.031	83.75
277.262	85.75
277.494	78.75
277.726	75.75
277.957	77.75
278.189	88.75
278.421	70.75
278.652	87.75
278.884	79.75
279.115	73.75
279.347	88.75
279.579	89.75
279.81	83.75
280.042	76.75
280.273	77.75
280.505	81.75
280.736	59.75
280.968	70.75
281.199	85.75
281.431	69.75
281.662	81.75
281.894	77.75
282.125	81.75
282.356	98.75
282.588	93.75
282.819	78.75
283.051	89.75
283.282	78.75
283.513	82.75
283.745	92.75
283.976	79.75
284.207	72.75
284.439	89.75
284.67	92.75
284.901	87.75
285.132	91.75
285.364	84.75
285.595	76.75
285.826	89.75
286.057	87.75
286.288	91.75
286.52	81.75
286.751	85.75
286.982	86.75
287.213	87.75
287.444	86.75
287.675	87.75
287.906	84.75
288.138	85.75
288.369	83.75
288.6	81.75
288.831	86.75
289.062	85.75
289.293	84.75
289.524	77.75
289.755	79.75
289.986	79.75
290.217	74.75
290.448	90.75
290.679	74.75
290.91	79.75
291.141	85.75
291.371	84.75
291.602	73.75
291.833	76.75
292.064	97.75
292.295	87.75
292.526	81.75
292.757	85.75
292.987	74.75
293.218	93.75
293.449	85.75
293.68	78.75
293.91	91.75
294.141	70.75
294.372	73.75
294.603	100.75
294.833	73.75
295.064	72.75
295.295	88.75
295.525	77.75
295.756	82.75
295.987	88.75
296.217	67.75
296.448	84.75
296.679	89.75
296.909	84.75
297.14	94.75
297.37	70.75
297.601	77.75
297.831	86.75
298.062	78.75
298.292	93.75
298.523	75.75
298.753	76.75
298.984	83.75
299.214	81.75
299.445	98.75
299.675	77.75
299.905	89.75
300.136	68.75
300.366	86.75
300.597	83.75
300.827	87.75
301.057	98.75
301.288	73.75
301.518	74.75
301.748	79.75
301.979	84.75
302.209	89.75
302.439	73.75
302.669	88.75
302.9	70.75
303.13	80.75
303.36	83.75
303.59	88.75
303.82	101.75
304.051	76.75
304.281	85.75
304.511	87.75
304.741	89.75
304.971	83.75
305.201	77.75
305.431	97.75
305.661	88.75
305.891	101.75
306.121	95.75
306.352	83.75
306.582	74.75
306.812	85.75
307.042	78.75
307.272	94.75
307.502	81.75
307.731	89.75
307.961	83.75
308.191	87.75
308.421	75.75
308.651	82.75
308.881	80.75
309.111	78.75
309.341	88.75
309.571	95.75
309.8	77.75
310.03	98.75
310.26	65.75
310.49	83.75
310.72	96.75
310.949	81.75
311.179	73.75
311.409	82.75
311.639	76.75
311.868	86.75
312.098	83.75
312.328	84.75
312.557	74.75
312.787	87.75
313.017	87.75
313.246	94.75
313.476	75.75
313.706	81.75
313.935	84.75
314.165	64.75
314.394	89.75
314.624	83.75
314.853	80.75
315.083	73.75
315.312	77.75
315.542	79.75
315.771	92.75
316.001	76.75
316.23	99.75
316.46	67.75
316.689	61.75
316.919	92.75
317.148	84.75
317.377	80.75
317.607	86.75
317.836	95.75
318.065	81.75
318.295	83.75
318.524	90.75
318.753	75.75
318.983	86.75
319.212	93.75
319.441	81.75
319.67	101.75
319.9	91.75
320.129	83.75
320.358	76.75
320.587	88.75
320.816	78.75
321.046	83.75
321.275	65.75
321.504	72.75
321.733	75.75
321.962	74.75
322.191	69.75
322.42	78.75
322.649	81.75
322.878	90.75
323.108	79.75
323.337	68.75
323.566	89.75
323.795	71.75
324.024	90.75
324.253	65.75
324.482	82.75
324.71	75.75
324.939	74.75
325.168	91.75
325.397	79.75
325.626	63.75
325.855	81.75
326.084	88.75
326.313	86.75
326.542	87.75
326.77	78.75
326.999	89.75
327.228	63.75
327.457	77.75
327.686	84.75
327.914	97.75
328.143	84.75
328.372	77.75
328.6	85.75
328.829	72.75
329.058	77.75
329.287	84.75
329.515	79.75
329.744	93.75
329.972	89.75
330.201	84.75
330.43	68.75
330.658	82.75
330.887	89.75
331.115	74.75
331.344	74.75
331.572	91.75
331.801	72.75
332.03	75.75
332.258	81.75
332.486	92.75
332.715	73.75
332.943	78.75
333.172	68.75
333.4	72.75
333.629	73.75
333.857	79.75
334.085	81.75
334.314	78.75
334.542	84.75
334.771	88.75
334.999	89.75
335.227	74.75
335.455	74.75
335.684	82.75
335.912	82.75
336.14	79.75
336.369	85.75
336.597	96.75
336.825	87.75
337.053	75.75
337.281	76.75
337.51	77.75
337.738	71.75
337.966	83.75
338.194	71.75
338.422	71.75
338.65	87.75
338.878	86.75
339.106	81.75
339.334	93.75
339.562	91.75
339.79	82.75
340.018	104.75
340.246	75.75
340.474	89.75
340.702	75.75
340.93	82.75
341.158	87.75
341.386	68.75
341.614	75.75
341.842	93.75
342.07	81.75
342.298	70.75
342.526	75.75
342.754	73.75
342.981	77.75
343.209	98.75
343.437	93.75
343.665	90.75
343.893	77.75
344.12	93.75
344.348	82.75
344.576	79.75
344.804	74.75
345.031	86.75
345.259	70.75
345.487	89.75
345.714	79.75
345.942	87.75
346.17	75.75
346.397	82.75
346.625	87.75
346.853	82.75
347.08	83.75
347.308	87.75
347.535	87.75
347.763	81.75
347.99	86.75
348.218	85.75
348.445	73.75
348.673	90.75
348.9	90.75
349.128	80.75
349.355	74.75
349.583	83.75
349.81	81.75
350.037	74.75
350.265	75.75
350.492	75.75
350.72	76.75
350.947	84.75
351.174	94.75
351.402	97.75
351.629	85.75
351.856	72.75
352.083	73.75
352.311	76.75
352.538	66.75
352.765	73.75
352.992	77.75
353.22	81.75
353.447	76.75
353.674	81.75
353.901	90.75
354.128	88.75
354.355	93.75
354.583	79.75
354.81	71.75
355.037	91.75
355.264	88.75
355.491	85.75
355.718	90.75
355.945	73.75
356.172	70.75
356.399	85.75
356.626	86.75
356.853	97.75
357.08	85.75
357.307	81.75
357.534	84.75
357.761	73.75
357.988	81.75
358.215	84.75
358.441	81.75
358.668	75.75
358.895	80.75
359.122	88.75
359.349	87.75
359.576	65.75
359.802	75.75
360.029	78.75
360.256	89.75
360.483	68.75
360.709	87.75
360.936	85.75
361.163	90.75
361.39	66.75
361.616	80.75
361.843	91.75
362.07	79.75
362.296	84.75
362.523	79.75
362.749	88.75
362.976	78.75
363.203	85.75
363.429	84.75
363.656	80.75
363.882	85.75
364.109	93.75
364.335	96.75
364.562	91.75
364.788	69.75
365.015	83.75
365.241	76.75
365.468	78.75
365.694	70.75
365.92	88.75
366.147	70.75
366.373	75.75
366.599	74.75
366.826	69.75
367.052	79.75
367.278	69.75
367.505	82.75
367.731	85.75
367.957	100.75
368.184	78.75
368.41	87.75
368.636	87.75
368.862	89.75
369.089	78.75
369.315	68.75
369.541	83.75
369.767	81.75
369.993	82.75
370.219	79.75
370.445	83.75
370.672	82.75
370.898	81.75
371.124	81.75
371.35	82.75
371.576	72.75
371.802	70.75
372.028	83.75
372.254	85.75
372.48	93.75
372.706	80.75
372.932	81.75
373.158	83.75
373.384	75.75
373.61	84.75
373.835	88.75
374.061	73.75
374.287	84.75
374.513	88.75
374.739	83.75
374.965	77.75
375.191	85.75
375.416	70.75
375.642	86.75
375.868	82.75
376.094	75.75
376.319	84.75
376.545	71.75
376.771	65.75
376.997	67.75
377.222	66.75
377.448	94.75
377.674	92.75
377.899	74.75
378.125	91.75
378.35	72.75
378.576	89.75
378.802	83.75
379.027	75.75
379.253	71.75
379.478	70.75
379.704	76.75
379.929	83.75
380.155	79.75
380.38	84.75
380.606	78.75
380.831	78.75
381.057	92.75
381.282	74.75
381.507	76.75
381.733	86.75
381.958	74.75
382.184	89.75
382.409	73.75
382.634	87.75
382.86	70.75
383.085	74.75
383.31	83.75
383.535	79.75
383.761	79.75
383.986	76.75
384.211	70.75
384.436	78.75
384.662	78.75
384.887	89.75
385.112	88.75
385.337	89.75
385.562	78.75
385.787	63.75
386.013	69.75
386.238	76.75
386.463	67.75
386.688	98.75
386.913	80.75
387.138	76.75
387.363	81.75
387.588	70.75
387.813	89.75
388.038	87.75
388.263	92.75
388.488	79.75
388.713	86.75
388.938	81.75
389.163	83.75
389.387	77.75
389.612	81.75
389.837	76.75
390.062	72.75
390.287	81.75
390.512	76.75
390.736	93.75
390.961	79.75
391.186	83.75
391.411	72.75
391.636	78.75
391.86	83.75
392.085	59.75
392.31	73.75
392.534	77.75
392.759	78.75
392.984	102.75
393.208	133.75
393.433	154.75
393.658	130.75
393.882	85.75
394.107	85.75
394.331	95.75
394.556	79.75
394.78	86.75
395.005	81.75
395.229	78.75
395.454	72.75
395.678	72.75
395.903	78.75
396.127	99.75
396.352	103.75
396.576	97.75
396.801	140.75
397.025	137.75
397.249	104.75
397.474	84.75
397.698	73.75
397.922	92.75
398.147	75.75
398.371	90.75
398.595	73.75
398.82	88.75
399.044	72.75
399.268	71.75
399.492	78.75
399.717	95.75
399.941	68.75
400.165	88.75
400.389	79.75
400.613	81.75
400.837	77.75
401.062	74.75
401.286	84.75
401.51	94.75
401.734	67.75
401.958	83.75
402.182	56.75
402.406	71.75
402.63	79.75
402.854	71.75
403.078	86.75
403.302	67.75
403.526	79.75
403.75	84.75
403.974	94.75
404.198	76.75
404.422	81.75
404.645	84.75
404.869	83.75
405.093	66.75
405.317	79.75
405.541	75.75
405.765	74.75
405.988	75.75
406.212	75.75
406.436	81.75
406.66	81.75
406.883	77.75
407.107	75.75
407.331	100.75
407.555	83.75
407.778	81.75
408.002	79.75
408.226	82.75
408.449	69.75
408.673	83.75
408.896	77.75
409.12	72.75
409.344	68.75
409.567	79.75
409.791	69.75
410.014	75.75
410.238	81.75
410.461	79.75
410.685	82.75
410.908	79.75
411.132	83.75
411.355	78.75
411.578	79.75
411.802	83.75
412.025	73.75
412.249	74.75
412.472	82.75
412.695	79.75
412.919	89.75
413.142	90.75
413.365	81.75
413.589	79.75
413.812	80.75
414.035	90.75
414.258	68.75
414.482	70.75
414.705	86.75
414.928	94.75
415.151	77.75
415.374	71.75
415.597	74.75
415.821	97.75
416.044	72.75
416.267	90.75
416.49	85.75
416.713	76.75
416.936	85.75
417.159	59.75
417.382	82.75
417.605	74.75
417.828	79.75
418.051	65.75
418.274	76.75
418.497	79.75
418.72	85.75
418.943	97.75
419.166	80.75
419.389	83.75
419.611	75.75
419.834	81.75
420.057	74.75
420.28	82.75
420.503	74.75
420.726	74.75
420.948	83.75
421.171	74.75
421.394	92.75
421.617	73.75
421.839	88.75
422.062	79.75
422.285	83.75
422.507	89.75
422.73	119.75
422.953	124.75
423.175	86.75
423.398	89.75
423.621	86.75
423.843	66.75
424.066	73.75
424.288	83.75
424.511	77.75
424.733	83.75
424.956	74.75
425.178	88.75
425.401	77.75
425.623	76.75
425.846	80.75
426.068	74.75
426.291	72.75
426.513	90.75
426.735	81.75
426.958	66.75
427.18	73.75
427.402	75.75
427.625	98.75
427.847	85.75
428.069	67.75
428.292	81.75
428.514	79.75
428.736	95.75
428.958	89.75
429.181	87.75
429.403	91.75
429.625	82.75
429.847	75.75
430.069	97.75
430.292	83.75
430.514	89.75
430.736	84.75
430.958	81.75
431.18	64.75
431.402	73.75
431.624	80.75
431.846	87.75
432.068	76.75
432.29	74.75
432.512	92.75
432.734	83.75
432.956	87.75
433.178	87.75
433.4	82.75
433.622	75.75
433.844	87.75
434.066	77.75
434.287	80.75
434.509	89.75
434.731	75.75
434.953	64.75
435.175	74.75
435.397	79.75
435.618	80.75
435.84	73.75
436.062	86.75
436.284	61.75
436.505	71.75
436.727	75.75
436.949	82.75
437.17	81.75
437.392	77.75
437.614	84.75
437.835	85.75
438.057	65.75
438.278	90.75
438.5	85.75
438.721	72.75
438.943	93.75
439.165	89.75
439.386	85.75
439.608	87.75
439.829	103.75
440.05	83.75
440.272	65.75
440.493	81.75
440.715	80.75
440.936	86.75
441.158	71.75
441.379	75.75
441.6	85.75
441.822	98.75
442.043	74.75
442.264	82.75
442.486	84.75
442.707	82.75
442.928	92.75
443.149	97.75
443.371	94.75
443.592	98.75
443.813	89.75
444.034	75.75
444.255	85.75
444.476	85.75
444.698	74.75
444.919	79.75
445.14	168.75
445.361	133.75
445.582	112.75
445.803	95.75
446.024	94.75
446.245	89.75
446.466	80.75
446.687	85.75
446.908	81.75
447.129	97.75
447.35	79.75
447.571	87.75
447.792	76.75
448.013	82.75
448.234	81.75
448.455	88.75
448.675	57.75
448.896	88.75
449.117	83.75
449.338	76.75
449.559	85.75
449.779	85.75
450	78.75
450.221	82.75
450.442	62.75
450.662	79.75
450.883	73.75
451.104	81.75
451.324	79.75
451.545	70.75
451.766	85.75
451.986	73.75
452.207	81.75
452.428	81.75
452.648	73.75
452.869	85.75
453.089	75.75
453.31	97.75
453.53	92.75
453.751	82.75
453.971	84.75
454.192	79.75
454.412	86.75
454.633	69.75
454.853	66.75
455.073	85.75
455.294	63.75
455.514	88.75
455.734	89.75
455.955	74.75
456.175	81.75
456.395	80.75
456.616	79.75
456.836	89.75
457.056	68.75
457.276	81.75
457.497	83.75
457.717	78.75
457.937	73.75
458.157	85.75
458.377	83.75
458.598	59.75
458.818	64.75
459.038	83.75
459.258	83.75
459.478	70.75
459.698	83.75
459.918	85.75
460.138	83.75
460.358	85.75
460.578	80.75
460.798	78.75
461.018	88.75
461.238	87.75
461.458	90.75
461.678	77.75
461.898	86.75
462.118	75.75
462.338	81.75
462.558	80.75
462.777	81.75
462.997	80.75
463.217	85.75
463.437	76.75
463.657	85.75
463.876	77.75
464.096	84.75
464.316	81.75
464.536	68.75
464.755	87.75
464.975	77.75
465.195	79.75
465.414	88.75
465.634	81.75
465.854	79.75
466.073	74.75
466.293	73.75
466.512	79.75
466.732	75.75
466.951	83.75
467.171	84.75
467.391	79.75
467.61	74.75
467.829	74.75
468.049	79.75
468.268	79.75
468.488	71.75
468.707	76.75
468.927	71.75
469.146	83.75
469.365	80.75
469.585	70.75
469.804	87.75
470.023	90.75
470.243	70.75
470.462	87.75
470.681	73.75
470.901	76.75
471.12	73.75
471.339	74.75
471.558	73.75
471.777	69.75
471.997	83.75
472.216	83.75
472.435	70.75
472.654	84.75
472.873	74.75
473.092	78.75
473.311	93.75
473.53	87.75
473.749	86.75
473.968	91.75
474.187	76.75
474.406	75.75
474.625	72.75
474.844	91.75
475.063	71.75
475.282	80.75
475.501	75.75
475.72	73.75
475.939	67.75
476.158	74.75
476.377	74.75
476.596	81.75
476.814	73.75
477.033	83.75
477.252	93.75
477.471	63.75
477.69	77.75
477.908	75.75
478.127	95.75
478.346	85.75
478.564	81.75
478.783	67.75
479.002	72.75
479.22	86.75
479.439	81.75
479.658	77.75
479.876	82.75
480.095	73.75
480.313	76.75
480.532	64.75
480.751	73.75
480.969	82.75
481.188	73.75
481.406	74.75
481.624	85.75
481.843	85.75
482.061	74.75
482.28	89.75
482.498	81.75
482.717	73.75
482.935	69.75
483.153	71.75
483.372	73.75
483.59	84.75
483.808	75.75
484.027	67.75
484.245	86.75
484.463	83.75
484.681	87.75
484.9	101.75
485.118	68.75
485.336	76.75
485.554	71.75
485.772	88.75
485.99	72.75
486.209	81.75
486.427	79.75
486.645	69.75
486.863	76.75
487.081	82.75
487.299	83.75
487.517	75.75
487.735	81.75
487.953	82.75
488.171	87.75
488.389	75.75
488.607	90.75
488.825	75.75
489.043	94.75
489.261	84.75
489.479	89.75
489.696	82.75
489.914	71.75
490.132	89.75
490.35	84.75
490.568	70.75
490.786	85.75
491.003	83.75
491.221	66.75
491.439	76.75
491.657	81.75
491.874	69.75
492.092	85.75
492.31	89.75
492.527	80.75
492.745	82.75
492.963	89.75
493.18	85.75
493.398	76.75
493.615	73.75
493.833	86.75
494.05	85.75
494.268	92.75
494.485	63.75
494.703	74.75
494.92	72.75
495.138	70.75
495.355	79.75
495.573	88.75
495.79	87.75
496.008	96.75
496.225	69.75
496.442	68.75
496.66	85.75
496.877	65.75
497.094	95.75
497.312	88.75
497.529	82.75
497.746	81.75
497.963	74.75
498.181	71.75
498.398	74.75
498.615	75.75
498.832	78.75
499.049	79.75
499.267	88.75
499.484	89.75
499.701	93.75
499.918	90.75
500.135	76.75
500.352	77.75
500.569	84.75
500.786	68.75
501.003	61.75
501.22	79.75
501.437	80.75
501.654	71.75
501.871	80.75
502.088	87.75
502.305	92.75
502.522	81.75
502.739	66.75
502.956	83.75
503.172	103.75
503.389	76.75
503.606	89.75
503.823	90.75
504.04	95.75
504.256	93.75
504.473	91.75
504.69	81.75
504.907	82.75
505.123	73.75
505.34	79.75
505.557	73.75
505.773	89.75
505.99	103.75
506.207	77.75
506.423	69.75
506.64	75.75
506.856	83.75
507.073	94.75
507.289	86.75
507.506	81.75
507.722	76.75
507.939	76.75
508.155	84.75
508.372	83.75
508.588	92.75
508.805	76.75
509.021	81.75
509.238	86.75
509.454	75.75
509.67	69.75
509.887	76.75
510.103	85.75
510.319	81.75
510.536	87.75
510.752	74.75
510.968	83.75
511.184	88.75
511.401	80.75
511.617	80.75
511.833	68.75
512.049	77.75
512.265	85.75
512.481	62.75
512.698	72.75
512.914	78.75
513.13	81.75
513.346	78.75
513.562	89.75
513.778	89.75
513.994	86.75
514.21	80.75
514.426	88.75
514.642	70.75
514.858	93.75
515.074	97.75
515.29	71.75
515.506	90.75
515.721	72.75
515.937	74.75
516.153	79.75
516.369	83.75
516.585	70.75
516.801	82.75
517.016	84.75
517.232	78.75
517.448	89.75
517.664	74.75
517.879	94.75
518.095	65.75
518.311	94.75
518.527	86.75
518.742	93.75
518.958	94.75
519.173	87.75
519.389	75.75
519.605	79.75
519.82	88.75
520.036	81.75
