Data from HP_3_HRD10591_00016.txt Node
Date: Mon Jan 19 14:17:08 EST 2026
User: Yrep
Spectrometer: HR+D1059
Trigger mode: 1
Integration Time (sec): 1.000000E-1
Scans to average: 1
Electric dark correction enabled: true
Nonlinearity correction enabled: false
Boxcar width: 0
XAxis mode: Wavelengths
Number of Pixels in Spectrum: 2048
>>>>>Begin Spectral Data<<<<<
223.165	-13
223.4	-13
223.635	-13
223.869	-13
224.104	-17
224.338	-13
224.573	-16
224.808	-20
225.042	-10
225.277	-7
225.511	-15
225.746	13
225.98	11
226.215	17
226.449	10
226.683	15
226.918	26
227.152	32
227.387	33
227.621	40
227.856	48
228.09	58
228.324	56
228.559	64
228.793	46
229.027	67
229.262	75
229.496	76
229.73	79
229.964	74
230.199	65
230.433	73
230.667	74
230.901	88
231.136	83
231.37	83
231.604	64
231.838	87
232.072	79
232.306	83
232.541	76
232.775	81
233.009	93
233.243	85
233.477	81
233.711	79
233.945	83
234.179	81
234.413	88
234.647	89
234.881	81
235.115	88
235.349	76
235.583	80
235.817	76
236.051	91
236.285	75
236.519	80
236.753	75
236.987	61
237.221	83
237.455	78
237.689	67
237.922	75
238.156	83
238.39	91
238.624	89
238.858	77
239.091	73
239.325	79
239.559	77
239.793	96
240.027	84
240.26	75
240.494	86
240.728	71
240.961	76
241.195	77
241.429	60
241.662	83
241.896	75
242.13	77
242.363	69
242.597	89
242.83	80
243.064	68
243.298	77
243.531	74
243.765	83
243.998	75
244.232	87
244.465	81
244.699	67
244.932	83
245.166	71
245.399	67
245.633	76
245.866	79
246.099	80
246.333	83
246.566	84
246.8	75
247.033	67
247.266	82
247.5	78
247.733	76
247.966	71
248.2	84
248.433	80
248.666	77
248.899	77
249.133	86
249.366	86
249.599	69
249.832	80
250.066	88
250.299	80
250.532	69
250.765	87
250.998	77
251.231	87
251.465	73
251.698	88
251.931	77
252.164	81
252.397	85
252.63	71
252.863	76
253.096	81
253.329	96
253.562	87
253.795	91
254.028	90
254.261	77
254.494	72
254.727	95
254.96	90
255.193	87
255.426	78
255.659	75
255.892	71
256.124	75
256.357	74
256.59	75
256.823	79
257.056	85
257.289	85
257.521	73
257.754	79
257.987	87
258.22	73
258.452	73
258.685	88
258.918	77
259.151	80
259.383	78
259.616	73
259.849	90
260.081	80
260.314	77
260.547	71
260.779	91
261.012	65
261.244	91
261.477	101
261.71	85
261.942	80
262.175	76
262.407	85
262.64	83
262.872	78
263.105	75
263.337	80
263.57	79
263.802	82
264.035	92
264.267	73
264.499	77
264.732	95
264.964	81
265.197	75
265.429	77
265.661	77
265.894	85
266.126	65
266.358	94
266.591	79
266.823	88
267.055	75
267.287	70
267.52	67
267.752	88
267.984	90
268.216	92
268.448	96
268.681	86
268.913	89
269.145	72
269.377	76
269.609	83
269.841	84
270.073	104
270.306	86
270.538	95
270.77	68
271.002	93
271.234	81
271.466	69
271.698	90
271.93	60
272.162	83
272.394	87
272.626	80
272.858	76
273.09	77
273.322	82
273.553	69
273.785	70
274.017	81
274.249	78
274.481	99
274.713	89
274.945	82
275.176	67
275.408	81
275.64	82
275.872	87
276.104	85
276.335	78
276.567	79
276.799	82
277.031	85
277.262	100
277.494	95
277.726	93
277.957	97
278.189	79
278.421	90
278.652	85
278.884	83
279.115	87
279.347	91
279.579	87
279.81	86
280.042	86
280.273	97
280.505	79
280.736	81
280.968	77
281.199	76
281.431	97
281.662	90
281.894	83
282.125	91
282.356	99
282.588	99
282.819	65
283.051	75
283.282	101
283.513	84
283.745	88
283.976	87
284.207	92
284.439	86
284.67	87
284.901	70
285.132	86
285.364	76
285.595	83
285.826	98
286.057	77
286.288	81
286.52	91
286.751	92
286.982	86
287.213	83
287.444	92
287.675	91
287.906	92
288.138	101
288.369	83
288.6	75
288.831	81
289.062	91
289.293	81
289.524	85
289.755	67
289.986	83
290.217	80
290.448	82
290.679	84
290.91	93
291.141	100
291.371	93
291.602	74
291.833	80
292.064	84
292.295	86
292.526	85
292.757	80
292.987	89
293.218	90
293.449	99
293.68	88
293.91	87
294.141	84
294.372	85
294.603	88
294.833	72
295.064	77
295.295	76
295.525	89
295.756	94
295.987	84
296.217	78
296.448	91
296.679	89
296.909	89
297.14	87
297.37	86
297.601	81
297.831	75
298.062	77
298.292	83
298.523	91
298.753	84
298.984	56
299.214	90
299.445	76
299.675	65
299.905	85
300.136	89
300.366	91
300.597	91
300.827	88
301.057	82
301.288	90
301.518	90
301.748	97
301.979	102
302.209	88
302.439	87
302.669	87
302.9	92
303.13	72
303.36	83
303.59	80
303.82	98
304.051	80
304.281	95
304.511	95
304.741	88
304.971	87
305.201	77
305.431	96
305.661	101
305.891	92
306.121	102
306.352	83
306.582	76
306.812	89
307.042	88
307.272	76
307.502	73
307.731	73
307.961	88
308.191	85
308.421	106
308.651	105
308.881	83
309.111	89
309.341	106
309.571	77
309.8	74
310.03	87
310.26	85
310.49	87
310.72	89
310.949	84
311.179	83
311.409	74
311.639	75
311.868	95
312.098	85
312.328	94
312.557	83
312.787	91
313.017	90
313.246	68
313.476	78
313.706	86
313.935	93
314.165	92
314.394	82
314.624	97
314.853	81
315.083	93
315.312	90
315.542	74
315.771	79
316.001	90
316.23	92
316.46	81
316.689	91
316.919	71
317.148	80
317.377	89
317.607	83
317.836	87
318.065	88
318.295	69
318.524	75
318.753	82
318.983	77
319.212	82
319.441	91
319.67	90
319.9	71
320.129	94
320.358	81
320.587	77
320.816	84
321.046	92
321.275	95
321.504	77
321.733	88
321.962	91
322.191	75
322.42	87
322.649	81
322.878	88
323.108	91
323.337	87
323.566	89
323.795	78
324.024	93
324.253	65
324.482	79
324.71	102
324.939	91
325.168	82
325.397	77
325.626	77
325.855	85
326.084	99
326.313	69
326.542	89
326.77	77
326.999	77
327.228	87
327.457	76
327.686	95
327.914	85
328.143	82
328.372	77
328.6	83
328.829	85
329.058	89
329.287	78
329.515	85
329.744	91
329.972	93
330.201	100
330.43	99
330.658	91
330.887	71
331.115	71
331.344	90
331.572	85
331.801	89
332.03	97
332.258	69
332.486	80
332.715	95
332.943	77
333.172	84
333.4	92
333.629	83
333.857	76
334.085	91
334.314	97
334.542	84
334.771	86
334.999	98
335.227	98
335.455	73
335.684	87
335.912	83
336.14	86
336.369	88
336.597	91
336.825	84
337.053	89
337.281	84
337.51	83
337.738	85
337.966	86
338.194	83
338.422	92
338.65	88
338.878	81
339.106	80
339.334	71
339.562	77
339.79	91
340.018	86
340.246	89
340.474	99
340.702	75
340.93	82
341.158	104
341.386	76
341.614	73
341.842	88
342.07	76
342.298	95
342.526	94
342.754	88
342.981	91
343.209	83
343.437	97
343.665	99
343.893	84
344.12	77
344.348	93
344.576	81
344.804	92
345.031	83
345.259	83
345.487	85
345.714	97
345.942	87
346.17	84
346.397	80
346.625	86
346.853	95
347.08	98
347.308	86
347.535	90
347.763	86
347.99	89
348.218	87
348.445	80
348.673	91
348.9	89
349.128	87
349.355	103
349.583	75
349.81	93
350.037	76
350.265	83
350.492	85
350.72	88
350.947	83
351.174	88
351.402	93
351.629	83
351.856	77
352.083	88
352.311	78
352.538	90
352.765	78
352.992	83
353.22	88
353.447	92
353.674	95
353.901	70
354.128	86
354.355	84
354.583	77
354.81	83
355.037	71
355.264	82
355.491	81
355.718	86
355.945	94
356.172	83
356.399	80
356.626	91
356.853	91
357.08	84
357.307	89
357.534	73
357.761	86
357.988	93
358.215	96
358.441	96
358.668	77
358.895	87
359.122	99
359.349	93
359.576	88
359.802	72
360.029	76
360.256	81
360.483	91
360.709	78
360.936	89
361.163	89
361.39	88
361.616	85
361.843	67
362.07	76
362.296	107
362.523	88
362.749	98
362.976	112
363.203	115
363.429	89
363.656	95
363.882	95
364.109	104
364.335	99
364.562	103
364.788	104
365.015	92
365.241	84
365.468	88
365.694	86
365.92	80
366.147	85
366.373	74
366.599	79
366.826	87
367.052	77
367.278	79
367.505	79
367.731	81
367.957	85
368.184	85
368.41	84
368.636	78
368.862	69
369.089	77
369.315	96
369.541	79
369.767	69
369.993	71
370.219	89
370.445	83
370.672	91
370.898	85
371.124	82
371.35	67
371.576	92
371.802	70
372.028	88
372.254	80
372.48	91
372.706	80
372.932	85
373.158	103
373.384	97
373.61	106
373.835	96
374.061	89
374.287	87
374.513	101
374.739	95
374.965	98
375.191	84
375.416	72
375.642	99
375.868	89
376.094	103
376.319	80
376.545	83
376.771	81
376.997	93
377.222	92
377.448	82
377.674	90
377.899	79
378.125	89
378.35	87
378.576	83
378.802	69
379.027	75
379.253	86
379.478	82
379.704	82
379.929	99
380.155	83
380.38	81
380.606	90
380.831	87
381.057	85
381.282	81
381.507	91
381.733	90
381.958	103
382.184	76
382.409	85
382.634	98
382.86	91
383.085	89
383.31	90
383.535	87
383.761	89
383.986	92
384.211	101
384.436	80
384.662	77
384.887	69
385.112	86
385.337	83
385.562	89
385.787	89
386.013	84
386.238	92
386.463	76
386.688	106
386.913	76
387.138	88
387.363	91
387.588	96
387.813	96
388.038	95
388.263	87
388.488	90
388.713	93
388.938	76
389.163	87
389.387	90
389.612	87
389.837	89
390.062	83
390.287	92
390.512	85
390.736	77
390.961	81
391.186	83
391.411	91
391.636	76
391.86	95
392.085	96
392.31	86
392.534	75
392.759	105
392.984	132
393.208	176
393.433	217
393.658	185
393.882	101
394.107	103
394.331	102
394.556	108
394.78	86
395.005	72
395.229	74
395.454	91
395.678	91
395.903	129
396.127	110
396.352	139
396.576	122
396.801	176
397.025	182
397.249	119
397.474	106
397.698	97
397.922	81
398.147	83
398.371	92
398.595	101
398.82	96
399.044	81
399.268	87
399.492	83
399.717	85
399.941	83
400.165	77
400.389	85
400.613	76
400.837	87
401.062	76
401.286	86
401.51	79
401.734	87
401.958	67
402.182	79
402.406	80
402.63	86
402.854	82
403.078	82
403.302	81
403.526	71
403.75	87
403.974	83
404.198	86
404.422	101
404.645	103
404.869	94
405.093	84
405.317	71
405.541	79
405.765	79
405.988	72
406.212	94
406.436	81
406.66	84
406.883	85
407.107	86
407.331	85
407.555	90
407.778	89
408.002	90
408.226	87
408.449	67
408.673	81
408.896	60
409.12	80
409.344	93
409.567	83
409.791	84
410.014	88
410.238	86
410.461	96
410.685	95
410.908	79
411.132	88
411.355	85
411.578	72
411.802	78
412.025	79
412.249	85
412.472	93
412.695	81
412.919	70
413.142	81
413.365	86
413.589	81
413.812	86
414.035	90
414.258	99
414.482	89
414.705	81
414.928	90
415.151	91
415.374	89
415.597	68
415.821	81
416.044	92
416.267	72
416.49	91
416.713	75
416.936	72
417.159	82
417.382	79
417.605	90
417.828	90
418.051	76
418.274	85
418.497	88
418.72	83
418.943	89
419.166	64
419.389	104
419.611	80
419.834	88
420.057	81
420.28	86
420.503	99
420.726	81
420.948	88
421.171	81
421.394	93
421.617	98
421.839	107
422.062	108
422.285	131
422.507	238
422.73	312
422.953	289
423.175	153
423.398	115
423.621	90
423.843	104
424.066	96
424.288	84
424.511	73
424.733	97
424.956	76
425.178	71
425.401	95
425.623	71
425.846	93
426.068	87
426.291	79
426.513	89
426.735	87
426.958	96
427.18	85
427.402	81
427.625	92
427.847	97
428.069	105
428.292	92
428.514	117
428.736	101
428.958	115
429.181	119
429.403	93
429.625	87
429.847	115
430.069	130
430.292	151
430.514	130
430.736	119
430.958	136
431.18	109
431.402	93
431.624	82
431.846	101
432.068	129
432.29	74
432.512	85
432.734	91
432.956	89
433.178	94
433.4	91
433.622	86
433.844	84
434.066	89
434.287	89
434.509	73
434.731	81
434.953	81
435.175	86
435.397	85
435.618	77
435.84	88
436.062	81
436.284	100
436.505	85
436.727	92
436.949	87
437.17	77
437.392	95
437.614	78
437.835	76
438.057	82
438.278	97
438.5	88
438.721	84
438.943	91
439.165	89
439.386	96
439.608	83
439.829	95
440.05	100
440.272	75
440.493	80
440.715	87
440.936	85
441.158	80
441.379	77
441.6	79
441.822	91
442.043	82
442.264	101
442.486	113
442.707	146
442.928	112
443.149	94
443.371	121
443.592	195
443.813	170
444.034	104
444.255	83
444.476	81
444.698	89
444.919	90
445.14	205
445.361	189
445.582	216
445.803	184
446.024	112
446.245	87
446.466	90
446.687	89
446.908	83
447.129	95
447.35	92
447.571	99
447.792	84
448.013	79
448.234	92
448.455	82
448.675	80
448.896	91
449.117	88
449.338	83
449.559	83
449.779	72
450	85
450.221	83
450.442	82
450.662	97
450.883	85
451.104	83
451.324	73
451.545	91
451.766	87
451.986	94
452.207	82
452.428	92
452.648	100
452.869	83
453.089	88
453.31	93
453.53	86
453.751	93
453.971	72
454.192	93
454.412	88
454.633	92
454.853	91
455.073	98
455.294	90
455.514	98
455.734	78
455.955	67
456.175	89
456.395	74
456.616	90
456.836	98
457.056	85
457.276	85
457.497	89
457.717	90
457.937	97
458.157	105
458.377	121
458.598	96
458.818	110
459.038	85
459.258	73
459.478	83
459.698	83
459.918	77
460.138	75
460.358	87
460.578	102
460.798	110
461.018	103
461.238	97
461.458	91
461.678	87
461.898	89
462.118	89
462.338	91
462.558	75
462.777	86
462.997	81
463.217	83
463.437	85
463.657	93
463.876	70
464.096	75
464.316	88
464.536	85
464.755	77
464.975	82
465.195	90
465.414	81
465.634	80
465.854	87
466.073	75
466.293	84
466.512	91
466.732	71
466.951	95
467.171	89
467.391	80
467.61	87
467.829	81
468.049	85
468.268	86
468.488	77
468.707	96
468.927	80
469.146	82
469.365	73
469.585	79
469.804	80
470.023	68
470.243	83
470.462	79
470.681	76
470.901	85
471.12	85
471.339	87
471.558	85
471.777	83
471.997	99
472.216	101
472.435	87
472.654	92
472.873	84
473.092	83
473.311	90
473.53	97
473.749	88
473.968	88
474.187	87
474.406	73
474.625	79
474.844	99
475.063	83
475.282	85
475.501	91
475.72	67
475.939	79
476.158	85
476.377	94
476.596	85
476.814	77
477.033	84
477.252	71
477.471	86
477.69	75
477.908	77
478.127	91
478.346	95
478.564	93
478.783	94
479.002	82
479.22	80
479.439	67
479.658	81
479.876	90
480.095	72
480.313	91
480.532	89
480.751	84
480.969	75
481.188	93
481.406	86
481.624	90
481.843	84
482.061	76
482.28	87
482.498	98
482.717	87
482.935	92
483.153	83
483.372	68
483.59	89
483.808	94
484.027	87
484.245	92
484.463	81
484.681	101
484.9	96
485.118	99
485.336	88
485.554	90
485.772	83
485.99	85
486.209	92
486.427	92
486.645	84
486.863	85
487.081	98
487.299	81
487.517	91
487.735	107
487.953	129
488.171	125
488.389	114
488.607	65
488.825	85
489.043	83
489.261	90
489.479	95
489.696	92
489.914	94
490.132	82
490.35	92
490.568	92
490.786	97
491.003	73
491.221	74
491.439	88
491.657	79
491.874	92
492.092	93
492.31	92
492.527	86
492.745	80
492.963	75
493.18	79
493.398	68
493.615	102
493.833	82
494.05	87
494.268	87
494.485	100
494.703	77
494.92	96
495.138	82
495.355	88
495.573	91
495.79	85
496.008	94
496.225	81
496.442	90
496.66	92
496.877	91
497.094	92
497.312	74
497.529	81
497.746	94
497.963	80
498.181	89
498.398	89
498.615	93
498.832	105
499.049	86
499.267	89
499.484	90
499.701	88
499.918	97
500.135	83
500.352	97
500.569	79
500.786	90
501.003	97
501.22	76
501.437	87
501.654	93
501.871	103
502.088	91
502.305	71
502.522	90
502.739	96
502.956	76
503.172	81
503.389	85
503.606	91
503.823	103
504.04	89
504.256	105
504.473	114
504.69	105
504.907	95
505.123	89
505.34	93
505.557	77
505.773	96
505.99	95
506.207	90
506.423	86
506.64	98
506.856	91
507.073	84
507.289	95
507.506	89
507.722	79
507.939	78
508.155	83
508.372	83
508.588	95
508.805	79
509.021	96
509.238	94
509.454	82
509.67	92
509.887	90
510.103	77
510.319	101
510.536	91
510.752	81
510.968	80
511.184	84
511.401	90
511.617	89
511.833	77
512.049	76
512.265	91
512.481	89
512.698	88
512.914	85
513.13	78
513.346	89
513.562	83
513.778	93
513.994	86
514.21	96
514.426	77
514.642	80
514.858	92
515.074	80
515.29	84
515.506	88
515.721	99
515.937	91
516.153	85
516.369	84
516.585	90
516.801	114
517.016	87
517.232	106
517.448	116
517.664	87
517.879	89
518.095	91
518.311	106
518.527	93
518.742	96
518.958	126
519.173	133
519.389	108
519.605	86
519.82	82
520.036	81
520.251	107
520.467	97
520.682	96
520.898	92
521.113	96
521.329	99
521.544	89
521.76	91
521.975	86
522.19	91
522.406	87
522.621	78
522.836	92
523.052	90
523.267	89
523.482	94
523.698	86
523.913	97
524.128	90
524.343	107
524.559	94
524.774	79
524.989	97
525.204	91
525.419	103
525.634	106
525.849	95
526.064	100
526.28	163
526.495	212
526.71	239
526.925	175
527.14	225
527.355	189
527.57	106
527.785	85
527.999	81
528.214	83
528.429	92
528.644	85
528.859	91
529.074	89
529.289	83
529.503	75
529.718	84
529.933	71
530.148	87
530.363	80
530.577	97
530.792	93
531.007	88
531.221	95
531.436	89
531.651	94
531.865	97
532.08	106
532.295	95
532.509	98
532.724	96
532.938	102
533.153	85
533.367	106
533.582	100
533.796	105
534.011	100
534.225	108
534.44	92
534.654	100
534.868	102
535.083	125
535.297	125
535.511	96
535.726	85
535.94	83
536.154	96
536.369	90
536.583	86
536.797	103
537.011	93
537.225	106
537.44	99
537.654	105
537.868	105
538.082	86
538.296	93
538.51	98
538.724	91
538.938	93
539.153	83
539.367	83
539.581	93
539.795	99
540.009	108
540.222	101
540.436	92
540.65	87
540.864	76
541.078	93
541.292	112
541.506	94
541.72	102
541.934	105
542.147	81
542.361	101
542.575	107
542.789	100
543.002	105
543.216	84
543.43	88
543.644	107
543.857	82
544.071	92
544.285	105
544.498	98
544.712	96
544.925	101
545.139	102
545.352	91
545.566	101
545.779	99
545.993	108
546.206	82
546.42	92
546.633	93
546.847	107
547.06	113
547.274	127
547.487	134
547.7	139
547.914	139
548.127	143
548.34	140
548.554	145
548.767	146
548.98	145
549.193	154
549.407	147
549.62	154
549.833	157
550.046	163
550.259	169
550.473	163
550.686	182
550.899	185
551.112	207
551.325	236
551.538	223
551.751	229
551.964	206
552.177	196
552.39	197
552.603	211
552.816	199
553.029	196
553.242	180
553.455	198
553.667	212
553.88	217
554.093	217
554.306	216
554.519	215
554.732	223
554.944	193
555.157	211
555.37	213
555.583	199
555.795	205
556.008	173
556.221	158
556.433	176
556.646	161
556.859	156
557.071	155
557.284	152
557.496	136
557.709	145
557.921	129
558.134	124
558.346	155
558.559	145
558.771	148
558.984	230
559.196	292
559.409	171
559.621	228
559.833	181
560.046	196
560.258	183
560.47	177
560.683	106
560.895	100
561.107	107
561.32	92
561.532	93
561.744	104
561.956	107
562.168	102
562.381	104
562.593	103
562.805	99
563.017	98
563.229	95
563.441	94
563.653	99
563.865	107
564.077	96
564.289	95
564.501	92
564.713	99
564.925	92
565.137	111
565.349	108
565.561	89
565.773	103
565.985	92
566.197	105
566.408	108
566.62	93
566.832	91
567.044	93
567.255	98
567.467	111
567.679	101
567.891	95
568.102	88
568.314	108
568.526	85
568.737	87
568.949	106
569.161	104
569.372	90
569.584	88
569.795	95
570.007	91
570.218	101
570.43	100
570.641	105
570.853	89
571.064	92
571.276	109
571.487	91
571.698	103
571.91	71
572.121	92
572.333	96
572.544	81
572.755	80
572.966	88
573.178	93
573.389	82
573.6	88
573.811	100
574.023	92
574.234	99
574.445	95
574.656	97
574.867	90
575.078	99
575.289	84
575.501	80
575.712	92
575.923	87
576.134	90
576.345	96
576.556	89
576.767	100
576.978	83
577.188	97
577.399	116
577.61	93
577.821	106
578.032	92
578.243	101
578.454	97
578.665	87
578.875	95
579.086	92
579.297	106
579.508	88
579.718	83
579.929	104
580.14	84
580.35	99
580.561	100
580.772	95
580.982	115
581.193	100
581.403	96
581.614	82
581.825	85
582.035	100
582.246	92
582.456	84
582.667	98
582.877	106
583.087	111
583.298	105
583.508	86
583.719	96
583.929	95
584.139	83
584.35	82
584.56	107
584.77	92
584.981	90
585.191	91
585.401	84
585.611	76
585.821	134
586.032	188
586.242	111
586.452	106
