Data from HP_3_HRD10591_00025.txt Node
Date: Mon Jan 19 14:17:13 EST 2026
User: Yrep
Spectrometer: HR+D1059
Trigger mode: 1
Integration Time (sec): 1.000000E-1
Scans to average: 1
Electric dark correction enabled: true
Nonlinearity correction enabled: false
Boxcar width: 0
XAxis mode: Wavelengths
Number of Pixels in Spectrum: 2048
>>>>>Begin Spectral Data<<<<<
223.165	-22.31
223.4	-22.31
223.635	-22.31
223.869	-18.31
224.104	-16.31
224.338	-1.31
224.573	-25.31
224.808	-8.31
225.042	-4.31
225.277	-4.31
225.511	-1.31
225.746	0.69
225.98	1.69
226.215	17.69
226.449	9.69
226.683	18.69
226.918	27.69
227.152	25.69
227.387	45.69
227.621	40.69
227.856	42.69
228.09	57.69
228.324	56.69
228.559	67.69
228.793	59.69
229.027	71.69
229.262	63.69
229.496	58.69
229.73	67.69
229.964	70.69
230.199	71.69
230.433	68.69
230.667	85.69
230.901	77.69
231.136	87.69
231.37	81.69
231.604	75.69
231.838	87.69
232.072	64.69
232.306	93.69
232.541	77.69
232.775	82.69
233.009	83.69
233.243	75.69
233.477	90.69
233.711	75.69
233.945	86.69
234.179	89.69
234.413	89.69
234.647	82.69
234.881	77.69
235.115	81.69
235.349	80.69
235.583	80.69
235.817	81.69
236.051	81.69
236.285	74.69
236.519	80.69
236.753	70.69
236.987	85.69
237.221	85.69
237.455	67.69
237.689	69.69
237.922	81.69
238.156	73.69
238.39	61.69
238.624	74.69
238.858	70.69
239.091	70.69
239.325	78.69
239.559	70.69
239.793	73.69
240.027	79.69
240.26	76.69
240.494	75.69
240.728	76.69
240.961	72.69
241.195	65.69
241.429	64.69
241.662	71.69
241.896	79.69
242.13	78.69
242.363	75.69
242.597	81.69
242.83	79.69
243.064	71.69
243.298	81.69
243.531	72.69
243.765	70.69
243.998	66.69
244.232	93.69
244.465	80.69
244.699	83.69
244.932	86.69
245.166	80.69
245.399	77.69
245.633	79.69
245.866	71.69
246.099	77.69
246.333	79.69
246.566	75.69
246.8	65.69
247.033	86.69
247.266	58.69
247.5	69.69
247.733	89.69
247.966	66.69
248.2	85.69
248.433	89.69
248.666	99.69
248.899	77.69
249.133	69.69
249.366	91.69
249.599	77.69
249.832	67.69
250.066	81.69
250.299	81.69
250.532	76.69
250.765	76.69
250.998	75.69
251.231	73.69
251.465	82.69
251.698	80.69
251.931	73.69
252.164	72.69
252.397	81.69
252.63	92.69
252.863	85.69
253.096	72.69
253.329	81.69
253.562	85.69
253.795	82.69
254.028	87.69
254.261	92.69
254.494	78.69
254.727	92.69
254.96	70.69
255.193	82.69
255.426	93.69
255.659	81.69
255.892	84.69
256.124	89.69
256.357	74.69
256.59	80.69
256.823	63.69
257.056	71.69
257.289	80.69
257.521	75.69
257.754	80.69
257.987	80.69
258.22	85.69
258.452	62.69
258.685	81.69
258.918	87.69
259.151	71.69
259.383	81.69
259.616	65.69
259.849	83.69
260.081	85.69
260.314	71.69
260.547	85.69
260.779	73.69
261.012	77.69
261.244	85.69
261.477	90.69
261.71	83.69
261.942	89.69
262.175	74.69
262.407	73.69
262.64	79.69
262.872	81.69
263.105	82.69
263.337	83.69
263.57	82.69
263.802	82.69
264.035	78.69
264.267	93.69
264.499	90.69
264.732	81.69
264.964	84.69
265.197	71.69
265.429	76.69
265.661	95.69
265.894	71.69
266.126	89.69
266.358	86.69
266.591	83.69
266.823	83.69
267.055	82.69
267.287	88.69
267.52	81.69
267.752	81.69
267.984	71.69
268.216	79.69
268.448	98.69
268.681	94.69
268.913	80.69
269.145	77.69
269.377	81.69
269.609	74.69
269.841	79.69
270.073	93.69
270.306	81.69
270.538	73.69
270.77	79.69
271.002	81.69
271.234	72.69
271.466	83.69
271.698	75.69
271.93	75.69
272.162	88.69
272.394	80.69
272.626	72.69
272.858	85.69
273.09	87.69
273.322	87.69
273.553	80.69
273.785	87.69
274.017	85.69
274.249	81.69
274.481	71.69
274.713	78.69
274.945	87.69
275.176	91.69
275.408	86.69
275.64	74.69
275.872	82.69
276.104	81.69
276.335	83.69
276.567	74.69
276.799	86.69
277.031	72.69
277.262	83.69
277.494	81.69
277.726	90.69
277.957	85.69
278.189	83.69
278.421	75.69
278.652	84.69
278.884	93.69
279.115	95.69
279.347	66.69
279.579	90.69
279.81	86.69
280.042	80.69
280.273	91.69
280.505	79.69
280.736	76.69
280.968	69.69
281.199	75.69
281.431	83.69
281.662	85.69
281.894	83.69
282.125	77.69
282.356	80.69
282.588	69.69
282.819	90.69
283.051	83.69
283.282	88.69
283.513	83.69
283.745	81.69
283.976	85.69
284.207	87.69
284.439	86.69
284.67	67.69
284.901	75.69
285.132	87.69
285.364	93.69
285.595	87.69
285.826	91.69
286.057	75.69
286.288	79.69
286.52	85.69
286.751	81.69
286.982	85.69
287.213	84.69
287.444	93.69
287.675	90.69
287.906	83.69
288.138	78.69
288.369	88.69
288.6	72.69
288.831	88.69
289.062	89.69
289.293	83.69
289.524	85.69
289.755	95.69
289.986	92.69
290.217	90.69
290.448	77.69
290.679	86.69
290.91	88.69
291.141	75.69
291.371	68.69
291.602	69.69
291.833	89.69
292.064	80.69
292.295	72.69
292.526	73.69
292.757	81.69
292.987	85.69
293.218	76.69
293.449	94.69
293.68	80.69
293.91	88.69
294.141	72.69
294.372	83.69
294.603	85.69
294.833	82.69
295.064	71.69
295.295	77.69
295.525	85.69
295.756	91.69
295.987	92.69
296.217	89.69
296.448	87.69
296.679	83.69
296.909	99.69
297.14	77.69
297.37	81.69
297.601	82.69
297.831	69.69
298.062	88.69
298.292	89.69
298.523	81.69
298.753	90.69
298.984	93.69
299.214	90.69
299.445	81.69
299.675	97.69
299.905	85.69
300.136	85.69
300.366	75.69
300.597	89.69
300.827	90.69
301.057	85.69
301.288	68.69
301.518	82.69
301.748	71.69
301.979	92.69
302.209	77.69
302.439	82.69
302.669	78.69
302.9	86.69
303.13	90.69
303.36	89.69
303.59	98.69
303.82	93.69
304.051	81.69
304.281	96.69
304.511	88.69
304.741	79.69
304.971	84.69
305.201	92.69
305.431	82.69
305.661	81.69
305.891	87.69
306.121	83.69
306.352	74.69
306.582	85.69
306.812	83.69
307.042	85.69
307.272	69.69
307.502	81.69
307.731	91.69
307.961	91.69
308.191	86.69
308.421	89.69
308.651	83.69
308.881	74.69
309.111	98.69
309.341	80.69
309.571	96.69
309.8	85.69
310.03	91.69
310.26	88.69
310.49	85.69
310.72	69.69
310.949	95.69
311.179	73.69
311.409	68.69
311.639	89.69
311.868	73.69
312.098	82.69
312.328	82.69
312.557	87.69
312.787	89.69
313.017	95.69
313.246	84.69
313.476	78.69
313.706	81.69
313.935	86.69
314.165	85.69
314.394	82.69
314.624	92.69
314.853	84.69
315.083	80.69
315.312	87.69
315.542	72.69
315.771	73.69
316.001	71.69
316.23	91.69
316.46	97.69
316.689	99.69
316.919	78.69
317.148	93.69
317.377	84.69
317.607	96.69
317.836	99.69
318.065	109.69
318.295	89.69
318.524	92.69
318.753	94.69
318.983	88.69
319.212	91.69
319.441	87.69
319.67	90.69
319.9	85.69
320.129	73.69
320.358	86.69
320.587	81.69
320.816	102.69
321.046	81.69
321.275	87.69
321.504	88.69
321.733	83.69
321.962	95.69
322.191	82.69
322.42	83.69
322.649	87.69
322.878	84.69
323.108	74.69
323.337	90.69
323.566	87.69
323.795	81.69
324.024	90.69
324.253	79.69
324.482	79.69
324.71	89.69
324.939	85.69
325.168	87.69
325.397	92.69
325.626	81.69
325.855	80.69
326.084	81.69
326.313	79.69
326.542	97.69
326.77	91.69
326.999	90.69
327.228	85.69
327.457	83.69
327.686	75.69
327.914	75.69
328.143	91.69
328.372	84.69
328.6	81.69
328.829	91.69
329.058	91.69
329.287	69.69
329.515	89.69
329.744	90.69
329.972	86.69
330.201	78.69
330.43	76.69
330.658	81.69
330.887	81.69
331.115	86.69
331.344	86.69
331.572	79.69
331.801	81.69
332.03	85.69
332.258	73.69
332.486	73.69
332.715	83.69
332.943	89.69
333.172	85.69
333.4	70.69
333.629	80.69
333.857	83.69
334.085	80.69
334.314	92.69
334.542	70.69
334.771	76.69
334.999	86.69
335.227	80.69
335.455	77.69
335.684	90.69
335.912	83.69
336.14	80.69
336.369	83.69
336.597	81.69
336.825	81.69
337.053	103.69
337.281	85.69
337.51	74.69
337.738	83.69
337.966	90.69
338.194	85.69
338.422	86.69
338.65	93.69
338.878	85.69
339.106	87.69
339.334	94.69
339.562	82.69
339.79	96.69
340.018	92.69
340.246	66.69
340.474	66.69
340.702	83.69
340.93	91.69
341.158	92.69
341.386	83.69
341.614	88.69
341.842	90.69
342.07	85.69
342.298	85.69
342.526	86.69
342.754	76.69
342.981	87.69
343.209	72.69
343.437	91.69
343.665	79.69
343.893	89.69
344.12	89.69
344.348	82.69
344.576	93.69
344.804	84.69
345.031	76.69
345.259	76.69
345.487	79.69
345.714	82.69
345.942	82.69
346.17	84.69
346.397	79.69
346.625	96.69
346.853	80.69
347.08	81.69
347.308	84.69
347.535	85.69
347.763	90.69
347.99	94.69
348.218	89.69
348.445	84.69
348.673	83.69
348.9	103.69
349.128	83.69
349.355	87.69
349.583	77.69
349.81	79.69
350.037	98.69
350.265	85.69
350.492	77.69
350.72	79.69
350.947	82.69
351.174	71.69
351.402	95.69
351.629	91.69
351.856	87.69
352.083	79.69
352.311	86.69
352.538	79.69
352.765	92.69
352.992	86.69
353.22	79.69
353.447	84.69
353.674	75.69
353.901	83.69
354.128	94.69
354.355	69.69
354.583	79.69
354.81	78.69
355.037	86.69
355.264	86.69
355.491	92.69
355.718	75.69
355.945	88.69
356.172	85.69
356.399	73.69
356.626	80.69
356.853	84.69
357.08	97.69
357.307	76.69
357.534	71.69
357.761	81.69
357.988	91.69
358.215	99.69
358.441	91.69
358.668	80.69
358.895	90.69
359.122	88.69
359.349	80.69
359.576	89.69
359.802	80.69
360.029	75.69
360.256	73.69
360.483	82.69
360.709	83.69
360.936	95.69
361.163	94.69
361.39	92.69
361.616	85.69
361.843	95.69
362.07	79.69
362.296	90.69
362.523	98.69
362.749	79.69
362.976	82.69
363.203	93.69
363.429	85.69
363.656	83.69
363.882	85.69
364.109	77.69
364.335	102.69
364.562	97.69
364.788	83.69
365.015	65.69
365.241	83.69
365.468	83.69
365.694	74.69
365.92	83.69
366.147	69.69
366.373	71.69
366.599	85.69
366.826	92.69
367.052	73.69
367.278	85.69
367.505	77.69
367.731	98.69
367.957	99.69
368.184	83.69
368.41	80.69
368.636	88.69
368.862	82.69
369.089	84.69
369.315	86.69
369.541	78.69
369.767	75.69
369.993	81.69
370.219	75.69
370.445	88.69
370.672	89.69
370.898	78.69
371.124	79.69
371.35	73.69
371.576	85.69
371.802	78.69
372.028	84.69
372.254	83.69
372.48	74.69
372.706	75.69
372.932	93.69
373.158	90.69
373.384	100.69
373.61	89.69
373.835	90.69
374.061	96.69
374.287	98.69
374.513	85.69
374.739	87.69
374.965	92.69
375.191	83.69
375.416	83.69
375.642	81.69
375.868	82.69
376.094	83.69
376.319	76.69
376.545	74.69
376.771	89.69
376.997	93.69
377.222	89.69
377.448	97.69
377.674	82.69
377.899	79.69
378.125	85.69
378.35	93.69
378.576	78.69
378.802	84.69
379.027	88.69
379.253	86.69
379.478	95.69
379.704	89.69
379.929	86.69
380.155	72.69
380.38	82.69
380.606	81.69
380.831	86.69
381.057	74.69
381.282	87.69
381.507	85.69
381.733	73.69
381.958	94.69
382.184	82.69
382.409	67.69
382.634	94.69
382.86	81.69
383.085	72.69
383.31	85.69
383.535	105.69
383.761	86.69
383.986	97.69
384.211	79.69
384.436	79.69
384.662	73.69
384.887	81.69
385.112	103.69
385.337	93.69
385.562	89.69
385.787	86.69
386.013	103.69
386.238	82.69
386.463	78.69
386.688	102.69
386.913	91.69
387.138	79.69
387.363	74.69
387.588	94.69
387.813	95.69
388.038	87.69
388.263	91.69
388.488	80.69
388.713	73.69
388.938	86.69
389.163	78.69
389.387	72.69
389.612	88.69
389.837	87.69
390.062	86.69
390.287	72.69
390.512	73.69
390.736	85.69
390.961	81.69
391.186	76.69
391.411	82.69
391.636	98.69
391.86	75.69
392.085	94.69
392.31	87.69
392.534	81.69
392.759	111.69
392.984	113.69
393.208	174.69
393.433	254.69
393.658	191.69
393.882	119.69
394.107	92.69
394.331	101.69
394.556	111.69
394.78	95.69
395.005	88.69
395.229	85.69
395.454	81.69
395.678	103.69
395.903	85.69
396.127	115.69
396.352	109.69
396.576	117.69
396.801	178.69
397.025	202.69
397.249	127.69
397.474	88.69
397.698	77.69
397.922	87.69
398.147	66.69
398.371	77.69
398.595	69.69
398.82	82.69
399.044	95.69
399.268	85.69
399.492	69.69
399.717	77.69
399.941	95.69
400.165	84.69
400.389	83.69
400.613	88.69
400.837	92.69
401.062	77.69
401.286	79.69
401.51	89.69
401.734	75.69
401.958	87.69
402.182	89.69
402.406	68.69
402.63	68.69
402.854	81.69
403.078	71.69
403.302	81.69
403.526	89.69
403.75	87.69
403.974	81.69
404.198	91.69
404.422	80.69
404.645	78.69
404.869	72.69
405.093	73.69
405.317	80.69
405.541	79.69
405.765	73.69
405.988	69.69
406.212	86.69
406.436	89.69
406.66	73.69
406.883	83.69
407.107	82.69
407.331	69.69
407.555	98.69
407.778	83.69
408.002	117.69
408.226	107.69
408.449	81.69
408.673	65.69
408.896	83.69
409.12	79.69
409.344	81.69
409.567	87.69
409.791	99.69
410.014	92.69
410.238	75.69
410.461	85.69
410.685	83.69
410.908	55.69
411.132	89.69
411.355	63.69
411.578	94.69
411.802	79.69
412.025	93.69
412.249	76.69
412.472	78.69
412.695	65.69
412.919	74.69
413.142	93.69
413.365	77.69
413.589	87.69
413.812	89.69
414.035	79.69
414.258	93.69
414.482	81.69
414.705	78.69
414.928	77.69
415.151	60.69
415.374	84.69
415.597	77.69
415.821	86.69
416.044	84.69
416.267	83.69
416.49	75.69
416.713	64.69
416.936	78.69
417.159	82.69
417.382	76.69
417.605	83.69
417.828	82.69
418.051	73.69
418.274	83.69
418.497	79.69
418.72	71.69
418.943	91.69
419.166	70.69
419.389	66.69
419.611	80.69
419.834	84.69
420.057	88.69
420.28	90.69
420.503	81.69
420.726	87.69
420.948	88.69
421.171	80.69
421.394	78.69
421.617	100.69
421.839	99.69
422.062	85.69
422.285	98.69
422.507	156.69
422.73	251.69
422.953	225.69
423.175	114.69
423.398	97.69
423.621	81.69
423.843	87.69
424.066	90.69
424.288	91.69
424.511	82.69
424.733	89.69
424.956	88.69
425.178	87.69
425.401	85.69
425.623	80.69
425.846	78.69
426.068	86.69
426.291	92.69
426.513	75.69
426.735	93.69
426.958	93.69
427.18	89.69
427.402	74.69
427.625	73.69
427.847	85.69
428.069	97.69
428.292	90.69
428.514	114.69
428.736	99.69
428.958	89.69
429.181	101.69
429.403	81.69
429.625	80.69
429.847	93.69
430.069	114.69
430.292	117.69
430.514	131.69
430.736	93.69
430.958	106.69
431.18	76.69
431.402	86.69
431.624	102.69
431.846	98.69
432.068	97.69
432.29	85.69
432.512	84.69
432.734	62.69
432.956	81.69
433.178	77.69
433.4	101.69
433.622	89.69
433.844	87.69
434.066	93.69
434.287	69.69
434.509	85.69
434.731	84.69
434.953	72.69
435.175	77.69
435.397	89.69
435.618	83.69
435.84	81.69
436.062	75.69
436.284	75.69
436.505	80.69
436.727	78.69
436.949	102.69
437.17	87.69
437.392	70.69
437.614	90.69
437.835	75.69
438.057	97.69
438.278	69.69
438.5	84.69
438.721	86.69
438.943	82.69
439.165	83.69
439.386	82.69
439.608	96.69
439.829	75.69
440.05	86.69
440.272	87.69
440.493	83.69
440.715	79.69
440.936	83.69
441.158	76.69
441.379	95.69
441.6	90.69
441.822	87.69
442.043	85.69
442.264	82.69
442.486	87.69
442.707	117.69
442.928	101.69
443.149	92.69
443.371	99.69
443.592	124.69
443.813	131.69
444.034	95.69
444.255	83.69
444.476	74.69
444.698	87.69
444.919	94.69
445.14	188.69
445.361	150.69
445.582	160.69
445.803	151.69
446.024	96.69
446.245	91.69
446.466	82.69
446.687	97.69
446.908	81.69
447.129	76.69
447.35	68.69
447.571	79.69
447.792	77.69
448.013	73.69
448.234	74.69
448.455	79.69
448.675	69.69
448.896	82.69
449.117	83.69
449.338	96.69
449.559	82.69
449.779	75.69
450	78.69
450.221	71.69
450.442	74.69
450.662	81.69
450.883	81.69
451.104	75.69
451.324	76.69
451.545	79.69
451.766	74.69
451.986	89.69
452.207	93.69
452.428	86.69
452.648	96.69
452.869	81.69
453.089	83.69
453.31	77.69
453.53	74.69
453.751	79.69
453.971	99.69
454.192	97.69
454.412	86.69
454.633	91.69
454.853	92.69
455.073	81.69
455.294	87.69
455.514	71.69
455.734	73.69
455.955	87.69
456.175	67.69
456.395	85.69
456.616	81.69
456.836	77.69
457.056	81.69
457.276	91.69
457.497	78.69
457.717	69.69
457.937	90.69
458.157	87.69
458.377	95.69
458.598	97.69
458.818	96.69
459.038	76.69
459.258	63.69
459.478	82.69
459.698	83.69
459.918	75.69
460.138	72.69
460.358	100.69
460.578	75.69
460.798	106.69
461.018	103.69
461.238	91.69
461.458	89.69
461.678	86.69
461.898	85.69
462.118	82.69
462.338	80.69
462.558	74.69
462.777	81.69
462.997	75.69
463.217	74.69
463.437	89.69
463.657	88.69
463.876	75.69
464.096	73.69
464.316	91.69
464.536	75.69
464.755	85.69
464.975	81.69
465.195	95.69
465.414	73.69
465.634	83.69
465.854	73.69
466.073	73.69
466.293	74.69
466.512	69.69
466.732	78.69
466.951	90.69
467.171	75.69
467.391	79.69
467.61	74.69
467.829	85.69
468.049	74.69
468.268	90.69
468.488	83.69
468.707	82.69
468.927	77.69
469.146	85.69
469.365	69.69
469.585	81.69
469.804	75.69
470.023	100.69
470.243	93.69
470.462	72.69
470.681	74.69
470.901	92.69
471.12	86.69
471.339	87.69
471.558	86.69
471.777	82.69
471.997	87.69
472.216	95.69
472.435	76.69
472.654	86.69
472.873	80.69
473.092	87.69
473.311	85.69
473.53	85.69
473.749	81.69
473.968	77.69
474.187	70.69
474.406	107.69
474.625	75.69
474.844	87.69
475.063	86.69
475.282	80.69
475.501	75.69
475.72	90.69
475.939	81.69
476.158	93.69
476.377	74.69
476.596	85.69
476.814	81.69
477.033	79.69
477.252	81.69
477.471	81.69
477.69	89.69
477.908	86.69
478.127	92.69
478.346	99.69
478.564	87.69
478.783	83.69
479.002	83.69
479.22	94.69
479.439	81.69
479.658	81.69
479.876	67.69
480.095	80.69
480.313	84.69
480.532	85.69
480.751	81.69
480.969	67.69
481.188	81.69
481.406	92.69
481.624	85.69
481.843	83.69
482.061	86.69
482.28	79.69
482.498	89.69
482.717	98.69
482.935	106.69
483.153	88.69
483.372	78.69
483.59	71.69
483.808	81.69
484.027	74.69
484.245	91.69
484.463	78.69
484.681	86.69
484.9	90.69
485.118	93.69
485.336	79.69
485.554	86.69
485.772	98.69
485.99	85.69
486.209	87.69
486.427	86.69
486.645	94.69
486.863	83.69
487.081	84.69
487.299	87.69
487.517	92.69
487.735	81.69
487.953	88.69
488.171	91.69
488.389	79.69
488.607	96.69
488.825	81.69
489.043	95.69
489.261	90.69
489.479	83.69
489.696	79.69
489.914	85.69
490.132	94.69
490.35	70.69
490.568	90.69
490.786	81.69
491.003	76.69
491.221	78.69
491.439	83.69
491.657	86.69
491.874	84.69
492.092	83.69
492.31	93.69
492.527	72.69
492.745	93.69
492.963	91.69
493.18	71.69
493.398	89.69
493.615	84.69
493.833	89.69
494.05	81.69
494.268	89.69
494.485	82.69
494.703	89.69
494.92	83.69
495.138	78.69
495.355	76.69
495.573	70.69
495.79	81.69
496.008	109.69
496.225	95.69
496.442	67.69
496.66	105.69
496.877	92.69
497.094	90.69
497.312	78.69
497.529	96.69
497.746	100.69
497.963	76.69
498.181	93.69
498.398	88.69
498.615	93.69
498.832	83.69
499.049	84.69
499.267	89.69
499.484	90.69
499.701	98.69
499.918	87.69
500.135	77.69
500.352	91.69
500.569	81.69
500.786	85.69
501.003	87.69
501.22	97.69
501.437	80.69
501.654	83.69
501.871	88.69
502.088	69.69
502.305	90.69
502.522	76.69
502.739	91.69
502.956	81.69
503.172	77.69
503.389	86.69
503.606	84.69
503.823	84.69
504.04	78.69
504.256	84.69
504.473	93.69
504.69	88.69
504.907	81.69
505.123	87.69
505.34	81.69
505.557	89.69
505.773	90.69
505.99	91.69
506.207	71.69
506.423	93.69
506.64	93.69
506.856	79.69
507.073	99.69
507.289	81.69
507.506	86.69
507.722	77.69
507.939	93.69
508.155	88.69
508.372	80.69
508.588	97.69
508.805	84.69
509.021	73.69
509.238	88.69
509.454	80.69
509.67	72.69
509.887	81.69
510.103	79.69
510.319	81.69
510.536	108.69
510.752	88.69
510.968	76.69
511.184	82.69
511.401	73.69
511.617	82.69
511.833	100.69
512.049	95.69
512.265	88.69
512.481	75.69
512.698	96.69
512.914	83.69
513.13	63.69
513.346	81.69
513.562	83.69
513.778	88.69
513.994	94.69
514.21	95.69
514.426	75.69
514.642	86.69
514.858	99.69
515.074	89.69
515.29	87.69
515.506	80.69
515.721	85.69
515.937	100.69
516.153	85.69
516.369	77.69
516.585	74.69
516.801	96.69
517.016	86.69
517.232	62.69
517.448	83.69
517.664	89.69
517.879	95.69
518.095	83.69
518.311	90.69
518.527	74.69
518.742	91.69
518.958	102.69
519.173	87.69
519.389	81.69
