Data from HP_3_HRD10591_00045.txt Node
Date: Mon Jan 19 14:17:23 EST 2026
User: Yrep
Spectrometer: HR+D1059
Trigger mode: 1
Integration Time (sec): 1.000000E-1
Scans to average: 1
Electric dark correction enabled: true
Nonlinearity correction enabled: false
Boxcar width: 0
XAxis mode: Wavelengths
Number of Pixels in Spectrum: 2048
>>>>>Begin Spectral Data<<<<<
223.165	-29.75
223.4	-29.75
223.635	-29.75
223.869	-16.75
224.104	-20.75
224.338	-1.75
224.573	-9.75
224.808	-4.75
225.042	-9.75
225.277	-8.75
225.511	-8.75
225.746	4.25
225.98	-6.75
226.215	33.25
226.449	25.25
226.683	15.25
226.918	20.25
227.152	19.25
227.387	31.25
227.621	24.25
227.856	35.25
228.09	52.25
228.324	59.25
228.559	69.25
228.793	59.25
229.027	61.25
229.262	69.25
229.496	59.25
229.73	58.25
229.964	63.25
230.199	73.25
230.433	72.25
230.667	70.25
230.901	66.25
231.136	78.25
231.37	62.25
231.604	62.25
231.838	72.25
232.072	74.25
232.306	88.25
232.541	74.25
232.775	82.25
233.009	77.25
233.243	73.25
233.477	84.25
233.711	84.25
233.945	70.25
234.179	89.25
234.413	74.25
234.647	98.25
234.881	75.25
235.115	74.25
235.349	79.25
235.583	86.25
235.817	74.25
236.051	69.25
236.285	75.25
236.519	65.25
236.753	73.25
236.987	81.25
237.221	71.25
237.455	71.25
237.689	92.25
237.922	72.25
238.156	73.25
238.39	67.25
238.624	73.25
238.858	79.25
239.091	70.25
239.325	57.25
239.559	45.25
239.793	83.25
240.027	76.25
240.26	78.25
240.494	82.25
240.728	71.25
240.961	71.25
241.195	90.25
241.429	78.25
241.662	63.25
241.896	84.25
242.13	73.25
242.363	89.25
242.597	80.25
242.83	72.25
243.064	73.25
243.298	74.25
243.531	73.25
243.765	74.25
243.998	73.25
244.232	68.25
244.465	67.25
244.699	94.25
244.932	74.25
245.166	81.25
245.399	68.25
245.633	74.25
245.866	70.25
246.099	87.25
246.333	67.25
246.566	80.25
246.8	80.25
247.033	78.25
247.266	63.25
247.5	69.25
247.733	76.25
247.966	72.25
248.2	81.25
248.433	64.25
248.666	87.25
248.899	79.25
249.133	89.25
249.366	80.25
249.599	76.25
249.832	64.25
250.066	85.25
250.299	76.25
250.532	83.25
250.765	79.25
250.998	82.25
251.231	71.25
251.465	84.25
251.698	64.25
251.931	60.25
252.164	80.25
252.397	90.25
252.63	78.25
252.863	80.25
253.096	88.25
253.329	69.25
253.562	79.25
253.795	80.25
254.028	70.25
254.261	79.25
254.494	80.25
254.727	77.25
254.96	74.25
255.193	74.25
255.426	59.25
255.659	70.25
255.892	72.25
256.124	82.25
256.357	86.25
256.59	83.25
256.823	76.25
257.056	82.25
257.289	70.25
257.521	86.25
257.754	77.25
257.987	72.25
258.22	65.25
258.452	66.25
258.685	91.25
258.918	70.25
259.151	92.25
259.383	84.25
259.616	77.25
259.849	75.25
260.081	82.25
260.314	78.25
260.547	78.25
260.779	75.25
261.012	78.25
261.244	82.25
261.477	88.25
261.71	83.25
261.942	75.25
262.175	81.25
262.407	86.25
262.64	78.25
262.872	90.25
263.105	84.25
263.337	80.25
263.57	76.25
263.802	71.25
264.035	69.25
264.267	82.25
264.499	89.25
264.732	77.25
264.964	63.25
265.197	83.25
265.429	83.25
265.661	76.25
265.894	79.25
266.126	80.25
266.358	69.25
266.591	75.25
266.823	79.25
267.055	74.25
267.287	82.25
267.52	73.25
267.752	91.25
267.984	86.25
268.216	96.25
268.448	69.25
268.681	71.25
268.913	65.25
269.145	71.25
269.377	68.25
269.609	83.25
269.841	92.25
270.073	91.25
270.306	79.25
270.538	82.25
270.77	70.25
271.002	76.25
271.234	92.25
271.466	82.25
271.698	77.25
271.93	93.25
272.162	87.25
272.394	66.25
272.626	66.25
272.858	73.25
273.09	83.25
273.322	84.25
273.553	73.25
273.785	92.25
274.017	88.25
274.249	80.25
274.481	86.25
274.713	70.25
274.945	87.25
275.176	76.25
275.408	67.25
275.64	73.25
275.872	75.25
276.104	69.25
276.335	77.25
276.567	72.25
276.799	78.25
277.031	86.25
277.262	80.25
277.494	82.25
277.726	72.25
277.957	91.25
278.189	62.25
278.421	87.25
278.652	84.25
278.884	82.25
279.115	90.25
279.347	82.25
279.579	76.25
279.81	96.25
280.042	77.25
280.273	90.25
280.505	78.25
280.736	82.25
280.968	83.25
281.199	70.25
281.431	86.25
281.662	67.25
281.894	87.25
282.125	80.25
282.356	82.25
282.588	80.25
282.819	93.25
283.051	80.25
283.282	75.25
283.513	67.25
283.745	85.25
283.976	77.25
284.207	84.25
284.439	79.25
284.67	81.25
284.901	76.25
285.132	90.25
285.364	77.25
285.595	90.25
285.826	89.25
286.057	88.25
286.288	95.25
286.52	83.25
286.751	87.25
286.982	80.25
287.213	76.25
287.444	102.25
287.675	84.25
287.906	86.25
288.138	90.25
288.369	84.25
288.6	89.25
288.831	72.25
289.062	90.25
289.293	80.25
289.524	92.25
289.755	82.25
289.986	69.25
290.217	82.25
290.448	82.25
290.679	78.25
290.91	65.25
291.141	84.25
291.371	74.25
291.602	88.25
291.833	78.25
292.064	95.25
292.295	82.25
292.526	80.25
292.757	76.25
292.987	91.25
293.218	81.25
293.449	92.25
293.68	79.25
293.91	66.25
294.141	87.25
294.372	78.25
294.603	80.25
294.833	85.25
295.064	81.25
295.295	98.25
295.525	82.25
295.756	76.25
295.987	78.25
296.217	74.25
296.448	95.25
296.679	87.25
296.909	67.25
297.14	88.25
297.37	84.25
297.601	89.25
297.831	80.25
298.062	82.25
298.292	98.25
298.523	88.25
298.753	86.25
298.984	90.25
299.214	74.25
299.445	73.25
299.675	67.25
299.905	90.25
300.136	87.25
300.366	81.25
300.597	90.25
300.827	82.25
301.057	75.25
301.288	66.25
301.518	94.25
301.748	97.25
301.979	90.25
302.209	94.25
302.439	72.25
302.669	86.25
302.9	93.25
303.13	72.25
303.36	92.25
303.59	96.25
303.82	78.25
304.051	80.25
304.281	76.25
304.511	76.25
304.741	88.25
304.971	78.25
305.201	94.25
305.431	82.25
305.661	86.25
305.891	87.25
306.121	89.25
306.352	69.25
306.582	70.25
306.812	82.25
307.042	82.25
307.272	92.25
307.502	77.25
307.731	82.25
307.961	87.25
308.191	85.25
308.421	70.25
308.651	82.25
308.881	72.25
309.111	89.25
309.341	73.25
309.571	90.25
309.8	90.25
310.03	81.25
310.26	82.25
310.49	72.25
310.72	90.25
310.949	73.25
311.179	95.25
311.409	73.25
311.639	82.25
311.868	94.25
312.098	79.25
312.328	82.25
312.557	93.25
312.787	96.25
313.017	82.25
313.246	79.25
313.476	74.25
313.706	92.25
313.935	78.25
314.165	81.25
314.394	84.25
314.624	82.25
314.853	68.25
315.083	80.25
315.312	97.25
315.542	90.25
315.771	100.25
316.001	74.25
316.23	72.25
316.46	85.25
316.689	75.25
316.919	71.25
317.148	81.25
317.377	95.25
317.607	81.25
317.836	78.25
318.065	92.25
318.295	95.25
318.524	77.25
318.753	72.25
318.983	76.25
319.212	91.25
319.441	81.25
319.67	79.25
319.9	82.25
320.129	86.25
320.358	74.25
320.587	86.25
320.816	80.25
321.046	79.25
321.275	90.25
321.504	72.25
321.733	76.25
321.962	82.25
322.191	78.25
322.42	95.25
322.649	82.25
322.878	73.25
323.108	78.25
323.337	86.25
323.566	89.25
323.795	79.25
324.024	94.25
324.253	81.25
324.482	82.25
324.71	60.25
324.939	67.25
325.168	81.25
325.397	77.25
325.626	87.25
325.855	84.25
326.084	92.25
326.313	90.25
326.542	70.25
326.77	77.25
326.999	58.25
327.228	82.25
327.457	86.25
327.686	87.25
327.914	84.25
328.143	98.25
328.372	82.25
328.6	83.25
328.829	85.25
329.058	98.25
329.287	73.25
329.515	80.25
329.744	94.25
329.972	77.25
330.201	84.25
330.43	94.25
330.658	72.25
330.887	76.25
331.115	86.25
331.344	65.25
331.572	88.25
331.801	89.25
332.03	94.25
332.258	86.25
332.486	75.25
332.715	89.25
332.943	80.25
333.172	74.25
333.4	84.25
333.629	94.25
333.857	82.25
334.085	86.25
334.314	96.25
334.542	95.25
334.771	80.25
334.999	89.25
335.227	80.25
335.455	66.25
335.684	84.25
335.912	92.25
336.14	94.25
336.369	78.25
336.597	79.25
336.825	86.25
337.053	70.25
337.281	89.25
337.51	88.25
337.738	93.25
337.966	63.25
338.194	86.25
338.422	88.25
338.65	95.25
338.878	86.25
339.106	84.25
339.334	72.25
339.562	77.25
339.79	86.25
340.018	81.25
340.246	67.25
340.474	86.25
340.702	89.25
340.93	97.25
341.158	85.25
341.386	92.25
341.614	92.25
341.842	72.25
342.07	85.25
342.298	80.25
342.526	85.25
342.754	93.25
342.981	76.25
343.209	86.25
343.437	88.25
343.665	98.25
343.893	85.25
344.12	78.25
344.348	94.25
344.576	87.25
344.804	64.25
345.031	84.25
345.259	98.25
345.487	80.25
345.714	72.25
345.942	70.25
346.17	73.25
346.397	82.25
346.625	83.25
346.853	82.25
347.08	85.25
347.308	77.25
347.535	76.25
347.763	82.25
347.99	96.25
348.218	87.25
348.445	70.25
348.673	79.25
348.9	67.25
349.128	86.25
349.355	80.25
349.583	86.25
349.81	70.25
350.037	89.25
350.265	80.25
350.492	96.25
350.72	88.25
350.947	75.25
351.174	81.25
351.402	75.25
351.629	81.25
351.856	80.25
352.083	74.25
352.311	60.25
352.538	98.25
352.765	84.25
352.992	93.25
353.22	96.25
353.447	75.25
353.674	86.25
353.901	82.25
354.128	74.25
354.355	76.25
354.583	91.25
354.81	71.25
355.037	77.25
355.264	91.25
355.491	99.25
355.718	80.25
355.945	87.25
356.172	91.25
356.399	87.25
356.626	75.25
356.853	96.25
357.08	69.25
357.307	95.25
357.534	85.25
357.761	98.25
357.988	85.25
358.215	86.25
358.441	93.25
358.668	80.25
358.895	74.25
359.122	74.25
359.349	78.25
359.576	71.25
359.802	80.25
360.029	77.25
360.256	101.25
360.483	77.25
360.709	80.25
360.936	94.25
361.163	82.25
361.39	79.25
361.616	83.25
361.843	91.25
362.07	82.25
362.296	82.25
362.523	88.25
362.749	83.25
362.976	78.25
363.203	97.25
363.429	85.25
363.656	85.25
363.882	83.25
364.109	87.25
364.335	86.25
364.562	63.25
364.788	86.25
365.015	77.25
365.241	82.25
365.468	80.25
365.694	64.25
365.92	86.25
366.147	65.25
366.373	62.25
366.599	73.25
366.826	66.25
367.052	74.25
367.278	86.25
367.505	62.25
367.731	94.25
367.957	91.25
368.184	85.25
368.41	77.25
368.636	100.25
368.862	84.25
369.089	83.25
369.315	73.25
369.541	82.25
369.767	91.25
369.993	72.25
370.219	77.25
370.445	80.25
370.672	74.25
370.898	74.25
371.124	87.25
371.35	88.25
371.576	94.25
371.802	85.25
372.028	93.25
372.254	89.25
372.48	99.25
372.706	89.25
372.932	80.25
373.158	76.25
373.384	74.25
373.61	89.25
373.835	102.25
374.061	80.25
374.287	83.25
374.513	93.25
374.739	85.25
374.965	66.25
375.191	86.25
375.416	87.25
375.642	94.25
375.868	101.25
376.094	82.25
376.319	88.25
376.545	89.25
376.771	91.25
376.997	87.25
377.222	87.25
377.448	85.25
377.674	83.25
377.899	107.25
378.125	80.25
378.35	80.25
378.576	77.25
378.802	84.25
379.027	90.25
379.253	82.25
379.478	79.25
379.704	76.25
379.929	92.25
380.155	80.25
380.38	74.25
380.606	72.25
380.831	67.25
381.057	76.25
381.282	90.25
381.507	87.25
381.733	88.25
381.958	80.25
382.184	77.25
382.409	83.25
382.634	82.25
382.86	73.25
383.085	84.25
383.31	71.25
383.535	84.25
383.761	84.25
383.986	84.25
384.211	93.25
384.436	94.25
384.662	71.25
384.887	85.25
385.112	83.25
385.337	92.25
385.562	84.25
385.787	80.25
386.013	108.25
386.238	92.25
386.463	75.25
386.688	83.25
386.913	86.25
387.138	92.25
387.363	85.25
387.588	78.25
387.813	84.25
388.038	72.25
388.263	95.25
388.488	85.25
388.713	73.25
388.938	93.25
389.163	72.25
389.387	88.25
389.612	70.25
389.837	88.25
390.062	88.25
390.287	74.25
390.512	86.25
390.736	91.25
390.961	99.25
391.186	74.25
391.411	74.25
391.636	89.25
391.86	86.25
392.085	89.25
392.31	98.25
392.534	88.25
392.759	83.25
392.984	115.25
393.208	135.25
393.433	210.25
393.658	156.25
393.882	89.25
394.107	89.25
394.331	82.25
394.556	80.25
394.78	94.25
395.005	80.25
395.229	75.25
395.454	80.25
395.678	72.25
395.903	89.25
396.127	116.25
396.352	103.25
396.576	114.25
396.801	151.25
397.025	180.25
397.249	103.25
397.474	91.25
397.698	90.25
397.922	86.25
398.147	74.25
398.371	83.25
398.595	81.25
398.82	84.25
399.044	76.25
399.268	89.25
399.492	82.25
399.717	87.25
399.941	88.25
400.165	80.25
400.389	80.25
400.613	79.25
400.837	84.25
401.062	84.25
401.286	64.25
401.51	81.25
401.734	78.25
401.958	68.25
402.182	85.25
402.406	78.25
402.63	74.25
402.854	87.25
403.078	79.25
403.302	83.25
403.526	62.25
403.75	68.25
403.974	74.25
404.198	82.25
404.422	75.25
404.645	82.25
404.869	82.25
405.093	73.25
405.317	89.25
405.541	84.25
405.765	66.25
405.988	76.25
406.212	79.25
406.436	72.25
406.66	90.25
406.883	95.25
407.107	84.25
407.331	80.25
407.555	90.25
407.778	93.25
408.002	90.25
408.226	76.25
408.449	71.25
408.673	66.25
408.896	88.25
409.12	78.25
409.344	81.25
409.567	82.25
409.791	98.25
410.014	81.25
410.238	79.25
410.461	78.25
410.685	97.25
410.908	78.25
411.132	81.25
411.355	77.25
411.578	77.25
411.802	77.25
412.025	83.25
412.249	87.25
412.472	73.25
412.695	73.25
412.919	88.25
413.142	78.25
413.365	95.25
413.589	89.25
413.812	83.25
414.035	87.25
414.258	88.25
414.482	76.25
414.705	81.25
414.928	86.25
415.151	87.25
415.374	76.25
415.597	93.25
415.821	78.25
416.044	88.25
416.267	86.25
416.49	75.25
416.713	72.25
416.936	90.25
417.159	77.25
417.382	66.25
417.605	77.25
417.828	84.25
418.051	79.25
418.274	84.25
418.497	75.25
418.72	76.25
418.943	82.25
419.166	80.25
419.389	76.25
419.611	71.25
419.834	56.25
420.057	90.25
420.28	76.25
420.503	90.25
420.726	88.25
420.948	69.25
421.171	76.25
421.394	98.25
421.617	105.25
421.839	90.25
422.062	96.25
422.285	82.25
422.507	118.25
422.73	163.25
422.953	160.25
423.175	87.25
423.398	73.25
423.621	82.25
423.843	90.25
424.066	77.25
424.288	64.25
424.511	83.25
424.733	80.25
424.956	70.25
425.178	83.25
425.401	75.25
425.623	80.25
425.846	70.25
426.068	76.25
426.291	73.25
426.513	82.25
426.735	91.25
426.958	76.25
427.18	92.25
427.402	83.25
427.625	84.25
427.847	94.25
428.069	86.25
428.292	88.25
428.514	95.25
428.736	86.25
428.958	80.25
429.181	85.25
429.403	85.25
429.625	81.25
429.847	87.25
430.069	93.25
430.292	97.25
430.514	100.25
430.736	86.25
430.958	100.25
431.18	86.25
431.402	78.25
431.624	81.25
431.846	85.25
432.068	80.25
432.29	81.25
432.512	89.25
432.734	71.25
432.956	69.25
433.178	94.25
433.4	76.25
433.622	75.25
433.844	79.25
434.066	82.25
434.287	81.25
434.509	66.25
434.731	80.25
434.953	83.25
435.175	96.25
435.397	89.25
435.618	86.25
435.84	77.25
436.062	86.25
436.284	76.25
436.505	81.25
436.727	78.25
436.949	86.25
437.17	83.25
437.392	76.25
437.614	80.25
437.835	69.25
438.057	72.25
438.278	80.25
438.5	87.25
438.721	79.25
438.943	88.25
439.165	71.25
439.386	70.25
439.608	82.25
439.829	71.25
440.05	91.25
440.272	78.25
440.493	76.25
440.715	88.25
440.936	85.25
441.158	89.25
441.379	94.25
441.6	88.25
441.822	90.25
442.043	83.25
442.264	86.25
442.486	74.25
442.707	80.25
442.928	87.25
443.149	89.25
443.371	92.25
443.592	113.25
443.813	99.25
444.034	76.25
444.255	84.25
444.476	75.25
444.698	88.25
444.919	89.25
445.14	165.25
445.361	128.25
445.582	131.25
445.803	100.25
446.024	97.25
446.245	81.25
446.466	85.25
446.687	79.25
446.908	76.25
447.129	93.25
447.35	83.25
447.571	71.25
447.792	74.25
448.013	79.25
448.234	74.25
448.455	73.25
448.675	83.25
448.896	73.25
449.117	78.25
449.338	90.25
449.559	74.25
449.779	91.25
450	72.25
450.221	72.25
450.442	85.25
450.662	75.25
450.883	67.25
451.104	85.25
451.324	86.25
451.545	84.25
451.766	83.25
451.986	82.25
452.207	87.25
452.428	86.25
452.648	83.25
452.869	90.25
453.089	90.25
453.31	81.25
453.53	79.25
453.751	81.25
453.971	76.25
454.192	75.25
454.412	78.25
454.633	76.25
454.853	70.25
455.073	95.25
455.294	66.25
455.514	66.25
455.734	73.25
455.955	71.25
456.175	81.25
456.395	74.25
456.616	73.25
456.836	80.25
457.056	87.25
457.276	82.25
457.497	60.25
457.717	83.25
457.937	70.25
458.157	76.25
458.377	55.25
458.598	67.25
458.818	78.25
459.038	84.25
459.258	85.25
459.478	73.25
459.698	81.25
459.918	81.25
460.138	84.25
460.358	79.25
460.578	90.25
460.798	86.25
461.018	81.25
461.238	76.25
461.458	73.25
461.678	90.25
461.898	100.25
462.118	77.25
462.338	72.25
462.558	81.25
462.777	85.25
462.997	81.25
463.217	78.25
463.437	89.25
463.657	82.25
463.876	84.25
464.096	97.25
464.316	83.25
464.536	68.25
464.755	86.25
464.975	65.25
465.195	70.25
465.414	82.25
465.634	82.25
465.854	83.25
466.073	82.25
466.293	85.25
466.512	85.25
466.732	59.25
466.951	90.25
467.171	79.25
467.391	77.25
467.61	89.25
467.829	90.25
468.049	81.25
468.268	91.25
468.488	73.25
468.707	84.25
468.927	80.25
469.146	74.25
469.365	84.25
469.585	84.25
469.804	64.25
470.023	80.25
470.243	64.25
470.462	80.25
470.681	96.25
470.901	77.25
471.12	76.25
471.339	89.25
471.558	85.25
471.777	100.25
471.997	71.25
472.216	74.25
472.435	96.25
472.654	78.25
472.873	70.25
473.092	79.25
473.311	70.25
473.53	77.25
473.749	73.25
473.968	86.25
474.187	82.25
474.406	88.25
474.625	83.25
474.844	84.25
475.063	80.25
475.282	80.25
475.501	76.25
475.72	94.25
475.939	74.25
476.158	86.25
476.377	82.25
476.596	76.25
476.814	83.25
477.033	88.25
477.252	80.25
477.471	87.25
477.69	75.25
477.908	90.25
478.127	77.25
478.346	82.25
478.564	73.25
478.783	91.25
479.002	74.25
479.22	91.25
479.439	82.25
479.658	82.25
479.876	88.25
480.095	83.25
480.313	66.25
480.532	82.25
480.751	78.25
480.969	88.25
481.188	74.25
481.406	80.25
481.624	80.25
481.843	90.25
482.061	86.25
482.28	86.25
482.498	80.25
482.717	88.25
482.935	82.25
483.153	75.25
483.372	86.25
483.59	86.25
483.808	91.25
484.027	83.25
484.245	87.25
484.463	88.25
484.681	91.25
484.9	80.25
485.118	82.25
485.336	73.25
485.554	78.25
485.772	76.25
485.99	82.25
486.209	73.25
486.427	79.25
486.645	80.25
486.863	86.25
487.081	92.25
487.299	85.25
487.517	84.25
487.735	75.25
487.953	82.25
488.171	96.25
488.389	86.25
488.607	85.25
488.825	89.25
489.043	78.25
489.261	87.25
489.479	76.25
489.696	69.25
489.914	86.25
490.132	84.25
490.35	90.25
490.568	76.25
490.786	87.25
491.003	92.25
491.221	94.25
491.439	85.25
491.657	84.25
491.874	105.25
492.092	72.25
492.31	83.25
492.527	68.25
492.745	80.25
492.963	92.25
493.18	84.25
493.398	76.25
493.615	85.25
493.833	81.25
494.05	74.25
494.268	74.25
494.485	70.25
494.703	99.25
494.92	96.25
495.138	87.25
495.355	96.25
495.573	71.25
495.79	97.25
496.008	84.25
496.225	78.25
496.442	92.25
496.66	84.25
496.877	84.25
497.094	83.25
497.312	82.25
497.529	80.25
497.746	88.25
497.963	86.25
498.181	86.25
498.398	71.25
498.615	81.25
498.832	81.25
499.049	83.25
499.267	91.25
499.484	76.25
499.701	70.25
499.918	77.25
500.135	78.25
500.352	72.25
500.569	71.25
500.786	77.25
501.003	82.25
501.22	84.25
501.437	91.25
501.654	82.25
501.871	86.25
502.088	86.25
502.305	84.25
502.522	82.25
502.739	82.25
502.956	90.25
503.172	80.25
503.389	82.25
503.606	72.25
503.823	77.25
504.04	82.25
504.256	78.25
504.473	78.25
504.69	91.25
504.907	87.25
505.123	76.25
505.34	95.25
505.557	76.25
505.773	83.25
505.99	72.25
506.207	72.25
506.423	91.25
506.64	86.25
506.856	69.25
507.073	81.25
507.289	94.25
507.506	89.25
507.722	82.25
507.939	86.25
508.155	81.25
508.372	76.25
508.588	88.25
508.805	75.25
509.021	84.25
509.238	86.25
509.454	95.25
509.67	80.25
509.887	79.25
510.103	68.25
510.319	86.25
510.536	89.25
510.752	66.25
510.968	76.25
511.184	83.25
511.401	90.25
511.617	90.25
511.833	88.25
512.049	92.25
512.265	86.25
512.481	75.25
512.698	99.25
512.914	70.25
513.13	64.25
513.346	86.25
513.562	81.25
513.778	76.25
513.994	67.25
514.21	91.25
514.426	84.25
514.642	86.25
514.858	90.25
515.074	82.25
515.29	71.25
515.506	83.25
515.721	66.25
515.937	80.25
516.153	90.25
516.369	87.25
516.585	73.25
516.801	89.25
517.016	86.25
517.232	87.25
517.448	99.25
517.664	100.25
517.879	74.25
518.095	84.25
518.311	76.25
518.527	80.25
518.742	71.25
518.958	100.25
519.173	80.25
519.389	88.25
519.605	86.25
519.82	83.25
