Data from HP_3_HRD10591_00005.txt Node
Date: Mon Jan 19 14:17:03 EST 2026
User: Yrep
Spectrometer: HR+D1059
Trigger mode: 1
Integration Time (sec): 1.000000E-1
Scans to average: 1
Electric dark correction enabled: true
Nonlinearity correction enabled: false
Boxcar width: 0
XAxis mode: Wavelengths
Number of Pixels in Spectrum: 2048
>>>>>Begin Spectral Data<<<<<
223.165	-28.19
223.4	-28.19
223.635	-28.19
223.869	-16.19
224.104	-16.19
224.338	-11.19
224.573	-11.19
224.808	-15.19
225.042	-1.19
225.277	7.81
225.511	-1.19
225.746	2.81
225.98	19.81
226.215	9.81
226.449	10.81
226.683	7.81
226.918	20.81
227.152	20.81
227.387	25.81
227.621	49.81
227.856	36.81
228.09	46.81
228.324	46.81
228.559	54.81
228.793	51.81
229.027	60.81
229.262	60.81
229.496	47.81
229.73	75.81
229.964	60.81
230.199	63.81
230.433	71.81
230.667	68.81
230.901	67.81
231.136	82.81
231.37	64.81
231.604	66.81
231.838	83.81
232.072	82.81
232.306	92.81
232.541	67.81
232.775	70.81
233.009	82.81
233.243	72.81
233.477	71.81
233.711	81.81
233.945	66.81
234.179	79.81
234.413	70.81
234.647	74.81
234.881	71.81
235.115	78.81
235.349	78.81
235.583	83.81
235.817	78.81
236.051	75.81
236.285	77.81
236.519	84.81
236.753	80.81
236.987	64.81
237.221	63.81
237.455	70.81
237.689	69.81
237.922	65.81
238.156	59.81
238.39	67.81
238.624	65.81
238.858	73.81
239.091	66.81
239.325	63.81
239.559	67.81
239.793	72.81
240.027	85.81
240.26	76.81
240.494	82.81
240.728	89.81
240.961	59.81
241.195	78.81
241.429	76.81
241.662	59.81
241.896	79.81
242.13	66.81
242.363	70.81
242.597	65.81
242.83	85.81
243.064	74.81
243.298	61.81
243.531	80.81
243.765	80.81
243.998	64.81
244.232	85.81
244.465	78.81
244.699	70.81
244.932	72.81
245.166	66.81
245.399	68.81
245.633	70.81
245.866	70.81
246.099	65.81
246.333	74.81
246.566	76.81
246.8	64.81
247.033	67.81
247.266	58.81
247.5	66.81
247.733	65.81
247.966	74.81
248.2	53.81
248.433	70.81
248.666	75.81
248.899	79.81
249.133	82.81
249.366	72.81
249.599	78.81
249.832	70.81
250.066	80.81
250.299	73.81
250.532	72.81
250.765	75.81
250.998	80.81
251.231	78.81
251.465	91.81
251.698	68.81
251.931	79.81
252.164	80.81
252.397	79.81
252.63	69.81
252.863	80.81
253.096	76.81
253.329	80.81
253.562	68.81
253.795	67.81
254.028	72.81
254.261	73.81
254.494	81.81
254.727	81.81
254.96	69.81
255.193	83.81
255.426	70.81
255.659	79.81
255.892	80.81
256.124	79.81
256.357	72.81
256.59	68.81
256.823	65.81
257.056	68.81
257.289	75.81
257.521	70.81
257.754	64.81
257.987	74.81
258.22	77.81
258.452	67.81
258.685	85.81
258.918	65.81
259.151	77.81
259.383	81.81
259.616	84.81
259.849	67.81
260.081	79.81
260.314	74.81
260.547	65.81
260.779	82.81
261.012	78.81
261.244	78.81
261.477	71.81
261.71	70.81
261.942	63.81
262.175	84.81
262.407	62.81
262.64	76.81
262.872	84.81
263.105	82.81
263.337	66.81
263.57	76.81
263.802	87.81
264.035	76.81
264.267	82.81
264.499	82.81
264.732	67.81
264.964	64.81
265.197	85.81
265.429	74.81
265.661	79.81
265.894	73.81
266.126	82.81
266.358	64.81
266.591	84.81
266.823	77.81
267.055	67.81
267.287	83.81
267.52	74.81
267.752	81.81
267.984	83.81
268.216	82.81
268.448	87.81
268.681	74.81
268.913	62.81
269.145	83.81
269.377	70.81
269.609	76.81
269.841	73.81
270.073	73.81
270.306	69.81
270.538	86.81
270.77	78.81
271.002	72.81
271.234	79.81
271.466	75.81
271.698	81.81
271.93	72.81
272.162	78.81
272.394	80.81
272.626	66.81
272.858	73.81
273.09	70.81
273.322	84.81
273.553	83.81
273.785	78.81
274.017	78.81
274.249	79.81
274.481	79.81
274.713	90.81
274.945	83.81
275.176	83.81
275.408	84.81
275.64	69.81
275.872	74.81
276.104	56.81
276.335	76.81
276.567	81.81
276.799	77.81
277.031	65.81
277.262	73.81
277.494	81.81
277.726	72.81
277.957	81.81
278.189	66.81
278.421	82.81
278.652	68.81
278.884	81.81
279.115	77.81
279.347	77.81
279.579	90.81
279.81	84.81
280.042	65.81
280.273	70.81
280.505	69.81
280.736	84.81
280.968	85.81
281.199	84.81
281.431	78.81
281.662	70.81
281.894	84.81
282.125	88.81
282.356	78.81
282.588	64.81
282.819	78.81
283.051	74.81
283.282	79.81
283.513	91.81
283.745	76.81
283.976	78.81
284.207	79.81
284.439	85.81
284.67	84.81
284.901	84.81
285.132	89.81
285.364	98.81
285.595	75.81
285.826	76.81
286.057	79.81
286.288	83.81
286.52	80.81
286.751	77.81
286.982	85.81
287.213	70.81
287.444	77.81
287.675	80.81
287.906	75.81
288.138	72.81
288.369	67.81
288.6	86.81
288.831	74.81
289.062	87.81
289.293	76.81
289.524	72.81
289.755	76.81
289.986	85.81
290.217	90.81
290.448	76.81
290.679	85.81
290.91	80.81
291.141	70.81
291.371	77.81
291.602	61.81
291.833	79.81
292.064	73.81
292.295	69.81
292.526	76.81
292.757	88.81
292.987	85.81
293.218	91.81
293.449	83.81
293.68	77.81
293.91	78.81
294.141	77.81
294.372	76.81
294.603	77.81
294.833	86.81
295.064	83.81
295.295	91.81
295.525	68.81
295.756	101.81
295.987	89.81
296.217	68.81
296.448	77.81
296.679	76.81
296.909	93.81
297.14	85.81
297.37	78.81
297.601	82.81
297.831	77.81
298.062	77.81
298.292	81.81
298.523	82.81
298.753	90.81
298.984	81.81
299.214	71.81
299.445	97.81
299.675	68.81
299.905	86.81
300.136	78.81
300.366	79.81
300.597	81.81
300.827	74.81
301.057	57.81
301.288	68.81
301.518	78.81
301.748	84.81
301.979	95.81
302.209	103.81
302.439	92.81
302.669	75.81
302.9	73.81
303.13	93.81
303.36	88.81
303.59	94.81
303.82	70.81
304.051	95.81
304.281	75.81
304.511	69.81
304.741	66.81
304.971	76.81
305.201	82.81
305.431	92.81
305.661	73.81
305.891	88.81
306.121	68.81
306.352	90.81
306.582	81.81
306.812	72.81
307.042	71.81
307.272	84.81
307.502	85.81
307.731	74.81
307.961	76.81
308.191	76.81
308.421	92.81
308.651	70.81
308.881	84.81
309.111	84.81
309.341	79.81
309.571	95.81
309.8	73.81
310.03	87.81
310.26	84.81
310.49	95.81
310.72	77.81
310.949	83.81
311.179	86.81
311.409	84.81
311.639	72.81
311.868	65.81
312.098	86.81
312.328	83.81
312.557	95.81
312.787	79.81
313.017	76.81
313.246	78.81
313.476	77.81
313.706	73.81
313.935	77.81
314.165	76.81
314.394	83.81
314.624	96.81
314.853	80.81
315.083	80.81
315.312	86.81
315.542	67.81
315.771	80.81
316.001	91.81
316.23	68.81
316.46	79.81
316.689	75.81
316.919	74.81
317.148	90.81
317.377	80.81
317.607	79.81
317.836	83.81
318.065	98.81
318.295	84.81
318.524	75.81
318.753	90.81
318.983	74.81
319.212	93.81
319.441	81.81
319.67	73.81
319.9	90.81
320.129	77.81
320.358	84.81
320.587	82.81
320.816	81.81
321.046	83.81
321.275	82.81
321.504	82.81
321.733	93.81
321.962	84.81
322.191	87.81
322.42	87.81
322.649	71.81
322.878	75.81
323.108	70.81
323.337	79.81
323.566	78.81
323.795	72.81
324.024	69.81
324.253	81.81
324.482	72.81
324.71	86.81
324.939	86.81
325.168	74.81
325.397	81.81
325.626	69.81
325.855	74.81
326.084	78.81
326.313	77.81
326.542	77.81
326.77	79.81
326.999	83.81
327.228	86.81
327.457	90.81
327.686	78.81
327.914	66.81
328.143	71.81
328.372	80.81
328.6	80.81
328.829	82.81
329.058	81.81
329.287	89.81
329.515	91.81
329.744	91.81
329.972	81.81
330.201	94.81
330.43	86.81
330.658	89.81
330.887	83.81
331.115	77.81
331.344	83.81
331.572	88.81
331.801	85.81
332.03	67.81
332.258	84.81
332.486	68.81
332.715	79.81
332.943	73.81
333.172	79.81
333.4	81.81
333.629	83.81
333.857	82.81
334.085	95.81
334.314	80.81
334.542	80.81
334.771	76.81
334.999	88.81
335.227	71.81
335.455	81.81
335.684	89.81
335.912	83.81
336.14	86.81
336.369	81.81
336.597	74.81
336.825	81.81
337.053	66.81
337.281	84.81
337.51	67.81
337.738	79.81
337.966	74.81
338.194	74.81
338.422	76.81
338.65	83.81
338.878	96.81
339.106	91.81
339.334	97.81
339.562	79.81
339.79	74.81
340.018	76.81
340.246	67.81
340.474	79.81
340.702	75.81
340.93	80.81
341.158	92.81
341.386	75.81
341.614	80.81
341.842	84.81
342.07	84.81
342.298	86.81
342.526	78.81
342.754	78.81
342.981	73.81
343.209	77.81
343.437	101.81
343.665	73.81
343.893	95.81
344.12	102.81
344.348	97.81
344.576	77.81
344.804	82.81
345.031	85.81
345.259	75.81
345.487	92.81
345.714	69.81
345.942	84.81
346.17	92.81
346.397	75.81
346.625	71.81
346.853	67.81
347.08	70.81
347.308	86.81
347.535	101.81
347.763	72.81
347.99	81.81
348.218	83.81
348.445	83.81
348.673	81.81
348.9	74.81
349.128	90.81
349.355	82.81
349.583	85.81
349.81	76.81
350.037	79.81
350.265	85.81
350.492	83.81
350.72	67.81
350.947	65.81
351.174	87.81
351.402	87.81
351.629	79.81
351.856	87.81
352.083	79.81
352.311	73.81
352.538	81.81
352.765	84.81
352.992	92.81
353.22	81.81
353.447	68.81
353.674	87.81
353.901	88.81
354.128	95.81
354.355	85.81
354.583	87.81
354.81	82.81
355.037	67.81
355.264	85.81
355.491	81.81
355.718	89.81
355.945	90.81
356.172	66.81
356.399	91.81
356.626	74.81
356.853	84.81
357.08	98.81
357.307	102.81
357.534	81.81
357.761	83.81
357.988	94.81
358.215	91.81
358.441	90.81
358.668	82.81
358.895	84.81
359.122	62.81
359.349	84.81
359.576	104.81
359.802	92.81
360.029	79.81
360.256	93.81
360.483	80.81
360.709	83.81
360.936	97.81
361.163	76.81
361.39	70.81
361.616	87.81
361.843	89.81
362.07	88.81
362.296	83.81
362.523	96.81
362.749	84.81
362.976	108.81
363.203	112.81
363.429	93.81
363.656	82.81
363.882	78.81
364.109	105.81
364.335	86.81
364.562	105.81
364.788	110.81
365.015	85.81
365.241	74.81
365.468	86.81
365.694	87.81
365.92	73.81
366.147	82.81
366.373	82.81
366.599	87.81
366.826	83.81
367.052	78.81
367.278	76.81
367.505	78.81
367.731	79.81
367.957	87.81
368.184	79.81
368.41	71.81
368.636	96.81
368.862	75.81
369.089	59.81
369.315	80.81
369.541	68.81
369.767	85.81
369.993	86.81
370.219	77.81
370.445	82.81
370.672	90.81
370.898	92.81
371.124	78.81
371.35	82.81
371.576	72.81
371.802	93.81
372.028	102.81
372.254	93.81
372.48	87.81
372.706	103.81
372.932	88.81
373.158	81.81
373.384	94.81
373.61	108.81
373.835	111.81
374.061	72.81
374.287	90.81
374.513	101.81
374.739	93.81
374.965	87.81
375.191	74.81
375.416	73.81
375.642	79.81
375.868	102.81
376.094	79.81
376.319	83.81
376.545	80.81
376.771	85.81
376.997	88.81
377.222	76.81
377.448	87.81
377.674	71.81
377.899	84.81
378.125	76.81
378.35	78.81
378.576	90.81
378.802	69.81
379.027	86.81
379.253	89.81
379.478	80.81
379.704	93.81
379.929	86.81
380.155	86.81
380.38	90.81
380.606	95.81
380.831	70.81
381.057	89.81
381.282	78.81
381.507	82.81
381.733	88.81
381.958	83.81
382.184	78.81
382.409	79.81
382.634	94.81
382.86	96.81
383.085	79.81
383.31	91.81
383.535	98.81
383.761	92.81
383.986	92.81
384.211	84.81
384.436	74.81
384.662	78.81
384.887	83.81
385.112	87.81
385.337	79.81
385.562	76.81
385.787	86.81
386.013	83.81
386.238	88.81
386.463	91.81
386.688	91.81
386.913	88.81
387.138	81.81
387.363	85.81
387.588	87.81
387.813	87.81
388.038	82.81
388.263	92.81
388.488	80.81
388.713	89.81
388.938	94.81
389.163	79.81
389.387	92.81
389.612	86.81
389.837	79.81
390.062	76.81
390.287	77.81
390.512	72.81
390.736	77.81
390.961	70.81
391.186	99.81
391.411	93.81
391.636	93.81
391.86	103.81
392.085	99.81
392.31	94.81
392.534	91.81
392.759	106.81
392.984	155.81
393.208	235.81
393.433	333.81
393.658	256.81
393.882	120.81
394.107	92.81
394.331	122.81
394.556	115.81
394.78	88.81
395.005	85.81
395.229	79.81
395.454	82.81
395.678	90.81
395.903	99.81
396.127	130.81
396.352	139.81
396.576	134.81
396.801	223.81
397.025	274.81
397.249	142.81
397.474	98.81
397.698	91.81
397.922	88.81
398.147	84.81
398.371	80.81
398.595	90.81
398.82	86.81
399.044	83.81
399.268	85.81
399.492	71.81
399.717	82.81
399.941	97.81
400.165	82.81
400.389	78.81
400.613	96.81
400.837	86.81
401.062	72.81
401.286	67.81
401.51	83.81
401.734	84.81
401.958	83.81
402.182	90.81
402.406	101.81
402.63	70.81
402.854	85.81
403.078	76.81
403.302	81.81
403.526	73.81
403.75	86.81
403.974	96.81
404.198	96.81
404.422	94.81
404.645	98.81
404.869	87.81
405.093	91.81
405.317	85.81
405.541	86.81
405.765	66.81
405.988	91.81
406.212	84.81
406.436	87.81
406.66	80.81
406.883	77.81
407.107	75.81
407.331	79.81
407.555	88.81
407.778	86.81
408.002	105.81
408.226	73.81
408.449	78.81
408.673	90.81
408.896	85.81
409.12	82.81
409.344	90.81
409.567	100.81
409.791	98.81
410.014	92.81
410.238	79.81
410.461	89.81
410.685	79.81
410.908	64.81
411.132	86.81
411.355	96.81
411.578	81.81
411.802	91.81
412.025	81.81
412.249	66.81
412.472	80.81
412.695	70.81
412.919	72.81
413.142	88.81
413.365	67.81
413.589	82.81
413.812	77.81
414.035	87.81
414.258	88.81
414.482	66.81
414.705	79.81
414.928	90.81
415.151	79.81
415.374	78.81
415.597	82.81
415.821	82.81
416.044	86.81
416.267	91.81
416.49	87.81
416.713	69.81
416.936	80.81
417.159	78.81
417.382	79.81
417.605	63.81
417.828	92.81
418.051	81.81
418.274	75.81
418.497	71.81
418.72	79.81
418.943	87.81
419.166	71.81
419.389	85.81
419.611	91.81
419.834	84.81
420.057	80.81
420.28	85.81
420.503	88.81
420.726	79.81
420.948	88.81
421.171	96.81
421.394	89.81
421.617	107.81
421.839	122.81
422.062	106.81
422.285	152.81
422.507	237.81
422.73	390.81
422.953	332.81
423.175	156.81
423.398	103.81
423.621	114.81
423.843	81.81
424.066	83.81
424.288	95.81
424.511	85.81
424.733	79.81
424.956	104.81
425.178	70.81
425.401	83.81
425.623	80.81
425.846	78.81
426.068	79.81
426.291	80.81
426.513	84.81
426.735	90.81
426.958	65.81
427.18	84.81
427.402	99.81
427.625	85.81
427.847	87.81
428.069	97.81
428.292	122.81
428.514	127.81
428.736	106.81
428.958	108.81
429.181	115.81
429.403	104.81
429.625	78.81
429.847	114.81
430.069	141.81
430.292	155.81
430.514	146.81
430.736	135.81
430.958	136.81
431.18	92.81
431.402	81.81
431.624	97.81
431.846	107.81
432.068	123.81
432.29	93.81
432.512	90.81
432.734	90.81
432.956	91.81
433.178	65.81
433.4	87.81
433.622	78.81
433.844	80.81
434.066	78.81
434.287	80.81
434.509	81.81
434.731	79.81
434.953	67.81
435.175	80.81
435.397	100.81
435.618	90.81
435.84	84.81
436.062	78.81
436.284	75.81
436.505	82.81
436.727	80.81
436.949	87.81
437.17	67.81
437.392	82.81
437.614	69.81
437.835	82.81
438.057	76.81
438.278	86.81
438.5	93.81
438.721	96.81
438.943	86.81
439.165	73.81
439.386	83.81
439.608	79.81
439.829	74.81
440.05	95.81
440.272	85.81
440.493	82.81
440.715	83.81
440.936	91.81
441.158	78.81
441.379	74.81
441.6	75.81
441.822	77.81
442.043	86.81
442.264	85.81
442.486	107.81
442.707	148.81
442.928	99.81
443.149	90.81
443.371	122.81
443.592	200.81
443.813	178.81
444.034	101.81
444.255	89.81
444.476	63.81
444.698	84.81
444.919	87.81
445.14	193.81
445.361	182.81
445.582	241.81
445.803	232.81
446.024	122.81
446.245	81.81
446.466	91.81
446.687	70.81
446.908	72.81
447.129	75.81
447.35	84.81
447.571	91.81
447.792	82.81
448.013	84.81
448.234	81.81
448.455	73.81
448.675	91.81
448.896	83.81
449.117	82.81
449.338	84.81
449.559	77.81
449.779	78.81
450	92.81
450.221	85.81
450.442	73.81
450.662	82.81
450.883	80.81
451.104	89.81
451.324	72.81
451.545	81.81
451.766	90.81
451.986	86.81
452.207	69.81
452.428	72.81
452.648	93.81
452.869	88.81
453.089	90.81
453.31	89.81
453.53	72.81
453.751	84.81
453.971	76.81
454.192	85.81
454.412	82.81
454.633	92.81
454.853	64.81
455.073	76.81
455.294	92.81
455.514	85.81
455.734	90.81
455.955	79.81
456.175	75.81
456.395	87.81
456.616	93.81
456.836	88.81
457.056	83.81
457.276	80.81
457.497	89.81
457.717	93.81
457.937	94.81
458.157	107.81
458.377	102.81
458.598	103.81
458.818	102.81
459.038	84.81
459.258	75.81
459.478	79.81
459.698	72.81
459.918	86.81
460.138	84.81
460.358	91.81
460.578	91.81
460.798	120.81
461.018	130.81
461.238	82.81
461.458	82.81
461.678	92.81
461.898	69.81
462.118	95.81
462.338	68.81
462.558	76.81
462.777	76.81
462.997	68.81
463.217	61.81
463.437	78.81
463.657	85.81
463.876	87.81
464.096	75.81
464.316	81.81
464.536	72.81
464.755	75.81
464.975	92.81
465.195	85.81
465.414	81.81
465.634	81.81
465.854	76.81
466.073	77.81
466.293	88.81
466.512	85.81
466.732	81.81
466.951	86.81
467.171	79.81
467.391	85.81
467.61	81.81
467.829	81.81
468.049	93.81
468.268	89.81
468.488	93.81
468.707	89.81
468.927	86.81
469.146	70.81
469.365	80.81
469.585	79.81
469.804	77.81
470.023	72.81
470.243	69.81
470.462	83.81
470.681	84.81
470.901	79.81
471.12	72.81
471.339	78.81
471.558	74.81
471.777	71.81
471.997	78.81
472.216	94.81
472.435	94.81
472.654	91.81
472.873	83.81
473.092	85.81
473.311	86.81
473.53	85.81
473.749	87.81
473.968	87.81
474.187	85.81
474.406	75.81
474.625	79.81
474.844	74.81
475.063	81.81
475.282	79.81
475.501	86.81
475.72	81.81
475.939	84.81
476.158	90.81
476.377	96.81
476.596	84.81
476.814	79.81
477.033	80.81
477.252	84.81
477.471	87.81
477.69	86.81
477.908	78.81
478.127	82.81
478.346	72.81
478.564	90.81
478.783	82.81
479.002	78.81
479.22	84.81
479.439	87.81
479.658	76.81
479.876	78.81
480.095	81.81
480.313	94.81
480.532	79.81
480.751	74.81
480.969	76.81
481.188	93.81
481.406	99.81
481.624	79.81
481.843	80.81
482.061	95.81
482.28	83.81
482.498	84.81
482.717	78.81
482.935	80.81
483.153	96.81
483.372	86.81
483.59	86.81
483.808	85.81
484.027	88.81
484.245	86.81
484.463	89.81
484.681	88.81
484.9	74.81
485.118	92.81
485.336	86.81
485.554	91.81
485.772	99.81
485.99	83.81
486.209	93.81
486.427	87.81
486.645	86.81
486.863	93.81
487.081	91.81
487.299	90.81
487.517	84.81
487.735	86.81
487.953	140.81
488.171	119.81
488.389	85.81
488.607	89.81
488.825	92.81
489.043	91.81
489.261	88.81
489.479	79.81
489.696	81.81
489.914	94.81
490.132	89.81
490.35	95.81
490.568	89.81
490.786	66.81
491.003	99.81
491.221	91.81
491.439	93.81
491.657	93.81
491.874	92.81
492.092	80.81
492.31	82.81
492.527	94.81
492.745	88.81
492.963	84.81
493.18	84.81
493.398	82.81
493.615	80.81
493.833	73.81
494.05	90.81
494.268	78.81
494.485	85.81
494.703	78.81
494.92	87.81
495.138	78.81
495.355	78.81
495.573	84.81
495.79	70.81
496.008	88.81
496.225	84.81
496.442	96.81
496.66	82.81
496.877	86.81
497.094	91.81
497.312	84.81
497.529	94.81
497.746	84.81
497.963	96.81
498.181	94.81
498.398	95.81
498.615	80.81
498.832	95.81
499.049	87.81
499.267	81.81
499.484	86.81
499.701	88.81
499.918	91.81
500.135	101.81
500.352	76.81
500.569	72.81
500.786	96.81
501.003	88.81
501.22	87.81
501.437	78.81
501.654	79.81
501.871	72.81
502.088	80.81
502.305	79.81
502.522	86.81
502.739	96.81
502.956	81.81
503.172	74.81
503.389	91.81
503.606	75.81
503.823	79.81
504.04	102.81
504.256	114.81
504.473	98.81
504.69	92.81
504.907	95.81
505.123	82.81
505.34	82.81
505.557	91.81
505.773	80.81
505.99	88.81
506.207	83.81
506.423	92.81
506.64	86.81
506.856	85.81
507.073	78.81
507.289	81.81
507.506	89.81
507.722	85.81
507.939	82.81
508.155	95.81
508.372	84.81
508.588	88.81
508.805	92.81
509.021	85.81
509.238	79.81
509.454	83.81
509.67	90.81
509.887	95.81
510.103	94.81
510.319	94.81
510.536	85.81
510.752	76.81
510.968	95.81
511.184	85.81
511.401	91.81
511.617	83.81
511.833	90.81
512.049	78.81
512.265	83.81
512.481	90.81
512.698	103.81
512.914	100.81
513.13	98.81
513.346	90.81
513.562	85.81
513.778	72.81
513.994	96.81
514.21	91.81
514.426	104.81
514.642	81.81
514.858	79.81
515.074	64.81
515.29	86.81
515.506	80.81
515.721	84.81
515.937	87.81
516.153	99.81
516.369	97.81
516.585	79.81
516.801	86.81
517.016	103.81
517.232	103.81
517.448	98.81
517.664	88.81
517.879	90.81
518.095	87.81
518.311	86.81
518.527	112.81
518.742	103.81
518.958	131.81
