Data from HP_3_HRD10591_00047.txt Node
Date: Mon Jan 19 14:17:24 EST 2026
User: Yrep
Spectrometer: HR+D1059
Trigger mode: 1
Integration Time (sec): 1.000000E-1
Scans to average: 1
Electric dark correction enabled: true
Nonlinearity correction enabled: false
Boxcar width: 0
XAxis mode: Wavelengths
Number of Pixels in Spectrum: 2048
>>>>>Begin Spectral Data<<<<<
223.165	-8.75
223.4	-8.75
223.635	-8.75
223.869	-16.75
224.104	-12.75
224.338	-13.75
224.573	-18.75
224.808	-9.75
225.042	-13.75
225.277	-13.75
225.511	-5.75
225.746	-0.75
225.98	3.25
226.215	2.25
226.449	14.25
226.683	38.25
226.918	26.25
227.152	30.25
227.387	23.25
227.621	43.25
227.856	50.25
228.09	40.25
228.324	50.25
228.559	51.25
228.793	65.25
229.027	59.25
229.262	65.25
229.496	54.25
229.73	75.25
229.964	68.25
230.199	74.25
230.433	75.25
230.667	80.25
230.901	83.25
231.136	90.25
231.37	74.25
231.604	75.25
231.838	74.25
232.072	90.25
232.306	84.25
232.541	79.25
232.775	73.25
233.009	80.25
233.243	71.25
233.477	90.25
233.711	80.25
233.945	78.25
234.179	70.25
234.413	79.25
234.647	69.25
234.881	78.25
235.115	71.25
235.349	93.25
235.583	80.25
235.817	65.25
236.051	82.25
236.285	74.25
236.519	91.25
236.753	82.25
236.987	82.25
237.221	71.25
237.455	73.25
237.689	89.25
237.922	69.25
238.156	69.25
238.39	88.25
238.624	83.25
238.858	72.25
239.091	85.25
239.325	65.25
239.559	77.25
239.793	64.25
240.027	69.25
240.26	70.25
240.494	73.25
240.728	71.25
240.961	61.25
241.195	77.25
241.429	76.25
241.662	70.25
241.896	83.25
242.13	69.25
242.363	75.25
242.597	74.25
242.83	72.25
243.064	71.25
243.298	68.25
243.531	75.25
243.765	86.25
243.998	69.25
244.232	81.25
244.465	85.25
244.699	73.25
244.932	65.25
245.166	69.25
245.399	75.25
245.633	65.25
245.866	79.25
246.099	74.25
246.333	73.25
246.566	73.25
246.8	70.25
247.033	75.25
247.266	84.25
247.5	66.25
247.733	74.25
247.966	80.25
248.2	88.25
248.433	69.25
248.666	73.25
248.899	70.25
249.133	59.25
249.366	85.25
249.599	73.25
249.832	81.25
250.066	83.25
250.299	83.25
250.532	89.25
250.765	83.25
250.998	82.25
251.231	86.25
251.465	73.25
251.698	72.25
251.931	82.25
252.164	74.25
252.397	73.25
252.63	59.25
252.863	73.25
253.096	74.25
253.329	83.25
253.562	74.25
253.795	85.25
254.028	83.25
254.261	72.25
254.494	67.25
254.727	74.25
254.96	75.25
255.193	74.25
255.426	71.25
255.659	71.25
255.892	66.25
256.124	87.25
256.357	87.25
256.59	86.25
256.823	67.25
257.056	74.25
257.289	75.25
257.521	88.25
257.754	68.25
257.987	76.25
258.22	79.25
258.452	85.25
258.685	79.25
258.918	69.25
259.151	81.25
259.383	88.25
259.616	83.25
259.849	70.25
260.081	86.25
260.314	88.25
260.547	99.25
260.779	73.25
261.012	73.25
261.244	73.25
261.477	72.25
261.71	84.25
261.942	84.25
262.175	81.25
262.407	68.25
262.64	82.25
262.872	85.25
263.105	80.25
263.337	70.25
263.57	77.25
263.802	74.25
264.035	81.25
264.267	85.25
264.499	92.25
264.732	79.25
264.964	69.25
265.197	69.25
265.429	84.25
265.661	79.25
265.894	76.25
266.126	72.25
266.358	88.25
266.591	85.25
266.823	85.25
267.055	94.25
267.287	85.25
267.52	90.25
267.752	71.25
267.984	83.25
268.216	76.25
268.448	76.25
268.681	75.25
268.913	83.25
269.145	81.25
269.377	81.25
269.609	72.25
269.841	88.25
270.073	81.25
270.306	93.25
270.538	90.25
270.77	65.25
271.002	73.25
271.234	71.25
271.466	81.25
271.698	81.25
271.93	73.25
272.162	78.25
272.394	88.25
272.626	94.25
272.858	88.25
273.09	101.25
273.322	73.25
273.553	72.25
273.785	91.25
274.017	78.25
274.249	67.25
274.481	84.25
274.713	64.25
274.945	90.25
275.176	70.25
275.408	90.25
275.64	81.25
275.872	86.25
276.104	89.25
276.335	77.25
276.567	72.25
276.799	71.25
277.031	65.25
277.262	83.25
277.494	77.25
277.726	81.25
277.957	86.25
278.189	85.25
278.421	90.25
278.652	89.25
278.884	68.25
279.115	90.25
279.347	94.25
279.579	82.25
279.81	74.25
280.042	74.25
280.273	84.25
280.505	83.25
280.736	73.25
280.968	80.25
281.199	83.25
281.431	84.25
281.662	83.25
281.894	73.25
282.125	89.25
282.356	75.25
282.588	81.25
282.819	82.25
283.051	70.25
283.282	89.25
283.513	78.25
283.745	77.25
283.976	78.25
284.207	75.25
284.439	89.25
284.67	85.25
284.901	67.25
285.132	96.25
285.364	95.25
285.595	75.25
285.826	76.25
286.057	73.25
286.288	81.25
286.52	85.25
286.751	80.25
286.982	80.25
287.213	85.25
287.444	71.25
287.675	82.25
287.906	76.25
288.138	77.25
288.369	85.25
288.6	79.25
288.831	76.25
289.062	73.25
289.293	89.25
289.524	90.25
289.755	68.25
289.986	77.25
290.217	76.25
290.448	90.25
290.679	64.25
290.91	87.25
291.141	83.25
291.371	83.25
291.602	92.25
291.833	85.25
292.064	86.25
292.295	87.25
292.526	86.25
292.757	79.25
292.987	81.25
293.218	73.25
293.449	65.25
293.68	81.25
293.91	79.25
294.141	86.25
294.372	90.25
294.603	88.25
294.833	88.25
295.064	83.25
295.295	87.25
295.525	71.25
295.756	99.25
295.987	89.25
296.217	86.25
296.448	55.25
296.679	81.25
296.909	85.25
297.14	85.25
297.37	81.25
297.601	73.25
297.831	81.25
298.062	77.25
298.292	71.25
298.523	83.25
298.753	76.25
298.984	83.25
299.214	70.25
299.445	73.25
299.675	73.25
299.905	82.25
300.136	79.25
300.366	95.25
300.597	75.25
300.827	97.25
301.057	75.25
301.288	83.25
301.518	80.25
301.748	73.25
301.979	86.25
302.209	87.25
302.439	99.25
302.669	81.25
302.9	97.25
303.13	85.25
303.36	81.25
303.59	76.25
303.82	87.25
304.051	81.25
304.281	86.25
304.511	85.25
304.741	84.25
304.971	83.25
305.201	72.25
305.431	81.25
305.661	84.25
305.891	73.25
306.121	82.25
306.352	86.25
306.582	95.25
306.812	88.25
307.042	79.25
307.272	82.25
307.502	85.25
307.731	69.25
307.961	76.25
308.191	76.25
308.421	75.25
308.651	67.25
308.881	75.25
309.111	91.25
309.341	69.25
309.571	99.25
309.8	74.25
310.03	81.25
310.26	69.25
310.49	81.25
310.72	83.25
310.949	77.25
311.179	83.25
311.409	87.25
311.639	79.25
311.868	84.25
312.098	82.25
312.328	69.25
312.557	75.25
312.787	81.25
313.017	91.25
313.246	66.25
313.476	76.25
313.706	80.25
313.935	90.25
314.165	84.25
314.394	74.25
314.624	85.25
314.853	103.25
315.083	99.25
315.312	80.25
315.542	71.25
315.771	73.25
316.001	75.25
316.23	83.25
316.46	88.25
316.689	77.25
316.919	89.25
317.148	84.25
317.377	88.25
317.607	81.25
317.836	86.25
318.065	85.25
318.295	86.25
318.524	89.25
318.753	87.25
318.983	73.25
319.212	84.25
319.441	85.25
319.67	68.25
319.9	78.25
320.129	72.25
320.358	73.25
320.587	86.25
320.816	72.25
321.046	74.25
321.275	82.25
321.504	81.25
321.733	98.25
321.962	77.25
322.191	73.25
322.42	87.25
322.649	93.25
322.878	73.25
323.108	84.25
323.337	71.25
323.566	74.25
323.795	88.25
324.024	85.25
324.253	77.25
324.482	94.25
324.71	76.25
324.939	88.25
325.168	67.25
325.397	81.25
325.626	71.25
325.855	73.25
326.084	59.25
326.313	73.25
326.542	87.25
326.77	74.25
326.999	76.25
327.228	81.25
327.457	85.25
327.686	61.25
327.914	78.25
328.143	81.25
328.372	81.25
328.6	89.25
328.829	81.25
329.058	80.25
329.287	73.25
329.515	76.25
329.744	96.25
329.972	85.25
330.201	82.25
330.43	87.25
330.658	79.25
330.887	63.25
331.115	87.25
331.344	76.25
331.572	89.25
331.801	85.25
332.03	80.25
332.258	91.25
332.486	86.25
332.715	86.25
332.943	75.25
333.172	82.25
333.4	65.25
333.629	85.25
333.857	74.25
334.085	93.25
334.314	75.25
334.542	86.25
334.771	81.25
334.999	76.25
335.227	84.25
335.455	64.25
335.684	79.25
335.912	89.25
336.14	81.25
336.369	86.25
336.597	69.25
336.825	85.25
337.053	81.25
337.281	79.25
337.51	85.25
337.738	105.25
337.966	93.25
338.194	75.25
338.422	90.25
338.65	87.25
338.878	72.25
339.106	78.25
339.334	76.25
339.562	84.25
339.79	81.25
340.018	92.25
340.246	55.25
340.474	77.25
340.702	101.25
340.93	83.25
341.158	89.25
341.386	89.25
341.614	88.25
341.842	79.25
342.07	86.25
342.298	83.25
342.526	79.25
342.754	91.25
342.981	79.25
343.209	82.25
343.437	81.25
343.665	79.25
343.893	64.25
344.12	82.25
344.348	79.25
344.576	89.25
344.804	73.25
345.031	74.25
345.259	94.25
345.487	67.25
345.714	89.25
345.942	71.25
346.17	89.25
346.397	87.25
346.625	79.25
346.853	94.25
347.08	87.25
347.308	93.25
347.535	97.25
347.763	76.25
347.99	82.25
348.218	97.25
348.445	79.25
348.673	86.25
348.9	93.25
349.128	85.25
349.355	72.25
349.583	79.25
349.81	64.25
350.037	81.25
350.265	84.25
350.492	86.25
350.72	74.25
350.947	83.25
351.174	76.25
351.402	76.25
351.629	90.25
351.856	74.25
352.083	87.25
352.311	85.25
352.538	75.25
352.765	85.25
352.992	71.25
353.22	90.25
353.447	67.25
353.674	79.25
353.901	82.25
354.128	83.25
354.355	69.25
354.583	82.25
354.81	74.25
355.037	79.25
355.264	71.25
355.491	83.25
355.718	75.25
355.945	79.25
356.172	75.25
356.399	88.25
356.626	83.25
356.853	81.25
357.08	88.25
357.307	97.25
357.534	83.25
357.761	77.25
357.988	72.25
358.215	93.25
358.441	69.25
358.668	90.25
358.895	81.25
359.122	83.25
359.349	78.25
359.576	81.25
359.802	76.25
360.029	71.25
360.256	85.25
360.483	89.25
360.709	71.25
360.936	89.25
361.163	85.25
361.39	83.25
361.616	85.25
361.843	74.25
362.07	66.25
362.296	80.25
362.523	80.25
362.749	82.25
362.976	83.25
363.203	96.25
363.429	77.25
363.656	80.25
363.882	75.25
364.109	83.25
364.335	84.25
364.562	85.25
364.788	88.25
365.015	77.25
365.241	86.25
365.468	73.25
365.694	73.25
365.92	86.25
366.147	79.25
366.373	74.25
366.599	79.25
366.826	74.25
367.052	85.25
367.278	85.25
367.505	76.25
367.731	83.25
367.957	87.25
368.184	99.25
368.41	82.25
368.636	87.25
368.862	81.25
369.089	93.25
369.315	82.25
369.541	92.25
369.767	75.25
369.993	87.25
370.219	73.25
370.445	68.25
370.672	92.25
370.898	76.25
371.124	100.25
371.35	92.25
371.576	78.25
371.802	90.25
372.028	78.25
372.254	79.25
372.48	80.25
372.706	70.25
372.932	71.25
373.158	82.25
373.384	80.25
373.61	90.25
373.835	93.25
374.061	96.25
374.287	99.25
374.513	80.25
374.739	89.25
374.965	97.25
375.191	90.25
375.416	90.25
375.642	80.25
375.868	96.25
376.094	79.25
376.319	89.25
376.545	88.25
376.771	73.25
376.997	80.25
377.222	79.25
377.448	89.25
377.674	82.25
377.899	73.25
378.125	89.25
378.35	69.25
378.576	79.25
378.802	69.25
379.027	83.25
379.253	81.25
379.478	94.25
379.704	71.25
379.929	85.25
380.155	75.25
380.38	81.25
380.606	67.25
380.831	85.25
381.057	81.25
381.282	79.25
381.507	76.25
381.733	81.25
381.958	80.25
382.184	73.25
382.409	75.25
382.634	112.25
382.86	73.25
383.085	103.25
383.31	87.25
383.535	75.25
383.761	73.25
383.986	73.25
384.211	86.25
384.436	97.25
384.662	79.25
384.887	81.25
385.112	71.25
385.337	94.25
385.562	77.25
385.787	85.25
386.013	81.25
386.238	78.25
386.463	77.25
386.688	94.25
386.913	81.25
387.138	89.25
387.363	83.25
387.588	87.25
387.813	80.25
388.038	90.25
388.263	83.25
388.488	78.25
388.713	89.25
388.938	85.25
389.163	82.25
389.387	84.25
389.612	75.25
389.837	81.25
390.062	85.25
390.287	79.25
390.512	65.25
390.736	86.25
390.961	87.25
391.186	82.25
391.411	86.25
391.636	81.25
391.86	88.25
392.085	86.25
392.31	83.25
392.534	89.25
392.759	86.25
392.984	89.25
393.208	110.25
393.433	117.25
393.658	105.25
393.882	77.25
394.107	85.25
394.331	90.25
394.556	79.25
394.78	75.25
395.005	83.25
395.229	93.25
395.454	85.25
395.678	71.25
395.903	89.25
396.127	84.25
396.352	102.25
396.576	78.25
396.801	98.25
397.025	101.25
397.249	97.25
397.474	81.25
397.698	89.25
397.922	70.25
398.147	85.25
398.371	75.25
398.595	81.25
398.82	80.25
399.044	73.25
399.268	81.25
399.492	83.25
399.717	85.25
399.941	81.25
400.165	81.25
400.389	82.25
400.613	92.25
400.837	81.25
401.062	76.25
401.286	79.25
401.51	76.25
401.734	91.25
401.958	82.25
402.182	79.25
402.406	79.25
402.63	89.25
402.854	93.25
403.078	81.25
403.302	75.25
403.526	87.25
403.75	90.25
403.974	75.25
404.198	79.25
404.422	97.25
404.645	80.25
404.869	78.25
405.093	83.25
405.317	79.25
405.541	79.25
405.765	86.25
405.988	78.25
406.212	85.25
406.436	73.25
406.66	90.25
406.883	75.25
407.107	76.25
407.331	85.25
407.555	77.25
407.778	83.25
408.002	83.25
408.226	81.25
408.449	99.25
408.673	83.25
408.896	85.25
409.12	71.25
409.344	73.25
409.567	81.25
409.791	81.25
410.014	78.25
410.238	76.25
410.461	74.25
410.685	85.25
410.908	93.25
411.132	98.25
411.355	89.25
411.578	78.25
411.802	73.25
412.025	73.25
412.249	87.25
412.472	82.25
412.695	75.25
412.919	74.25
413.142	86.25
413.365	87.25
413.589	70.25
413.812	82.25
414.035	87.25
414.258	81.25
414.482	82.25
414.705	99.25
414.928	83.25
415.151	70.25
415.374	77.25
415.597	85.25
415.821	85.25
416.044	84.25
416.267	82.25
416.49	88.25
416.713	76.25
416.936	58.25
417.159	85.25
417.382	95.25
417.605	88.25
417.828	81.25
418.051	80.25
418.274	85.25
418.497	85.25
418.72	75.25
418.943	95.25
419.166	74.25
419.389	77.25
419.611	79.25
419.834	93.25
420.057	84.25
420.28	84.25
420.503	86.25
420.726	87.25
420.948	73.25
421.171	79.25
421.394	99.25
421.617	86.25
421.839	82.25
422.062	81.25
422.285	75.25
422.507	116.25
422.73	117.25
422.953	123.25
423.175	87.25
423.398	82.25
423.621	66.25
423.843	71.25
424.066	86.25
424.288	83.25
424.511	71.25
424.733	58.25
424.956	77.25
425.178	76.25
425.401	73.25
425.623	67.25
425.846	75.25
426.068	85.25
426.291	96.25
426.513	87.25
426.735	77.25
426.958	85.25
427.18	84.25
427.402	71.25
427.625	66.25
427.847	87.25
428.069	71.25
428.292	87.25
428.514	88.25
428.736	79.25
428.958	81.25
429.181	79.25
429.403	90.25
429.625	84.25
429.847	89.25
430.069	97.25
430.292	105.25
430.514	101.25
430.736	85.25
430.958	95.25
431.18	76.25
431.402	77.25
431.624	83.25
431.846	81.25
432.068	93.25
432.29	87.25
432.512	78.25
432.734	79.25
432.956	79.25
433.178	82.25
433.4	65.25
433.622	82.25
433.844	88.25
434.066	92.25
434.287	83.25
434.509	82.25
434.731	89.25
434.953	72.25
435.175	61.25
435.397	77.25
435.618	77.25
435.84	66.25
436.062	89.25
436.284	81.25
436.505	82.25
436.727	73.25
436.949	76.25
437.17	85.25
437.392	75.25
437.614	81.25
437.835	74.25
438.057	74.25
438.278	77.25
438.5	91.25
438.721	81.25
438.943	75.25
439.165	85.25
439.386	70.25
439.608	87.25
439.829	87.25
440.05	72.25
440.272	82.25
440.493	81.25
440.715	85.25
440.936	74.25
441.158	69.25
441.379	84.25
441.6	83.25
441.822	85.25
442.043	64.25
442.264	89.25
442.486	77.25
442.707	93.25
442.928	88.25
443.149	75.25
443.371	79.25
443.592	90.25
443.813	94.25
444.034	79.25
444.255	73.25
444.476	88.25
444.698	99.25
444.919	73.25
445.14	157.25
445.361	123.25
445.582	119.25
445.803	92.25
446.024	81.25
446.245	90.25
446.466	82.25
446.687	81.25
446.908	86.25
447.129	78.25
447.35	85.25
447.571	72.25
447.792	86.25
448.013	91.25
448.234	76.25
448.455	81.25
448.675	69.25
448.896	76.25
449.117	82.25
449.338	81.25
449.559	90.25
449.779	73.25
450	82.25
450.221	72.25
450.442	93.25
450.662	81.25
450.883	76.25
451.104	77.25
451.324	62.25
451.545	81.25
451.766	73.25
451.986	80.25
452.207	97.25
452.428	79.25
452.648	90.25
452.869	72.25
453.089	72.25
453.31	70.25
453.53	90.25
453.751	71.25
453.971	77.25
454.192	74.25
454.412	86.25
454.633	83.25
454.853	81.25
455.073	76.25
455.294	73.25
455.514	68.25
455.734	86.25
455.955	96.25
456.175	86.25
456.395	84.25
456.616	79.25
456.836	85.25
457.056	85.25
457.276	87.25
457.497	74.25
457.717	82.25
457.937	70.25
458.157	72.25
458.377	90.25
458.598	95.25
458.818	88.25
459.038	76.25
459.258	81.25
459.478	87.25
459.698	84.25
459.918	67.25
460.138	76.25
460.358	82.25
460.578	84.25
460.798	67.25
461.018	79.25
461.238	82.25
461.458	98.25
461.678	88.25
461.898	88.25
462.118	89.25
462.338	81.25
462.558	78.25
462.777	83.25
462.997	85.25
463.217	84.25
463.437	72.25
463.657	87.25
463.876	73.25
464.096	88.25
464.316	84.25
464.536	71.25
464.755	81.25
464.975	85.25
465.195	90.25
465.414	83.25
465.634	94.25
465.854	77.25
466.073	77.25
466.293	72.25
466.512	81.25
466.732	70.25
466.951	84.25
467.171	77.25
467.391	85.25
467.61	87.25
467.829	79.25
468.049	74.25
468.268	85.25
468.488	61.25
468.707	81.25
468.927	77.25
469.146	68.25
469.365	74.25
469.585	71.25
469.804	85.25
470.023	65.25
470.243	86.25
470.462	93.25
470.681	85.25
470.901	74.25
471.12	76.25
471.339	88.25
471.558	79.25
471.777	88.25
471.997	86.25
472.216	87.25
472.435	86.25
472.654	74.25
472.873	91.25
473.092	65.25
473.311	89.25
473.53	73.25
473.749	79.25
473.968	75.25
474.187	69.25
474.406	79.25
474.625	85.25
474.844	81.25
475.063	69.25
475.282	76.25
475.501	81.25
475.72	74.25
475.939	96.25
476.158	79.25
476.377	74.25
476.596	83.25
476.814	75.25
477.033	73.25
477.252	76.25
477.471	71.25
477.69	81.25
477.908	79.25
478.127	76.25
478.346	79.25
478.564	95.25
478.783	67.25
479.002	82.25
479.22	83.25
479.439	96.25
479.658	69.25
479.876	69.25
480.095	80.25
480.313	72.25
480.532	74.25
480.751	86.25
480.969	78.25
481.188	65.25
481.406	80.25
481.624	84.25
481.843	77.25
482.061	87.25
482.28	83.25
482.498	97.25
482.717	82.25
482.935	78.25
483.153	77.25
483.372	69.25
483.59	75.25
483.808	81.25
484.027	73.25
484.245	84.25
484.463	78.25
484.681	84.25
484.9	84.25
485.118	78.25
485.336	71.25
485.554	76.25
485.772	93.25
485.99	75.25
486.209	73.25
486.427	84.25
486.645	72.25
486.863	79.25
487.081	89.25
487.299	86.25
487.517	88.25
487.735	96.25
487.953	80.25
488.171	91.25
488.389	77.25
488.607	81.25
488.825	75.25
489.043	87.25
489.261	88.25
489.479	80.25
489.696	75.25
489.914	89.25
490.132	75.25
490.35	102.25
490.568	83.25
490.786	85.25
491.003	79.25
491.221	79.25
491.439	82.25
491.657	61.25
491.874	83.25
492.092	71.25
492.31	61.25
492.527	70.25
492.745	74.25
492.963	90.25
493.18	84.25
493.398	81.25
493.615	90.25
493.833	85.25
494.05	83.25
494.268	75.25
494.485	82.25
494.703	65.25
494.92	75.25
495.138	91.25
495.355	87.25
495.573	82.25
495.79	81.25
496.008	78.25
496.225	83.25
496.442	71.25
496.66	91.25
496.877	76.25
497.094	73.25
497.312	83.25
497.529	69.25
497.746	84.25
497.963	81.25
498.181	70.25
498.398	79.25
498.615	72.25
498.832	71.25
499.049	83.25
499.267	99.25
499.484	86.25
499.701	85.25
499.918	84.25
500.135	70.25
500.352	79.25
500.569	83.25
500.786	75.25
501.003	82.25
501.22	91.25
501.437	66.25
501.654	90.25
501.871	85.25
502.088	74.25
502.305	85.25
502.522	85.25
502.739	90.25
502.956	91.25
503.172	66.25
503.389	91.25
503.606	88.25
503.823	73.25
504.04	81.25
504.256	91.25
504.473	77.25
504.69	86.25
504.907	67.25
505.123	85.25
505.34	76.25
505.557	85.25
505.773	89.25
505.99	66.25
506.207	71.25
506.423	66.25
506.64	82.25
506.856	90.25
507.073	85.25
507.289	73.25
507.506	85.25
507.722	86.25
507.939	69.25
508.155	96.25
508.372	96.25
508.588	81.25
508.805	87.25
509.021	79.25
509.238	93.25
509.454	83.25
509.67	83.25
509.887	75.25
510.103	80.25
510.319	88.25
510.536	85.25
510.752	78.25
510.968	97.25
511.184	76.25
511.401	77.25
511.617	71.25
511.833	70.25
512.049	76.25
512.265	77.25
512.481	71.25
512.698	76.25
512.914	82.25
513.13	86.25
513.346	81.25
513.562	107.25
513.778	77.25
513.994	75.25
514.21	85.25
514.426	89.25
514.642	89.25
514.858	78.25
515.074	85.25
515.29	89.25
515.506	80.25
515.721	75.25
515.937	80.25
516.153	83.25
516.369	92.25
516.585	75.25
516.801	73.25
517.016	90.25
517.232	92.25
517.448	97.25
517.664	80.25
517.879	71.25
518.095	89.25
518.311	86.25
518.527	89.25
518.742	81.25
518.958	79.25
519.173	81.25
519.389	90.25
519.605	63.25
519.82	74.25
520.036	84.25
