Data from HP_3_HRD10591_00043.txt Node
Date: Mon Jan 19 14:17:22 EST 2026
User: Yrep
Spectrometer: HR+D1059
Trigger mode: 1
Integration Time (sec): 1.000000E-1
Scans to average: 1
Electric dark correction enabled: true
Nonlinearity correction enabled: false
Boxcar width: 0
XAxis mode: Wavelengths
Number of Pixels in Spectrum: 2048
>>>>>Begin Spectral Data<<<<<
223.165	-12.5
223.4	-12.5
223.635	-12.5
223.869	-15.5
224.104	-0.5
224.338	-12.5
224.573	-16.5
224.808	-18.5
225.042	-14.5
225.277	0.5
225.511	-8.5
225.746	7.5
225.98	7.5
226.215	10.5
226.449	6.5
226.683	19.5
226.918	20.5
227.152	26.5
227.387	31.5
227.621	34.5
227.856	38.5
228.09	53.5
228.324	49.5
228.559	63.5
228.793	49.5
229.027	59.5
229.262	56.5
229.496	62.5
229.73	63.5
229.964	65.5
230.199	66.5
230.433	71.5
230.667	79.5
230.901	63.5
231.136	78.5
231.37	81.5
231.604	92.5
231.838	93.5
232.072	85.5
232.306	81.5
232.541	86.5
232.775	83.5
233.009	81.5
233.243	69.5
233.477	73.5
233.711	76.5
233.945	87.5
234.179	73.5
234.413	67.5
234.647	68.5
234.881	61.5
235.115	74.5
235.349	75.5
235.583	97.5
235.817	69.5
236.051	63.5
236.285	72.5
236.519	75.5
236.753	91.5
236.987	81.5
237.221	73.5
237.455	61.5
237.689	79.5
237.922	69.5
238.156	77.5
238.39	68.5
238.624	75.5
238.858	78.5
239.091	79.5
239.325	79.5
239.559	80.5
239.793	63.5
240.027	56.5
240.26	77.5
240.494	79.5
240.728	82.5
240.961	78.5
241.195	66.5
241.429	88.5
241.662	57.5
241.896	93.5
242.13	79.5
242.363	78.5
242.597	79.5
242.83	70.5
243.064	68.5
243.298	69.5
243.531	76.5
243.765	79.5
243.998	73.5
244.232	78.5
244.465	67.5
244.699	79.5
244.932	75.5
245.166	82.5
245.399	65.5
245.633	79.5
245.866	67.5
246.099	80.5
246.333	78.5
246.566	82.5
246.8	69.5
247.033	72.5
247.266	66.5
247.5	84.5
247.733	66.5
247.966	75.5
248.2	67.5
248.433	83.5
248.666	79.5
248.899	74.5
249.133	73.5
249.366	74.5
249.599	67.5
249.832	78.5
250.066	76.5
250.299	84.5
250.532	85.5
250.765	71.5
250.998	53.5
251.231	71.5
251.465	74.5
251.698	67.5
251.931	71.5
252.164	72.5
252.397	70.5
252.63	75.5
252.863	71.5
253.096	81.5
253.329	63.5
253.562	72.5
253.795	67.5
254.028	74.5
254.261	82.5
254.494	76.5
254.727	71.5
254.96	79.5
255.193	78.5
255.426	70.5
255.659	63.5
255.892	84.5
256.124	79.5
256.357	78.5
256.59	63.5
256.823	70.5
257.056	67.5
257.289	81.5
257.521	61.5
257.754	81.5
257.987	76.5
258.22	64.5
258.452	71.5
258.685	76.5
258.918	73.5
259.151	77.5
259.383	70.5
259.616	71.5
259.849	80.5
260.081	78.5
260.314	81.5
260.547	82.5
260.779	63.5
261.012	73.5
261.244	66.5
261.477	81.5
261.71	83.5
261.942	78.5
262.175	78.5
262.407	83.5
262.64	83.5
262.872	67.5
263.105	78.5
263.337	68.5
263.57	72.5
263.802	95.5
264.035	85.5
264.267	73.5
264.499	70.5
264.732	73.5
264.964	76.5
265.197	65.5
265.429	86.5
265.661	78.5
265.894	79.5
266.126	89.5
266.358	70.5
266.591	77.5
266.823	87.5
267.055	70.5
267.287	66.5
267.52	67.5
267.752	78.5
267.984	86.5
268.216	86.5
268.448	84.5
268.681	87.5
268.913	88.5
269.145	81.5
269.377	71.5
269.609	75.5
269.841	73.5
270.073	72.5
270.306	85.5
270.538	75.5
270.77	87.5
271.002	80.5
271.234	79.5
271.466	67.5
271.698	89.5
271.93	83.5
272.162	75.5
272.394	79.5
272.626	87.5
272.858	78.5
273.09	91.5
273.322	66.5
273.553	68.5
273.785	86.5
274.017	77.5
274.249	90.5
274.481	61.5
274.713	70.5
274.945	92.5
275.176	67.5
275.408	77.5
275.64	99.5
275.872	87.5
276.104	71.5
276.335	96.5
276.567	89.5
276.799	67.5
277.031	69.5
277.262	71.5
277.494	85.5
277.726	54.5
277.957	64.5
278.189	70.5
278.421	76.5
278.652	68.5
278.884	80.5
279.115	81.5
279.347	86.5
279.579	76.5
279.81	80.5
280.042	64.5
280.273	93.5
280.505	75.5
280.736	85.5
280.968	73.5
281.199	89.5
281.431	73.5
281.662	78.5
281.894	79.5
282.125	62.5
282.356	91.5
282.588	81.5
282.819	90.5
283.051	87.5
283.282	80.5
283.513	83.5
283.745	75.5
283.976	89.5
284.207	66.5
284.439	69.5
284.67	83.5
284.901	81.5
285.132	84.5
285.364	93.5
285.595	79.5
285.826	70.5
286.057	68.5
286.288	82.5
286.52	80.5
286.751	79.5
286.982	76.5
287.213	83.5
287.444	92.5
287.675	79.5
287.906	81.5
288.138	73.5
288.369	77.5
288.6	69.5
288.831	78.5
289.062	82.5
289.293	76.5
289.524	85.5
289.755	79.5
289.986	81.5
290.217	81.5
290.448	82.5
290.679	96.5
290.91	83.5
291.141	80.5
291.371	76.5
291.602	81.5
291.833	71.5
292.064	84.5
292.295	73.5
292.526	71.5
292.757	67.5
292.987	77.5
293.218	80.5
293.449	80.5
293.68	64.5
293.91	72.5
294.141	102.5
294.372	72.5
294.603	88.5
294.833	73.5
295.064	74.5
295.295	73.5
295.525	59.5
295.756	76.5
295.987	87.5
296.217	73.5
296.448	67.5
296.679	84.5
296.909	68.5
297.14	81.5
297.37	79.5
297.601	83.5
297.831	86.5
298.062	66.5
298.292	79.5
298.523	82.5
298.753	75.5
298.984	88.5
299.214	71.5
299.445	91.5
299.675	80.5
299.905	82.5
300.136	81.5
300.366	87.5
300.597	79.5
300.827	67.5
301.057	90.5
301.288	77.5
301.518	73.5
301.748	75.5
301.979	97.5
302.209	88.5
302.439	89.5
302.669	98.5
302.9	70.5
303.13	85.5
303.36	74.5
303.59	80.5
303.82	84.5
304.051	79.5
304.281	78.5
304.511	71.5
304.741	86.5
304.971	96.5
305.201	82.5
305.431	85.5
305.661	76.5
305.891	69.5
306.121	96.5
306.352	90.5
306.582	88.5
306.812	85.5
307.042	82.5
307.272	83.5
307.502	80.5
307.731	79.5
307.961	93.5
308.191	91.5
308.421	83.5
308.651	90.5
308.881	74.5
309.111	78.5
309.341	73.5
309.571	85.5
309.8	81.5
310.03	77.5
310.26	78.5
310.49	71.5
310.72	86.5
310.949	79.5
311.179	72.5
311.409	77.5
311.639	63.5
311.868	100.5
312.098	79.5
312.328	99.5
312.557	81.5
312.787	79.5
313.017	81.5
313.246	98.5
313.476	75.5
313.706	77.5
313.935	85.5
314.165	82.5
314.394	86.5
314.624	94.5
314.853	77.5
315.083	68.5
315.312	76.5
315.542	91.5
315.771	80.5
316.001	83.5
316.23	90.5
316.46	83.5
316.689	73.5
316.919	79.5
317.148	76.5
317.377	88.5
317.607	81.5
317.836	72.5
318.065	97.5
318.295	82.5
318.524	86.5
318.753	88.5
318.983	88.5
319.212	95.5
319.441	91.5
319.67	73.5
319.9	85.5
320.129	86.5
320.358	79.5
320.587	84.5
320.816	91.5
321.046	68.5
321.275	76.5
321.504	85.5
321.733	87.5
321.962	92.5
322.191	81.5
322.42	69.5
322.649	73.5
322.878	84.5
323.108	87.5
323.337	89.5
323.566	84.5
323.795	88.5
324.024	89.5
324.253	64.5
324.482	79.5
324.71	90.5
324.939	70.5
325.168	84.5
325.397	104.5
325.626	94.5
325.855	81.5
326.084	87.5
326.313	70.5
326.542	84.5
326.77	74.5
326.999	73.5
327.228	90.5
327.457	80.5
327.686	95.5
327.914	75.5
328.143	89.5
328.372	85.5
328.6	72.5
328.829	84.5
329.058	81.5
329.287	84.5
329.515	80.5
329.744	98.5
329.972	75.5
330.201	71.5
330.43	71.5
330.658	73.5
330.887	80.5
331.115	79.5
331.344	71.5
331.572	78.5
331.801	77.5
332.03	76.5
332.258	77.5
332.486	74.5
332.715	73.5
332.943	76.5
333.172	73.5
333.4	68.5
333.629	80.5
333.857	72.5
334.085	81.5
334.314	73.5
334.542	72.5
334.771	68.5
334.999	88.5
335.227	77.5
335.455	83.5
335.684	71.5
335.912	88.5
336.14	82.5
336.369	84.5
336.597	81.5
336.825	92.5
337.053	85.5
337.281	72.5
337.51	66.5
337.738	98.5
337.966	74.5
338.194	86.5
338.422	85.5
338.65	88.5
338.878	65.5
339.106	68.5
339.334	69.5
339.562	68.5
339.79	85.5
340.018	77.5
340.246	76.5
340.474	80.5
340.702	97.5
340.93	76.5
341.158	88.5
341.386	81.5
341.614	68.5
341.842	72.5
342.07	72.5
342.298	84.5
342.526	86.5
342.754	73.5
342.981	59.5
343.209	81.5
343.437	87.5
343.665	90.5
343.893	78.5
344.12	81.5
344.348	80.5
344.576	74.5
344.804	73.5
345.031	61.5
345.259	88.5
345.487	89.5
345.714	63.5
345.942	81.5
346.17	71.5
346.397	68.5
346.625	85.5
346.853	77.5
347.08	65.5
347.308	89.5
347.535	77.5
347.763	73.5
347.99	82.5
348.218	64.5
348.445	79.5
348.673	76.5
348.9	85.5
349.128	87.5
349.355	71.5
349.583	71.5
349.81	81.5
350.037	79.5
350.265	67.5
350.492	81.5
350.72	86.5
350.947	77.5
351.174	80.5
351.402	64.5
351.629	72.5
351.856	92.5
352.083	79.5
352.311	75.5
352.538	60.5
352.765	85.5
352.992	79.5
353.22	88.5
353.447	99.5
353.674	74.5
353.901	74.5
354.128	83.5
354.355	88.5
354.583	79.5
354.81	90.5
355.037	91.5
355.264	74.5
355.491	86.5
355.718	87.5
355.945	86.5
356.172	94.5
356.399	79.5
356.626	72.5
356.853	79.5
357.08	87.5
357.307	74.5
357.534	95.5
357.761	77.5
357.988	83.5
358.215	83.5
358.441	72.5
358.668	77.5
358.895	69.5
359.122	71.5
359.349	72.5
359.576	79.5
359.802	68.5
360.029	92.5
360.256	86.5
360.483	75.5
360.709	85.5
360.936	79.5
361.163	82.5
361.39	84.5
361.616	86.5
361.843	84.5
362.07	79.5
362.296	67.5
362.523	71.5
362.749	75.5
362.976	78.5
363.203	84.5
363.429	72.5
363.656	68.5
363.882	66.5
364.109	86.5
364.335	91.5
364.562	99.5
364.788	82.5
365.015	79.5
365.241	83.5
365.468	77.5
365.694	83.5
365.92	73.5
366.147	60.5
366.373	80.5
366.599	69.5
366.826	91.5
367.052	72.5
367.278	71.5
367.505	84.5
367.731	94.5
367.957	87.5
368.184	88.5
368.41	81.5
368.636	83.5
368.862	73.5
369.089	81.5
369.315	71.5
369.541	82.5
369.767	69.5
369.993	78.5
370.219	71.5
370.445	83.5
370.672	69.5
370.898	83.5
371.124	78.5
371.35	85.5
371.576	84.5
371.802	86.5
372.028	79.5
372.254	84.5
372.48	94.5
372.706	79.5
372.932	88.5
373.158	87.5
373.384	86.5
373.61	95.5
373.835	84.5
374.061	76.5
374.287	85.5
374.513	79.5
374.739	83.5
374.965	85.5
375.191	78.5
375.416	82.5
375.642	79.5
375.868	87.5
376.094	81.5
376.319	88.5
376.545	87.5
376.771	81.5
376.997	81.5
377.222	78.5
377.448	71.5
377.674	92.5
377.899	88.5
378.125	83.5
378.35	73.5
378.576	82.5
378.802	59.5
379.027	65.5
379.253	95.5
379.478	71.5
379.704	74.5
379.929	81.5
380.155	74.5
380.38	61.5
380.606	70.5
380.831	97.5
381.057	89.5
381.282	76.5
381.507	67.5
381.733	69.5
381.958	99.5
382.184	85.5
382.409	76.5
382.634	95.5
382.86	78.5
383.085	92.5
383.31	76.5
383.535	79.5
383.761	71.5
383.986	78.5
384.211	91.5
384.436	85.5
384.662	81.5
384.887	74.5
385.112	79.5
385.337	100.5
385.562	96.5
385.787	89.5
386.013	77.5
386.238	69.5
386.463	75.5
386.688	80.5
386.913	83.5
387.138	91.5
387.363	78.5
387.588	75.5
387.813	82.5
388.038	80.5
388.263	85.5
388.488	89.5
388.713	80.5
388.938	79.5
389.163	77.5
389.387	73.5
389.612	70.5
389.837	92.5
390.062	85.5
390.287	76.5
390.512	77.5
390.736	86.5
390.961	98.5
391.186	65.5
391.411	74.5
391.636	72.5
391.86	77.5
392.085	89.5
392.31	84.5
392.534	76.5
392.759	92.5
392.984	105.5
393.208	161.5
393.433	235.5
393.658	173.5
393.882	91.5
394.107	79.5
394.331	87.5
394.556	65.5
394.78	69.5
395.005	83.5
395.229	90.5
395.454	88.5
395.678	91.5
395.903	93.5
396.127	99.5
396.352	117.5
396.576	125.5
396.801	165.5
397.025	184.5
397.249	125.5
397.474	95.5
397.698	66.5
397.922	78.5
398.147	68.5
398.371	73.5
398.595	90.5
398.82	82.5
399.044	86.5
399.268	84.5
399.492	75.5
399.717	88.5
399.941	59.5
400.165	90.5
400.389	77.5
400.613	97.5
400.837	68.5
401.062	86.5
401.286	75.5
401.51	64.5
401.734	83.5
401.958	83.5
402.182	76.5
402.406	78.5
402.63	72.5
402.854	84.5
403.078	84.5
403.302	74.5
403.526	73.5
403.75	87.5
403.974	67.5
404.198	72.5
404.422	81.5
404.645	83.5
404.869	59.5
405.093	74.5
405.317	84.5
405.541	77.5
405.765	74.5
405.988	71.5
406.212	68.5
406.436	78.5
406.66	86.5
406.883	68.5
407.107	74.5
407.331	65.5
407.555	73.5
407.778	99.5
408.002	102.5
408.226	85.5
408.449	75.5
408.673	75.5
408.896	77.5
409.12	82.5
409.344	70.5
409.567	80.5
409.791	67.5
410.014	77.5
410.238	64.5
410.461	63.5
410.685	69.5
410.908	67.5
411.132	80.5
411.355	73.5
411.578	77.5
411.802	87.5
412.025	83.5
412.249	84.5
412.472	75.5
412.695	69.5
412.919	79.5
413.142	80.5
413.365	78.5
413.589	86.5
413.812	71.5
414.035	79.5
414.258	65.5
414.482	82.5
414.705	76.5
414.928	77.5
415.151	85.5
415.374	87.5
415.597	77.5
415.821	66.5
416.044	76.5
416.267	91.5
416.49	90.5
416.713	72.5
416.936	85.5
417.159	77.5
417.382	78.5
417.605	71.5
417.828	73.5
418.051	87.5
418.274	76.5
418.497	79.5
418.72	85.5
418.943	92.5
419.166	89.5
419.389	82.5
419.611	76.5
419.834	88.5
420.057	73.5
420.28	79.5
420.503	83.5
420.726	73.5
420.948	68.5
421.171	74.5
421.394	89.5
421.617	94.5
421.839	87.5
422.062	83.5
422.285	93.5
422.507	126.5
422.73	149.5
422.953	145.5
423.175	93.5
423.398	93.5
423.621	79.5
423.843	70.5
424.066	78.5
424.288	73.5
424.511	86.5
424.733	83.5
424.956	77.5
425.178	92.5
425.401	78.5
425.623	81.5
425.846	76.5
426.068	74.5
426.291	72.5
426.513	75.5
426.735	78.5
426.958	80.5
427.18	79.5
427.402	78.5
427.625	72.5
427.847	65.5
428.069	72.5
428.292	69.5
428.514	95.5
428.736	81.5
428.958	79.5
429.181	96.5
429.403	87.5
429.625	86.5
429.847	73.5
430.069	95.5
430.292	92.5
430.514	101.5
430.736	97.5
430.958	83.5
431.18	77.5
431.402	72.5
431.624	99.5
431.846	92.5
432.068	89.5
432.29	87.5
432.512	73.5
432.734	99.5
432.956	61.5
433.178	79.5
433.4	59.5
433.622	78.5
433.844	75.5
434.066	75.5
434.287	77.5
434.509	76.5
434.731	83.5
434.953	80.5
435.175	78.5
435.397	71.5
435.618	64.5
435.84	67.5
436.062	73.5
436.284	76.5
436.505	73.5
436.727	83.5
436.949	71.5
437.17	69.5
437.392	72.5
437.614	76.5
437.835	83.5
438.057	67.5
438.278	88.5
438.5	83.5
438.721	81.5
438.943	67.5
439.165	65.5
439.386	66.5
439.608	79.5
439.829	76.5
440.05	77.5
440.272	70.5
440.493	83.5
440.715	64.5
440.936	78.5
441.158	80.5
441.379	83.5
441.6	71.5
441.822	83.5
442.043	55.5
442.264	95.5
442.486	71.5
442.707	92.5
442.928	81.5
443.149	77.5
443.371	92.5
443.592	102.5
443.813	91.5
444.034	89.5
444.255	79.5
444.476	87.5
444.698	85.5
444.919	83.5
445.14	182.5
445.361	135.5
445.582	131.5
445.803	97.5
446.024	94.5
446.245	75.5
446.466	85.5
446.687	75.5
446.908	75.5
447.129	74.5
447.35	88.5
447.571	82.5
447.792	69.5
448.013	87.5
448.234	77.5
448.455	64.5
448.675	59.5
448.896	87.5
449.117	63.5
449.338	83.5
449.559	76.5
449.779	79.5
450	79.5
450.221	88.5
450.442	77.5
450.662	86.5
450.883	77.5
451.104	74.5
451.324	80.5
451.545	86.5
451.766	74.5
451.986	83.5
452.207	83.5
452.428	77.5
452.648	84.5
452.869	72.5
453.089	83.5
453.31	85.5
453.53	60.5
453.751	87.5
453.971	83.5
454.192	81.5
454.412	89.5
454.633	94.5
454.853	81.5
455.073	79.5
455.294	71.5
455.514	73.5
455.734	68.5
455.955	82.5
456.175	83.5
456.395	80.5
456.616	87.5
456.836	91.5
457.056	71.5
457.276	73.5
457.497	85.5
457.717	85.5
457.937	84.5
458.157	80.5
458.377	78.5
458.598	88.5
458.818	76.5
459.038	71.5
459.258	73.5
459.478	92.5
459.698	82.5
459.918	85.5
460.138	84.5
460.358	78.5
460.578	73.5
460.798	75.5
461.018	73.5
461.238	71.5
461.458	74.5
461.678	67.5
461.898	67.5
462.118	87.5
462.338	105.5
462.558	67.5
462.777	74.5
462.997	72.5
463.217	77.5
463.437	59.5
463.657	63.5
463.876	83.5
464.096	73.5
464.316	77.5
464.536	82.5
464.755	77.5
464.975	85.5
465.195	82.5
465.414	74.5
465.634	87.5
465.854	63.5
466.073	69.5
466.293	74.5
466.512	84.5
466.732	83.5
466.951	67.5
467.171	73.5
467.391	66.5
467.61	83.5
467.829	78.5
468.049	74.5
468.268	86.5
468.488	92.5
468.707	80.5
468.927	82.5
469.146	97.5
469.365	77.5
469.585	79.5
469.804	73.5
470.023	79.5
470.243	72.5
470.462	75.5
470.681	75.5
470.901	75.5
471.12	79.5
471.339	83.5
471.558	74.5
471.777	82.5
471.997	70.5
472.216	82.5
472.435	81.5
472.654	72.5
472.873	60.5
473.092	79.5
473.311	71.5
473.53	76.5
473.749	83.5
473.968	71.5
474.187	95.5
474.406	73.5
474.625	87.5
474.844	83.5
475.063	85.5
475.282	79.5
475.501	66.5
475.72	94.5
475.939	79.5
476.158	77.5
476.377	87.5
476.596	91.5
476.814	86.5
477.033	92.5
477.252	81.5
477.471	77.5
477.69	79.5
477.908	95.5
478.127	83.5
478.346	88.5
478.564	77.5
478.783	73.5
479.002	65.5
479.22	85.5
479.439	80.5
479.658	83.5
479.876	84.5
480.095	92.5
480.313	86.5
480.532	65.5
480.751	80.5
480.969	88.5
481.188	76.5
481.406	79.5
481.624	89.5
481.843	79.5
482.061	82.5
482.28	83.5
482.498	90.5
482.717	85.5
482.935	88.5
483.153	80.5
483.372	76.5
483.59	75.5
483.808	74.5
484.027	81.5
484.245	90.5
484.463	82.5
484.681	81.5
484.9	88.5
485.118	83.5
485.336	71.5
485.554	76.5
485.772	77.5
485.99	82.5
486.209	82.5
486.427	76.5
486.645	64.5
486.863	76.5
487.081	81.5
487.299	81.5
487.517	86.5
487.735	69.5
487.953	86.5
488.171	91.5
488.389	83.5
488.607	80.5
488.825	72.5
489.043	73.5
489.261	74.5
489.479	83.5
489.696	81.5
489.914	77.5
490.132	80.5
490.35	87.5
490.568	79.5
490.786	80.5
491.003	85.5
491.221	68.5
491.439	84.5
491.657	70.5
491.874	84.5
492.092	78.5
492.31	89.5
492.527	80.5
492.745	76.5
492.963	86.5
493.18	84.5
493.398	88.5
493.615	74.5
493.833	79.5
494.05	80.5
494.268	79.5
494.485	92.5
494.703	95.5
494.92	78.5
495.138	68.5
495.355	73.5
495.573	73.5
495.79	81.5
496.008	79.5
496.225	85.5
496.442	83.5
496.66	96.5
496.877	78.5
497.094	82.5
497.312	74.5
497.529	70.5
497.746	69.5
497.963	74.5
498.181	89.5
498.398	86.5
498.615	84.5
498.832	96.5
499.049	91.5
499.267	81.5
499.484	70.5
499.701	79.5
499.918	80.5
500.135	80.5
500.352	72.5
500.569	72.5
500.786	80.5
501.003	81.5
501.22	93.5
501.437	75.5
501.654	91.5
501.871	85.5
502.088	76.5
502.305	72.5
502.522	73.5
502.739	66.5
502.956	82.5
503.172	77.5
503.389	81.5
503.606	74.5
503.823	74.5
504.04	93.5
504.256	81.5
504.473	94.5
504.69	87.5
504.907	87.5
505.123	72.5
505.34	67.5
505.557	69.5
505.773	72.5
505.99	88.5
506.207	95.5
506.423	80.5
506.64	77.5
506.856	73.5
507.073	88.5
507.289	84.5
507.506	85.5
507.722	79.5
507.939	79.5
508.155	87.5
508.372	80.5
508.588	76.5
508.805	89.5
509.021	84.5
509.238	85.5
509.454	85.5
509.67	71.5
509.887	64.5
510.103	80.5
510.319	83.5
510.536	79.5
510.752	74.5
510.968	72.5
511.184	74.5
511.401	73.5
511.617	96.5
511.833	86.5
512.049	84.5
512.265	80.5
512.481	68.5
512.698	78.5
512.914	83.5
513.13	86.5
513.346	84.5
513.562	80.5
513.778	78.5
513.994	70.5
514.21	81.5
514.426	77.5
514.642	90.5
514.858	82.5
515.074	82.5
515.29	76.5
515.506	83.5
515.721	82.5
515.937	78.5
516.153	71.5
516.369	74.5
516.585	86.5
516.801	91.5
517.016	84.5
517.232	81.5
517.448	65.5
517.664	83.5
517.879	87.5
518.095	79.5
518.311	86.5
518.527	87.5
518.742	68.5
518.958	91.5
519.173	94.5
519.389	90.5
519.605	74.5
519.82	80.5
520.036	87.5
520.251	80.5
520.467	71.5
520.682	77.5
520.898	85.5
521.113	88.5
521.329	91.5
521.544	88.5
521.76	86.5
521.975	84.5
522.19	78.5
522.406	76.5
522.621	76.5
522.836	76.5
523.052	85.5
523.267	72.5
523.482	83.5
523.698	65.5
523.913	73.5
524.128	87.5
524.343	72.5
524.559	82.5
524.774	75.5
524.989	86.5
525.204	80.5
525.419	83.5
525.634	81.5
525.849	86.5
526.064	77.5
526.28	97.5
526.495	119.5
526.71	109.5
526.925	91.5
527.14	99.5
527.355	108.5
527.57	87.5
527.785	79.5
527.999	87.5
528.214	84.5
528.429	73.5
528.644	83.5
528.859	80.5
529.074	93.5
529.289	77.5
529.503	67.5
529.718	81.5
529.933	88.5
530.148	89.5
530.363	78.5
530.577	73.5
530.792	62.5
531.007	76.5
531.221	69.5
531.436	66.5
531.651	80.5
531.865	55.5
532.08	86.5
532.295	91.5
532.509	76.5
532.724	73.5
532.938	87.5
533.153	73.5
533.367	86.5
533.582	86.5
533.796	86.5
534.011	72.5
534.225	79.5
534.44	70.5
534.654	76.5
534.868	83.5
535.083	107.5
535.297	94.5
535.511	91.5
535.726	76.5
535.94	77.5
536.154	75.5
536.369	72.5
536.583	74.5
536.797	95.5
537.011	88.5
537.225	84.5
537.44	88.5
537.654	93.5
537.868	71.5
538.082	83.5
538.296	88.5
538.51	81.5
538.724	86.5
538.938	84.5
539.153	79.5
539.367	85.5
539.581	80.5
539.795	87.5
540.009	89.5
540.222	73.5
540.436	82.5
