Data from HP_3_HRD10591_00012.txt Node
Date: Mon Jan 19 14:17:06 EST 2026
User: Yrep
Spectrometer: HR+D1059
Trigger mode: 1
Integration Time (sec): 1.000000E-1
Scans to average: 1
Electric dark correction enabled: true
Nonlinearity correction enabled: false
Boxcar width: 0
XAxis mode: Wavelengths
Number of Pixels in Spectrum: 2048
>>>>>Begin Spectral Data<<<<<
223.165	-6.5
223.4	-6.5
223.635	-6.5
223.869	-13.5
224.104	-31.5
224.338	-6.5
224.573	-29.5
224.808	-18.5
225.042	-22.5
225.277	1.5
225.511	-14.5
225.746	12.5
225.98	14.5
226.215	4.5
226.449	27.5
226.683	22.5
226.918	21.5
227.152	38.5
227.387	33.5
227.621	35.5
227.856	53.5
228.09	47.5
228.324	48.5
228.559	62.5
228.793	67.5
229.027	61.5
229.262	57.5
229.496	65.5
229.73	76.5
229.964	69.5
230.199	64.5
230.433	72.5
230.667	88.5
230.901	86.5
231.136	80.5
231.37	88.5
231.604	80.5
231.838	84.5
232.072	80.5
232.306	78.5
232.541	91.5
232.775	88.5
233.009	87.5
233.243	80.5
233.477	74.5
233.711	93.5
233.945	74.5
234.179	100.5
234.413	82.5
234.647	87.5
234.881	67.5
235.115	73.5
235.349	72.5
235.583	73.5
235.817	88.5
236.051	76.5
236.285	64.5
236.519	77.5
236.753	67.5
236.987	73.5
237.221	87.5
237.455	68.5
237.689	83.5
237.922	79.5
238.156	82.5
238.39	91.5
238.624	89.5
238.858	63.5
239.091	74.5
239.325	87.5
239.559	82.5
239.793	87.5
240.027	91.5
240.26	59.5
240.494	69.5
240.728	70.5
240.961	81.5
241.195	76.5
241.429	71.5
241.662	74.5
241.896	81.5
242.13	95.5
242.363	70.5
242.597	71.5
242.83	98.5
243.064	75.5
243.298	68.5
243.531	77.5
243.765	78.5
243.998	73.5
244.232	73.5
244.465	76.5
244.699	73.5
244.932	81.5
245.166	72.5
245.399	77.5
245.633	71.5
245.866	67.5
246.099	76.5
246.333	74.5
246.566	55.5
246.8	85.5
247.033	88.5
247.266	77.5
247.5	83.5
247.733	79.5
247.966	87.5
248.2	78.5
248.433	70.5
248.666	77.5
248.899	79.5
249.133	85.5
249.366	75.5
249.599	72.5
249.832	90.5
250.066	75.5
250.299	85.5
250.532	91.5
250.765	79.5
250.998	69.5
251.231	81.5
251.465	80.5
251.698	84.5
251.931	88.5
252.164	82.5
252.397	81.5
252.63	89.5
252.863	71.5
253.096	92.5
253.329	75.5
253.562	74.5
253.795	84.5
254.028	74.5
254.261	80.5
254.494	83.5
254.727	66.5
254.96	81.5
255.193	69.5
255.426	89.5
255.659	87.5
255.892	78.5
256.124	78.5
256.357	74.5
256.59	89.5
256.823	87.5
257.056	64.5
257.289	85.5
257.521	69.5
257.754	85.5
257.987	72.5
258.22	73.5
258.452	82.5
258.685	91.5
258.918	91.5
259.151	71.5
259.383	85.5
259.616	95.5
259.849	80.5
260.081	86.5
260.314	79.5
260.547	82.5
260.779	87.5
261.012	96.5
261.244	71.5
261.477	83.5
261.71	79.5
261.942	65.5
262.175	75.5
262.407	85.5
262.64	72.5
262.872	89.5
263.105	93.5
263.337	77.5
263.57	75.5
263.802	87.5
264.035	85.5
264.267	86.5
264.499	79.5
264.732	75.5
264.964	76.5
265.197	71.5
265.429	86.5
265.661	75.5
265.894	92.5
266.126	81.5
266.358	92.5
266.591	77.5
266.823	93.5
267.055	81.5
267.287	95.5
267.52	71.5
267.752	86.5
267.984	73.5
268.216	85.5
268.448	76.5
268.681	83.5
268.913	86.5
269.145	72.5
269.377	82.5
269.609	70.5
269.841	86.5
270.073	83.5
270.306	90.5
270.538	82.5
270.77	76.5
271.002	89.5
271.234	105.5
271.466	90.5
271.698	92.5
271.93	68.5
272.162	81.5
272.394	85.5
272.626	72.5
272.858	69.5
273.09	76.5
273.322	79.5
273.553	83.5
273.785	87.5
274.017	76.5
274.249	81.5
274.481	85.5
274.713	81.5
274.945	83.5
275.176	75.5
275.408	84.5
275.64	97.5
275.872	91.5
276.104	78.5
276.335	80.5
276.567	90.5
276.799	101.5
277.031	84.5
277.262	74.5
277.494	104.5
277.726	76.5
277.957	83.5
278.189	85.5
278.421	90.5
278.652	89.5
278.884	87.5
279.115	86.5
279.347	80.5
279.579	93.5
279.81	86.5
280.042	89.5
280.273	86.5
280.505	97.5
280.736	88.5
280.968	78.5
281.199	83.5
281.431	111.5
281.662	76.5
281.894	87.5
282.125	78.5
282.356	84.5
282.588	90.5
282.819	85.5
283.051	85.5
283.282	74.5
283.513	92.5
283.745	91.5
283.976	82.5
284.207	78.5
284.439	82.5
284.67	73.5
284.901	81.5
285.132	85.5
285.364	80.5
285.595	72.5
285.826	84.5
286.057	87.5
286.288	75.5
286.52	77.5
286.751	77.5
286.982	90.5
287.213	73.5
287.444	73.5
287.675	77.5
287.906	76.5
288.138	104.5
288.369	96.5
288.6	88.5
288.831	64.5
289.062	89.5
289.293	95.5
289.524	83.5
289.755	96.5
289.986	87.5
290.217	71.5
290.448	67.5
290.679	75.5
290.91	77.5
291.141	93.5
291.371	93.5
291.602	75.5
291.833	83.5
292.064	84.5
292.295	82.5
292.526	73.5
292.757	77.5
292.987	86.5
293.218	82.5
293.449	82.5
293.68	92.5
293.91	75.5
294.141	91.5
294.372	72.5
294.603	81.5
294.833	85.5
295.064	92.5
295.295	96.5
295.525	75.5
295.756	83.5
295.987	90.5
296.217	83.5
296.448	82.5
296.679	90.5
296.909	95.5
297.14	98.5
297.37	91.5
297.601	87.5
297.831	71.5
298.062	89.5
298.292	91.5
298.523	80.5
298.753	97.5
298.984	83.5
299.214	87.5
299.445	91.5
299.675	92.5
299.905	94.5
300.136	67.5
300.366	102.5
300.597	89.5
300.827	92.5
301.057	99.5
301.288	81.5
301.518	76.5
301.748	92.5
301.979	107.5
302.209	104.5
302.439	93.5
302.669	87.5
302.9	79.5
303.13	95.5
303.36	86.5
303.59	81.5
303.82	79.5
304.051	79.5
304.281	77.5
304.511	97.5
304.741	99.5
304.971	72.5
305.201	83.5
305.431	84.5
305.661	100.5
305.891	92.5
306.121	82.5
306.352	84.5
306.582	76.5
306.812	90.5
307.042	94.5
307.272	89.5
307.502	80.5
307.731	91.5
307.961	102.5
308.191	102.5
308.421	85.5
308.651	85.5
308.881	79.5
309.111	98.5
309.341	91.5
309.571	96.5
309.8	82.5
310.03	99.5
310.26	82.5
310.49	84.5
310.72	85.5
310.949	72.5
311.179	76.5
311.409	75.5
311.639	88.5
311.868	89.5
312.098	82.5
312.328	79.5
312.557	86.5
312.787	80.5
313.017	88.5
313.246	90.5
313.476	74.5
313.706	87.5
313.935	85.5
314.165	90.5
314.394	93.5
314.624	83.5
314.853	84.5
315.083	80.5
315.312	86.5
315.542	83.5
315.771	83.5
316.001	93.5
316.23	79.5
316.46	90.5
316.689	71.5
316.919	86.5
317.148	80.5
317.377	100.5
317.607	87.5
317.836	87.5
318.065	97.5
318.295	98.5
318.524	83.5
318.753	88.5
318.983	91.5
319.212	86.5
319.441	82.5
319.67	83.5
319.9	95.5
320.129	89.5
320.358	88.5
320.587	64.5
320.816	81.5
321.046	91.5
321.275	95.5
321.504	92.5
321.733	95.5
321.962	74.5
322.191	75.5
322.42	89.5
322.649	86.5
322.878	91.5
323.108	84.5
323.337	91.5
323.566	95.5
323.795	84.5
324.024	72.5
324.253	98.5
324.482	78.5
324.71	84.5
324.939	94.5
325.168	82.5
325.397	87.5
325.626	77.5
325.855	79.5
326.084	76.5
326.313	99.5
326.542	99.5
326.77	72.5
326.999	83.5
327.228	86.5
327.457	85.5
327.686	106.5
327.914	86.5
328.143	100.5
328.372	88.5
328.6	97.5
328.829	93.5
329.058	76.5
329.287	97.5
329.515	95.5
329.744	79.5
329.972	89.5
330.201	92.5
330.43	86.5
330.658	87.5
330.887	80.5
331.115	85.5
331.344	91.5
331.572	88.5
331.801	87.5
332.03	81.5
332.258	91.5
332.486	85.5
332.715	81.5
332.943	88.5
333.172	83.5
333.4	97.5
333.629	93.5
333.857	101.5
334.085	83.5
334.314	82.5
334.542	96.5
334.771	92.5
334.999	97.5
335.227	92.5
335.455	81.5
335.684	93.5
335.912	102.5
336.14	108.5
336.369	97.5
336.597	87.5
336.825	88.5
337.053	98.5
337.281	83.5
337.51	82.5
337.738	114.5
337.966	103.5
338.194	79.5
338.422	86.5
338.65	87.5
338.878	87.5
339.106	74.5
339.334	97.5
339.562	91.5
339.79	99.5
340.018	83.5
340.246	81.5
340.474	88.5
340.702	91.5
340.93	84.5
341.158	80.5
341.386	72.5
341.614	89.5
341.842	74.5
342.07	75.5
342.298	78.5
342.526	83.5
342.754	98.5
342.981	87.5
343.209	96.5
343.437	97.5
343.665	83.5
343.893	73.5
344.12	110.5
344.348	104.5
344.576	100.5
344.804	83.5
345.031	81.5
345.259	82.5
345.487	91.5
345.714	89.5
345.942	71.5
346.17	88.5
346.397	91.5
346.625	91.5
346.853	88.5
347.08	83.5
347.308	95.5
347.535	82.5
347.763	100.5
347.99	80.5
348.218	84.5
348.445	97.5
348.673	94.5
348.9	84.5
349.128	85.5
349.355	89.5
349.583	96.5
349.81	98.5
350.037	102.5
350.265	84.5
350.492	71.5
350.72	87.5
350.947	80.5
351.174	83.5
351.402	105.5
351.629	78.5
351.856	89.5
352.083	83.5
352.311	83.5
352.538	97.5
352.765	87.5
352.992	95.5
353.22	96.5
353.447	94.5
353.674	90.5
353.901	80.5
354.128	88.5
354.355	98.5
354.583	89.5
354.81	100.5
355.037	103.5
355.264	85.5
355.491	83.5
355.718	87.5
355.945	86.5
356.172	92.5
356.399	86.5
356.626	83.5
356.853	99.5
357.08	81.5
357.307	94.5
357.534	83.5
357.761	86.5
357.988	100.5
358.215	89.5
358.441	96.5
358.668	103.5
358.895	95.5
359.122	85.5
359.349	78.5
359.576	81.5
359.802	88.5
360.029	95.5
360.256	93.5
360.483	93.5
360.709	103.5
360.936	100.5
361.163	111.5
361.39	88.5
361.616	100.5
361.843	99.5
362.07	97.5
362.296	115.5
362.523	116.5
362.749	109.5
362.976	140.5
363.203	128.5
363.429	125.5
363.656	86.5
363.882	103.5
364.109	106.5
364.335	133.5
364.562	154.5
364.788	127.5
365.015	102.5
365.241	91.5
365.468	107.5
365.694	89.5
365.92	90.5
366.147	81.5
366.373	90.5
366.599	86.5
366.826	82.5
367.052	90.5
367.278	85.5
367.505	97.5
367.731	72.5
367.957	99.5
368.184	84.5
368.41	73.5
368.636	76.5
368.862	108.5
369.089	92.5
369.315	85.5
369.541	100.5
369.767	78.5
369.993	92.5
370.219	99.5
370.445	97.5
370.672	108.5
370.898	89.5
371.124	102.5
371.35	81.5
371.576	89.5
371.802	90.5
372.028	98.5
372.254	96.5
372.48	81.5
372.706	84.5
372.932	93.5
373.158	99.5
373.384	116.5
373.61	122.5
373.835	132.5
374.061	91.5
374.287	86.5
374.513	91.5
374.739	93.5
374.965	106.5
375.191	105.5
375.416	102.5
375.642	97.5
375.868	85.5
376.094	111.5
376.319	94.5
376.545	90.5
376.771	91.5
376.997	99.5
377.222	86.5
377.448	83.5
377.674	89.5
377.899	100.5
378.125	79.5
378.35	86.5
378.576	85.5
378.802	85.5
379.027	90.5
379.253	87.5
379.478	91.5
379.704	85.5
379.929	87.5
380.155	89.5
380.38	94.5
380.606	82.5
380.831	97.5
381.057	93.5
381.282	96.5
381.507	103.5
381.733	100.5
381.958	114.5
382.184	111.5
382.409	102.5
382.634	106.5
382.86	111.5
383.085	87.5
383.31	87.5
383.535	94.5
383.761	96.5
383.986	108.5
384.211	103.5
384.436	92.5
384.662	95.5
384.887	83.5
385.112	103.5
385.337	92.5
385.562	99.5
385.787	108.5
386.013	106.5
386.238	100.5
386.463	91.5
386.688	106.5
386.913	88.5
387.138	102.5
387.363	103.5
387.588	93.5
387.813	94.5
388.038	89.5
388.263	90.5
388.488	109.5
388.713	98.5
388.938	95.5
389.163	96.5
389.387	101.5
389.612	106.5
389.837	85.5
390.062	83.5
390.287	94.5
390.512	88.5
390.736	95.5
390.961	96.5
391.186	101.5
391.411	97.5
391.636	85.5
391.86	92.5
392.085	105.5
392.31	101.5
392.534	128.5
392.759	136.5
392.984	204.5
393.208	336.5
393.433	510.5
393.658	376.5
393.882	162.5
394.107	136.5
394.331	142.5
394.556	131.5
394.78	109.5
395.005	102.5
395.229	103.5
395.454	99.5
395.678	120.5
395.903	135.5
396.127	181.5
396.352	221.5
396.576	222.5
396.801	367.5
397.025	408.5
397.249	207.5
397.474	137.5
397.698	126.5
397.922	105.5
398.147	93.5
398.371	102.5
398.595	92.5
398.82	93.5
399.044	94.5
399.268	87.5
399.492	77.5
399.717	100.5
399.941	95.5
400.165	89.5
400.389	89.5
400.613	95.5
400.837	93.5
401.062	92.5
401.286	86.5
401.51	87.5
401.734	72.5
401.958	99.5
402.182	101.5
402.406	94.5
402.63	83.5
402.854	81.5
403.078	84.5
403.302	103.5
403.526	82.5
403.75	91.5
403.974	87.5
404.198	106.5
404.422	143.5
404.645	146.5
404.869	123.5
405.093	97.5
405.317	86.5
405.541	85.5
405.765	67.5
405.988	88.5
406.212	89.5
406.436	101.5
406.66	75.5
406.883	84.5
407.107	102.5
407.331	106.5
407.555	118.5
407.778	132.5
408.002	132.5
408.226	80.5
408.449	92.5
408.673	78.5
408.896	69.5
409.12	88.5
409.344	101.5
409.567	104.5
409.791	97.5
410.014	87.5
410.238	101.5
410.461	90.5
410.685	93.5
410.908	86.5
411.132	93.5
411.355	84.5
411.578	81.5
411.802	86.5
412.025	89.5
412.249	92.5
412.472	75.5
412.695	75.5
412.919	85.5
413.142	97.5
413.365	77.5
413.589	83.5
413.812	88.5
414.035	101.5
414.258	95.5
414.482	86.5
414.705	95.5
414.928	96.5
415.151	97.5
415.374	96.5
415.597	89.5
415.821	91.5
416.044	88.5
416.267	90.5
416.49	84.5
416.713	85.5
416.936	75.5
417.159	88.5
417.382	73.5
417.605	80.5
417.828	96.5
418.051	84.5
418.274	91.5
418.497	91.5
418.72	85.5
418.943	92.5
419.166	82.5
419.389	79.5
419.611	86.5
419.834	87.5
420.057	91.5
420.28	91.5
420.503	88.5
420.726	107.5
420.948	85.5
421.171	107.5
421.394	109.5
421.617	132.5
421.839	137.5
422.062	165.5
422.285	227.5
422.507	457.5
422.73	677.5
422.953	635.5
423.175	291.5
423.398	169.5
423.621	121.5
423.843	104.5
424.066	100.5
424.288	105.5
424.511	107.5
424.733	83.5
424.956	100.5
425.178	88.5
425.401	92.5
425.623	101.5
425.846	99.5
426.068	85.5
426.291	94.5
426.513	101.5
426.735	75.5
426.958	96.5
427.18	103.5
427.402	87.5
427.625	99.5
427.847	95.5
428.069	93.5
428.292	153.5
428.514	191.5
428.736	139.5
428.958	163.5
429.181	150.5
429.403	105.5
429.625	121.5
429.847	143.5
430.069	219.5
430.292	253.5
430.514	238.5
430.736	167.5
430.958	176.5
431.18	134.5
431.402	87.5
431.624	103.5
431.846	151.5
432.068	165.5
432.29	104.5
432.512	103.5
432.734	93.5
432.956	88.5
433.178	90.5
433.4	77.5
433.622	82.5
433.844	79.5
434.066	100.5
434.287	92.5
434.509	77.5
434.731	92.5
434.953	101.5
435.175	92.5
435.397	85.5
435.618	115.5
435.84	93.5
436.062	92.5
436.284	85.5
436.505	88.5
436.727	92.5
436.949	80.5
437.17	82.5
437.392	93.5
437.614	73.5
437.835	87.5
438.057	87.5
438.278	89.5
438.5	84.5
438.721	91.5
438.943	95.5
439.165	75.5
439.386	79.5
439.608	99.5
439.829	91.5
440.05	81.5
440.272	89.5
440.493	88.5
440.715	98.5
440.936	90.5
441.158	92.5
441.379	97.5
441.6	86.5
441.822	101.5
442.043	81.5
442.264	114.5
442.486	169.5
442.707	252.5
442.928	162.5
443.149	133.5
443.371	200.5
443.592	360.5
443.813	312.5
444.034	142.5
444.255	91.5
444.476	93.5
444.698	108.5
444.919	122.5
445.14	223.5
445.361	275.5
445.582	434.5
445.803	380.5
446.024	148.5
446.245	92.5
446.466	92.5
446.687	89.5
446.908	83.5
447.129	85.5
447.35	82.5
447.571	79.5
447.792	80.5
448.013	82.5
448.234	98.5
448.455	86.5
448.675	68.5
448.896	79.5
449.117	86.5
449.338	81.5
449.559	92.5
449.779	83.5
450	89.5
450.221	91.5
450.442	85.5
450.662	88.5
450.883	93.5
451.104	89.5
451.324	105.5
451.545	82.5
451.766	85.5
451.986	95.5
452.207	90.5
452.428	83.5
452.648	91.5
452.869	100.5
453.089	98.5
453.31	92.5
453.53	104.5
453.751	76.5
453.971	90.5
454.192	93.5
454.412	81.5
454.633	99.5
454.853	85.5
455.073	83.5
455.294	84.5
455.514	97.5
455.734	74.5
455.955	71.5
456.175	92.5
456.395	80.5
456.616	105.5
456.836	100.5
457.056	87.5
457.276	82.5
457.497	86.5
457.717	99.5
457.937	126.5
458.157	138.5
458.377	141.5
458.598	135.5
458.818	138.5
459.038	113.5
459.258	93.5
459.478	92.5
459.698	90.5
459.918	82.5
460.138	92.5
460.358	77.5
460.578	115.5
460.798	133.5
461.018	141.5
461.238	93.5
461.458	102.5
461.678	71.5
461.898	76.5
462.118	93.5
462.338	89.5
462.558	89.5
462.777	96.5
462.997	92.5
463.217	81.5
463.437	88.5
463.657	88.5
463.876	101.5
464.096	79.5
464.316	81.5
464.536	86.5
464.755	101.5
464.975	82.5
465.195	98.5
465.414	93.5
465.634	85.5
465.854	90.5
466.073	69.5
466.293	76.5
466.512	77.5
466.732	72.5
466.951	87.5
467.171	86.5
467.391	93.5
467.61	95.5
467.829	93.5
468.049	95.5
468.268	83.5
468.488	91.5
468.707	86.5
468.927	88.5
469.146	84.5
469.365	73.5
469.585	100.5
469.804	85.5
470.023	79.5
470.243	77.5
470.462	79.5
470.681	67.5
470.901	83.5
471.12	101.5
471.339	93.5
471.558	92.5
471.777	83.5
471.997	92.5
472.216	92.5
472.435	76.5
472.654	80.5
472.873	87.5
473.092	91.5
473.311	93.5
473.53	80.5
473.749	93.5
473.968	78.5
474.187	89.5
474.406	71.5
474.625	84.5
474.844	91.5
475.063	79.5
475.282	87.5
475.501	93.5
475.72	92.5
475.939	84.5
476.158	83.5
476.377	98.5
476.596	92.5
476.814	80.5
477.033	84.5
477.252	81.5
477.471	91.5
477.69	88.5
477.908	85.5
478.127	102.5
478.346	88.5
478.564	87.5
478.783	89.5
479.002	87.5
479.22	91.5
479.439	104.5
479.658	96.5
479.876	87.5
480.095	83.5
480.313	93.5
480.532	104.5
480.751	93.5
480.969	84.5
481.188	86.5
481.406	92.5
481.624	78.5
481.843	85.5
482.061	89.5
482.28	89.5
482.498	81.5
482.717	68.5
482.935	91.5
483.153	85.5
483.372	97.5
483.59	99.5
483.808	88.5
484.027	88.5
484.245	88.5
484.463	97.5
484.681	98.5
484.9	89.5
485.118	97.5
485.336	91.5
485.554	84.5
485.772	101.5
485.99	83.5
486.209	75.5
486.427	93.5
486.645	87.5
486.863	82.5
487.081	91.5
487.299	97.5
487.517	111.5
487.735	130.5
487.953	197.5
488.171	169.5
488.389	102.5
488.607	83.5
488.825	65.5
489.043	87.5
489.261	108.5
489.479	102.5
489.696	79.5
489.914	79.5
490.132	101.5
490.35	95.5
490.568	90.5
490.786	107.5
491.003	87.5
491.221	90.5
491.439	87.5
491.657	90.5
491.874	94.5
492.092	87.5
492.31	84.5
492.527	86.5
492.745	97.5
492.963	97.5
493.18	97.5
493.398	89.5
493.615	104.5
493.833	85.5
494.05	78.5
494.268	91.5
494.485	103.5
494.703	93.5
494.92	75.5
495.138	98.5
495.355	79.5
495.573	83.5
495.79	85.5
496.008	91.5
496.225	99.5
496.442	88.5
496.66	95.5
496.877	93.5
497.094	100.5
497.312	88.5
497.529	92.5
497.746	91.5
497.963	94.5
498.181	90.5
498.398	95.5
498.615	83.5
498.832	95.5
499.049	97.5
499.267	100.5
499.484	96.5
499.701	93.5
499.918	75.5
500.135	103.5
500.352	109.5
500.569	87.5
500.786	86.5
501.003	87.5
501.22	87.5
501.437	97.5
501.654	96.5
501.871	87.5
502.088	82.5
502.305	87.5
502.522	88.5
502.739	106.5
502.956	96.5
503.172	93.5
503.389	83.5
503.606	103.5
503.823	102.5
504.04	107.5
504.256	156.5
504.473	144.5
504.69	111.5
504.907	109.5
505.123	92.5
505.34	90.5
505.557	86.5
505.773	82.5
505.99	87.5
506.207	76.5
506.423	95.5
506.64	81.5
506.856	91.5
507.073	86.5
507.289	83.5
507.506	90.5
507.722	84.5
507.939	98.5
508.155	104.5
508.372	89.5
508.588	84.5
508.805	87.5
509.021	87.5
509.238	90.5
509.454	89.5
509.67	99.5
509.887	100.5
510.103	83.5
510.319	83.5
510.536	81.5
510.752	89.5
510.968	78.5
511.184	95.5
511.401	89.5
511.617	95.5
511.833	87.5
512.049	73.5
512.265	71.5
512.481	91.5
512.698	91.5
512.914	92.5
513.13	103.5
513.346	92.5
513.562	85.5
513.778	93.5
513.994	87.5
514.21	95.5
514.426	76.5
514.642	90.5
514.858	95.5
515.074	85.5
515.29	95.5
515.506	88.5
515.721	91.5
515.937	106.5
516.153	96.5
516.369	69.5
516.585	97.5
516.801	89.5
517.016	108.5
517.232	107.5
517.448	112.5
517.664	95.5
517.879	73.5
518.095	94.5
518.311	95.5
518.527	111.5
518.742	120.5
518.958	170.5
519.173	203.5
519.389	113.5
519.605	86.5
519.82	84.5
520.036	79.5
520.251	98.5
520.467	77.5
520.682	83.5
520.898	78.5
521.113	102.5
521.329	93.5
521.544	87.5
521.76	83.5
521.975	80.5
522.19	93.5
522.406	95.5
522.621	95.5
522.836	107.5
523.052	97.5
523.267	81.5
523.482	96.5
523.698	75.5
523.913	87.5
524.128	103.5
524.343	96.5
524.559	97.5
524.774	86.5
524.989	91.5
525.204	94.5
525.419	106.5
525.634	89.5
525.849	111.5
526.064	143.5
526.28	289.5
526.495	412.5
526.71	468.5
526.925	298.5
527.14	413.5
527.355	343.5
527.57	127.5
527.785	96.5
527.999	89.5
528.214	97.5
528.429	111.5
528.644	107.5
528.859	95.5
529.074	92.5
529.289	98.5
529.503	98.5
529.718	92.5
529.933	99.5
530.148	92.5
530.363	85.5
530.577	96.5
530.792	102.5
531.007	84.5
531.221	87.5
531.436	98.5
531.651	100.5
531.865	87.5
532.08	85.5
532.295	97.5
532.509	115.5
532.724	116.5
532.938	104.5
533.153	98.5
533.367	97.5
533.582	94.5
533.796	112.5
534.011	102.5
534.225	91.5
534.44	113.5
534.654	110.5
534.868	119.5
535.083	211.5
535.297	179.5
535.511	135.5
535.726	99.5
535.94	102.5
536.154	115.5
536.369	105.5
536.583	90.5
