Data from HP_3_HRD10591_00042.txt Node
Date: Mon Jan 19 14:17:21 EST 2026
User: Yrep
Spectrometer: HR+D1059
Trigger mode: 1
Integration Time (sec): 1.000000E-1
Scans to average: 1
Electric dark correction enabled: true
Nonlinearity correction enabled: false
Boxcar width: 0
XAxis mode: Wavelengths
Number of Pixels in Spectrum: 2048
>>>>>Begin Spectral Data<<<<<
223.165	-4.06
223.4	-4.06
223.635	-4.06
223.869	-17.06
224.104	-24.06
224.338	-13.06
224.573	-24.06
224.808	-20.06
225.042	-12.06
225.277	0.94
225.511	-7.06
225.746	17.94
225.98	-2.06
226.215	18.94
226.449	11.94
226.683	13.94
226.918	23.94
227.152	35.94
227.387	40.94
227.621	30.94
227.856	39.94
228.09	43.94
228.324	40.94
228.559	57.94
228.793	58.94
229.027	55.94
229.262	63.94
229.496	67.94
229.73	69.94
229.964	75.94
230.199	66.94
230.433	62.94
230.667	75.94
230.901	83.94
231.136	89.94
231.37	87.94
231.604	69.94
231.838	79.94
232.072	80.94
232.306	71.94
232.541	75.94
232.775	85.94
233.009	76.94
233.243	71.94
233.477	75.94
233.711	83.94
233.945	69.94
234.179	68.94
234.413	82.94
234.647	79.94
234.881	91.94
235.115	80.94
235.349	76.94
235.583	72.94
235.817	73.94
236.051	72.94
236.285	68.94
236.519	73.94
236.753	82.94
236.987	76.94
237.221	79.94
237.455	74.94
237.689	71.94
237.922	61.94
238.156	64.94
238.39	67.94
238.624	72.94
238.858	84.94
239.091	76.94
239.325	79.94
239.559	78.94
239.793	84.94
240.027	67.94
240.26	73.94
240.494	72.94
240.728	73.94
240.961	56.94
241.195	71.94
241.429	74.94
241.662	76.94
241.896	73.94
242.13	73.94
242.363	77.94
242.597	73.94
242.83	71.94
243.064	73.94
243.298	77.94
243.531	75.94
243.765	78.94
243.998	69.94
244.232	72.94
244.465	76.94
244.699	74.94
244.932	60.94
245.166	80.94
245.399	72.94
245.633	81.94
245.866	68.94
246.099	71.94
246.333	78.94
246.566	74.94
246.8	66.94
247.033	72.94
247.266	70.94
247.5	69.94
247.733	87.94
247.966	70.94
248.2	74.94
248.433	72.94
248.666	69.94
248.899	75.94
249.133	73.94
249.366	89.94
249.599	59.94
249.832	84.94
250.066	85.94
250.299	89.94
250.532	79.94
250.765	75.94
250.998	63.94
251.231	60.94
251.465	70.94
251.698	78.94
251.931	98.94
252.164	86.94
252.397	83.94
252.63	98.94
252.863	79.94
253.096	65.94
253.329	76.94
253.562	85.94
253.795	84.94
254.028	82.94
254.261	81.94
254.494	77.94
254.727	82.94
254.96	81.94
255.193	76.94
255.426	80.94
255.659	75.94
255.892	74.94
256.124	73.94
256.357	83.94
256.59	77.94
256.823	80.94
257.056	68.94
257.289	74.94
257.521	86.94
257.754	79.94
257.987	74.94
258.22	69.94
258.452	80.94
258.685	99.94
258.918	94.94
259.151	82.94
259.383	68.94
259.616	73.94
259.849	73.94
260.081	84.94
260.314	85.94
260.547	73.94
260.779	80.94
261.012	97.94
261.244	76.94
261.477	87.94
261.71	81.94
261.942	74.94
262.175	73.94
262.407	68.94
262.64	72.94
262.872	94.94
263.105	70.94
263.337	79.94
263.57	85.94
263.802	83.94
264.035	74.94
264.267	101.94
264.499	76.94
264.732	75.94
264.964	75.94
265.197	74.94
265.429	85.94
265.661	93.94
265.894	88.94
266.126	82.94
266.358	86.94
266.591	79.94
266.823	89.94
267.055	85.94
267.287	82.94
267.52	85.94
267.752	72.94
267.984	68.94
268.216	89.94
268.448	63.94
268.681	86.94
268.913	82.94
269.145	82.94
269.377	71.94
269.609	83.94
269.841	63.94
270.073	84.94
270.306	79.94
270.538	82.94
270.77	74.94
271.002	79.94
271.234	90.94
271.466	85.94
271.698	74.94
271.93	83.94
272.162	79.94
272.394	79.94
272.626	76.94
272.858	71.94
273.09	83.94
273.322	71.94
273.553	80.94
273.785	71.94
274.017	92.94
274.249	78.94
274.481	63.94
274.713	72.94
274.945	81.94
275.176	91.94
275.408	82.94
275.64	80.94
275.872	86.94
276.104	92.94
276.335	99.94
276.567	75.94
276.799	87.94
277.031	79.94
277.262	78.94
277.494	73.94
277.726	77.94
277.957	86.94
278.189	73.94
278.421	75.94
278.652	67.94
278.884	86.94
279.115	81.94
279.347	91.94
279.579	99.94
279.81	83.94
280.042	84.94
280.273	92.94
280.505	94.94
280.736	71.94
280.968	83.94
281.199	73.94
281.431	69.94
281.662	81.94
281.894	78.94
282.125	93.94
282.356	93.94
282.588	80.94
282.819	84.94
283.051	82.94
283.282	77.94
283.513	76.94
283.745	63.94
283.976	74.94
284.207	72.94
284.439	78.94
284.67	80.94
284.901	85.94
285.132	101.94
285.364	79.94
285.595	83.94
285.826	96.94
286.057	85.94
286.288	79.94
286.52	90.94
286.751	91.94
286.982	102.94
287.213	87.94
287.444	85.94
287.675	82.94
287.906	78.94
288.138	92.94
288.369	83.94
288.6	96.94
288.831	77.94
289.062	87.94
289.293	93.94
289.524	79.94
289.755	80.94
289.986	68.94
290.217	86.94
290.448	86.94
290.679	82.94
290.91	88.94
291.141	74.94
291.371	78.94
291.602	78.94
291.833	90.94
292.064	81.94
292.295	87.94
292.526	78.94
292.757	84.94
292.987	85.94
293.218	81.94
293.449	83.94
293.68	88.94
293.91	79.94
294.141	84.94
294.372	78.94
294.603	84.94
294.833	93.94
295.064	79.94
295.295	79.94
295.525	93.94
295.756	81.94
295.987	82.94
296.217	78.94
296.448	85.94
296.679	82.94
296.909	89.94
297.14	95.94
297.37	94.94
297.601	81.94
297.831	93.94
298.062	92.94
298.292	98.94
298.523	76.94
298.753	75.94
298.984	83.94
299.214	83.94
299.445	79.94
299.675	88.94
299.905	86.94
300.136	73.94
300.366	87.94
300.597	71.94
300.827	82.94
301.057	74.94
301.288	67.94
301.518	94.94
301.748	95.94
301.979	90.94
302.209	85.94
302.439	83.94
302.669	99.94
302.9	97.94
303.13	81.94
303.36	89.94
303.59	86.94
303.82	93.94
304.051	84.94
304.281	83.94
304.511	92.94
304.741	91.94
304.971	81.94
305.201	87.94
305.431	86.94
305.661	80.94
305.891	82.94
306.121	71.94
306.352	99.94
306.582	74.94
306.812	81.94
307.042	87.94
307.272	89.94
307.502	75.94
307.731	81.94
307.961	83.94
308.191	78.94
308.421	91.94
308.651	93.94
308.881	86.94
309.111	66.94
309.341	74.94
309.571	77.94
309.8	85.94
310.03	83.94
310.26	69.94
310.49	91.94
310.72	76.94
310.949	76.94
311.179	78.94
311.409	81.94
311.639	79.94
311.868	75.94
312.098	79.94
312.328	81.94
312.557	83.94
312.787	82.94
313.017	86.94
313.246	87.94
313.476	78.94
313.706	95.94
313.935	84.94
314.165	82.94
314.394	54.94
314.624	74.94
314.853	76.94
315.083	88.94
315.312	93.94
315.542	96.94
315.771	84.94
316.001	81.94
316.23	75.94
316.46	70.94
316.689	73.94
316.919	83.94
317.148	82.94
317.377	97.94
317.607	81.94
317.836	90.94
318.065	83.94
318.295	86.94
318.524	100.94
318.753	93.94
318.983	87.94
319.212	77.94
319.441	77.94
319.67	72.94
319.9	66.94
320.129	86.94
320.358	80.94
320.587	91.94
320.816	81.94
321.046	66.94
321.275	95.94
321.504	79.94
321.733	88.94
321.962	78.94
322.191	81.94
322.42	81.94
322.649	86.94
322.878	81.94
323.108	86.94
323.337	79.94
323.566	87.94
323.795	87.94
324.024	72.94
324.253	85.94
324.482	81.94
324.71	91.94
324.939	89.94
325.168	81.94
325.397	85.94
325.626	86.94
325.855	91.94
326.084	74.94
326.313	91.94
326.542	86.94
326.77	90.94
326.999	71.94
327.228	83.94
327.457	72.94
327.686	75.94
327.914	81.94
328.143	78.94
328.372	70.94
328.6	89.94
328.829	63.94
329.058	84.94
329.287	75.94
329.515	69.94
329.744	81.94
329.972	89.94
330.201	84.94
330.43	91.94
330.658	96.94
330.887	88.94
331.115	78.94
331.344	81.94
331.572	76.94
331.801	96.94
332.03	81.94
332.258	79.94
332.486	83.94
332.715	76.94
332.943	66.94
333.172	90.94
333.4	71.94
333.629	68.94
333.857	82.94
334.085	94.94
334.314	79.94
334.542	76.94
334.771	74.94
334.999	75.94
335.227	76.94
335.455	72.94
335.684	85.94
335.912	71.94
336.14	85.94
336.369	87.94
336.597	89.94
336.825	82.94
337.053	80.94
337.281	91.94
337.51	75.94
337.738	85.94
337.966	81.94
338.194	71.94
338.422	73.94
338.65	73.94
338.878	86.94
339.106	77.94
339.334	86.94
339.562	82.94
339.79	65.94
340.018	77.94
340.246	71.94
340.474	71.94
340.702	76.94
340.93	76.94
341.158	80.94
341.386	77.94
341.614	74.94
341.842	72.94
342.07	82.94
342.298	76.94
342.526	70.94
342.754	82.94
342.981	80.94
343.209	77.94
343.437	99.94
343.665	81.94
343.893	80.94
344.12	87.94
344.348	84.94
344.576	74.94
344.804	83.94
345.031	83.94
345.259	80.94
345.487	85.94
345.714	73.94
345.942	71.94
346.17	83.94
346.397	89.94
346.625	91.94
346.853	86.94
347.08	73.94
347.308	84.94
347.535	95.94
347.763	93.94
347.99	99.94
348.218	89.94
348.445	74.94
348.673	95.94
348.9	85.94
349.128	78.94
349.355	76.94
349.583	75.94
349.81	81.94
350.037	91.94
350.265	87.94
350.492	87.94
350.72	75.94
350.947	73.94
351.174	83.94
351.402	79.94
351.629	74.94
351.856	81.94
352.083	74.94
352.311	83.94
352.538	85.94
352.765	95.94
352.992	94.94
353.22	75.94
353.447	83.94
353.674	103.94
353.901	75.94
354.128	89.94
354.355	91.94
354.583	85.94
354.81	87.94
355.037	74.94
355.264	95.94
355.491	80.94
355.718	90.94
355.945	80.94
356.172	81.94
356.399	90.94
356.626	70.94
356.853	72.94
357.08	86.94
357.307	91.94
357.534	96.94
357.761	83.94
357.988	100.94
358.215	93.94
358.441	73.94
358.668	69.94
358.895	79.94
359.122	81.94
359.349	83.94
359.576	84.94
359.802	98.94
360.029	76.94
360.256	80.94
360.483	93.94
360.709	72.94
360.936	94.94
361.163	68.94
361.39	66.94
361.616	90.94
361.843	84.94
362.07	75.94
362.296	78.94
362.523	65.94
362.749	78.94
362.976	85.94
363.203	91.94
363.429	77.94
363.656	91.94
363.882	83.94
364.109	81.94
364.335	88.94
364.562	86.94
364.788	73.94
365.015	73.94
365.241	86.94
365.468	96.94
365.694	88.94
365.92	88.94
366.147	78.94
366.373	68.94
366.599	90.94
366.826	85.94
367.052	79.94
367.278	70.94
367.505	72.94
367.731	83.94
367.957	82.94
368.184	73.94
368.41	85.94
368.636	56.94
368.862	73.94
369.089	58.94
369.315	79.94
369.541	82.94
369.767	81.94
369.993	77.94
370.219	89.94
370.445	72.94
370.672	77.94
370.898	72.94
371.124	83.94
371.35	80.94
371.576	78.94
371.802	84.94
372.028	80.94
372.254	84.94
372.48	83.94
372.706	76.94
372.932	73.94
373.158	87.94
373.384	94.94
373.61	80.94
373.835	105.94
374.061	90.94
374.287	86.94
374.513	80.94
374.739	95.94
374.965	87.94
375.191	93.94
375.416	76.94
375.642	88.94
375.868	88.94
376.094	87.94
376.319	86.94
376.545	87.94
376.771	94.94
376.997	85.94
377.222	95.94
377.448	79.94
377.674	79.94
377.899	74.94
378.125	74.94
378.35	83.94
378.576	77.94
378.802	85.94
379.027	82.94
379.253	80.94
379.478	76.94
379.704	79.94
379.929	84.94
380.155	88.94
380.38	70.94
380.606	79.94
380.831	72.94
381.057	73.94
381.282	79.94
381.507	79.94
381.733	87.94
381.958	89.94
382.184	84.94
382.409	88.94
382.634	86.94
382.86	94.94
383.085	87.94
383.31	67.94
383.535	75.94
383.761	85.94
383.986	75.94
384.211	78.94
384.436	77.94
384.662	81.94
384.887	67.94
385.112	67.94
385.337	70.94
385.562	73.94
385.787	72.94
386.013	81.94
386.238	83.94
386.463	73.94
386.688	98.94
386.913	80.94
387.138	83.94
387.363	70.94
387.588	72.94
387.813	80.94
388.038	86.94
388.263	78.94
388.488	74.94
388.713	87.94
388.938	87.94
389.163	78.94
389.387	74.94
389.612	66.94
389.837	75.94
390.062	78.94
390.287	81.94
390.512	86.94
390.736	74.94
390.961	66.94
391.186	63.94
391.411	75.94
391.636	81.94
391.86	79.94
392.085	91.94
392.31	93.94
392.534	85.94
392.759	84.94
392.984	103.94
393.208	147.94
393.433	204.94
393.658	160.94
393.882	112.94
394.107	93.94
394.331	85.94
394.556	89.94
394.78	94.94
395.005	93.94
395.229	73.94
395.454	61.94
395.678	80.94
395.903	87.94
396.127	103.94
396.352	106.94
396.576	112.94
396.801	146.94
397.025	166.94
397.249	117.94
397.474	98.94
397.698	78.94
397.922	79.94
398.147	89.94
398.371	75.94
398.595	81.94
398.82	65.94
399.044	80.94
399.268	83.94
399.492	84.94
399.717	81.94
399.941	88.94
400.165	90.94
400.389	72.94
400.613	80.94
400.837	69.94
401.062	84.94
401.286	88.94
401.51	72.94
401.734	82.94
401.958	85.94
402.182	88.94
402.406	82.94
402.63	74.94
402.854	81.94
403.078	78.94
403.302	91.94
403.526	79.94
403.75	80.94
403.974	75.94
404.198	74.94
404.422	83.94
404.645	77.94
404.869	74.94
405.093	80.94
405.317	74.94
405.541	63.94
405.765	82.94
405.988	84.94
406.212	75.94
406.436	89.94
406.66	85.94
406.883	90.94
407.107	84.94
407.331	95.94
407.555	63.94
407.778	88.94
408.002	85.94
408.226	86.94
408.449	93.94
408.673	85.94
408.896	93.94
409.12	81.94
409.344	89.94
409.567	86.94
409.791	81.94
410.014	83.94
410.238	84.94
410.461	77.94
410.685	71.94
410.908	89.94
411.132	87.94
411.355	90.94
411.578	68.94
411.802	81.94
412.025	74.94
412.249	72.94
412.472	82.94
412.695	76.94
412.919	73.94
413.142	71.94
413.365	83.94
413.589	83.94
413.812	76.94
414.035	67.94
414.258	79.94
414.482	73.94
414.705	83.94
414.928	82.94
415.151	71.94
415.374	80.94
415.597	68.94
415.821	79.94
416.044	85.94
416.267	80.94
416.49	92.94
416.713	63.94
416.936	86.94
417.159	77.94
417.382	80.94
417.605	80.94
417.828	71.94
418.051	76.94
418.274	75.94
418.497	75.94
418.72	78.94
418.943	73.94
419.166	83.94
419.389	73.94
419.611	82.94
419.834	75.94
420.057	79.94
420.28	79.94
420.503	67.94
420.726	82.94
420.948	69.94
421.171	87.94
421.394	86.94
421.617	98.94
421.839	96.94
422.062	84.94
422.285	90.94
422.507	107.94
422.73	175.94
422.953	175.94
423.175	100.94
423.398	79.94
423.621	81.94
423.843	84.94
424.066	84.94
424.288	73.94
424.511	78.94
424.733	73.94
424.956	75.94
425.178	88.94
425.401	75.94
425.623	89.94
425.846	68.94
426.068	68.94
426.291	69.94
426.513	89.94
426.735	81.94
426.958	79.94
427.18	74.94
427.402	76.94
427.625	75.94
427.847	82.94
428.069	72.94
428.292	88.94
428.514	85.94
428.736	86.94
428.958	81.94
429.181	80.94
429.403	97.94
429.625	76.94
429.847	93.94
430.069	94.94
430.292	101.94
430.514	104.94
430.736	90.94
430.958	97.94
431.18	94.94
431.402	71.94
431.624	87.94
431.846	91.94
432.068	91.94
432.29	78.94
432.512	69.94
432.734	67.94
432.956	84.94
433.178	103.94
433.4	94.94
433.622	74.94
433.844	68.94
434.066	72.94
434.287	85.94
434.509	81.94
434.731	75.94
434.953	81.94
435.175	67.94
435.397	72.94
435.618	93.94
435.84	88.94
436.062	90.94
436.284	83.94
436.505	83.94
436.727	75.94
436.949	78.94
437.17	71.94
437.392	66.94
437.614	100.94
437.835	68.94
438.057	93.94
438.278	77.94
438.5	75.94
438.721	85.94
438.943	67.94
439.165	94.94
439.386	82.94
439.608	84.94
439.829	92.94
440.05	99.94
440.272	90.94
440.493	74.94
440.715	74.94
440.936	65.94
441.158	83.94
441.379	90.94
441.6	81.94
441.822	89.94
442.043	93.94
442.264	81.94
442.486	87.94
442.707	103.94
442.928	83.94
443.149	70.94
443.371	96.94
443.592	114.94
443.813	106.94
444.034	89.94
444.255	85.94
444.476	71.94
444.698	82.94
444.919	78.94
445.14	180.94
445.361	134.94
445.582	132.94
445.803	119.94
446.024	87.94
446.245	98.94
446.466	76.94
446.687	79.94
446.908	86.94
447.129	76.94
447.35	84.94
447.571	75.94
447.792	91.94
448.013	71.94
448.234	69.94
448.455	57.94
448.675	81.94
448.896	89.94
449.117	86.94
449.338	85.94
449.559	85.94
449.779	70.94
450	90.94
450.221	64.94
450.442	73.94
450.662	91.94
450.883	81.94
451.104	69.94
451.324	71.94
451.545	83.94
451.766	77.94
451.986	64.94
452.207	72.94
452.428	79.94
452.648	86.94
452.869	80.94
453.089	72.94
453.31	83.94
453.53	79.94
453.751	74.94
453.971	84.94
454.192	67.94
454.412	71.94
454.633	82.94
454.853	69.94
455.073	89.94
455.294	81.94
455.514	76.94
455.734	83.94
455.955	88.94
456.175	76.94
456.395	73.94
456.616	85.94
456.836	74.94
457.056	75.94
457.276	86.94
457.497	83.94
457.717	65.94
457.937	73.94
458.157	96.94
458.377	83.94
458.598	85.94
458.818	67.94
459.038	82.94
459.258	89.94
459.478	81.94
459.698	87.94
459.918	77.94
460.138	74.94
460.358	65.94
460.578	70.94
460.798	96.94
461.018	83.94
461.238	83.94
461.458	87.94
461.678	81.94
461.898	83.94
462.118	85.94
462.338	75.94
462.558	89.94
462.777	83.94
462.997	76.94
463.217	78.94
463.437	81.94
463.657	83.94
463.876	85.94
464.096	79.94
464.316	71.94
464.536	79.94
464.755	83.94
464.975	81.94
465.195	102.94
465.414	81.94
465.634	76.94
465.854	87.94
466.073	77.94
466.293	68.94
466.512	82.94
466.732	70.94
466.951	61.94
467.171	73.94
467.391	79.94
467.61	84.94
467.829	73.94
468.049	90.94
468.268	86.94
468.488	97.94
468.707	79.94
468.927	71.94
469.146	80.94
469.365	75.94
469.585	75.94
469.804	100.94
470.023	77.94
470.243	71.94
470.462	70.94
470.681	75.94
470.901	83.94
471.12	87.94
471.339	85.94
471.558	72.94
471.777	82.94
471.997	75.94
472.216	81.94
472.435	73.94
472.654	85.94
472.873	76.94
473.092	82.94
473.311	83.94
473.53	80.94
473.749	78.94
473.968	83.94
474.187	75.94
474.406	79.94
474.625	81.94
474.844	82.94
475.063	77.94
475.282	87.94
475.501	87.94
475.72	82.94
475.939	88.94
476.158	79.94
476.377	76.94
476.596	73.94
476.814	69.94
477.033	84.94
477.252	85.94
477.471	78.94
477.69	72.94
477.908	82.94
478.127	84.94
478.346	78.94
478.564	73.94
478.783	92.94
479.002	72.94
479.22	71.94
479.439	85.94
479.658	82.94
479.876	83.94
480.095	88.94
480.313	85.94
480.532	66.94
480.751	69.94
480.969	69.94
481.188	95.94
481.406	86.94
481.624	73.94
481.843	86.94
482.061	63.94
482.28	89.94
482.498	64.94
482.717	87.94
482.935	70.94
483.153	90.94
483.372	75.94
483.59	90.94
483.808	89.94
484.027	67.94
484.245	76.94
484.463	68.94
484.681	85.94
484.9	81.94
485.118	71.94
485.336	87.94
485.554	72.94
485.772	76.94
485.99	91.94
486.209	79.94
486.427	77.94
486.645	84.94
486.863	86.94
487.081	79.94
487.299	79.94
487.517	94.94
487.735	72.94
487.953	96.94
488.171	84.94
488.389	68.94
488.607	83.94
488.825	60.94
489.043	75.94
489.261	95.94
489.479	84.94
489.696	81.94
489.914	94.94
490.132	77.94
490.35	94.94
490.568	86.94
490.786	80.94
491.003	61.94
491.221	87.94
491.439	86.94
491.657	85.94
491.874	71.94
492.092	84.94
492.31	83.94
492.527	84.94
492.745	85.94
492.963	86.94
493.18	99.94
493.398	102.94
493.615	73.94
493.833	76.94
494.05	70.94
494.268	72.94
494.485	81.94
494.703	83.94
494.92	89.94
495.138	80.94
495.355	76.94
495.573	88.94
495.79	84.94
496.008	78.94
496.225	87.94
496.442	71.94
496.66	83.94
496.877	77.94
497.094	72.94
497.312	77.94
497.529	90.94
497.746	77.94
497.963	73.94
498.181	87.94
498.398	84.94
498.615	89.94
498.832	77.94
499.049	78.94
499.267	99.94
499.484	82.94
499.701	68.94
499.918	81.94
500.135	93.94
500.352	82.94
500.569	69.94
500.786	74.94
501.003	82.94
501.22	88.94
501.437	84.94
501.654	91.94
501.871	82.94
502.088	80.94
502.305	81.94
502.522	88.94
502.739	95.94
502.956	95.94
503.172	80.94
503.389	81.94
503.606	79.94
503.823	82.94
504.04	88.94
504.256	95.94
504.473	85.94
504.69	80.94
504.907	78.94
505.123	81.94
505.34	80.94
505.557	79.94
505.773	85.94
505.99	76.94
506.207	69.94
506.423	75.94
506.64	91.94
506.856	76.94
507.073	67.94
507.289	77.94
507.506	93.94
507.722	80.94
507.939	80.94
508.155	74.94
508.372	79.94
508.588	81.94
508.805	79.94
509.021	95.94
509.238	87.94
509.454	81.94
509.67	65.94
509.887	81.94
510.103	87.94
510.319	100.94
510.536	82.94
510.752	85.94
510.968	93.94
511.184	69.94
511.401	73.94
511.617	79.94
511.833	89.94
512.049	87.94
512.265	76.94
512.481	92.94
512.698	77.94
512.914	83.94
513.13	88.94
513.346	85.94
513.562	72.94
513.778	81.94
513.994	90.94
514.21	78.94
514.426	85.94
514.642	82.94
514.858	73.94
515.074	81.94
515.29	102.94
515.506	75.94
515.721	86.94
515.937	77.94
516.153	84.94
516.369	86.94
516.585	90.94
516.801	93.94
517.016	83.94
517.232	94.94
517.448	89.94
517.664	87.94
517.879	95.94
518.095	72.94
518.311	88.94
518.527	88.94
518.742	88.94
518.958	94.94
519.173	101.94
519.389	85.94
519.605	83.94
519.82	76.94
