Data from HP_3_HRD10591_00008.txt Node
Date: Mon Jan 19 14:17:04 EST 2026
User: Yrep
Spectrometer: HR+D1059
Trigger mode: 1
Integration Time (sec): 1.000000E-1
Scans to average: 1
Electric dark correction enabled: true
Nonlinearity correction enabled: false
Boxcar width: 0
XAxis mode: Wavelengths
Number of Pixels in Spectrum: 2048
>>>>>Begin Spectral Data<<<<<
223.165	-17.19
223.4	-17.19
223.635	-17.19
223.869	-17.19
224.104	-11.19
224.338	-13.19
224.573	-21.19
224.808	-1.19
225.042	-15.19
225.277	-11.19
225.511	6.81
225.746	10.81
225.98	3.81
226.215	11.81
226.449	17.81
226.683	2.81
226.918	18.81
227.152	34.81
227.387	42.81
227.621	26.81
227.856	51.81
228.09	47.81
228.324	52.81
228.559	57.81
228.793	65.81
229.027	66.81
229.262	59.81
229.496	58.81
229.73	64.81
229.964	76.81
230.199	57.81
230.433	62.81
230.667	82.81
230.901	71.81
231.136	76.81
231.37	80.81
231.604	68.81
231.838	82.81
232.072	79.81
232.306	84.81
232.541	76.81
232.775	79.81
233.009	71.81
233.243	83.81
233.477	74.81
233.711	67.81
233.945	92.81
234.179	71.81
234.413	88.81
234.647	98.81
234.881	81.81
235.115	82.81
235.349	73.81
235.583	77.81
235.817	74.81
236.051	70.81
236.285	67.81
236.519	75.81
236.753	74.81
236.987	75.81
237.221	63.81
237.455	64.81
237.689	67.81
237.922	79.81
238.156	74.81
238.39	84.81
238.624	68.81
238.858	81.81
239.091	91.81
239.325	77.81
239.559	76.81
239.793	74.81
240.027	84.81
240.26	82.81
240.494	76.81
240.728	82.81
240.961	82.81
241.195	87.81
241.429	76.81
241.662	91.81
241.896	60.81
242.13	69.81
242.363	62.81
242.597	67.81
242.83	74.81
243.064	82.81
243.298	69.81
243.531	74.81
243.765	62.81
243.998	77.81
244.232	83.81
244.465	83.81
244.699	89.81
244.932	76.81
245.166	72.81
245.399	77.81
245.633	68.81
245.866	78.81
246.099	78.81
246.333	80.81
246.566	81.81
246.8	86.81
247.033	71.81
247.266	86.81
247.5	79.81
247.733	53.81
247.966	74.81
248.2	72.81
248.433	73.81
248.666	72.81
248.899	73.81
249.133	76.81
249.366	86.81
249.599	82.81
249.832	80.81
250.066	87.81
250.299	86.81
250.532	83.81
250.765	73.81
250.998	84.81
251.231	91.81
251.465	79.81
251.698	80.81
251.931	74.81
252.164	64.81
252.397	100.81
252.63	79.81
252.863	70.81
253.096	72.81
253.329	81.81
253.562	78.81
253.795	77.81
254.028	82.81
254.261	60.81
254.494	77.81
254.727	72.81
254.96	78.81
255.193	72.81
255.426	81.81
255.659	82.81
255.892	82.81
256.124	63.81
256.357	78.81
256.59	85.81
256.823	87.81
257.056	73.81
257.289	69.81
257.521	80.81
257.754	85.81
257.987	88.81
258.22	77.81
258.452	77.81
258.685	76.81
258.918	90.81
259.151	88.81
259.383	91.81
259.616	75.81
259.849	81.81
260.081	88.81
260.314	94.81
260.547	92.81
260.779	82.81
261.012	90.81
261.244	70.81
261.477	87.81
261.71	70.81
261.942	82.81
262.175	75.81
262.407	79.81
262.64	90.81
262.872	74.81
263.105	76.81
263.337	83.81
263.57	75.81
263.802	84.81
264.035	71.81
264.267	80.81
264.499	96.81
264.732	84.81
264.964	89.81
265.197	95.81
265.429	87.81
265.661	79.81
265.894	90.81
266.126	91.81
266.358	93.81
266.591	79.81
266.823	67.81
267.055	71.81
267.287	83.81
267.52	80.81
267.752	74.81
267.984	83.81
268.216	84.81
268.448	102.81
268.681	88.81
268.913	89.81
269.145	81.81
269.377	82.81
269.609	91.81
269.841	88.81
270.073	68.81
270.306	95.81
270.538	77.81
270.77	73.81
271.002	65.81
271.234	83.81
271.466	61.81
271.698	92.81
271.93	75.81
272.162	89.81
272.394	82.81
272.626	92.81
272.858	71.81
273.09	85.81
273.322	82.81
273.553	68.81
273.785	87.81
274.017	90.81
274.249	97.81
274.481	98.81
274.713	91.81
274.945	86.81
275.176	88.81
275.408	80.81
275.64	75.81
275.872	79.81
276.104	76.81
276.335	84.81
276.567	74.81
276.799	89.81
277.031	82.81
277.262	90.81
277.494	83.81
277.726	73.81
277.957	97.81
278.189	91.81
278.421	81.81
278.652	75.81
278.884	75.81
279.115	79.81
279.347	86.81
279.579	77.81
279.81	74.81
280.042	77.81
280.273	76.81
280.505	84.81
280.736	76.81
280.968	79.81
281.199	82.81
281.431	76.81
281.662	79.81
281.894	87.81
282.125	78.81
282.356	88.81
282.588	97.81
282.819	87.81
283.051	91.81
283.282	94.81
283.513	88.81
283.745	90.81
283.976	74.81
284.207	99.81
284.439	79.81
284.67	80.81
284.901	103.81
285.132	104.81
285.364	91.81
285.595	86.81
285.826	80.81
286.057	74.81
286.288	78.81
286.52	80.81
286.751	93.81
286.982	85.81
287.213	79.81
287.444	82.81
287.675	92.81
287.906	67.81
288.138	87.81
288.369	76.81
288.6	98.81
288.831	71.81
289.062	80.81
289.293	73.81
289.524	88.81
289.755	95.81
289.986	86.81
290.217	98.81
290.448	97.81
290.679	86.81
290.91	82.81
291.141	88.81
291.371	92.81
291.602	88.81
291.833	84.81
292.064	71.81
292.295	84.81
292.526	86.81
292.757	90.81
292.987	99.81
293.218	80.81
293.449	76.81
293.68	85.81
293.91	81.81
294.141	95.81
294.372	79.81
294.603	83.81
294.833	78.81
295.064	95.81
295.295	100.81
295.525	83.81
295.756	84.81
295.987	83.81
296.217	94.81
296.448	84.81
296.679	82.81
296.909	72.81
297.14	75.81
297.37	82.81
297.601	80.81
297.831	92.81
298.062	95.81
298.292	87.81
298.523	86.81
298.753	80.81
298.984	76.81
299.214	76.81
299.445	85.81
299.675	70.81
299.905	90.81
300.136	96.81
300.366	92.81
300.597	81.81
300.827	87.81
301.057	92.81
301.288	90.81
301.518	83.81
301.748	69.81
301.979	100.81
302.209	75.81
302.439	92.81
302.669	92.81
302.9	83.81
303.13	75.81
303.36	86.81
303.59	79.81
303.82	75.81
304.051	82.81
304.281	90.81
304.511	98.81
304.741	85.81
304.971	86.81
305.201	94.81
305.431	85.81
305.661	77.81
305.891	85.81
306.121	81.81
306.352	76.81
306.582	91.81
306.812	85.81
307.042	95.81
307.272	75.81
307.502	94.81
307.731	83.81
307.961	87.81
308.191	97.81
308.421	102.81
308.651	83.81
308.881	103.81
309.111	82.81
309.341	105.81
309.571	84.81
309.8	73.81
310.03	70.81
310.26	84.81
310.49	80.81
310.72	72.81
310.949	94.81
311.179	75.81
311.409	82.81
311.639	92.81
311.868	76.81
312.098	75.81
312.328	91.81
312.557	89.81
312.787	75.81
313.017	90.81
313.246	82.81
313.476	80.81
313.706	93.81
313.935	84.81
314.165	73.81
314.394	90.81
314.624	79.81
314.853	100.81
315.083	88.81
315.312	94.81
315.542	95.81
315.771	80.81
316.001	85.81
316.23	99.81
316.46	85.81
316.689	92.81
316.919	75.81
317.148	83.81
317.377	86.81
317.607	91.81
317.836	93.81
318.065	86.81
318.295	99.81
318.524	82.81
318.753	92.81
318.983	91.81
319.212	83.81
319.441	78.81
319.67	86.81
319.9	94.81
320.129	88.81
320.358	83.81
320.587	94.81
320.816	96.81
321.046	86.81
321.275	84.81
321.504	78.81
321.733	87.81
321.962	94.81
322.191	82.81
322.42	86.81
322.649	95.81
322.878	96.81
323.108	82.81
323.337	82.81
323.566	74.81
323.795	102.81
324.024	106.81
324.253	87.81
324.482	78.81
324.71	89.81
324.939	93.81
325.168	87.81
325.397	78.81
325.626	95.81
325.855	75.81
326.084	87.81
326.313	87.81
326.542	77.81
326.77	87.81
326.999	86.81
327.228	96.81
327.457	82.81
327.686	94.81
327.914	90.81
328.143	72.81
328.372	83.81
328.6	82.81
328.829	92.81
329.058	92.81
329.287	97.81
329.515	85.81
329.744	88.81
329.972	94.81
330.201	95.81
330.43	88.81
330.658	80.81
330.887	90.81
331.115	93.81
331.344	90.81
331.572	97.81
331.801	84.81
332.03	82.81
332.258	92.81
332.486	86.81
332.715	90.81
332.943	85.81
333.172	84.81
333.4	70.81
333.629	86.81
333.857	91.81
334.085	90.81
334.314	90.81
334.542	95.81
334.771	88.81
334.999	82.81
335.227	91.81
335.455	92.81
335.684	84.81
335.912	100.81
336.14	98.81
336.369	86.81
336.597	98.81
336.825	89.81
337.053	84.81
337.281	86.81
337.51	91.81
337.738	79.81
337.966	85.81
338.194	86.81
338.422	91.81
338.65	74.81
338.878	87.81
339.106	94.81
339.334	86.81
339.562	84.81
339.79	87.81
340.018	88.81
340.246	85.81
340.474	81.81
340.702	83.81
340.93	101.81
341.158	86.81
341.386	96.81
341.614	87.81
341.842	86.81
342.07	86.81
342.298	76.81
342.526	82.81
342.754	80.81
342.981	90.81
343.209	80.81
343.437	91.81
343.665	89.81
343.893	85.81
344.12	100.81
344.348	84.81
344.576	91.81
344.804	102.81
345.031	95.81
345.259	86.81
345.487	99.81
345.714	86.81
345.942	68.81
346.17	76.81
346.397	92.81
346.625	84.81
346.853	86.81
347.08	97.81
347.308	87.81
347.535	95.81
347.763	91.81
347.99	75.81
348.218	90.81
348.445	81.81
348.673	88.81
348.9	88.81
349.128	97.81
349.355	88.81
349.583	92.81
349.81	87.81
350.037	84.81
350.265	79.81
350.492	82.81
350.72	89.81
350.947	77.81
351.174	98.81
351.402	96.81
351.629	80.81
351.856	89.81
352.083	79.81
352.311	71.81
352.538	97.81
352.765	84.81
352.992	85.81
353.22	86.81
353.447	66.81
353.674	83.81
353.901	95.81
354.128	85.81
354.355	89.81
354.583	93.81
354.81	77.81
355.037	74.81
355.264	86.81
355.491	90.81
355.718	78.81
355.945	86.81
356.172	89.81
356.399	79.81
356.626	83.81
356.853	98.81
357.08	99.81
357.307	94.81
357.534	84.81
357.761	100.81
357.988	106.81
358.215	108.81
358.441	83.81
358.668	74.81
358.895	78.81
359.122	84.81
359.349	89.81
359.576	106.81
359.802	73.81
360.029	98.81
360.256	98.81
360.483	91.81
360.709	79.81
360.936	82.81
361.163	85.81
361.39	82.81
361.616	89.81
361.843	72.81
362.07	96.81
362.296	100.81
362.523	96.81
362.749	106.81
362.976	108.81
363.203	116.81
363.429	112.81
363.656	86.81
363.882	92.81
364.109	111.81
364.335	119.81
364.562	134.81
364.788	104.81
365.015	96.81
365.241	102.81
365.468	77.81
365.694	76.81
365.92	82.81
366.147	88.81
366.373	86.81
366.599	84.81
366.826	90.81
367.052	90.81
367.278	83.81
367.505	88.81
367.731	85.81
367.957	82.81
368.184	85.81
368.41	88.81
368.636	90.81
368.862	77.81
369.089	97.81
369.315	60.81
369.541	87.81
369.767	62.81
369.993	94.81
370.219	83.81
370.445	97.81
370.672	95.81
370.898	75.81
371.124	92.81
371.35	78.81
371.576	97.81
371.802	97.81
372.028	85.81
372.254	113.81
372.48	109.81
372.706	99.81
372.932	89.81
373.158	95.81
373.384	104.81
373.61	102.81
373.835	88.81
374.061	91.81
374.287	98.81
374.513	99.81
374.739	98.81
374.965	87.81
375.191	80.81
375.416	91.81
375.642	93.81
375.868	87.81
376.094	87.81
376.319	88.81
376.545	77.81
376.771	106.81
376.997	85.81
377.222	67.81
377.448	86.81
377.674	80.81
377.899	90.81
378.125	74.81
378.35	97.81
378.576	96.81
378.802	90.81
379.027	97.81
379.253	82.81
379.478	83.81
379.704	98.81
379.929	97.81
380.155	84.81
380.38	86.81
380.606	93.81
380.831	93.81
381.057	89.81
381.282	82.81
381.507	77.81
381.733	78.81
381.958	85.81
382.184	97.81
382.409	101.81
382.634	82.81
382.86	99.81
383.085	110.81
383.31	98.81
383.535	98.81
383.761	90.81
383.986	97.81
384.211	90.81
384.436	90.81
384.662	84.81
384.887	88.81
385.112	83.81
385.337	94.81
385.562	106.81
385.787	93.81
386.013	98.81
386.238	104.81
386.463	97.81
386.688	95.81
386.913	87.81
387.138	79.81
387.363	86.81
387.588	87.81
387.813	94.81
388.038	92.81
388.263	94.81
388.488	91.81
388.713	77.81
388.938	96.81
389.163	86.81
389.387	86.81
389.612	92.81
389.837	94.81
390.062	89.81
390.287	84.81
390.512	83.81
390.736	83.81
390.961	75.81
391.186	87.81
391.411	86.81
391.636	71.81
391.86	104.81
392.085	93.81
392.31	83.81
392.534	81.81
392.759	114.81
392.984	131.81
393.208	200.81
393.433	253.81
393.658	212.81
393.882	107.81
394.107	105.81
394.331	97.81
394.556	107.81
394.78	103.81
395.005	83.81
395.229	97.81
395.454	97.81
395.678	101.81
395.903	109.81
396.127	122.81
396.352	151.81
396.576	126.81
396.801	196.81
397.025	207.81
397.249	147.81
397.474	114.81
397.698	96.81
397.922	91.81
398.147	93.81
398.371	80.81
398.595	82.81
398.82	99.81
399.044	94.81
399.268	84.81
399.492	85.81
399.717	75.81
399.941	98.81
400.165	75.81
400.389	82.81
400.613	68.81
400.837	83.81
401.062	91.81
401.286	94.81
401.51	81.81
401.734	104.81
401.958	86.81
402.182	95.81
402.406	88.81
402.63	80.81
402.854	87.81
403.078	107.81
403.302	100.81
403.526	93.81
403.75	84.81
403.974	87.81
404.198	99.81
404.422	122.81
404.645	132.81
404.869	130.81
405.093	108.81
405.317	84.81
405.541	70.81
405.765	80.81
405.988	82.81
406.212	105.81
406.436	86.81
406.66	84.81
406.883	97.81
407.107	92.81
407.331	78.81
407.555	98.81
407.778	111.81
408.002	103.81
408.226	102.81
408.449	86.81
408.673	78.81
408.896	80.81
409.12	87.81
409.344	91.81
409.567	83.81
409.791	94.81
410.014	87.81
410.238	95.81
410.461	91.81
410.685	82.81
410.908	94.81
411.132	94.81
411.355	101.81
411.578	96.81
411.802	87.81
412.025	81.81
412.249	84.81
412.472	78.81
412.695	77.81
412.919	75.81
413.142	110.81
413.365	94.81
413.589	85.81
413.812	74.81
414.035	92.81
414.258	102.81
414.482	75.81
414.705	81.81
414.928	82.81
415.151	87.81
415.374	82.81
415.597	95.81
415.821	97.81
416.044	81.81
416.267	90.81
416.49	92.81
416.713	78.81
416.936	93.81
417.159	95.81
417.382	86.81
417.605	82.81
417.828	82.81
418.051	75.81
418.274	96.81
418.497	86.81
418.72	82.81
418.943	92.81
419.166	82.81
419.389	67.81
419.611	91.81
419.834	92.81
420.057	80.81
420.28	87.81
420.503	79.81
420.726	98.81
420.948	98.81
421.171	85.81
421.394	97.81
421.617	114.81
421.839	119.81
422.062	123.81
422.285	185.81
422.507	311.81
422.73	434.81
422.953	413.81
423.175	239.81
423.398	133.81
423.621	116.81
423.843	97.81
424.066	94.81
424.288	86.81
424.511	97.81
424.733	94.81
424.956	95.81
425.178	86.81
425.401	95.81
425.623	77.81
425.846	81.81
426.068	86.81
426.291	94.81
426.513	85.81
426.735	81.81
426.958	89.81
427.18	78.81
427.402	91.81
427.625	99.81
427.847	84.81
428.069	94.81
428.292	139.81
428.514	134.81
428.736	111.81
428.958	117.81
429.181	128.81
429.403	94.81
429.625	103.81
429.847	106.81
430.069	171.81
430.292	179.81
430.514	167.81
430.736	150.81
430.958	139.81
431.18	84.81
431.402	91.81
431.624	88.81
431.846	126.81
432.068	140.81
432.29	114.81
432.512	95.81
432.734	93.81
432.956	82.81
433.178	98.81
433.4	83.81
433.622	81.81
433.844	94.81
434.066	82.81
434.287	90.81
434.509	64.81
434.731	84.81
434.953	88.81
435.175	82.81
435.397	89.81
435.618	104.81
435.84	102.81
436.062	86.81
436.284	96.81
436.505	93.81
436.727	77.81
436.949	84.81
437.17	84.81
437.392	73.81
437.614	83.81
437.835	76.81
438.057	86.81
438.278	97.81
438.5	72.81
438.721	78.81
438.943	97.81
439.165	80.81
439.386	87.81
439.608	82.81
439.829	90.81
440.05	81.81
440.272	97.81
440.493	95.81
440.715	82.81
440.936	92.81
441.158	77.81
441.379	78.81
441.6	90.81
441.822	88.81
442.043	95.81
442.264	108.81
442.486	132.81
442.707	182.81
442.928	139.81
443.149	100.81
443.371	147.81
443.592	235.81
443.813	211.81
444.034	103.81
444.255	90.81
444.476	90.81
444.698	82.81
444.919	103.81
445.14	211.81
445.361	218.81
445.582	277.81
445.803	252.81
446.024	112.81
446.245	96.81
446.466	85.81
446.687	88.81
446.908	88.81
447.129	88.81
447.35	79.81
447.571	81.81
447.792	86.81
448.013	84.81
448.234	87.81
448.455	89.81
448.675	80.81
448.896	89.81
449.117	80.81
449.338	86.81
449.559	83.81
449.779	76.81
450	74.81
450.221	88.81
450.442	88.81
450.662	79.81
450.883	80.81
451.104	73.81
451.324	90.81
451.545	75.81
451.766	84.81
451.986	84.81
452.207	93.81
452.428	85.81
452.648	99.81
452.869	96.81
453.089	81.81
453.31	87.81
453.53	97.81
453.751	84.81
453.971	84.81
454.192	73.81
454.412	72.81
454.633	85.81
454.853	82.81
455.073	78.81
455.294	88.81
455.514	78.81
455.734	86.81
455.955	90.81
456.175	90.81
456.395	92.81
456.616	87.81
456.836	83.81
457.056	98.81
457.276	98.81
457.497	78.81
457.717	99.81
457.937	98.81
458.157	117.81
458.377	110.81
458.598	126.81
458.818	111.81
459.038	103.81
459.258	95.81
459.478	75.81
459.698	82.81
459.918	93.81
460.138	77.81
460.358	81.81
460.578	111.81
460.798	120.81
461.018	130.81
461.238	94.81
461.458	88.81
461.678	91.81
461.898	71.81
462.118	89.81
462.338	82.81
462.558	86.81
462.777	81.81
462.997	72.81
463.217	92.81
463.437	86.81
463.657	75.81
463.876	82.81
464.096	70.81
464.316	83.81
464.536	80.81
464.755	95.81
464.975	86.81
465.195	73.81
465.414	89.81
465.634	89.81
465.854	81.81
466.073	80.81
466.293	91.81
466.512	71.81
466.732	76.81
466.951	77.81
467.171	77.81
467.391	98.81
467.61	91.81
467.829	80.81
468.049	84.81
468.268	91.81
468.488	82.81
468.707	86.81
468.927	87.81
469.146	91.81
469.365	76.81
469.585	83.81
469.804	83.81
470.023	88.81
470.243	92.81
470.462	83.81
470.681	92.81
470.901	71.81
471.12	86.81
471.339	83.81
471.558	93.81
471.777	85.81
471.997	73.81
472.216	83.81
472.435	86.81
472.654	71.81
472.873	100.81
473.092	75.81
473.311	95.81
473.53	79.81
473.749	98.81
473.968	89.81
474.187	77.81
474.406	78.81
474.625	84.81
474.844	97.81
475.063	82.81
475.282	84.81
475.501	86.81
475.72	87.81
475.939	82.81
476.158	94.81
476.377	80.81
476.596	80.81
476.814	97.81
477.033	87.81
477.252	75.81
477.471	86.81
477.69	83.81
477.908	86.81
478.127	97.81
478.346	89.81
478.564	81.81
478.783	81.81
479.002	83.81
479.22	81.81
479.439	76.81
479.658	78.81
479.876	85.81
480.095	84.81
480.313	95.81
480.532	76.81
480.751	106.81
480.969	92.81
481.188	84.81
481.406	87.81
481.624	83.81
481.843	91.81
482.061	90.81
482.28	98.81
482.498	88.81
482.717	100.81
482.935	102.81
483.153	99.81
483.372	101.81
483.59	72.81
483.808	86.81
484.027	89.81
484.245	89.81
484.463	92.81
484.681	102.81
484.9	99.81
485.118	101.81
485.336	91.81
485.554	102.81
485.772	99.81
485.99	89.81
486.209	108.81
486.427	90.81
486.645	82.81
486.863	81.81
487.081	90.81
487.299	74.81
487.517	77.81
487.735	101.81
487.953	153.81
488.171	135.81
488.389	108.81
488.607	85.81
488.825	78.81
489.043	98.81
489.261	99.81
489.479	98.81
489.696	99.81
489.914	95.81
490.132	74.81
490.35	92.81
490.568	103.81
490.786	82.81
491.003	84.81
491.221	87.81
491.439	77.81
491.657	89.81
491.874	94.81
492.092	95.81
492.31	91.81
492.527	82.81
492.745	88.81
492.963	82.81
493.18	82.81
493.398	95.81
493.615	77.81
493.833	73.81
494.05	72.81
494.268	98.81
494.485	96.81
494.703	92.81
494.92	101.81
495.138	96.81
495.355	87.81
495.573	89.81
495.79	92.81
496.008	92.81
496.225	86.81
496.442	94.81
496.66	82.81
496.877	98.81
497.094	91.81
497.312	98.81
497.529	94.81
497.746	96.81
497.963	97.81
498.181	87.81
498.398	101.81
498.615	98.81
498.832	84.81
499.049	80.81
499.267	96.81
499.484	83.81
499.701	92.81
499.918	97.81
500.135	83.81
500.352	102.81
500.569	74.81
500.786	96.81
501.003	80.81
501.22	90.81
501.437	101.81
501.654	99.81
501.871	83.81
502.088	84.81
502.305	92.81
502.522	91.81
502.739	87.81
502.956	84.81
503.172	95.81
503.389	94.81
503.606	96.81
503.823	92.81
504.04	81.81
504.256	148.81
504.473	129.81
504.69	105.81
504.907	98.81
505.123	95.81
505.34	79.81
505.557	83.81
505.773	93.81
505.99	94.81
506.207	92.81
506.423	82.81
506.64	110.81
506.856	72.81
507.073	82.81
507.289	107.81
507.506	82.81
507.722	84.81
507.939	103.81
508.155	84.81
508.372	98.81
508.588	92.81
508.805	98.81
509.021	80.81
509.238	88.81
509.454	79.81
509.67	83.81
509.887	88.81
510.103	86.81
510.319	86.81
510.536	95.81
510.752	90.81
510.968	89.81
511.184	102.81
511.401	98.81
511.617	95.81
511.833	86.81
512.049	88.81
512.265	96.81
512.481	90.81
512.698	99.81
512.914	91.81
513.13	81.81
513.346	89.81
513.562	86.81
513.778	95.81
513.994	94.81
514.21	88.81
514.426	82.81
514.642	67.81
514.858	104.81
515.074	100.81
515.29	74.81
515.506	77.81
515.721	74.81
515.937	97.81
516.153	97.81
516.369	101.81
516.585	79.81
516.801	94.81
517.016	103.81
517.232	91.81
517.448	97.81
517.664	95.81
517.879	99.81
518.095	90.81
