Data from HP_3_HRD10591_00013.txt Node
Date: Mon Jan 19 14:17:07 EST 2026
User: Yrep
Spectrometer: HR+D1059
Trigger mode: 1
Integration Time (sec): 1.000000E-1
Scans to average: 1
Electric dark correction enabled: true
Nonlinearity correction enabled: false
Boxcar width: 0
XAxis mode: Wavelengths
Number of Pixels in Spectrum: 2048
>>>>>Begin Spectral Data<<<<<
223.165	-19.94
223.4	-19.94
223.635	-19.94
223.869	-23.94
224.104	-33.94
224.338	-15.94
224.573	-17.94
224.808	-17.94
225.042	-4.94
225.277	-3.94
225.511	9.06
225.746	8.06
225.98	14.06
226.215	21.06
226.449	18.06
226.683	23.06
226.918	24.06
227.152	21.06
227.387	44.06
227.621	38.06
227.856	42.06
228.09	54.06
228.324	60.06
228.559	56.06
228.793	53.06
229.027	61.06
229.262	71.06
229.496	69.06
229.73	64.06
229.964	92.06
230.199	72.06
230.433	74.06
230.667	88.06
230.901	79.06
231.136	67.06
231.37	68.06
231.604	74.06
231.838	70.06
232.072	84.06
232.306	90.06
232.541	87.06
232.775	80.06
233.009	77.06
233.243	91.06
233.477	85.06
233.711	93.06
233.945	80.06
234.179	73.06
234.413	83.06
234.647	76.06
234.881	78.06
235.115	81.06
235.349	72.06
235.583	58.06
235.817	74.06
236.051	77.06
236.285	72.06
236.519	83.06
236.753	77.06
236.987	82.06
237.221	78.06
237.455	79.06
237.689	73.06
237.922	72.06
238.156	71.06
238.39	81.06
238.624	81.06
238.858	87.06
239.091	88.06
239.325	74.06
239.559	82.06
239.793	75.06
240.027	78.06
240.26	92.06
240.494	77.06
240.728	74.06
240.961	78.06
241.195	77.06
241.429	82.06
241.662	77.06
241.896	86.06
242.13	80.06
242.363	82.06
242.597	77.06
242.83	86.06
243.064	85.06
243.298	85.06
243.531	90.06
243.765	87.06
243.998	87.06
244.232	80.06
244.465	70.06
244.699	66.06
244.932	89.06
245.166	76.06
245.399	77.06
245.633	72.06
245.866	78.06
246.099	76.06
246.333	85.06
246.566	80.06
246.8	92.06
247.033	78.06
247.266	83.06
247.5	80.06
247.733	78.06
247.966	85.06
248.2	90.06
248.433	85.06
248.666	89.06
248.899	90.06
249.133	100.06
249.366	74.06
249.599	80.06
249.832	76.06
250.066	83.06
250.299	70.06
250.532	90.06
250.765	78.06
250.998	93.06
251.231	88.06
251.465	78.06
251.698	84.06
251.931	102.06
252.164	86.06
252.397	87.06
252.63	91.06
252.863	95.06
253.096	81.06
253.329	81.06
253.562	86.06
253.795	87.06
254.028	86.06
254.261	91.06
254.494	89.06
254.727	87.06
254.96	85.06
255.193	92.06
255.426	86.06
255.659	84.06
255.892	87.06
256.124	92.06
256.357	95.06
256.59	84.06
256.823	68.06
257.056	65.06
257.289	90.06
257.521	79.06
257.754	93.06
257.987	91.06
258.22	94.06
258.452	79.06
258.685	88.06
258.918	85.06
259.151	79.06
259.383	90.06
259.616	90.06
259.849	75.06
260.081	86.06
260.314	98.06
260.547	84.06
260.779	77.06
261.012	82.06
261.244	81.06
261.477	74.06
261.71	82.06
261.942	94.06
262.175	84.06
262.407	78.06
262.64	90.06
262.872	87.06
263.105	71.06
263.337	77.06
263.57	83.06
263.802	69.06
264.035	84.06
264.267	84.06
264.499	77.06
264.732	88.06
264.964	80.06
265.197	76.06
265.429	83.06
265.661	90.06
265.894	82.06
266.126	75.06
266.358	88.06
266.591	86.06
266.823	91.06
267.055	84.06
267.287	74.06
267.52	80.06
267.752	86.06
267.984	88.06
268.216	99.06
268.448	95.06
268.681	85.06
268.913	79.06
269.145	90.06
269.377	86.06
269.609	79.06
269.841	107.06
270.073	85.06
270.306	77.06
270.538	96.06
270.77	87.06
271.002	82.06
271.234	96.06
271.466	90.06
271.698	72.06
271.93	90.06
272.162	79.06
272.394	92.06
272.626	88.06
272.858	83.06
273.09	85.06
273.322	80.06
273.553	79.06
273.785	84.06
274.017	82.06
274.249	82.06
274.481	88.06
274.713	79.06
274.945	90.06
275.176	83.06
275.408	92.06
275.64	98.06
275.872	86.06
276.104	77.06
276.335	77.06
276.567	87.06
276.799	75.06
277.031	83.06
277.262	86.06
277.494	70.06
277.726	99.06
277.957	87.06
278.189	81.06
278.421	96.06
278.652	91.06
278.884	78.06
279.115	89.06
279.347	83.06
279.579	83.06
279.81	88.06
280.042	95.06
280.273	89.06
280.505	73.06
280.736	94.06
280.968	68.06
281.199	94.06
281.431	78.06
281.662	82.06
281.894	87.06
282.125	106.06
282.356	103.06
282.588	94.06
282.819	91.06
283.051	78.06
283.282	86.06
283.513	84.06
283.745	84.06
283.976	91.06
284.207	97.06
284.439	89.06
284.67	88.06
284.901	96.06
285.132	99.06
285.364	94.06
285.595	91.06
285.826	79.06
286.057	88.06
286.288	92.06
286.52	86.06
286.751	94.06
286.982	95.06
287.213	80.06
287.444	83.06
287.675	86.06
287.906	98.06
288.138	80.06
288.369	89.06
288.6	86.06
288.831	73.06
289.062	94.06
289.293	96.06
289.524	83.06
289.755	74.06
289.986	100.06
290.217	100.06
290.448	75.06
290.679	79.06
290.91	86.06
291.141	72.06
291.371	78.06
291.602	82.06
291.833	91.06
292.064	97.06
292.295	90.06
292.526	90.06
292.757	80.06
292.987	89.06
293.218	94.06
293.449	98.06
293.68	91.06
293.91	104.06
294.141	98.06
294.372	87.06
294.603	90.06
294.833	77.06
295.064	90.06
295.295	96.06
295.525	82.06
295.756	95.06
295.987	91.06
296.217	94.06
296.448	82.06
296.679	97.06
296.909	91.06
297.14	101.06
297.37	80.06
297.601	88.06
297.831	90.06
298.062	90.06
298.292	81.06
298.523	86.06
298.753	109.06
298.984	90.06
299.214	89.06
299.445	101.06
299.675	101.06
299.905	104.06
300.136	94.06
300.366	95.06
300.597	83.06
300.827	102.06
301.057	86.06
301.288	95.06
301.518	103.06
301.748	93.06
301.979	91.06
302.209	97.06
302.439	95.06
302.669	91.06
302.9	101.06
303.13	87.06
303.36	82.06
303.59	69.06
303.82	101.06
304.051	83.06
304.281	79.06
304.511	84.06
304.741	90.06
304.971	91.06
305.201	92.06
305.431	91.06
305.661	95.06
305.891	96.06
306.121	91.06
306.352	83.06
306.582	87.06
306.812	94.06
307.042	103.06
307.272	96.06
307.502	92.06
307.731	94.06
307.961	76.06
308.191	94.06
308.421	100.06
308.651	83.06
308.881	91.06
309.111	101.06
309.341	104.06
309.571	98.06
309.8	87.06
310.03	82.06
310.26	93.06
310.49	86.06
310.72	94.06
310.949	84.06
311.179	82.06
311.409	87.06
311.639	98.06
311.868	88.06
312.098	95.06
312.328	95.06
312.557	89.06
312.787	91.06
313.017	82.06
313.246	87.06
313.476	98.06
313.706	89.06
313.935	90.06
314.165	88.06
314.394	94.06
314.624	90.06
314.853	86.06
315.083	93.06
315.312	85.06
315.542	80.06
315.771	86.06
316.001	98.06
316.23	104.06
316.46	80.06
316.689	85.06
316.919	78.06
317.148	94.06
317.377	96.06
317.607	93.06
317.836	89.06
318.065	88.06
318.295	78.06
318.524	92.06
318.753	87.06
318.983	85.06
319.212	87.06
319.441	103.06
319.67	92.06
319.9	88.06
320.129	98.06
320.358	88.06
320.587	84.06
320.816	88.06
321.046	94.06
321.275	98.06
321.504	84.06
321.733	93.06
321.962	90.06
322.191	83.06
322.42	85.06
322.649	93.06
322.878	118.06
323.108	94.06
323.337	91.06
323.566	79.06
323.795	88.06
324.024	100.06
324.253	103.06
324.482	100.06
324.71	84.06
324.939	81.06
325.168	106.06
325.397	92.06
325.626	90.06
325.855	100.06
326.084	99.06
326.313	86.06
326.542	81.06
326.77	83.06
326.999	98.06
327.228	87.06
327.457	92.06
327.686	95.06
327.914	86.06
328.143	102.06
328.372	87.06
328.6	87.06
328.829	88.06
329.058	90.06
329.287	80.06
329.515	101.06
329.744	90.06
329.972	95.06
330.201	85.06
330.43	84.06
330.658	78.06
330.887	95.06
331.115	90.06
331.344	96.06
331.572	99.06
331.801	70.06
332.03	82.06
332.258	98.06
332.486	94.06
332.715	84.06
332.943	78.06
333.172	94.06
333.4	110.06
333.629	90.06
333.857	89.06
334.085	90.06
334.314	100.06
334.542	87.06
334.771	100.06
334.999	103.06
335.227	87.06
335.455	94.06
335.684	87.06
335.912	110.06
336.14	102.06
336.369	96.06
336.597	88.06
336.825	97.06
337.053	85.06
337.281	88.06
337.51	88.06
337.738	88.06
337.966	93.06
338.194	90.06
338.422	100.06
338.65	99.06
338.878	88.06
339.106	95.06
339.334	91.06
339.562	91.06
339.79	89.06
340.018	93.06
340.246	73.06
340.474	94.06
340.702	93.06
340.93	78.06
341.158	94.06
341.386	96.06
341.614	79.06
341.842	85.06
342.07	91.06
342.298	92.06
342.526	99.06
342.754	66.06
342.981	78.06
343.209	95.06
343.437	98.06
343.665	88.06
343.893	81.06
344.12	94.06
344.348	77.06
344.576	96.06
344.804	96.06
345.031	77.06
345.259	92.06
345.487	78.06
345.714	104.06
345.942	95.06
346.17	93.06
346.397	83.06
346.625	96.06
346.853	91.06
347.08	90.06
347.308	94.06
347.535	94.06
347.763	92.06
347.99	87.06
348.218	86.06
348.445	72.06
348.673	84.06
348.9	84.06
349.128	92.06
349.355	84.06
349.583	76.06
349.81	84.06
350.037	81.06
350.265	92.06
350.492	80.06
350.72	96.06
350.947	90.06
351.174	90.06
351.402	90.06
351.629	91.06
351.856	91.06
352.083	88.06
352.311	96.06
352.538	87.06
352.765	102.06
352.992	87.06
353.22	90.06
353.447	78.06
353.674	72.06
353.901	93.06
354.128	88.06
354.355	90.06
354.583	93.06
354.81	96.06
355.037	82.06
355.264	94.06
355.491	78.06
355.718	80.06
355.945	91.06
356.172	101.06
356.399	74.06
356.626	90.06
356.853	82.06
357.08	86.06
357.307	95.06
357.534	88.06
357.761	84.06
357.988	93.06
358.215	80.06
358.441	85.06
358.668	101.06
358.895	98.06
359.122	90.06
359.349	99.06
359.576	89.06
359.802	86.06
360.029	100.06
360.256	87.06
360.483	85.06
360.709	78.06
360.936	98.06
361.163	105.06
361.39	92.06
361.616	93.06
361.843	82.06
362.07	96.06
362.296	90.06
362.523	103.06
362.749	92.06
362.976	108.06
363.203	124.06
363.429	104.06
363.656	87.06
363.882	95.06
364.109	102.06
364.335	116.06
364.562	119.06
364.788	103.06
365.015	87.06
365.241	90.06
365.468	99.06
365.694	88.06
365.92	99.06
366.147	105.06
366.373	91.06
366.599	89.06
366.826	88.06
367.052	89.06
367.278	86.06
367.505	81.06
367.731	77.06
367.957	92.06
368.184	91.06
368.41	89.06
368.636	94.06
368.862	80.06
369.089	80.06
369.315	85.06
369.541	92.06
369.767	88.06
369.993	94.06
370.219	92.06
370.445	101.06
370.672	90.06
370.898	102.06
371.124	88.06
371.35	92.06
371.576	89.06
371.802	95.06
372.028	101.06
372.254	97.06
372.48	79.06
372.706	80.06
372.932	99.06
373.158	95.06
373.384	95.06
373.61	118.06
373.835	104.06
374.061	90.06
374.287	98.06
374.513	93.06
374.739	94.06
374.965	84.06
375.191	92.06
375.416	89.06
375.642	104.06
375.868	98.06
376.094	95.06
376.319	98.06
376.545	86.06
376.771	78.06
376.997	104.06
377.222	92.06
377.448	99.06
377.674	102.06
377.899	95.06
378.125	86.06
378.35	103.06
378.576	94.06
378.802	92.06
379.027	79.06
379.253	82.06
379.478	83.06
379.704	89.06
379.929	84.06
380.155	82.06
380.38	89.06
380.606	82.06
380.831	91.06
381.057	102.06
381.282	92.06
381.507	96.06
381.733	89.06
381.958	87.06
382.184	94.06
382.409	102.06
382.634	88.06
382.86	80.06
383.085	81.06
383.31	86.06
383.535	106.06
383.761	93.06
383.986	100.06
384.211	78.06
384.436	88.06
384.662	98.06
384.887	83.06
385.112	86.06
385.337	99.06
385.562	82.06
385.787	91.06
386.013	104.06
386.238	110.06
386.463	104.06
386.688	98.06
386.913	89.06
387.138	89.06
387.363	107.06
387.588	87.06
387.813	88.06
388.038	94.06
388.263	91.06
388.488	99.06
388.713	94.06
388.938	95.06
389.163	85.06
389.387	91.06
389.612	88.06
389.837	86.06
390.062	86.06
390.287	84.06
390.512	116.06
390.736	90.06
390.961	89.06
391.186	90.06
391.411	95.06
391.636	84.06
391.86	90.06
392.085	90.06
392.31	104.06
392.534	104.06
392.759	102.06
392.984	142.06
393.208	203.06
393.433	302.06
393.658	231.06
393.882	134.06
394.107	96.06
394.331	132.06
394.556	107.06
394.78	109.06
395.005	98.06
395.229	103.06
395.454	103.06
395.678	98.06
395.903	122.06
396.127	148.06
396.352	152.06
396.576	153.06
396.801	212.06
397.025	246.06
397.249	160.06
397.474	120.06
397.698	120.06
397.922	107.06
398.147	79.06
398.371	95.06
398.595	87.06
398.82	89.06
399.044	96.06
399.268	94.06
399.492	87.06
399.717	86.06
399.941	75.06
400.165	76.06
400.389	85.06
400.613	87.06
400.837	91.06
401.062	94.06
401.286	84.06
401.51	93.06
401.734	74.06
401.958	95.06
402.182	76.06
402.406	97.06
402.63	70.06
402.854	100.06
403.078	92.06
403.302	91.06
403.526	86.06
403.75	92.06
403.974	83.06
404.198	111.06
404.422	129.06
404.645	128.06
404.869	111.06
405.093	110.06
405.317	108.06
405.541	87.06
405.765	94.06
405.988	86.06
406.212	97.06
406.436	100.06
406.66	103.06
406.883	87.06
407.107	98.06
407.331	84.06
407.555	107.06
407.778	113.06
408.002	114.06
408.226	91.06
408.449	90.06
408.673	90.06
408.896	88.06
409.12	87.06
409.344	84.06
409.567	99.06
409.791	95.06
410.014	101.06
410.238	92.06
410.461	86.06
410.685	87.06
410.908	92.06
411.132	94.06
411.355	78.06
411.578	100.06
411.802	88.06
412.025	98.06
412.249	88.06
412.472	82.06
412.695	78.06
412.919	88.06
413.142	92.06
413.365	93.06
413.589	84.06
413.812	77.06
414.035	77.06
414.258	102.06
414.482	100.06
414.705	92.06
414.928	92.06
415.151	87.06
415.374	70.06
415.597	77.06
415.821	91.06
416.044	96.06
416.267	97.06
416.49	91.06
416.713	91.06
416.936	99.06
417.159	101.06
417.382	89.06
417.605	93.06
417.828	92.06
418.051	81.06
418.274	110.06
418.497	92.06
418.72	87.06
418.943	89.06
419.166	93.06
419.389	99.06
419.611	90.06
419.834	87.06
420.057	96.06
420.28	100.06
420.503	80.06
420.726	111.06
420.948	114.06
421.171	103.06
421.394	113.06
421.617	114.06
421.839	109.06
422.062	138.06
422.285	156.06
422.507	280.06
422.73	402.06
422.953	378.06
423.175	209.06
423.398	143.06
423.621	126.06
423.843	97.06
424.066	97.06
424.288	98.06
424.511	99.06
424.733	95.06
424.956	108.06
425.178	84.06
425.401	82.06
425.623	81.06
425.846	91.06
426.068	74.06
426.291	84.06
426.513	88.06
426.735	90.06
426.958	91.06
427.18	77.06
427.402	100.06
427.625	97.06
427.847	88.06
428.069	99.06
428.292	131.06
428.514	124.06
428.736	116.06
428.958	134.06
429.181	127.06
429.403	98.06
429.625	102.06
429.847	110.06
430.069	170.06
430.292	186.06
430.514	157.06
430.736	123.06
430.958	148.06
431.18	112.06
431.402	87.06
431.624	89.06
431.846	125.06
432.068	146.06
432.29	110.06
432.512	100.06
432.734	96.06
432.956	88.06
433.178	98.06
433.4	86.06
433.622	90.06
433.844	86.06
434.066	104.06
434.287	94.06
434.509	90.06
434.731	84.06
434.953	79.06
435.175	95.06
435.397	87.06
435.618	100.06
435.84	91.06
436.062	94.06
436.284	94.06
436.505	83.06
436.727	97.06
436.949	91.06
437.17	91.06
437.392	88.06
437.614	88.06
437.835	97.06
438.057	83.06
438.278	90.06
438.5	92.06
438.721	98.06
438.943	81.06
439.165	82.06
439.386	90.06
439.608	102.06
439.829	82.06
440.05	90.06
440.272	93.06
440.493	94.06
440.715	79.06
440.936	90.06
441.158	79.06
441.379	86.06
441.6	101.06
441.822	111.06
442.043	85.06
442.264	111.06
442.486	127.06
442.707	174.06
442.928	125.06
443.149	119.06
443.371	163.06
443.592	252.06
443.813	216.06
444.034	116.06
444.255	102.06
444.476	92.06
444.698	100.06
444.919	100.06
445.14	207.06
445.361	230.06
445.582	286.06
445.803	244.06
446.024	122.06
446.245	99.06
446.466	103.06
446.687	93.06
446.908	102.06
447.129	84.06
447.35	89.06
447.571	87.06
447.792	86.06
448.013	80.06
448.234	87.06
448.455	88.06
448.675	92.06
448.896	84.06
449.117	84.06
449.338	80.06
449.559	89.06
449.779	73.06
450	73.06
450.221	96.06
450.442	105.06
450.662	86.06
450.883	103.06
451.104	87.06
451.324	90.06
451.545	84.06
451.766	77.06
451.986	84.06
452.207	92.06
452.428	89.06
452.648	96.06
452.869	105.06
453.089	102.06
453.31	80.06
453.53	84.06
453.751	81.06
453.971	79.06
454.192	82.06
454.412	90.06
454.633	88.06
454.853	88.06
455.073	89.06
455.294	93.06
455.514	90.06
455.734	97.06
455.955	89.06
456.175	71.06
456.395	80.06
456.616	93.06
456.836	78.06
457.056	85.06
457.276	93.06
457.497	89.06
457.717	86.06
457.937	116.06
458.157	118.06
458.377	123.06
458.598	118.06
458.818	126.06
459.038	92.06
459.258	94.06
459.478	100.06
459.698	94.06
459.918	82.06
460.138	82.06
460.358	82.06
460.578	105.06
460.798	108.06
461.018	124.06
461.238	89.06
461.458	95.06
461.678	95.06
461.898	87.06
462.118	102.06
462.338	93.06
462.558	78.06
462.777	81.06
462.997	92.06
463.217	80.06
463.437	86.06
463.657	89.06
463.876	91.06
464.096	73.06
464.316	89.06
464.536	82.06
464.755	86.06
464.975	87.06
465.195	90.06
465.414	88.06
465.634	71.06
465.854	89.06
466.073	87.06
466.293	93.06
466.512	99.06
466.732	80.06
466.951	88.06
467.171	84.06
467.391	99.06
467.61	79.06
467.829	90.06
468.049	78.06
468.268	86.06
468.488	107.06
468.707	68.06
468.927	84.06
469.146	83.06
469.365	79.06
469.585	92.06
469.804	95.06
470.023	92.06
470.243	98.06
470.462	96.06
470.681	85.06
470.901	97.06
471.12	91.06
471.339	88.06
471.558	76.06
471.777	86.06
471.997	88.06
472.216	98.06
472.435	84.06
472.654	79.06
472.873	86.06
473.092	85.06
473.311	82.06
473.53	92.06
473.749	94.06
473.968	92.06
474.187	95.06
474.406	80.06
474.625	82.06
474.844	80.06
475.063	88.06
475.282	82.06
475.501	95.06
475.72	99.06
475.939	89.06
476.158	76.06
476.377	104.06
476.596	77.06
476.814	94.06
477.033	100.06
477.252	103.06
477.471	94.06
477.69	85.06
477.908	88.06
478.127	98.06
478.346	91.06
478.564	90.06
478.783	102.06
479.002	89.06
479.22	71.06
479.439	89.06
479.658	84.06
479.876	93.06
480.095	95.06
480.313	92.06
480.532	91.06
480.751	94.06
480.969	82.06
481.188	91.06
481.406	91.06
481.624	88.06
481.843	94.06
482.061	94.06
482.28	89.06
482.498	83.06
482.717	95.06
482.935	86.06
483.153	90.06
483.372	94.06
483.59	102.06
483.808	93.06
484.027	88.06
484.245	90.06
484.463	94.06
484.681	90.06
484.9	92.06
485.118	97.06
485.336	95.06
485.554	92.06
485.772	99.06
485.99	97.06
486.209	91.06
486.427	86.06
486.645	94.06
486.863	95.06
487.081	97.06
487.299	80.06
487.517	103.06
487.735	107.06
487.953	160.06
488.171	143.06
488.389	94.06
488.607	89.06
488.825	90.06
489.043	85.06
489.261	88.06
489.479	87.06
489.696	98.06
489.914	74.06
490.132	101.06
490.35	106.06
490.568	82.06
490.786	94.06
491.003	92.06
491.221	95.06
491.439	96.06
491.657	76.06
491.874	78.06
492.092	89.06
492.31	91.06
492.527	88.06
492.745	99.06
492.963	82.06
493.18	104.06
493.398	88.06
493.615	91.06
493.833	78.06
494.05	85.06
494.268	84.06
494.485	97.06
494.703	90.06
494.92	97.06
495.138	109.06
495.355	94.06
495.573	89.06
495.79	94.06
496.008	111.06
496.225	96.06
496.442	85.06
496.66	81.06
496.877	91.06
497.094	103.06
497.312	95.06
497.529	104.06
497.746	95.06
497.963	76.06
498.181	90.06
498.398	87.06
498.615	90.06
498.832	92.06
499.049	77.06
499.267	76.06
499.484	92.06
499.701	102.06
499.918	92.06
500.135	94.06
500.352	90.06
500.569	94.06
500.786	88.06
501.003	95.06
501.22	85.06
501.437	107.06
501.654	96.06
501.871	96.06
502.088	80.06
502.305	84.06
502.522	95.06
502.739	106.06
502.956	99.06
503.172	83.06
503.389	107.06
503.606	92.06
503.823	88.06
504.04	103.06
504.256	123.06
504.473	130.06
504.69	98.06
504.907	97.06
505.123	102.06
505.34	94.06
505.557	95.06
505.773	96.06
505.99	84.06
506.207	92.06
506.423	90.06
506.64	85.06
506.856	85.06
507.073	98.06
507.289	90.06
507.506	83.06
507.722	80.06
507.939	84.06
508.155	86.06
508.372	86.06
508.588	101.06
508.805	90.06
509.021	97.06
509.238	99.06
509.454	92.06
509.67	112.06
509.887	89.06
510.103	100.06
510.319	92.06
510.536	90.06
510.752	90.06
510.968	86.06
511.184	93.06
511.401	96.06
511.617	93.06
511.833	93.06
512.049	89.06
512.265	93.06
512.481	104.06
512.698	79.06
512.914	91.06
513.13	90.06
513.346	74.06
513.562	83.06
513.778	82.06
513.994	84.06
514.21	78.06
514.426	83.06
514.642	87.06
514.858	99.06
515.074	92.06
515.29	101.06
515.506	97.06
515.721	75.06
515.937	86.06
516.153	100.06
516.369	99.06
516.585	83.06
516.801	99.06
517.016	95.06
517.232	92.06
