Data from HP_3_HRD10591_00028.txt Node
Date: Mon Jan 19 14:17:14 EST 2026
User: Yrep
Spectrometer: HR+D1059
Trigger mode: 1
Integration Time (sec): 1.000000E-1
Scans to average: 1
Electric dark correction enabled: true
Nonlinearity correction enabled: false
Boxcar width: 0
XAxis mode: Wavelengths
Number of Pixels in Spectrum: 2048
>>>>>Begin Spectral Data<<<<<
223.165	-18.81
223.4	-18.81
223.635	-18.81
223.869	-10.81
224.104	-23.81
224.338	0.19
224.573	-25.81
224.808	-11.81
225.042	-19.81
225.277	-5.81
225.511	-2.81
225.746	10.19
225.98	-1.81
226.215	13.19
226.449	14.19
226.683	17.19
226.918	30.19
227.152	36.19
227.387	26.19
227.621	34.19
227.856	46.19
228.09	45.19
228.324	63.19
228.559	58.19
228.793	53.19
229.027	68.19
229.262	58.19
229.496	57.19
229.73	79.19
229.964	80.19
230.199	69.19
230.433	69.19
230.667	80.19
230.901	67.19
231.136	71.19
231.37	63.19
231.604	81.19
231.838	67.19
232.072	81.19
232.306	86.19
232.541	77.19
232.775	83.19
233.009	93.19
233.243	86.19
233.477	87.19
233.711	84.19
233.945	73.19
234.179	97.19
234.413	69.19
234.647	90.19
234.881	78.19
235.115	76.19
235.349	66.19
235.583	83.19
235.817	69.19
236.051	85.19
236.285	85.19
236.519	92.19
236.753	79.19
236.987	84.19
237.221	83.19
237.455	77.19
237.689	83.19
237.922	74.19
238.156	81.19
238.39	85.19
238.624	85.19
238.858	94.19
239.091	72.19
239.325	82.19
239.559	83.19
239.793	67.19
240.027	84.19
240.26	76.19
240.494	70.19
240.728	85.19
240.961	80.19
241.195	70.19
241.429	86.19
241.662	73.19
241.896	79.19
242.13	91.19
242.363	73.19
242.597	80.19
242.83	79.19
243.064	66.19
243.298	75.19
243.531	82.19
243.765	91.19
243.998	82.19
244.232	86.19
244.465	84.19
244.699	73.19
244.932	73.19
245.166	70.19
245.399	83.19
245.633	76.19
245.866	77.19
246.099	79.19
246.333	80.19
246.566	84.19
246.8	74.19
247.033	85.19
247.266	74.19
247.5	83.19
247.733	84.19
247.966	76.19
248.2	89.19
248.433	70.19
248.666	80.19
248.899	84.19
249.133	75.19
249.366	75.19
249.599	70.19
249.832	83.19
250.066	79.19
250.299	75.19
250.532	82.19
250.765	86.19
250.998	61.19
251.231	85.19
251.465	77.19
251.698	93.19
251.931	78.19
252.164	89.19
252.397	77.19
252.63	89.19
252.863	82.19
253.096	83.19
253.329	75.19
253.562	85.19
253.795	83.19
254.028	91.19
254.261	74.19
254.494	81.19
254.727	83.19
254.96	75.19
255.193	88.19
255.426	60.19
255.659	80.19
255.892	71.19
256.124	88.19
256.357	78.19
256.59	79.19
256.823	90.19
257.056	98.19
257.289	72.19
257.521	96.19
257.754	100.19
257.987	80.19
258.22	94.19
258.452	78.19
258.685	79.19
258.918	77.19
259.151	75.19
259.383	74.19
259.616	86.19
259.849	83.19
260.081	63.19
260.314	75.19
260.547	83.19
260.779	88.19
261.012	83.19
261.244	94.19
261.477	87.19
261.71	78.19
261.942	72.19
262.175	87.19
262.407	85.19
262.64	100.19
262.872	84.19
263.105	80.19
263.337	89.19
263.57	77.19
263.802	76.19
264.035	91.19
264.267	99.19
264.499	105.19
264.732	91.19
264.964	77.19
265.197	85.19
265.429	84.19
265.661	79.19
265.894	86.19
266.126	93.19
266.358	69.19
266.591	78.19
266.823	73.19
267.055	92.19
267.287	83.19
267.52	75.19
267.752	81.19
267.984	70.19
268.216	87.19
268.448	78.19
268.681	87.19
268.913	90.19
269.145	85.19
269.377	89.19
269.609	87.19
269.841	78.19
270.073	94.19
270.306	79.19
270.538	82.19
270.77	69.19
271.002	79.19
271.234	90.19
271.466	81.19
271.698	70.19
271.93	74.19
272.162	97.19
272.394	79.19
272.626	89.19
272.858	71.19
273.09	87.19
273.322	73.19
273.553	89.19
273.785	87.19
274.017	97.19
274.249	81.19
274.481	97.19
274.713	102.19
274.945	86.19
275.176	85.19
275.408	102.19
275.64	87.19
275.872	93.19
276.104	87.19
276.335	83.19
276.567	88.19
276.799	82.19
277.031	84.19
277.262	85.19
277.494	84.19
277.726	91.19
277.957	95.19
278.189	77.19
278.421	84.19
278.652	78.19
278.884	85.19
279.115	72.19
279.347	91.19
279.579	84.19
279.81	92.19
280.042	78.19
280.273	79.19
280.505	79.19
280.736	77.19
280.968	79.19
281.199	78.19
281.431	86.19
281.662	67.19
281.894	94.19
282.125	79.19
282.356	85.19
282.588	72.19
282.819	77.19
283.051	79.19
283.282	83.19
283.513	99.19
283.745	93.19
283.976	85.19
284.207	88.19
284.439	80.19
284.67	92.19
284.901	77.19
285.132	91.19
285.364	82.19
285.595	89.19
285.826	84.19
286.057	91.19
286.288	91.19
286.52	90.19
286.751	86.19
286.982	85.19
287.213	81.19
287.444	90.19
287.675	86.19
287.906	88.19
288.138	103.19
288.369	72.19
288.6	89.19
288.831	92.19
289.062	86.19
289.293	86.19
289.524	96.19
289.755	85.19
289.986	91.19
290.217	97.19
290.448	79.19
290.679	85.19
290.91	79.19
291.141	77.19
291.371	74.19
291.602	83.19
291.833	79.19
292.064	85.19
292.295	86.19
292.526	79.19
292.757	76.19
292.987	83.19
293.218	74.19
293.449	83.19
293.68	74.19
293.91	89.19
294.141	82.19
294.372	93.19
294.603	93.19
294.833	91.19
295.064	93.19
295.295	75.19
295.525	91.19
295.756	72.19
295.987	92.19
296.217	86.19
296.448	69.19
296.679	83.19
296.909	88.19
297.14	91.19
297.37	86.19
297.601	87.19
297.831	86.19
298.062	82.19
298.292	86.19
298.523	92.19
298.753	94.19
298.984	85.19
299.214	80.19
299.445	78.19
299.675	92.19
299.905	92.19
300.136	85.19
300.366	88.19
300.597	79.19
300.827	100.19
301.057	93.19
301.288	90.19
301.518	73.19
301.748	85.19
301.979	104.19
302.209	90.19
302.439	94.19
302.669	71.19
302.9	84.19
303.13	108.19
303.36	79.19
303.59	93.19
303.82	98.19
304.051	93.19
304.281	89.19
304.511	92.19
304.741	86.19
304.971	84.19
305.201	84.19
305.431	102.19
305.661	82.19
305.891	95.19
306.121	97.19
306.352	90.19
306.582	95.19
306.812	83.19
307.042	82.19
307.272	100.19
307.502	76.19
307.731	77.19
307.961	99.19
308.191	81.19
308.421	83.19
308.651	90.19
308.881	82.19
309.111	76.19
309.341	84.19
309.571	89.19
309.8	86.19
310.03	72.19
310.26	86.19
310.49	79.19
310.72	101.19
310.949	91.19
311.179	85.19
311.409	73.19
311.639	83.19
311.868	78.19
312.098	87.19
312.328	72.19
312.557	97.19
312.787	93.19
313.017	90.19
313.246	92.19
313.476	94.19
313.706	79.19
313.935	107.19
314.165	93.19
314.394	82.19
314.624	83.19
314.853	102.19
315.083	91.19
315.312	90.19
315.542	85.19
315.771	95.19
316.001	99.19
316.23	90.19
316.46	87.19
316.689	103.19
316.919	96.19
317.148	86.19
317.377	85.19
317.607	88.19
317.836	87.19
318.065	98.19
318.295	86.19
318.524	105.19
318.753	96.19
318.983	81.19
319.212	81.19
319.441	105.19
319.67	71.19
319.9	94.19
320.129	87.19
320.358	85.19
320.587	87.19
320.816	78.19
321.046	83.19
321.275	79.19
321.504	80.19
321.733	87.19
321.962	92.19
322.191	79.19
322.42	86.19
322.649	92.19
322.878	95.19
323.108	74.19
323.337	90.19
323.566	78.19
323.795	92.19
324.024	89.19
324.253	80.19
324.482	75.19
324.71	89.19
324.939	84.19
325.168	99.19
325.397	85.19
325.626	87.19
325.855	81.19
326.084	87.19
326.313	100.19
326.542	107.19
326.77	86.19
326.999	94.19
327.228	82.19
327.457	78.19
327.686	87.19
327.914	91.19
328.143	84.19
328.372	80.19
328.6	87.19
328.829	91.19
329.058	98.19
329.287	91.19
329.515	93.19
329.744	94.19
329.972	84.19
330.201	69.19
330.43	90.19
330.658	93.19
330.887	71.19
331.115	69.19
331.344	94.19
331.572	83.19
331.801	86.19
332.03	89.19
332.258	83.19
332.486	88.19
332.715	87.19
332.943	94.19
333.172	89.19
333.4	84.19
333.629	85.19
333.857	89.19
334.085	97.19
334.314	79.19
334.542	90.19
334.771	88.19
334.999	100.19
335.227	99.19
335.455	81.19
335.684	74.19
335.912	75.19
336.14	90.19
336.369	94.19
336.597	71.19
336.825	92.19
337.053	85.19
337.281	82.19
337.51	89.19
337.738	74.19
337.966	98.19
338.194	85.19
338.422	71.19
338.65	81.19
338.878	70.19
339.106	67.19
339.334	78.19
339.562	81.19
339.79	82.19
340.018	82.19
340.246	90.19
340.474	77.19
340.702	87.19
340.93	89.19
341.158	84.19
341.386	82.19
341.614	85.19
341.842	98.19
342.07	97.19
342.298	84.19
342.526	90.19
342.754	102.19
342.981	77.19
343.209	81.19
343.437	103.19
343.665	76.19
343.893	85.19
344.12	92.19
344.348	86.19
344.576	86.19
344.804	91.19
345.031	80.19
345.259	90.19
345.487	105.19
345.714	72.19
345.942	84.19
346.17	87.19
346.397	88.19
346.625	84.19
346.853	82.19
347.08	86.19
347.308	86.19
347.535	98.19
347.763	94.19
347.99	97.19
348.218	93.19
348.445	87.19
348.673	83.19
348.9	87.19
349.128	106.19
349.355	78.19
349.583	80.19
349.81	86.19
350.037	98.19
350.265	79.19
350.492	85.19
350.72	89.19
350.947	108.19
351.174	75.19
351.402	71.19
351.629	81.19
351.856	74.19
352.083	76.19
352.311	96.19
352.538	74.19
352.765	74.19
352.992	86.19
353.22	80.19
353.447	93.19
353.674	88.19
353.901	74.19
354.128	91.19
354.355	85.19
354.583	77.19
354.81	75.19
355.037	77.19
355.264	71.19
355.491	95.19
355.718	73.19
355.945	81.19
356.172	100.19
356.399	89.19
356.626	81.19
356.853	86.19
357.08	97.19
357.307	91.19
357.534	79.19
357.761	74.19
357.988	99.19
358.215	82.19
358.441	87.19
358.668	86.19
358.895	83.19
359.122	90.19
359.349	76.19
359.576	97.19
359.802	67.19
360.029	89.19
360.256	97.19
360.483	82.19
360.709	73.19
360.936	84.19
361.163	86.19
361.39	86.19
361.616	91.19
361.843	88.19
362.07	84.19
362.296	76.19
362.523	84.19
362.749	116.19
362.976	88.19
363.203	79.19
363.429	86.19
363.656	93.19
363.882	91.19
364.109	87.19
364.335	87.19
364.562	90.19
364.788	89.19
365.015	90.19
365.241	91.19
365.468	74.19
365.694	92.19
365.92	80.19
366.147	79.19
366.373	84.19
366.599	75.19
366.826	93.19
367.052	82.19
367.278	76.19
367.505	87.19
367.731	91.19
367.957	110.19
368.184	77.19
368.41	77.19
368.636	86.19
368.862	84.19
369.089	89.19
369.315	77.19
369.541	88.19
369.767	89.19
369.993	67.19
370.219	77.19
370.445	83.19
370.672	71.19
370.898	80.19
371.124	83.19
371.35	90.19
371.576	79.19
371.802	79.19
372.028	99.19
372.254	86.19
372.48	107.19
372.706	102.19
372.932	86.19
373.158	83.19
373.384	106.19
373.61	91.19
373.835	87.19
374.061	79.19
374.287	79.19
374.513	81.19
374.739	77.19
374.965	108.19
375.191	97.19
375.416	83.19
375.642	96.19
375.868	94.19
376.094	88.19
376.319	82.19
376.545	97.19
376.771	71.19
376.997	99.19
377.222	89.19
377.448	77.19
377.674	85.19
377.899	86.19
378.125	92.19
378.35	80.19
378.576	86.19
378.802	90.19
379.027	91.19
379.253	85.19
379.478	96.19
379.704	85.19
379.929	87.19
380.155	95.19
380.38	79.19
380.606	80.19
380.831	77.19
381.057	80.19
381.282	79.19
381.507	98.19
381.733	95.19
381.958	90.19
382.184	83.19
382.409	96.19
382.634	92.19
382.86	78.19
383.085	89.19
383.31	79.19
383.535	94.19
383.761	94.19
383.986	84.19
384.211	93.19
384.436	94.19
384.662	82.19
384.887	72.19
385.112	80.19
385.337	92.19
385.562	87.19
385.787	85.19
386.013	84.19
386.238	91.19
386.463	85.19
386.688	91.19
386.913	93.19
387.138	82.19
387.363	85.19
387.588	96.19
387.813	78.19
388.038	92.19
388.263	81.19
388.488	79.19
388.713	91.19
388.938	86.19
389.163	78.19
389.387	81.19
389.612	75.19
389.837	82.19
390.062	72.19
390.287	84.19
390.512	86.19
390.736	89.19
390.961	89.19
391.186	82.19
391.411	71.19
391.636	87.19
391.86	94.19
392.085	77.19
392.31	86.19
392.534	92.19
392.759	90.19
392.984	111.19
393.208	140.19
393.433	168.19
393.658	141.19
393.882	91.19
394.107	101.19
394.331	85.19
394.556	87.19
394.78	93.19
395.005	72.19
395.229	89.19
395.454	77.19
395.678	93.19
395.903	86.19
396.127	94.19
396.352	100.19
396.576	106.19
396.801	146.19
397.025	148.19
397.249	124.19
397.474	100.19
397.698	87.19
397.922	84.19
398.147	86.19
398.371	83.19
398.595	80.19
398.82	82.19
399.044	67.19
399.268	89.19
399.492	78.19
399.717	82.19
399.941	89.19
400.165	78.19
400.389	73.19
400.613	79.19
400.837	83.19
401.062	87.19
401.286	87.19
401.51	73.19
401.734	80.19
401.958	91.19
402.182	84.19
402.406	80.19
402.63	75.19
402.854	88.19
403.078	87.19
403.302	85.19
403.526	90.19
403.75	85.19
403.974	63.19
404.198	82.19
404.422	86.19
404.645	76.19
404.869	79.19
405.093	83.19
405.317	85.19
405.541	91.19
405.765	85.19
405.988	84.19
406.212	84.19
406.436	79.19
406.66	91.19
406.883	74.19
407.107	76.19
407.331	82.19
407.555	85.19
407.778	90.19
408.002	98.19
408.226	82.19
408.449	73.19
408.673	89.19
408.896	71.19
409.12	91.19
409.344	71.19
409.567	87.19
409.791	93.19
410.014	74.19
410.238	65.19
410.461	87.19
410.685	91.19
410.908	82.19
411.132	89.19
411.355	84.19
411.578	69.19
411.802	85.19
412.025	90.19
412.249	84.19
412.472	76.19
412.695	87.19
412.919	91.19
413.142	87.19
413.365	73.19
413.589	85.19
413.812	91.19
414.035	71.19
414.258	77.19
414.482	79.19
414.705	78.19
414.928	83.19
415.151	89.19
415.374	90.19
415.597	78.19
415.821	74.19
416.044	79.19
416.267	85.19
416.49	83.19
416.713	88.19
416.936	73.19
417.159	78.19
417.382	79.19
417.605	77.19
417.828	92.19
418.051	76.19
418.274	78.19
418.497	71.19
418.72	87.19
418.943	82.19
419.166	83.19
419.389	83.19
419.611	89.19
419.834	76.19
420.057	80.19
420.28	93.19
420.503	74.19
420.726	92.19
420.948	77.19
421.171	84.19
421.394	76.19
421.617	90.19
421.839	94.19
422.062	95.19
422.285	111.19
422.507	141.19
422.73	197.19
422.953	177.19
423.175	111.19
423.398	97.19
423.621	85.19
423.843	85.19
424.066	78.19
424.288	89.19
424.511	76.19
424.733	85.19
424.956	100.19
425.178	83.19
425.401	79.19
425.623	94.19
425.846	94.19
426.068	73.19
426.291	93.19
426.513	91.19
426.735	78.19
426.958	79.19
427.18	85.19
427.402	87.19
427.625	86.19
427.847	101.19
428.069	77.19
428.292	84.19
428.514	103.19
428.736	106.19
428.958	91.19
429.181	93.19
429.403	88.19
429.625	100.19
429.847	100.19
430.069	93.19
430.292	106.19
430.514	111.19
430.736	89.19
430.958	109.19
431.18	89.19
431.402	86.19
431.624	80.19
431.846	99.19
432.068	102.19
432.29	95.19
432.512	87.19
432.734	83.19
432.956	72.19
433.178	83.19
433.4	84.19
433.622	91.19
433.844	91.19
434.066	85.19
434.287	68.19
434.509	78.19
434.731	84.19
434.953	77.19
435.175	80.19
435.397	88.19
435.618	87.19
435.84	82.19
436.062	80.19
436.284	89.19
436.505	93.19
436.727	67.19
436.949	77.19
437.17	69.19
437.392	70.19
437.614	83.19
437.835	95.19
438.057	82.19
438.278	89.19
438.5	86.19
438.721	93.19
438.943	86.19
439.165	80.19
439.386	91.19
439.608	94.19
439.829	78.19
440.05	78.19
440.272	60.19
440.493	80.19
440.715	78.19
440.936	74.19
441.158	89.19
441.379	89.19
441.6	76.19
441.822	88.19
442.043	74.19
442.264	90.19
442.486	79.19
442.707	105.19
442.928	84.19
443.149	85.19
443.371	106.19
443.592	124.19
443.813	123.19
444.034	90.19
444.255	74.19
444.476	89.19
444.698	83.19
444.919	97.19
445.14	172.19
445.361	139.19
445.582	142.19
445.803	124.19
446.024	82.19
446.245	77.19
446.466	87.19
446.687	87.19
446.908	83.19
447.129	92.19
447.35	81.19
447.571	79.19
447.792	87.19
448.013	80.19
448.234	87.19
448.455	88.19
448.675	91.19
448.896	80.19
449.117	81.19
449.338	91.19
449.559	88.19
449.779	81.19
450	89.19
450.221	80.19
450.442	90.19
450.662	79.19
450.883	76.19
451.104	90.19
451.324	77.19
451.545	79.19
451.766	84.19
451.986	75.19
452.207	81.19
452.428	76.19
452.648	99.19
452.869	83.19
453.089	81.19
453.31	91.19
453.53	91.19
453.751	74.19
453.971	88.19
454.192	87.19
454.412	91.19
454.633	97.19
454.853	93.19
455.073	80.19
455.294	85.19
455.514	82.19
455.734	92.19
455.955	69.19
456.175	90.19
456.395	73.19
456.616	77.19
456.836	75.19
457.056	96.19
457.276	79.19
457.497	76.19
457.717	81.19
457.937	97.19
458.157	78.19
458.377	80.19
458.598	81.19
458.818	101.19
459.038	98.19
459.258	78.19
459.478	75.19
459.698	85.19
459.918	84.19
460.138	74.19
460.358	78.19
460.578	90.19
460.798	88.19
461.018	106.19
461.238	85.19
461.458	78.19
461.678	84.19
461.898	90.19
462.118	82.19
462.338	84.19
462.558	91.19
462.777	83.19
462.997	89.19
463.217	87.19
463.437	102.19
463.657	89.19
463.876	82.19
464.096	87.19
464.316	80.19
464.536	70.19
464.755	89.19
464.975	102.19
465.195	79.19
465.414	73.19
465.634	98.19
465.854	73.19
466.073	82.19
466.293	79.19
466.512	84.19
466.732	84.19
466.951	84.19
467.171	88.19
467.391	79.19
467.61	85.19
467.829	82.19
468.049	82.19
468.268	74.19
468.488	87.19
468.707	91.19
468.927	75.19
469.146	74.19
469.365	88.19
469.585	74.19
469.804	90.19
470.023	76.19
470.243	79.19
470.462	89.19
470.681	89.19
470.901	65.19
471.12	83.19
471.339	71.19
471.558	81.19
471.777	86.19
471.997	87.19
472.216	76.19
472.435	78.19
472.654	66.19
472.873	89.19
473.092	68.19
473.311	87.19
473.53	83.19
473.749	89.19
473.968	92.19
474.187	76.19
474.406	82.19
474.625	83.19
474.844	95.19
475.063	95.19
475.282	82.19
475.501	82.19
475.72	84.19
475.939	82.19
476.158	82.19
476.377	71.19
476.596	87.19
476.814	80.19
477.033	84.19
477.252	81.19
477.471	89.19
477.69	78.19
477.908	94.19
478.127	93.19
478.346	76.19
478.564	86.19
478.783	85.19
479.002	82.19
479.22	81.19
479.439	90.19
479.658	84.19
479.876	85.19
480.095	76.19
480.313	88.19
480.532	88.19
480.751	81.19
480.969	87.19
481.188	69.19
481.406	91.19
481.624	82.19
481.843	88.19
482.061	94.19
482.28	91.19
482.498	89.19
482.717	79.19
482.935	79.19
483.153	101.19
483.372	89.19
483.59	83.19
483.808	73.19
484.027	76.19
484.245	82.19
484.463	83.19
484.681	94.19
484.9	83.19
485.118	97.19
485.336	96.19
485.554	88.19
485.772	77.19
485.99	74.19
486.209	79.19
486.427	88.19
486.645	77.19
486.863	80.19
487.081	89.19
487.299	76.19
487.517	106.19
487.735	92.19
487.953	103.19
488.171	85.19
488.389	71.19
488.607	87.19
488.825	85.19
489.043	93.19
489.261	82.19
489.479	88.19
489.696	88.19
489.914	86.19
490.132	79.19
490.35	84.19
490.568	88.19
490.786	95.19
491.003	96.19
491.221	81.19
491.439	85.19
491.657	87.19
491.874	86.19
492.092	81.19
492.31	86.19
492.527	74.19
492.745	74.19
492.963	78.19
493.18	100.19
493.398	71.19
493.615	69.19
493.833	78.19
494.05	89.19
494.268	83.19
494.485	85.19
494.703	84.19
494.92	86.19
495.138	97.19
495.355	89.19
495.573	89.19
495.79	70.19
496.008	87.19
496.225	75.19
496.442	91.19
496.66	89.19
496.877	88.19
497.094	86.19
497.312	90.19
497.529	82.19
497.746	82.19
497.963	81.19
498.181	75.19
498.398	85.19
498.615	86.19
498.832	89.19
499.049	75.19
499.267	88.19
499.484	81.19
499.701	86.19
499.918	89.19
500.135	76.19
500.352	103.19
500.569	99.19
500.786	93.19
501.003	87.19
501.22	87.19
501.437	83.19
501.654	103.19
501.871	89.19
502.088	79.19
502.305	85.19
502.522	83.19
502.739	93.19
502.956	84.19
503.172	83.19
503.389	88.19
503.606	80.19
503.823	96.19
504.04	80.19
504.256	98.19
504.473	74.19
504.69	82.19
504.907	91.19
505.123	84.19
505.34	94.19
505.557	86.19
505.773	77.19
505.99	77.19
506.207	78.19
506.423	71.19
506.64	93.19
506.856	83.19
507.073	102.19
507.289	95.19
507.506	82.19
507.722	93.19
507.939	91.19
508.155	89.19
508.372	83.19
508.588	93.19
508.805	103.19
509.021	93.19
509.238	80.19
509.454	86.19
509.67	83.19
509.887	68.19
510.103	93.19
510.319	93.19
510.536	89.19
510.752	85.19
510.968	81.19
511.184	86.19
511.401	75.19
511.617	82.19
511.833	88.19
512.049	76.19
512.265	89.19
512.481	88.19
512.698	95.19
512.914	88.19
513.13	91.19
513.346	87.19
513.562	83.19
513.778	91.19
513.994	91.19
514.21	94.19
514.426	85.19
514.642	84.19
514.858	91.19
515.074	89.19
515.29	85.19
515.506	72.19
515.721	93.19
515.937	75.19
516.153	87.19
516.369	82.19
516.585	81.19
516.801	93.19
517.016	89.19
517.232	85.19
517.448	99.19
517.664	90.19
517.879	97.19
518.095	78.19
518.311	108.19
518.527	102.19
518.742	86.19
518.958	90.19
519.173	102.19
