Data from HP_3_HRD10591_00038.txt Node
Date: Mon Jan 19 14:17:19 EST 2026
User: Yrep
Spectrometer: HR+D1059
Trigger mode: 1
Integration Time (sec): 1.000000E-1
Scans to average: 1
Electric dark correction enabled: true
Nonlinearity correction enabled: false
Boxcar width: 0
XAxis mode: Wavelengths
Number of Pixels in Spectrum: 2048
>>>>>Begin Spectral Data<<<<<
223.165	-24.56
223.4	-24.56
223.635	-24.56
223.869	-25.56
224.104	-20.56
224.338	-11.56
224.573	-5.56
224.808	-16.56
225.042	-4.56
225.277	-8.56
225.511	-2.56
225.746	14.44
225.98	10.44
226.215	11.44
226.449	-1.56
226.683	22.44
226.918	33.44
227.152	29.44
227.387	38.44
227.621	44.44
227.856	45.44
228.09	50.44
228.324	57.44
228.559	49.44
228.793	58.44
229.027	71.44
229.262	79.44
229.496	57.44
229.73	68.44
229.964	72.44
230.199	75.44
230.433	58.44
230.667	84.44
230.901	83.44
231.136	71.44
231.37	81.44
231.604	71.44
231.838	86.44
232.072	84.44
232.306	83.44
232.541	86.44
232.775	72.44
233.009	82.44
233.243	74.44
233.477	77.44
233.711	82.44
233.945	88.44
234.179	83.44
234.413	87.44
234.647	75.44
234.881	75.44
235.115	89.44
235.349	85.44
235.583	67.44
235.817	89.44
236.051	75.44
236.285	78.44
236.519	73.44
236.753	88.44
236.987	73.44
237.221	79.44
237.455	77.44
237.689	78.44
237.922	78.44
238.156	84.44
238.39	80.44
238.624	85.44
238.858	80.44
239.091	95.44
239.325	74.44
239.559	76.44
239.793	73.44
240.027	88.44
240.26	65.44
240.494	78.44
240.728	84.44
240.961	69.44
241.195	75.44
241.429	86.44
241.662	72.44
241.896	70.44
242.13	84.44
242.363	87.44
242.597	74.44
242.83	78.44
243.064	67.44
243.298	81.44
243.531	70.44
243.765	87.44
243.998	68.44
244.232	83.44
244.465	72.44
244.699	82.44
244.932	65.44
245.166	70.44
245.399	59.44
245.633	89.44
245.866	82.44
246.099	74.44
246.333	82.44
246.566	77.44
246.8	86.44
247.033	78.44
247.266	82.44
247.5	84.44
247.733	66.44
247.966	88.44
248.2	68.44
248.433	64.44
248.666	73.44
248.899	78.44
249.133	89.44
249.366	74.44
249.599	70.44
249.832	73.44
250.066	92.44
250.299	79.44
250.532	84.44
250.765	74.44
250.998	61.44
251.231	82.44
251.465	92.44
251.698	77.44
251.931	78.44
252.164	68.44
252.397	75.44
252.63	69.44
252.863	79.44
253.096	92.44
253.329	73.44
253.562	77.44
253.795	86.44
254.028	89.44
254.261	80.44
254.494	81.44
254.727	82.44
254.96	71.44
255.193	86.44
255.426	86.44
255.659	74.44
255.892	82.44
256.124	82.44
256.357	85.44
256.59	95.44
256.823	66.44
257.056	68.44
257.289	74.44
257.521	84.44
257.754	76.44
257.987	80.44
258.22	94.44
258.452	86.44
258.685	68.44
258.918	82.44
259.151	82.44
259.383	77.44
259.616	80.44
259.849	78.44
260.081	87.44
260.314	84.44
260.547	64.44
260.779	78.44
261.012	85.44
261.244	71.44
261.477	73.44
261.71	77.44
261.942	77.44
262.175	68.44
262.407	84.44
262.64	64.44
262.872	67.44
263.105	94.44
263.337	95.44
263.57	75.44
263.802	84.44
264.035	84.44
264.267	82.44
264.499	90.44
264.732	81.44
264.964	82.44
265.197	77.44
265.429	82.44
265.661	82.44
265.894	77.44
266.126	76.44
266.358	90.44
266.591	80.44
266.823	91.44
267.055	82.44
267.287	68.44
267.52	76.44
267.752	98.44
267.984	80.44
268.216	94.44
268.448	104.44
268.681	85.44
268.913	99.44
269.145	77.44
269.377	70.44
269.609	72.44
269.841	86.44
270.073	80.44
270.306	81.44
270.538	81.44
270.77	95.44
271.002	74.44
271.234	76.44
271.466	84.44
271.698	84.44
271.93	86.44
272.162	90.44
272.394	99.44
272.626	91.44
272.858	93.44
273.09	88.44
273.322	85.44
273.553	69.44
273.785	84.44
274.017	76.44
274.249	79.44
274.481	79.44
274.713	76.44
274.945	70.44
275.176	76.44
275.408	77.44
275.64	81.44
275.872	88.44
276.104	73.44
276.335	92.44
276.567	97.44
276.799	78.44
277.031	78.44
277.262	85.44
277.494	89.44
277.726	81.44
277.957	82.44
278.189	78.44
278.421	96.44
278.652	77.44
278.884	90.44
279.115	73.44
279.347	86.44
279.579	108.44
279.81	86.44
280.042	84.44
280.273	85.44
280.505	69.44
280.736	78.44
280.968	90.44
281.199	84.44
281.431	78.44
281.662	88.44
281.894	100.44
282.125	96.44
282.356	87.44
282.588	74.44
282.819	84.44
283.051	90.44
283.282	87.44
283.513	70.44
283.745	80.44
283.976	67.44
284.207	89.44
284.439	85.44
284.67	90.44
284.901	78.44
285.132	100.44
285.364	100.44
285.595	81.44
285.826	89.44
286.057	81.44
286.288	83.44
286.52	75.44
286.751	92.44
286.982	91.44
287.213	86.44
287.444	81.44
287.675	99.44
287.906	85.44
288.138	90.44
288.369	82.44
288.6	80.44
288.831	78.44
289.062	78.44
289.293	94.44
289.524	82.44
289.755	82.44
289.986	94.44
290.217	97.44
290.448	86.44
290.679	76.44
290.91	82.44
291.141	90.44
291.371	82.44
291.602	78.44
291.833	77.44
292.064	85.44
292.295	78.44
292.526	84.44
292.757	78.44
292.987	94.44
293.218	85.44
293.449	82.44
293.68	77.44
293.91	84.44
294.141	90.44
294.372	90.44
294.603	67.44
294.833	73.44
295.064	84.44
295.295	85.44
295.525	87.44
295.756	92.44
295.987	97.44
296.217	88.44
296.448	94.44
296.679	86.44
296.909	85.44
297.14	94.44
297.37	93.44
297.601	87.44
297.831	87.44
298.062	98.44
298.292	88.44
298.523	94.44
298.753	84.44
298.984	91.44
299.214	69.44
299.445	94.44
299.675	74.44
299.905	78.44
300.136	83.44
300.366	76.44
300.597	77.44
300.827	87.44
301.057	102.44
301.288	77.44
301.518	94.44
301.748	66.44
301.979	112.44
302.209	81.44
302.439	99.44
302.669	75.44
302.9	87.44
303.13	82.44
303.36	95.44
303.59	81.44
303.82	94.44
304.051	87.44
304.281	92.44
304.511	97.44
304.741	80.44
304.971	97.44
305.201	90.44
305.431	78.44
305.661	77.44
305.891	90.44
306.121	93.44
306.352	82.44
306.582	73.44
306.812	92.44
307.042	77.44
307.272	89.44
307.502	79.44
307.731	82.44
307.961	87.44
308.191	92.44
308.421	81.44
308.651	87.44
308.881	82.44
309.111	83.44
309.341	85.44
309.571	78.44
309.8	90.44
310.03	84.44
310.26	86.44
310.49	85.44
310.72	96.44
310.949	86.44
311.179	79.44
311.409	93.44
311.639	99.44
311.868	88.44
312.098	83.44
312.328	100.44
312.557	95.44
312.787	85.44
313.017	86.44
313.246	82.44
313.476	79.44
313.706	71.44
313.935	85.44
314.165	84.44
314.394	85.44
314.624	96.44
314.853	64.44
315.083	94.44
315.312	90.44
315.542	83.44
315.771	90.44
316.001	73.44
316.23	83.44
316.46	82.44
316.689	76.44
316.919	86.44
317.148	91.44
317.377	79.44
317.607	89.44
317.836	79.44
318.065	95.44
318.295	79.44
318.524	85.44
318.753	91.44
318.983	78.44
319.212	83.44
319.441	88.44
319.67	80.44
319.9	84.44
320.129	68.44
320.358	91.44
320.587	106.44
320.816	82.44
321.046	80.44
321.275	78.44
321.504	84.44
321.733	78.44
321.962	79.44
322.191	100.44
322.42	74.44
322.649	89.44
322.878	74.44
323.108	84.44
323.337	97.44
323.566	90.44
323.795	82.44
324.024	79.44
324.253	71.44
324.482	80.44
324.71	78.44
324.939	86.44
325.168	85.44
325.397	90.44
325.626	93.44
325.855	80.44
326.084	84.44
326.313	79.44
326.542	105.44
326.77	85.44
326.999	77.44
327.228	78.44
327.457	87.44
327.686	85.44
327.914	78.44
328.143	75.44
328.372	86.44
328.6	93.44
328.829	91.44
329.058	82.44
329.287	85.44
329.515	82.44
329.744	83.44
329.972	94.44
330.201	106.44
330.43	97.44
330.658	82.44
330.887	69.44
331.115	82.44
331.344	86.44
331.572	99.44
331.801	98.44
332.03	76.44
332.258	87.44
332.486	81.44
332.715	101.44
332.943	92.44
333.172	88.44
333.4	82.44
333.629	85.44
333.857	86.44
334.085	84.44
334.314	85.44
334.542	85.44
334.771	81.44
334.999	81.44
335.227	89.44
335.455	96.44
335.684	78.44
335.912	97.44
336.14	88.44
336.369	66.44
336.597	84.44
336.825	83.44
337.053	72.44
337.281	77.44
337.51	88.44
337.738	97.44
337.966	80.44
338.194	84.44
338.422	75.44
338.65	97.44
338.878	81.44
339.106	89.44
339.334	95.44
339.562	85.44
339.79	96.44
340.018	74.44
340.246	85.44
340.474	88.44
340.702	77.44
340.93	84.44
341.158	76.44
341.386	83.44
341.614	75.44
341.842	79.44
342.07	86.44
342.298	91.44
342.526	78.44
342.754	89.44
342.981	77.44
343.209	96.44
343.437	101.44
343.665	86.44
343.893	84.44
344.12	94.44
344.348	90.44
344.576	80.44
344.804	90.44
345.031	79.44
345.259	90.44
345.487	97.44
345.714	83.44
345.942	77.44
346.17	94.44
346.397	99.44
346.625	92.44
346.853	80.44
347.08	84.44
347.308	70.44
347.535	84.44
347.763	89.44
347.99	88.44
348.218	87.44
348.445	90.44
348.673	77.44
348.9	84.44
349.128	93.44
349.355	84.44
349.583	81.44
349.81	90.44
350.037	74.44
350.265	97.44
350.492	78.44
350.72	87.44
350.947	74.44
351.174	88.44
351.402	103.44
351.629	87.44
351.856	81.44
352.083	76.44
352.311	95.44
352.538	89.44
352.765	94.44
352.992	71.44
353.22	78.44
353.447	76.44
353.674	74.44
353.901	90.44
354.128	77.44
354.355	86.44
354.583	84.44
354.81	91.44
355.037	94.44
355.264	87.44
355.491	70.44
355.718	78.44
355.945	74.44
356.172	78.44
356.399	84.44
356.626	88.44
356.853	84.44
357.08	82.44
357.307	89.44
357.534	82.44
357.761	94.44
357.988	94.44
358.215	88.44
358.441	79.44
358.668	81.44
358.895	94.44
359.122	92.44
359.349	79.44
359.576	66.44
359.802	77.44
360.029	80.44
360.256	79.44
360.483	73.44
360.709	85.44
360.936	78.44
361.163	95.44
361.39	69.44
361.616	81.44
361.843	85.44
362.07	92.44
362.296	95.44
362.523	91.44
362.749	82.44
362.976	89.44
363.203	99.44
363.429	84.44
363.656	72.44
363.882	84.44
364.109	94.44
364.335	95.44
364.562	69.44
364.788	92.44
365.015	70.44
365.241	79.44
365.468	78.44
365.694	85.44
365.92	80.44
366.147	81.44
366.373	69.44
366.599	70.44
366.826	76.44
367.052	82.44
367.278	88.44
367.505	81.44
367.731	81.44
367.957	75.44
368.184	85.44
368.41	76.44
368.636	69.44
368.862	82.44
369.089	75.44
369.315	90.44
369.541	75.44
369.767	77.44
369.993	86.44
370.219	73.44
370.445	76.44
370.672	84.44
370.898	72.44
371.124	73.44
371.35	79.44
371.576	86.44
371.802	96.44
372.028	89.44
372.254	83.44
372.48	96.44
372.706	87.44
372.932	85.44
373.158	66.44
373.384	83.44
373.61	77.44
373.835	90.44
374.061	84.44
374.287	73.44
374.513	88.44
374.739	98.44
374.965	86.44
375.191	86.44
375.416	84.44
375.642	54.44
375.868	84.44
376.094	91.44
376.319	81.44
376.545	87.44
376.771	73.44
376.997	64.44
377.222	83.44
377.448	80.44
377.674	84.44
377.899	81.44
378.125	92.44
378.35	88.44
378.576	76.44
378.802	84.44
379.027	87.44
379.253	96.44
379.478	96.44
379.704	78.44
379.929	85.44
380.155	76.44
380.38	78.44
380.606	71.44
380.831	72.44
381.057	93.44
381.282	79.44
381.507	91.44
381.733	94.44
381.958	88.44
382.184	72.44
382.409	74.44
382.634	69.44
382.86	79.44
383.085	81.44
383.31	87.44
383.535	84.44
383.761	81.44
383.986	90.44
384.211	81.44
384.436	74.44
384.662	77.44
384.887	91.44
385.112	89.44
385.337	81.44
385.562	75.44
385.787	88.44
386.013	84.44
386.238	84.44
386.463	71.44
386.688	97.44
386.913	70.44
387.138	92.44
387.363	75.44
387.588	88.44
387.813	76.44
388.038	88.44
388.263	81.44
388.488	92.44
388.713	84.44
388.938	79.44
389.163	84.44
389.387	79.44
389.612	79.44
389.837	89.44
390.062	73.44
390.287	100.44
390.512	88.44
390.736	87.44
390.961	83.44
391.186	91.44
391.411	94.44
391.636	95.44
391.86	68.44
392.085	76.44
392.31	85.44
392.534	86.44
392.759	79.44
392.984	85.44
393.208	96.44
393.433	114.44
393.658	100.44
393.882	84.44
394.107	85.44
394.331	76.44
394.556	67.44
394.78	79.44
395.005	82.44
395.229	89.44
395.454	73.44
395.678	85.44
395.903	75.44
396.127	86.44
396.352	86.44
396.576	84.44
396.801	100.44
397.025	113.44
397.249	92.44
397.474	79.44
397.698	88.44
397.922	90.44
398.147	81.44
398.371	83.44
398.595	78.44
398.82	76.44
399.044	68.44
399.268	70.44
399.492	93.44
399.717	79.44
399.941	69.44
400.165	90.44
400.389	92.44
400.613	92.44
400.837	82.44
401.062	88.44
401.286	77.44
401.51	86.44
401.734	86.44
401.958	78.44
402.182	86.44
402.406	82.44
402.63	83.44
402.854	83.44
403.078	74.44
403.302	75.44
403.526	96.44
403.75	95.44
403.974	87.44
404.198	84.44
404.422	75.44
404.645	75.44
404.869	69.44
405.093	76.44
405.317	78.44
405.541	78.44
405.765	89.44
405.988	74.44
406.212	91.44
406.436	79.44
406.66	81.44
406.883	86.44
407.107	71.44
407.331	84.44
407.555	85.44
407.778	89.44
408.002	92.44
408.226	91.44
408.449	87.44
408.673	86.44
408.896	68.44
409.12	88.44
409.344	88.44
409.567	77.44
409.791	79.44
410.014	86.44
410.238	75.44
410.461	84.44
410.685	90.44
410.908	69.44
411.132	80.44
411.355	82.44
411.578	89.44
411.802	74.44
412.025	70.44
412.249	86.44
412.472	83.44
412.695	78.44
412.919	78.44
413.142	79.44
413.365	84.44
413.589	73.44
413.812	85.44
414.035	91.44
414.258	79.44
414.482	82.44
414.705	88.44
414.928	90.44
415.151	83.44
415.374	66.44
415.597	72.44
415.821	75.44
416.044	75.44
416.267	83.44
416.49	70.44
416.713	74.44
416.936	81.44
417.159	69.44
417.382	76.44
417.605	89.44
417.828	84.44
418.051	76.44
418.274	69.44
418.497	84.44
418.72	75.44
418.943	84.44
419.166	75.44
419.389	80.44
419.611	84.44
419.834	77.44
420.057	77.44
420.28	86.44
420.503	83.44
420.726	86.44
420.948	85.44
421.171	72.44
421.394	95.44
421.617	87.44
421.839	93.44
422.062	88.44
422.285	91.44
422.507	90.44
422.73	117.44
422.953	107.44
423.175	75.44
423.398	82.44
423.621	78.44
423.843	76.44
424.066	76.44
424.288	84.44
424.511	94.44
424.733	82.44
424.956	74.44
425.178	75.44
425.401	96.44
425.623	81.44
425.846	80.44
426.068	81.44
426.291	66.44
426.513	73.44
426.735	77.44
426.958	96.44
427.18	88.44
427.402	92.44
427.625	83.44
427.847	91.44
428.069	86.44
428.292	92.44
428.514	88.44
428.736	86.44
428.958	82.44
429.181	82.44
429.403	70.44
429.625	85.44
429.847	84.44
430.069	86.44
430.292	77.44
430.514	102.44
430.736	103.44
430.958	107.44
431.18	74.44
431.402	86.44
431.624	91.44
431.846	87.44
432.068	88.44
432.29	82.44
432.512	91.44
432.734	70.44
432.956	80.44
433.178	93.44
433.4	96.44
433.622	82.44
433.844	89.44
434.066	83.44
434.287	73.44
434.509	77.44
434.731	76.44
434.953	84.44
435.175	76.44
435.397	84.44
435.618	81.44
435.84	76.44
436.062	90.44
436.284	83.44
436.505	86.44
436.727	78.44
436.949	86.44
437.17	88.44
437.392	89.44
437.614	69.44
437.835	59.44
438.057	81.44
438.278	97.44
438.5	81.44
438.721	86.44
438.943	74.44
439.165	84.44
439.386	90.44
439.608	79.44
439.829	94.44
440.05	82.44
440.272	77.44
440.493	75.44
440.715	95.44
440.936	89.44
441.158	94.44
441.379	70.44
441.6	70.44
441.822	90.44
442.043	80.44
442.264	84.44
442.486	85.44
442.707	80.44
442.928	75.44
443.149	81.44
443.371	83.44
443.592	90.44
443.813	96.44
444.034	84.44
444.255	76.44
444.476	80.44
444.698	85.44
444.919	73.44
445.14	157.44
445.361	121.44
445.582	93.44
445.803	78.44
446.024	66.44
446.245	80.44
446.466	91.44
446.687	96.44
446.908	79.44
447.129	99.44
447.35	88.44
447.571	74.44
447.792	82.44
448.013	74.44
448.234	85.44
448.455	79.44
448.675	83.44
448.896	66.44
449.117	78.44
449.338	88.44
449.559	98.44
449.779	65.44
450	78.44
450.221	91.44
450.442	92.44
450.662	65.44
450.883	86.44
451.104	80.44
451.324	76.44
451.545	77.44
451.766	67.44
451.986	82.44
452.207	96.44
452.428	76.44
452.648	91.44
452.869	75.44
453.089	85.44
453.31	78.44
453.53	83.44
453.751	77.44
453.971	88.44
454.192	84.44
454.412	81.44
454.633	77.44
454.853	84.44
455.073	91.44
455.294	81.44
455.514	90.44
455.734	78.44
455.955	66.44
456.175	77.44
456.395	89.44
456.616	90.44
456.836	84.44
457.056	88.44
457.276	92.44
457.497	82.44
457.717	83.44
457.937	78.44
458.157	79.44
458.377	88.44
458.598	90.44
458.818	87.44
459.038	79.44
459.258	71.44
459.478	79.44
459.698	86.44
459.918	87.44
460.138	85.44
460.358	94.44
460.578	86.44
460.798	97.44
461.018	95.44
461.238	84.44
461.458	75.44
461.678	84.44
461.898	98.44
462.118	90.44
462.338	87.44
462.558	77.44
462.777	84.44
462.997	92.44
463.217	82.44
463.437	60.44
463.657	78.44
463.876	83.44
464.096	84.44
464.316	86.44
464.536	82.44
464.755	90.44
464.975	79.44
465.195	77.44
465.414	72.44
465.634	69.44
465.854	83.44
466.073	72.44
466.293	68.44
466.512	68.44
466.732	87.44
466.951	91.44
467.171	78.44
467.391	75.44
467.61	82.44
467.829	76.44
468.049	74.44
468.268	85.44
468.488	78.44
468.707	86.44
468.927	74.44
469.146	73.44
469.365	69.44
469.585	83.44
469.804	78.44
470.023	82.44
470.243	82.44
470.462	74.44
470.681	93.44
470.901	81.44
471.12	72.44
471.339	81.44
471.558	84.44
471.777	74.44
471.997	86.44
472.216	77.44
472.435	73.44
472.654	89.44
472.873	90.44
473.092	87.44
473.311	77.44
473.53	88.44
473.749	78.44
473.968	81.44
474.187	70.44
474.406	82.44
474.625	73.44
474.844	84.44
475.063	85.44
475.282	88.44
475.501	90.44
475.72	101.44
475.939	82.44
476.158	84.44
476.377	79.44
476.596	83.44
476.814	65.44
477.033	78.44
477.252	73.44
477.471	78.44
477.69	59.44
477.908	97.44
478.127	91.44
478.346	79.44
478.564	78.44
478.783	84.44
479.002	78.44
479.22	77.44
479.439	81.44
479.658	88.44
479.876	90.44
480.095	90.44
480.313	89.44
480.532	65.44
480.751	86.44
480.969	99.44
481.188	96.44
481.406	89.44
481.624	74.44
481.843	90.44
482.061	78.44
482.28	84.44
482.498	78.44
482.717	88.44
482.935	82.44
483.153	88.44
483.372	89.44
483.59	73.44
483.808	70.44
484.027	86.44
484.245	83.44
484.463	87.44
484.681	92.44
484.9	82.44
485.118	85.44
485.336	91.44
485.554	79.44
485.772	98.44
485.99	83.44
486.209	76.44
486.427	84.44
486.645	83.44
486.863	93.44
487.081	86.44
487.299	70.44
487.517	71.44
487.735	82.44
487.953	82.44
488.171	73.44
488.389	90.44
488.607	84.44
488.825	84.44
489.043	79.44
489.261	84.44
489.479	81.44
489.696	77.44
489.914	88.44
490.132	81.44
490.35	95.44
490.568	78.44
490.786	85.44
491.003	68.44
491.221	81.44
491.439	88.44
491.657	78.44
491.874	76.44
492.092	101.44
492.31	79.44
492.527	85.44
492.745	74.44
492.963	91.44
493.18	98.44
493.398	80.44
493.615	79.44
493.833	83.44
494.05	89.44
494.268	82.44
494.485	82.44
494.703	78.44
494.92	89.44
495.138	81.44
495.355	71.44
495.573	86.44
495.79	68.44
496.008	87.44
496.225	74.44
496.442	93.44
496.66	80.44
496.877	72.44
497.094	83.44
497.312	96.44
497.529	78.44
497.746	78.44
497.963	71.44
498.181	80.44
498.398	77.44
498.615	66.44
498.832	76.44
499.049	80.44
499.267	86.44
499.484	72.44
499.701	60.44
499.918	92.44
500.135	72.44
500.352	81.44
500.569	90.44
500.786	76.44
501.003	90.44
501.22	75.44
501.437	96.44
501.654	79.44
501.871	74.44
502.088	68.44
502.305	77.44
502.522	81.44
502.739	86.44
502.956	77.44
503.172	93.44
503.389	77.44
503.606	77.44
503.823	83.44
504.04	90.44
504.256	79.44
504.473	77.44
504.69	83.44
504.907	89.44
505.123	79.44
505.34	82.44
505.557	93.44
505.773	74.44
505.99	76.44
506.207	88.44
506.423	80.44
506.64	86.44
506.856	89.44
507.073	78.44
507.289	84.44
507.506	80.44
507.722	92.44
507.939	79.44
508.155	87.44
508.372	84.44
508.588	78.44
508.805	97.44
509.021	72.44
509.238	84.44
509.454	86.44
509.67	72.44
509.887	80.44
510.103	85.44
510.319	85.44
510.536	93.44
510.752	84.44
510.968	73.44
511.184	79.44
511.401	75.44
511.617	79.44
511.833	83.44
512.049	84.44
512.265	79.44
512.481	96.44
512.698	83.44
512.914	90.44
513.13	88.44
513.346	81.44
513.562	79.44
513.778	79.44
513.994	65.44
514.21	78.44
514.426	107.44
514.642	88.44
514.858	88.44
515.074	92.44
515.29	77.44
515.506	72.44
515.721	74.44
515.937	84.44
516.153	73.44
516.369	85.44
516.585	84.44
516.801	94.44
517.016	86.44
517.232	84.44
517.448	81.44
517.664	60.44
517.879	71.44
518.095	89.44
518.311	81.44
518.527	97.44
518.742	80.44
518.958	84.44
519.173	80.44
519.389	75.44
519.605	67.44
519.82	76.44
