Data from HP_3_HRD10591_00050.txt Node
Date: Mon Jan 19 14:17:25 EST 2026
User: Yrep
Spectrometer: HR+D1059
Trigger mode: 1
Integration Time (sec): 1.000000E-1
Scans to average: 1
Electric dark correction enabled: true
Nonlinearity correction enabled: false
Boxcar width: 0
XAxis mode: Wavelengths
Number of Pixels in Spectrum: 2048
>>>>>Begin Spectral Data<<<<<
223.165	-21.56
223.4	-21.56
223.635	-21.56
223.869	-5.56
224.104	-30.56
224.338	-6.56
224.573	-16.56
224.808	-19.56
225.042	-1.56
225.277	-2.56
225.511	-4.56
225.746	-4.56
225.98	12.44
226.215	10.44
226.449	11.44
226.683	6.44
226.918	26.44
227.152	46.44
227.387	31.44
227.621	39.44
227.856	27.44
228.09	48.44
228.324	58.44
228.559	60.44
228.793	52.44
229.027	58.44
229.262	45.44
229.496	70.44
229.73	67.44
229.964	72.44
230.199	72.44
230.433	61.44
230.667	77.44
230.901	77.44
231.136	68.44
231.37	79.44
231.604	84.44
231.838	71.44
232.072	81.44
232.306	100.44
232.541	87.44
232.775	75.44
233.009	86.44
233.243	85.44
233.477	93.44
233.711	85.44
233.945	81.44
234.179	75.44
234.413	90.44
234.647	72.44
234.881	76.44
235.115	77.44
235.349	77.44
235.583	68.44
235.817	83.44
236.051	72.44
236.285	82.44
236.519	85.44
236.753	71.44
236.987	87.44
237.221	75.44
237.455	77.44
237.689	68.44
237.922	76.44
238.156	73.44
238.39	76.44
238.624	71.44
238.858	60.44
239.091	85.44
239.325	73.44
239.559	72.44
239.793	67.44
240.027	86.44
240.26	68.44
240.494	77.44
240.728	87.44
240.961	74.44
241.195	80.44
241.429	68.44
241.662	67.44
241.896	60.44
242.13	77.44
242.363	80.44
242.597	75.44
242.83	79.44
243.064	74.44
243.298	70.44
243.531	70.44
243.765	78.44
243.998	73.44
244.232	65.44
244.465	78.44
244.699	72.44
244.932	79.44
245.166	83.44
245.399	88.44
245.633	76.44
245.866	87.44
246.099	90.44
246.333	84.44
246.566	70.44
246.8	81.44
247.033	81.44
247.266	74.44
247.5	73.44
247.733	82.44
247.966	73.44
248.2	78.44
248.433	63.44
248.666	81.44
248.899	80.44
249.133	73.44
249.366	88.44
249.599	73.44
249.832	79.44
250.066	87.44
250.299	86.44
250.532	81.44
250.765	66.44
250.998	89.44
251.231	76.44
251.465	68.44
251.698	81.44
251.931	89.44
252.164	72.44
252.397	81.44
252.63	63.44
252.863	67.44
253.096	68.44
253.329	95.44
253.562	77.44
253.795	91.44
254.028	95.44
254.261	82.44
254.494	92.44
254.727	84.44
254.96	85.44
255.193	81.44
255.426	71.44
255.659	74.44
255.892	78.44
256.124	65.44
256.357	73.44
256.59	82.44
256.823	76.44
257.056	71.44
257.289	85.44
257.521	80.44
257.754	88.44
257.987	85.44
258.22	81.44
258.452	74.44
258.685	77.44
258.918	82.44
259.151	76.44
259.383	78.44
259.616	67.44
259.849	67.44
260.081	83.44
260.314	83.44
260.547	92.44
260.779	80.44
261.012	81.44
261.244	71.44
261.477	86.44
261.71	76.44
261.942	65.44
262.175	63.44
262.407	91.44
262.64	77.44
262.872	74.44
263.105	76.44
263.337	81.44
263.57	81.44
263.802	90.44
264.035	89.44
264.267	94.44
264.499	74.44
264.732	91.44
264.964	66.44
265.197	88.44
265.429	92.44
265.661	81.44
265.894	71.44
266.126	81.44
266.358	79.44
266.591	72.44
266.823	73.44
267.055	87.44
267.287	84.44
267.52	87.44
267.752	94.44
267.984	79.44
268.216	66.44
268.448	83.44
268.681	76.44
268.913	87.44
269.145	87.44
269.377	72.44
269.609	73.44
269.841	86.44
270.073	85.44
270.306	72.44
270.538	86.44
270.77	69.44
271.002	81.44
271.234	98.44
271.466	82.44
271.698	81.44
271.93	80.44
272.162	67.44
272.394	80.44
272.626	75.44
272.858	86.44
273.09	80.44
273.322	69.44
273.553	92.44
273.785	73.44
274.017	81.44
274.249	85.44
274.481	87.44
274.713	76.44
274.945	87.44
275.176	84.44
275.408	87.44
275.64	77.44
275.872	82.44
276.104	69.44
276.335	91.44
276.567	77.44
276.799	92.44
277.031	87.44
277.262	76.44
277.494	83.44
277.726	90.44
277.957	90.44
278.189	80.44
278.421	89.44
278.652	81.44
278.884	79.44
279.115	76.44
279.347	86.44
279.579	71.44
279.81	79.44
280.042	87.44
280.273	89.44
280.505	81.44
280.736	95.44
280.968	88.44
281.199	79.44
281.431	87.44
281.662	81.44
281.894	85.44
282.125	91.44
282.356	92.44
282.588	77.44
282.819	84.44
283.051	88.44
283.282	72.44
283.513	83.44
283.745	69.44
283.976	71.44
284.207	91.44
284.439	89.44
284.67	94.44
284.901	81.44
285.132	78.44
285.364	84.44
285.595	89.44
285.826	85.44
286.057	95.44
286.288	87.44
286.52	87.44
286.751	85.44
286.982	84.44
287.213	72.44
287.444	69.44
287.675	67.44
287.906	83.44
288.138	76.44
288.369	101.44
288.6	79.44
288.831	79.44
289.062	89.44
289.293	92.44
289.524	81.44
289.755	82.44
289.986	85.44
290.217	83.44
290.448	77.44
290.679	80.44
290.91	88.44
291.141	78.44
291.371	75.44
291.602	77.44
291.833	75.44
292.064	80.44
292.295	82.44
292.526	76.44
292.757	88.44
292.987	72.44
293.218	95.44
293.449	98.44
293.68	79.44
293.91	81.44
294.141	88.44
294.372	95.44
294.603	75.44
294.833	82.44
295.064	85.44
295.295	85.44
295.525	85.44
295.756	75.44
295.987	75.44
296.217	85.44
296.448	88.44
296.679	75.44
296.909	78.44
297.14	77.44
297.37	93.44
297.601	77.44
297.831	81.44
298.062	77.44
298.292	78.44
298.523	99.44
298.753	102.44
298.984	93.44
299.214	89.44
299.445	69.44
299.675	86.44
299.905	84.44
300.136	87.44
300.366	69.44
300.597	92.44
300.827	95.44
301.057	76.44
301.288	83.44
301.518	78.44
301.748	93.44
301.979	89.44
302.209	82.44
302.439	77.44
302.669	91.44
302.9	83.44
303.13	85.44
303.36	98.44
303.59	93.44
303.82	76.44
304.051	78.44
304.281	92.44
304.511	70.44
304.741	79.44
304.971	101.44
305.201	90.44
305.431	95.44
305.661	95.44
305.891	97.44
306.121	86.44
306.352	84.44
306.582	79.44
306.812	85.44
307.042	83.44
307.272	83.44
307.502	75.44
307.731	101.44
307.961	78.44
308.191	84.44
308.421	99.44
308.651	73.44
308.881	85.44
309.111	82.44
309.341	91.44
309.571	81.44
309.8	79.44
310.03	90.44
310.26	97.44
310.49	81.44
310.72	66.44
310.949	85.44
311.179	102.44
311.409	87.44
311.639	87.44
311.868	99.44
312.098	96.44
312.328	91.44
312.557	79.44
312.787	95.44
313.017	63.44
313.246	79.44
313.476	83.44
313.706	79.44
313.935	72.44
314.165	85.44
314.394	77.44
314.624	74.44
314.853	93.44
315.083	93.44
315.312	91.44
315.542	72.44
315.771	85.44
316.001	81.44
316.23	76.44
316.46	83.44
316.689	77.44
316.919	82.44
317.148	81.44
317.377	66.44
317.607	98.44
317.836	86.44
318.065	96.44
318.295	89.44
318.524	91.44
318.753	88.44
318.983	69.44
319.212	81.44
319.441	88.44
319.67	87.44
319.9	76.44
320.129	83.44
320.358	88.44
320.587	98.44
320.816	95.44
321.046	78.44
321.275	92.44
321.504	83.44
321.733	90.44
321.962	98.44
322.191	92.44
322.42	88.44
322.649	76.44
322.878	74.44
323.108	83.44
323.337	72.44
323.566	87.44
323.795	97.44
324.024	94.44
324.253	86.44
324.482	91.44
324.71	98.44
324.939	89.44
325.168	72.44
325.397	84.44
325.626	89.44
325.855	80.44
326.084	89.44
326.313	75.44
326.542	85.44
326.77	84.44
326.999	80.44
327.228	81.44
327.457	80.44
327.686	91.44
327.914	77.44
328.143	81.44
328.372	82.44
328.6	85.44
328.829	82.44
329.058	78.44
329.287	72.44
329.515	87.44
329.744	85.44
329.972	81.44
330.201	76.44
330.43	67.44
330.658	82.44
330.887	92.44
331.115	91.44
331.344	90.44
331.572	91.44
331.801	91.44
332.03	94.44
332.258	78.44
332.486	81.44
332.715	87.44
332.943	81.44
333.172	88.44
333.4	94.44
333.629	64.44
333.857	68.44
334.085	90.44
334.314	78.44
334.542	80.44
334.771	89.44
334.999	97.44
335.227	76.44
335.455	75.44
335.684	92.44
335.912	80.44
336.14	92.44
336.369	76.44
336.597	80.44
336.825	79.44
337.053	88.44
337.281	81.44
337.51	80.44
337.738	87.44
337.966	93.44
338.194	85.44
338.422	74.44
338.65	73.44
338.878	101.44
339.106	84.44
339.334	78.44
339.562	78.44
339.79	87.44
340.018	72.44
340.246	84.44
340.474	83.44
340.702	90.44
340.93	78.44
341.158	81.44
341.386	91.44
341.614	82.44
341.842	85.44
342.07	80.44
342.298	91.44
342.526	86.44
342.754	82.44
342.981	89.44
343.209	73.44
343.437	99.44
343.665	90.44
343.893	82.44
344.12	83.44
344.348	80.44
344.576	93.44
344.804	85.44
345.031	94.44
345.259	83.44
345.487	73.44
345.714	94.44
345.942	81.44
346.17	76.44
346.397	75.44
346.625	90.44
346.853	73.44
347.08	75.44
347.308	85.44
347.535	78.44
347.763	84.44
347.99	67.44
348.218	82.44
348.445	78.44
348.673	85.44
348.9	98.44
349.128	83.44
349.355	74.44
349.583	86.44
349.81	78.44
350.037	91.44
350.265	84.44
350.492	84.44
350.72	79.44
350.947	83.44
351.174	86.44
351.402	80.44
351.629	72.44
351.856	71.44
352.083	85.44
352.311	84.44
352.538	87.44
352.765	84.44
352.992	85.44
353.22	92.44
353.447	77.44
353.674	88.44
353.901	98.44
354.128	65.44
354.355	75.44
354.583	95.44
354.81	88.44
355.037	83.44
355.264	70.44
355.491	87.44
355.718	73.44
355.945	91.44
356.172	85.44
356.399	81.44
356.626	81.44
356.853	77.44
357.08	89.44
357.307	72.44
357.534	80.44
357.761	83.44
357.988	96.44
358.215	75.44
358.441	81.44
358.668	87.44
358.895	83.44
359.122	76.44
359.349	98.44
359.576	76.44
359.802	77.44
360.029	87.44
360.256	85.44
360.483	79.44
360.709	89.44
360.936	95.44
361.163	84.44
361.39	75.44
361.616	79.44
361.843	88.44
362.07	77.44
362.296	87.44
362.523	68.44
362.749	92.44
362.976	77.44
363.203	90.44
363.429	83.44
363.656	76.44
363.882	71.44
364.109	90.44
364.335	81.44
364.562	81.44
364.788	96.44
365.015	81.44
365.241	81.44
365.468	82.44
365.694	71.44
365.92	87.44
366.147	92.44
366.373	83.44
366.599	81.44
366.826	77.44
367.052	89.44
367.278	95.44
367.505	75.44
367.731	85.44
367.957	89.44
368.184	85.44
368.41	81.44
368.636	86.44
368.862	92.44
369.089	74.44
369.315	84.44
369.541	77.44
369.767	76.44
369.993	87.44
370.219	89.44
370.445	83.44
370.672	85.44
370.898	76.44
371.124	67.44
371.35	72.44
371.576	80.44
371.802	87.44
372.028	89.44
372.254	86.44
372.48	71.44
372.706	72.44
372.932	75.44
373.158	71.44
373.384	65.44
373.61	90.44
373.835	87.44
374.061	83.44
374.287	77.44
374.513	86.44
374.739	83.44
374.965	84.44
375.191	82.44
375.416	87.44
375.642	84.44
375.868	78.44
376.094	77.44
376.319	65.44
376.545	83.44
376.771	71.44
376.997	76.44
377.222	69.44
377.448	80.44
377.674	72.44
377.899	77.44
378.125	83.44
378.35	83.44
378.576	75.44
378.802	77.44
379.027	95.44
379.253	83.44
379.478	80.44
379.704	93.44
379.929	61.44
380.155	82.44
380.38	84.44
380.606	84.44
380.831	88.44
381.057	72.44
381.282	82.44
381.507	58.44
381.733	72.44
381.958	74.44
382.184	94.44
382.409	78.44
382.634	84.44
382.86	95.44
383.085	88.44
383.31	92.44
383.535	79.44
383.761	70.44
383.986	85.44
384.211	83.44
384.436	85.44
384.662	76.44
384.887	78.44
385.112	87.44
385.337	72.44
385.562	91.44
385.787	91.44
386.013	82.44
386.238	87.44
386.463	85.44
386.688	99.44
386.913	73.44
387.138	80.44
387.363	81.44
387.588	83.44
387.813	83.44
388.038	100.44
388.263	81.44
388.488	78.44
388.713	75.44
388.938	87.44
389.163	88.44
389.387	85.44
389.612	76.44
389.837	92.44
390.062	83.44
390.287	75.44
390.512	86.44
390.736	91.44
390.961	84.44
391.186	93.44
391.411	74.44
391.636	73.44
391.86	81.44
392.085	87.44
392.31	80.44
392.534	78.44
392.759	84.44
392.984	99.44
393.208	119.44
393.433	124.44
393.658	120.44
393.882	76.44
394.107	72.44
394.331	77.44
394.556	97.44
394.78	70.44
395.005	98.44
395.229	93.44
395.454	80.44
395.678	83.44
395.903	87.44
396.127	83.44
396.352	96.44
396.576	98.44
396.801	108.44
397.025	123.44
397.249	77.44
397.474	101.44
397.698	59.44
397.922	79.44
398.147	76.44
398.371	82.44
398.595	77.44
398.82	91.44
399.044	74.44
399.268	81.44
399.492	73.44
399.717	82.44
399.941	81.44
400.165	75.44
400.389	80.44
400.613	87.44
400.837	81.44
401.062	85.44
401.286	84.44
401.51	85.44
401.734	84.44
401.958	77.44
402.182	87.44
402.406	56.44
402.63	78.44
402.854	90.44
403.078	75.44
403.302	66.44
403.526	83.44
403.75	69.44
403.974	79.44
404.198	68.44
404.422	75.44
404.645	90.44
404.869	91.44
405.093	91.44
405.317	90.44
405.541	91.44
405.765	88.44
405.988	95.44
406.212	83.44
406.436	97.44
406.66	83.44
406.883	74.44
407.107	87.44
407.331	77.44
407.555	82.44
407.778	82.44
408.002	69.44
408.226	68.44
408.449	77.44
408.673	79.44
408.896	70.44
409.12	75.44
409.344	82.44
409.567	70.44
409.791	87.44
410.014	74.44
410.238	81.44
410.461	78.44
410.685	75.44
410.908	76.44
411.132	83.44
411.355	84.44
411.578	93.44
411.802	83.44
412.025	81.44
412.249	87.44
412.472	96.44
412.695	89.44
412.919	80.44
413.142	74.44
413.365	82.44
413.589	74.44
413.812	86.44
414.035	87.44
414.258	84.44
414.482	69.44
414.705	66.44
414.928	94.44
415.151	84.44
415.374	74.44
415.597	81.44
415.821	83.44
416.044	82.44
416.267	84.44
416.49	88.44
416.713	69.44
416.936	86.44
417.159	79.44
417.382	72.44
417.605	93.44
417.828	99.44
418.051	70.44
418.274	99.44
418.497	87.44
418.72	80.44
418.943	78.44
419.166	78.44
419.389	84.44
419.611	76.44
419.834	77.44
420.057	68.44
420.28	85.44
420.503	73.44
420.726	72.44
420.948	75.44
421.171	80.44
421.394	84.44
421.617	91.44
421.839	66.44
422.062	77.44
422.285	87.44
422.507	94.44
422.73	113.44
422.953	124.44
423.175	77.44
423.398	84.44
423.621	98.44
423.843	83.44
424.066	73.44
424.288	74.44
424.511	72.44
424.733	75.44
424.956	83.44
425.178	83.44
425.401	83.44
425.623	73.44
425.846	88.44
426.068	92.44
426.291	65.44
426.513	66.44
426.735	67.44
426.958	84.44
427.18	65.44
427.402	85.44
427.625	93.44
427.847	82.44
428.069	64.44
428.292	88.44
428.514	91.44
428.736	71.44
428.958	86.44
429.181	76.44
429.403	76.44
429.625	71.44
429.847	75.44
430.069	92.44
430.292	91.44
430.514	76.44
430.736	89.44
430.958	67.44
431.18	92.44
431.402	87.44
431.624	71.44
431.846	90.44
432.068	77.44
432.29	91.44
432.512	92.44
432.734	73.44
432.956	96.44
433.178	90.44
433.4	71.44
433.622	83.44
433.844	85.44
434.066	72.44
434.287	86.44
434.509	68.44
434.731	79.44
434.953	73.44
435.175	76.44
435.397	75.44
435.618	74.44
435.84	68.44
436.062	59.44
436.284	91.44
436.505	71.44
436.727	73.44
436.949	83.44
437.17	88.44
437.392	85.44
437.614	94.44
437.835	87.44
438.057	72.44
438.278	87.44
438.5	79.44
438.721	94.44
438.943	83.44
439.165	80.44
439.386	71.44
439.608	74.44
439.829	69.44
440.05	83.44
440.272	87.44
440.493	87.44
440.715	78.44
440.936	83.44
441.158	76.44
441.379	77.44
441.6	80.44
441.822	75.44
442.043	83.44
442.264	72.44
442.486	67.44
442.707	68.44
442.928	77.44
443.149	96.44
443.371	84.44
443.592	84.44
443.813	63.44
444.034	85.44
444.255	79.44
444.476	83.44
444.698	82.44
444.919	72.44
445.14	149.44
445.361	113.44
445.582	85.44
445.803	73.44
446.024	71.44
446.245	84.44
446.466	75.44
446.687	71.44
446.908	88.44
447.129	89.44
447.35	81.44
447.571	86.44
447.792	65.44
448.013	75.44
448.234	77.44
448.455	75.44
448.675	80.44
448.896	91.44
449.117	75.44
449.338	70.44
449.559	81.44
449.779	73.44
450	85.44
450.221	80.44
450.442	91.44
450.662	78.44
450.883	65.44
451.104	85.44
451.324	85.44
451.545	86.44
451.766	66.44
451.986	68.44
452.207	85.44
452.428	71.44
452.648	76.44
452.869	87.44
453.089	75.44
453.31	69.44
453.53	67.44
453.751	80.44
453.971	79.44
454.192	88.44
454.412	101.44
454.633	79.44
454.853	91.44
455.073	87.44
455.294	68.44
455.514	77.44
455.734	81.44
455.955	87.44
456.175	80.44
456.395	79.44
456.616	80.44
456.836	71.44
457.056	85.44
457.276	83.44
457.497	90.44
457.717	77.44
457.937	78.44
458.157	90.44
458.377	97.44
458.598	81.44
458.818	80.44
459.038	77.44
459.258	87.44
459.478	80.44
459.698	83.44
459.918	85.44
460.138	74.44
460.358	71.44
460.578	78.44
460.798	63.44
461.018	81.44
461.238	82.44
461.458	76.44
461.678	73.44
461.898	82.44
462.118	86.44
462.338	88.44
462.558	86.44
462.777	88.44
462.997	86.44
463.217	86.44
463.437	72.44
463.657	77.44
463.876	87.44
464.096	76.44
464.316	74.44
464.536	87.44
464.755	84.44
464.975	95.44
465.195	71.44
465.414	79.44
465.634	71.44
465.854	81.44
466.073	72.44
466.293	85.44
466.512	80.44
466.732	80.44
466.951	77.44
467.171	74.44
467.391	74.44
467.61	85.44
467.829	73.44
468.049	87.44
468.268	70.44
468.488	69.44
468.707	82.44
468.927	75.44
469.146	65.44
469.365	67.44
469.585	92.44
469.804	75.44
470.023	76.44
470.243	85.44
470.462	81.44
470.681	90.44
470.901	81.44
471.12	74.44
471.339	89.44
471.558	90.44
471.777	76.44
471.997	84.44
472.216	85.44
472.435	67.44
472.654	73.44
472.873	83.44
473.092	83.44
473.311	82.44
473.53	86.44
473.749	94.44
473.968	87.44
474.187	76.44
474.406	80.44
474.625	75.44
474.844	77.44
475.063	76.44
475.282	61.44
475.501	66.44
475.72	77.44
475.939	69.44
476.158	87.44
476.377	78.44
476.596	73.44
476.814	83.44
477.033	71.44
477.252	61.44
477.471	77.44
477.69	88.44
477.908	81.44
478.127	96.44
478.346	72.44
478.564	92.44
478.783	73.44
479.002	89.44
479.22	85.44
479.439	78.44
479.658	88.44
479.876	77.44
480.095	95.44
480.313	80.44
480.532	87.44
480.751	82.44
480.969	83.44
481.188	85.44
481.406	79.44
481.624	80.44
481.843	81.44
482.061	94.44
482.28	79.44
482.498	76.44
482.717	67.44
482.935	65.44
483.153	75.44
483.372	67.44
483.59	80.44
483.808	74.44
484.027	95.44
484.245	82.44
484.463	70.44
484.681	75.44
484.9	65.44
485.118	77.44
485.336	83.44
485.554	84.44
485.772	83.44
485.99	74.44
486.209	91.44
486.427	81.44
486.645	86.44
486.863	69.44
487.081	77.44
487.299	96.44
487.517	78.44
487.735	85.44
487.953	88.44
488.171	65.44
488.389	77.44
488.607	78.44
488.825	67.44
489.043	97.44
489.261	81.44
489.479	82.44
489.696	77.44
489.914	91.44
490.132	78.44
490.35	97.44
490.568	75.44
490.786	65.44
491.003	78.44
491.221	85.44
491.439	85.44
491.657	84.44
491.874	89.44
492.092	67.44
492.31	77.44
492.527	77.44
492.745	84.44
492.963	85.44
493.18	78.44
493.398	81.44
493.615	77.44
493.833	82.44
494.05	72.44
494.268	89.44
494.485	81.44
494.703	88.44
494.92	75.44
495.138	74.44
495.355	91.44
495.573	78.44
495.79	81.44
496.008	92.44
496.225	68.44
496.442	81.44
496.66	92.44
496.877	77.44
497.094	93.44
497.312	75.44
497.529	87.44
497.746	84.44
497.963	86.44
498.181	80.44
498.398	74.44
498.615	87.44
498.832	81.44
499.049	77.44
499.267	96.44
499.484	78.44
499.701	82.44
499.918	80.44
500.135	84.44
500.352	82.44
500.569	69.44
500.786	93.44
501.003	85.44
501.22	85.44
501.437	78.44
501.654	80.44
501.871	83.44
502.088	81.44
502.305	86.44
502.522	79.44
502.739	96.44
502.956	81.44
503.172	82.44
503.389	93.44
503.606	82.44
503.823	66.44
504.04	88.44
504.256	87.44
504.473	92.44
504.69	87.44
504.907	96.44
505.123	89.44
505.34	87.44
505.557	91.44
505.773	99.44
505.99	74.44
506.207	87.44
506.423	80.44
506.64	80.44
506.856	84.44
507.073	65.44
507.289	76.44
507.506	82.44
507.722	66.44
507.939	95.44
508.155	82.44
508.372	76.44
508.588	89.44
508.805	73.44
509.021	80.44
509.238	86.44
509.454	81.44
509.67	97.44
509.887	90.44
510.103	85.44
510.319	84.44
510.536	84.44
510.752	77.44
510.968	88.44
511.184	83.44
511.401	80.44
511.617	75.44
511.833	94.44
512.049	70.44
512.265	84.44
512.481	81.44
512.698	71.44
512.914	76.44
513.13	98.44
513.346	81.44
513.562	82.44
513.778	87.44
513.994	87.44
514.21	83.44
514.426	81.44
514.642	91.44
514.858	67.44
515.074	92.44
515.29	76.44
515.506	77.44
515.721	84.44
515.937	95.44
516.153	79.44
516.369	93.44
516.585	70.44
516.801	83.44
517.016	78.44
517.232	77.44
517.448	74.44
517.664	80.44
517.879	81.44
518.095	81.44
518.311	77.44
518.527	81.44
518.742	81.44
518.958	88.44
519.173	87.44
519.389	86.44
519.605	80.44
519.82	76.44
520.036	77.44
