Data from HP_3_HRD10591_00035.txt Node
Date: Mon Jan 19 14:17:18 EST 2026
User: Yrep
Spectrometer: HR+D1059
Trigger mode: 1
Integration Time (sec): 1.000000E-1
Scans to average: 1
Electric dark correction enabled: true
Nonlinearity correction enabled: false
Boxcar width: 0
XAxis mode: Wavelengths
Number of Pixels in Spectrum: 2048
>>>>>Begin Spectral Data<<<<<
223.165	-20.06
223.4	-20.06
223.635	-20.06
223.869	-11.06
224.104	-13.06
224.338	-12.06
224.573	-9.06
224.808	-9.06
225.042	-3.06
225.277	-5.06
225.511	-5.06
225.746	4.94
225.98	0.94
226.215	7.94
226.449	2.94
226.683	9.94
226.918	20.94
227.152	39.94
227.387	30.94
227.621	38.94
227.856	44.94
228.09	53.94
228.324	47.94
228.559	51.94
228.793	64.94
229.027	54.94
229.262	63.94
229.496	64.94
229.73	69.94
229.964	63.94
230.199	72.94
230.433	72.94
230.667	74.94
230.901	80.94
231.136	70.94
231.37	76.94
231.604	84.94
231.838	75.94
232.072	92.94
232.306	75.94
232.541	83.94
232.775	70.94
233.009	82.94
233.243	80.94
233.477	94.94
233.711	83.94
233.945	92.94
234.179	70.94
234.413	67.94
234.647	73.94
234.881	75.94
235.115	71.94
235.349	83.94
235.583	81.94
235.817	82.94
236.051	87.94
236.285	78.94
236.519	74.94
236.753	66.94
236.987	79.94
237.221	59.94
237.455	70.94
237.689	71.94
237.922	75.94
238.156	72.94
238.39	79.94
238.624	64.94
238.858	63.94
239.091	83.94
239.325	73.94
239.559	90.94
239.793	70.94
240.027	75.94
240.26	79.94
240.494	69.94
240.728	71.94
240.961	70.94
241.195	82.94
241.429	74.94
241.662	70.94
241.896	80.94
242.13	87.94
242.363	72.94
242.597	67.94
242.83	72.94
243.064	71.94
243.298	78.94
243.531	80.94
243.765	90.94
243.998	81.94
244.232	84.94
244.465	90.94
244.699	85.94
244.932	57.94
245.166	90.94
245.399	69.94
245.633	72.94
245.866	83.94
246.099	74.94
246.333	77.94
246.566	77.94
246.8	66.94
247.033	76.94
247.266	65.94
247.5	76.94
247.733	58.94
247.966	75.94
248.2	66.94
248.433	74.94
248.666	87.94
248.899	73.94
249.133	65.94
249.366	75.94
249.599	72.94
249.832	68.94
250.066	85.94
250.299	76.94
250.532	65.94
250.765	82.94
250.998	85.94
251.231	68.94
251.465	70.94
251.698	84.94
251.931	72.94
252.164	67.94
252.397	77.94
252.63	84.94
252.863	85.94
253.096	72.94
253.329	90.94
253.562	87.94
253.795	64.94
254.028	75.94
254.261	67.94
254.494	88.94
254.727	90.94
254.96	73.94
255.193	74.94
255.426	60.94
255.659	79.94
255.892	74.94
256.124	81.94
256.357	87.94
256.59	75.94
256.823	63.94
257.056	75.94
257.289	67.94
257.521	79.94
257.754	80.94
257.987	63.94
258.22	81.94
258.452	80.94
258.685	78.94
258.918	73.94
259.151	73.94
259.383	75.94
259.616	91.94
259.849	87.94
260.081	80.94
260.314	68.94
260.547	78.94
260.779	94.94
261.012	88.94
261.244	86.94
261.477	96.94
261.71	73.94
261.942	76.94
262.175	86.94
262.407	45.94
262.64	76.94
262.872	58.94
263.105	72.94
263.337	77.94
263.57	68.94
263.802	87.94
264.035	97.94
264.267	82.94
264.499	62.94
264.732	85.94
264.964	86.94
265.197	85.94
265.429	73.94
265.661	71.94
265.894	84.94
266.126	88.94
266.358	82.94
266.591	75.94
266.823	65.94
267.055	75.94
267.287	96.94
267.52	80.94
267.752	70.94
267.984	84.94
268.216	79.94
268.448	83.94
268.681	76.94
268.913	80.94
269.145	79.94
269.377	69.94
269.609	74.94
269.841	77.94
270.073	88.94
270.306	71.94
270.538	78.94
270.77	76.94
271.002	76.94
271.234	100.94
271.466	94.94
271.698	97.94
271.93	78.94
272.162	77.94
272.394	91.94
272.626	87.94
272.858	80.94
273.09	78.94
273.322	85.94
273.553	67.94
273.785	74.94
274.017	83.94
274.249	87.94
274.481	65.94
274.713	83.94
274.945	88.94
275.176	80.94
275.408	78.94
275.64	75.94
275.872	76.94
276.104	84.94
276.335	84.94
276.567	88.94
276.799	82.94
277.031	86.94
277.262	79.94
277.494	74.94
277.726	72.94
277.957	81.94
278.189	73.94
278.421	73.94
278.652	73.94
278.884	97.94
279.115	86.94
279.347	94.94
279.579	67.94
279.81	82.94
280.042	82.94
280.273	91.94
280.505	93.94
280.736	83.94
280.968	94.94
281.199	86.94
281.431	74.94
281.662	73.94
281.894	83.94
282.125	78.94
282.356	94.94
282.588	91.94
282.819	96.94
283.051	80.94
283.282	75.94
283.513	96.94
283.745	97.94
283.976	84.94
284.207	72.94
284.439	88.94
284.67	82.94
284.901	81.94
285.132	62.94
285.364	75.94
285.595	83.94
285.826	89.94
286.057	79.94
286.288	92.94
286.52	91.94
286.751	81.94
286.982	73.94
287.213	76.94
287.444	94.94
287.675	87.94
287.906	94.94
288.138	82.94
288.369	88.94
288.6	85.94
288.831	86.94
289.062	83.94
289.293	84.94
289.524	83.94
289.755	72.94
289.986	75.94
290.217	79.94
290.448	78.94
290.679	84.94
290.91	99.94
291.141	90.94
291.371	86.94
291.602	84.94
291.833	75.94
292.064	95.94
292.295	90.94
292.526	86.94
292.757	76.94
292.987	86.94
293.218	88.94
293.449	85.94
293.68	78.94
293.91	87.94
294.141	72.94
294.372	68.94
294.603	73.94
294.833	88.94
295.064	79.94
295.295	71.94
295.525	75.94
295.756	72.94
295.987	87.94
296.217	81.94
296.448	82.94
296.679	82.94
296.909	92.94
297.14	83.94
297.37	91.94
297.601	88.94
297.831	92.94
298.062	80.94
298.292	82.94
298.523	80.94
298.753	81.94
298.984	81.94
299.214	82.94
299.445	75.94
299.675	91.94
299.905	76.94
300.136	75.94
300.366	88.94
300.597	94.94
300.827	83.94
301.057	85.94
301.288	100.94
301.518	82.94
301.748	79.94
301.979	90.94
302.209	86.94
302.439	80.94
302.669	78.94
302.9	86.94
303.13	84.94
303.36	78.94
303.59	76.94
303.82	82.94
304.051	86.94
304.281	92.94
304.511	76.94
304.741	79.94
304.971	79.94
305.201	84.94
305.431	85.94
305.661	90.94
305.891	81.94
306.121	94.94
306.352	95.94
306.582	70.94
306.812	80.94
307.042	66.94
307.272	76.94
307.502	80.94
307.731	87.94
307.961	74.94
308.191	90.94
308.421	76.94
308.651	81.94
308.881	102.94
309.111	87.94
309.341	75.94
309.571	79.94
309.8	84.94
310.03	78.94
310.26	66.94
310.49	91.94
310.72	99.94
310.949	76.94
311.179	100.94
311.409	88.94
311.639	80.94
311.868	97.94
312.098	91.94
312.328	86.94
312.557	78.94
312.787	83.94
313.017	63.94
313.246	85.94
313.476	80.94
313.706	99.94
313.935	77.94
314.165	84.94
314.394	78.94
314.624	78.94
314.853	86.94
315.083	79.94
315.312	87.94
315.542	84.94
315.771	89.94
316.001	75.94
316.23	95.94
316.46	77.94
316.689	76.94
316.919	83.94
317.148	82.94
317.377	86.94
317.607	83.94
317.836	84.94
318.065	94.94
318.295	85.94
318.524	81.94
318.753	90.94
318.983	70.94
319.212	95.94
319.441	88.94
319.67	86.94
319.9	91.94
320.129	82.94
320.358	90.94
320.587	75.94
320.816	86.94
321.046	89.94
321.275	93.94
321.504	92.94
321.733	84.94
321.962	90.94
322.191	79.94
322.42	76.94
322.649	88.94
322.878	81.94
323.108	91.94
323.337	73.94
323.566	90.94
323.795	84.94
324.024	86.94
324.253	96.94
324.482	83.94
324.71	80.94
324.939	90.94
325.168	95.94
325.397	90.94
325.626	82.94
325.855	82.94
326.084	86.94
326.313	96.94
326.542	84.94
326.77	99.94
326.999	77.94
327.228	91.94
327.457	79.94
327.686	88.94
327.914	77.94
328.143	81.94
328.372	87.94
328.6	82.94
328.829	77.94
329.058	88.94
329.287	71.94
329.515	74.94
329.744	86.94
329.972	86.94
330.201	80.94
330.43	82.94
330.658	81.94
330.887	79.94
331.115	84.94
331.344	86.94
331.572	99.94
331.801	94.94
332.03	70.94
332.258	92.94
332.486	81.94
332.715	94.94
332.943	85.94
333.172	82.94
333.4	85.94
333.629	87.94
333.857	77.94
334.085	89.94
334.314	88.94
334.542	84.94
334.771	80.94
334.999	80.94
335.227	104.94
335.455	82.94
335.684	98.94
335.912	95.94
336.14	97.94
336.369	77.94
336.597	74.94
336.825	96.94
337.053	83.94
337.281	68.94
337.51	95.94
337.738	93.94
337.966	80.94
338.194	83.94
338.422	76.94
338.65	81.94
338.878	96.94
339.106	80.94
339.334	91.94
339.562	86.94
339.79	94.94
340.018	81.94
340.246	87.94
340.474	85.94
340.702	87.94
340.93	76.94
341.158	81.94
341.386	84.94
341.614	89.94
341.842	72.94
342.07	80.94
342.298	84.94
342.526	81.94
342.754	78.94
342.981	85.94
343.209	86.94
343.437	93.94
343.665	91.94
343.893	73.94
344.12	82.94
344.348	91.94
344.576	80.94
344.804	82.94
345.031	82.94
345.259	78.94
345.487	77.94
345.714	81.94
345.942	98.94
346.17	69.94
346.397	83.94
346.625	79.94
346.853	94.94
347.08	83.94
347.308	85.94
347.535	88.94
347.763	71.94
347.99	77.94
348.218	77.94
348.445	71.94
348.673	73.94
348.9	80.94
349.128	91.94
349.355	88.94
349.583	76.94
349.81	75.94
350.037	76.94
350.265	74.94
350.492	95.94
350.72	84.94
350.947	91.94
351.174	87.94
351.402	89.94
351.629	86.94
351.856	96.94
352.083	80.94
352.311	94.94
352.538	67.94
352.765	59.94
352.992	74.94
353.22	89.94
353.447	84.94
353.674	88.94
353.901	87.94
354.128	85.94
354.355	83.94
354.583	86.94
354.81	75.94
355.037	87.94
355.264	88.94
355.491	96.94
355.718	86.94
355.945	80.94
356.172	88.94
356.399	80.94
356.626	77.94
356.853	78.94
357.08	93.94
357.307	95.94
357.534	87.94
357.761	83.94
357.988	84.94
358.215	83.94
358.441	86.94
358.668	86.94
358.895	74.94
359.122	88.94
359.349	88.94
359.576	96.94
359.802	88.94
360.029	91.94
360.256	83.94
360.483	84.94
360.709	70.94
360.936	94.94
361.163	89.94
361.39	79.94
361.616	90.94
361.843	77.94
362.07	75.94
362.296	89.94
362.523	84.94
362.749	86.94
362.976	85.94
363.203	85.94
363.429	83.94
363.656	89.94
363.882	88.94
364.109	83.94
364.335	95.94
364.562	75.94
364.788	74.94
365.015	67.94
365.241	89.94
365.468	79.94
365.694	71.94
365.92	73.94
366.147	82.94
366.373	90.94
366.599	94.94
366.826	88.94
367.052	81.94
367.278	92.94
367.505	90.94
367.731	84.94
367.957	62.94
368.184	93.94
368.41	91.94
368.636	88.94
368.862	86.94
369.089	72.94
369.315	76.94
369.541	77.94
369.767	74.94
369.993	87.94
370.219	74.94
370.445	93.94
370.672	84.94
370.898	82.94
371.124	79.94
371.35	72.94
371.576	74.94
371.802	79.94
372.028	84.94
372.254	85.94
372.48	101.94
372.706	85.94
372.932	81.94
373.158	85.94
373.384	88.94
373.61	92.94
373.835	95.94
374.061	82.94
374.287	88.94
374.513	88.94
374.739	90.94
374.965	82.94
375.191	83.94
375.416	87.94
375.642	80.94
375.868	83.94
376.094	88.94
376.319	94.94
376.545	87.94
376.771	82.94
376.997	74.94
377.222	88.94
377.448	78.94
377.674	67.94
377.899	81.94
378.125	76.94
378.35	81.94
378.576	94.94
378.802	92.94
379.027	60.94
379.253	90.94
379.478	78.94
379.704	83.94
379.929	85.94
380.155	90.94
380.38	79.94
380.606	66.94
380.831	77.94
381.057	89.94
381.282	75.94
381.507	76.94
381.733	87.94
381.958	95.94
382.184	97.94
382.409	82.94
382.634	88.94
382.86	75.94
383.085	83.94
383.31	96.94
383.535	84.94
383.761	82.94
383.986	89.94
384.211	73.94
384.436	76.94
384.662	83.94
384.887	91.94
385.112	91.94
385.337	86.94
385.562	86.94
385.787	97.94
386.013	103.94
386.238	91.94
386.463	83.94
386.688	87.94
386.913	83.94
387.138	94.94
387.363	95.94
387.588	75.94
387.813	79.94
388.038	86.94
388.263	80.94
388.488	74.94
388.713	74.94
388.938	71.94
389.163	79.94
389.387	86.94
389.612	87.94
389.837	83.94
390.062	89.94
390.287	81.94
390.512	90.94
390.736	93.94
390.961	88.94
391.186	92.94
391.411	81.94
391.636	75.94
391.86	90.94
392.085	87.94
392.31	88.94
392.534	83.94
392.759	88.94
392.984	108.94
393.208	128.94
393.433	174.94
393.658	134.94
393.882	98.94
394.107	66.94
394.331	89.94
394.556	86.94
394.78	88.94
395.005	93.94
395.229	99.94
395.454	99.94
395.678	81.94
395.903	88.94
396.127	93.94
396.352	92.94
396.576	100.94
396.801	149.94
397.025	150.94
397.249	111.94
397.474	90.94
397.698	99.94
397.922	81.94
398.147	58.94
398.371	75.94
398.595	89.94
398.82	89.94
399.044	88.94
399.268	80.94
399.492	76.94
399.717	78.94
399.941	74.94
400.165	82.94
400.389	73.94
400.613	74.94
400.837	73.94
401.062	71.94
401.286	86.94
401.51	86.94
401.734	73.94
401.958	92.94
402.182	78.94
402.406	79.94
402.63	82.94
402.854	84.94
403.078	83.94
403.302	77.94
403.526	87.94
403.75	87.94
403.974	75.94
404.198	90.94
404.422	84.94
404.645	66.94
404.869	87.94
405.093	68.94
405.317	79.94
405.541	92.94
405.765	85.94
405.988	75.94
406.212	64.94
406.436	77.94
406.66	86.94
406.883	82.94
407.107	95.94
407.331	101.94
407.555	89.94
407.778	89.94
408.002	90.94
408.226	79.94
408.449	90.94
408.673	77.94
408.896	80.94
409.12	79.94
409.344	90.94
409.567	86.94
409.791	82.94
410.014	101.94
410.238	79.94
410.461	72.94
410.685	83.94
410.908	84.94
411.132	99.94
411.355	99.94
411.578	85.94
411.802	93.94
412.025	77.94
412.249	77.94
412.472	101.94
412.695	75.94
412.919	90.94
413.142	75.94
413.365	69.94
413.589	83.94
413.812	71.94
414.035	87.94
414.258	88.94
414.482	83.94
414.705	74.94
414.928	84.94
415.151	76.94
415.374	62.94
415.597	74.94
415.821	90.94
416.044	83.94
416.267	80.94
416.49	86.94
416.713	80.94
416.936	79.94
417.159	82.94
417.382	74.94
417.605	86.94
417.828	82.94
418.051	94.94
418.274	85.94
418.497	79.94
418.72	80.94
418.943	84.94
419.166	86.94
419.389	79.94
419.611	78.94
419.834	86.94
420.057	85.94
420.28	91.94
420.503	84.94
420.726	84.94
420.948	81.94
421.171	87.94
421.394	91.94
421.617	87.94
421.839	85.94
422.062	82.94
422.285	85.94
422.507	105.94
422.73	140.94
422.953	149.94
423.175	94.94
423.398	86.94
423.621	86.94
423.843	83.94
424.066	90.94
424.288	89.94
424.511	76.94
424.733	85.94
424.956	77.94
425.178	68.94
425.401	86.94
425.623	86.94
425.846	94.94
426.068	79.94
426.291	78.94
426.513	82.94
426.735	81.94
426.958	89.94
427.18	81.94
427.402	85.94
427.625	70.94
427.847	90.94
428.069	78.94
428.292	67.94
428.514	84.94
428.736	81.94
428.958	78.94
429.181	79.94
429.403	87.94
429.625	79.94
429.847	96.94
430.069	88.94
430.292	95.94
430.514	90.94
430.736	88.94
430.958	84.94
431.18	77.94
431.402	74.94
431.624	74.94
431.846	66.94
432.068	91.94
432.29	84.94
432.512	83.94
432.734	86.94
432.956	94.94
433.178	96.94
433.4	89.94
433.622	84.94
433.844	97.94
434.066	82.94
434.287	72.94
434.509	96.94
434.731	85.94
434.953	76.94
435.175	77.94
435.397	94.94
435.618	93.94
435.84	99.94
436.062	79.94
436.284	90.94
436.505	76.94
436.727	74.94
436.949	85.94
437.17	74.94
437.392	79.94
437.614	96.94
437.835	83.94
438.057	81.94
438.278	86.94
438.5	86.94
438.721	78.94
438.943	77.94
439.165	92.94
439.386	75.94
439.608	78.94
439.829	90.94
440.05	86.94
440.272	81.94
440.493	72.94
440.715	72.94
440.936	80.94
441.158	77.94
441.379	92.94
441.6	80.94
441.822	81.94
442.043	75.94
442.264	88.94
442.486	98.94
442.707	85.94
442.928	88.94
443.149	67.94
443.371	85.94
443.592	94.94
443.813	86.94
444.034	83.94
444.255	73.94
444.476	81.94
444.698	85.94
444.919	72.94
445.14	158.94
445.361	137.94
445.582	121.94
445.803	98.94
446.024	87.94
446.245	96.94
446.466	83.94
446.687	81.94
446.908	85.94
447.129	87.94
447.35	71.94
447.571	84.94
447.792	86.94
448.013	82.94
448.234	80.94
448.455	70.94
448.675	73.94
448.896	80.94
449.117	72.94
449.338	79.94
449.559	84.94
449.779	85.94
450	74.94
450.221	83.94
450.442	73.94
450.662	89.94
450.883	88.94
451.104	72.94
451.324	79.94
451.545	87.94
451.766	73.94
451.986	80.94
452.207	104.94
452.428	83.94
452.648	89.94
452.869	79.94
453.089	83.94
453.31	87.94
453.53	81.94
453.751	82.94
453.971	74.94
454.192	83.94
454.412	76.94
454.633	75.94
454.853	81.94
455.073	82.94
455.294	77.94
455.514	85.94
455.734	86.94
455.955	94.94
456.175	80.94
456.395	82.94
456.616	87.94
456.836	73.94
457.056	75.94
457.276	105.94
457.497	77.94
457.717	76.94
457.937	68.94
458.157	80.94
458.377	88.94
458.598	84.94
458.818	92.94
459.038	82.94
459.258	76.94
459.478	71.94
459.698	81.94
459.918	89.94
460.138	83.94
460.358	82.94
460.578	80.94
460.798	71.94
461.018	84.94
461.238	80.94
461.458	74.94
461.678	82.94
461.898	79.94
462.118	84.94
462.338	90.94
462.558	79.94
462.777	90.94
462.997	79.94
463.217	88.94
463.437	80.94
463.657	81.94
463.876	86.94
464.096	74.94
464.316	78.94
464.536	84.94
464.755	87.94
464.975	63.94
465.195	70.94
465.414	70.94
465.634	97.94
465.854	80.94
466.073	84.94
466.293	78.94
466.512	76.94
466.732	86.94
466.951	80.94
467.171	83.94
467.391	75.94
467.61	89.94
467.829	89.94
468.049	84.94
468.268	90.94
468.488	86.94
468.707	76.94
468.927	92.94
469.146	90.94
469.365	75.94
469.585	82.94
469.804	78.94
470.023	80.94
470.243	88.94
470.462	92.94
470.681	81.94
470.901	78.94
471.12	80.94
471.339	79.94
471.558	87.94
471.777	71.94
471.997	78.94
472.216	73.94
472.435	86.94
472.654	84.94
472.873	87.94
473.092	84.94
473.311	83.94
473.53	68.94
473.749	82.94
473.968	84.94
474.187	75.94
474.406	87.94
474.625	88.94
474.844	82.94
475.063	83.94
475.282	68.94
475.501	80.94
475.72	92.94
475.939	81.94
476.158	76.94
476.377	95.94
476.596	80.94
476.814	91.94
477.033	86.94
477.252	78.94
477.471	81.94
477.69	98.94
477.908	91.94
478.127	89.94
478.346	89.94
478.564	75.94
478.783	88.94
479.002	82.94
479.22	76.94
479.439	79.94
479.658	86.94
479.876	81.94
480.095	85.94
480.313	83.94
480.532	99.94
480.751	94.94
480.969	92.94
481.188	73.94
481.406	84.94
481.624	100.94
481.843	76.94
482.061	81.94
482.28	71.94
482.498	82.94
482.717	80.94
482.935	73.94
483.153	76.94
483.372	94.94
483.59	74.94
483.808	77.94
484.027	82.94
484.245	82.94
484.463	89.94
484.681	93.94
484.9	89.94
485.118	88.94
485.336	73.94
485.554	84.94
485.772	80.94
485.99	83.94
486.209	75.94
486.427	86.94
486.645	87.94
486.863	87.94
487.081	75.94
487.299	73.94
487.517	81.94
487.735	92.94
487.953	92.94
488.171	73.94
488.389	75.94
488.607	80.94
488.825	74.94
489.043	84.94
489.261	79.94
489.479	74.94
489.696	71.94
489.914	82.94
490.132	71.94
490.35	89.94
490.568	85.94
490.786	73.94
491.003	77.94
491.221	75.94
491.439	78.94
491.657	88.94
491.874	87.94
492.092	81.94
492.31	83.94
492.527	84.94
492.745	85.94
492.963	77.94
493.18	84.94
493.398	92.94
493.615	74.94
493.833	78.94
494.05	88.94
494.268	84.94
494.485	58.94
494.703	81.94
494.92	87.94
495.138	76.94
495.355	81.94
495.573	90.94
495.79	83.94
496.008	84.94
496.225	92.94
496.442	77.94
496.66	90.94
496.877	93.94
497.094	86.94
497.312	91.94
497.529	86.94
497.746	72.94
497.963	90.94
498.181	85.94
498.398	82.94
498.615	81.94
498.832	84.94
499.049	80.94
499.267	72.94
499.484	89.94
499.701	80.94
499.918	86.94
500.135	79.94
500.352	91.94
500.569	87.94
500.786	69.94
501.003	81.94
501.22	76.94
501.437	86.94
501.654	83.94
501.871	82.94
502.088	77.94
502.305	92.94
502.522	90.94
502.739	86.94
502.956	82.94
503.172	90.94
503.389	75.94
503.606	89.94
503.823	85.94
504.04	90.94
504.256	88.94
504.473	83.94
504.69	64.94
504.907	78.94
505.123	79.94
505.34	90.94
505.557	82.94
505.773	92.94
505.99	77.94
506.207	83.94
506.423	78.94
506.64	84.94
506.856	79.94
507.073	83.94
507.289	80.94
507.506	82.94
507.722	79.94
507.939	74.94
508.155	83.94
508.372	74.94
508.588	91.94
508.805	79.94
509.021	90.94
509.238	86.94
509.454	77.94
509.67	100.94
509.887	84.94
510.103	81.94
510.319	102.94
510.536	84.94
510.752	87.94
510.968	90.94
511.184	82.94
511.401	84.94
511.617	86.94
511.833	98.94
512.049	93.94
512.265	80.94
512.481	97.94
512.698	96.94
512.914	82.94
513.13	78.94
513.346	89.94
513.562	90.94
513.778	82.94
513.994	98.94
514.21	87.94
514.426	64.94
514.642	74.94
514.858	91.94
515.074	73.94
515.29	92.94
515.506	87.94
515.721	93.94
515.937	84.94
516.153	90.94
516.369	77.94
516.585	88.94
516.801	83.94
517.016	82.94
517.232	86.94
517.448	79.94
517.664	74.94
517.879	68.94
518.095	96.94
518.311	91.94
518.527	82.94
518.742	77.94
518.958	89.94
519.173	80.94
519.389	86.94
519.605	80.94
519.82	87.94
520.036	87.94
