Data from HP_3_HRD10591_00011.txt Node
Date: Mon Jan 19 14:17:06 EST 2026
User: Yrep
Spectrometer: HR+D1059
Trigger mode: 1
Integration Time (sec): 1.000000E-1
Scans to average: 1
Electric dark correction enabled: true
Nonlinearity correction enabled: false
Boxcar width: 0
XAxis mode: Wavelengths
Number of Pixels in Spectrum: 2048
>>>>>Begin Spectral Data<<<<<
223.165	-9.25
223.4	-9.25
223.635	-9.25
223.869	-3.25
224.104	-26.25
224.338	-14.25
224.573	-27.25
224.808	-7.25
225.042	-7.25
225.277	-3.25
225.511	11.75
225.746	-16.25
225.98	2.75
226.215	10.75
226.449	21.75
226.683	15.75
226.918	18.75
227.152	32.75
227.387	41.75
227.621	34.75
227.856	38.75
228.09	40.75
228.324	49.75
228.559	50.75
228.793	57.75
229.027	55.75
229.262	68.75
229.496	67.75
229.73	70.75
229.964	84.75
230.199	71.75
230.433	71.75
230.667	79.75
230.901	78.75
231.136	82.75
231.37	71.75
231.604	74.75
231.838	69.75
232.072	77.75
232.306	78.75
232.541	83.75
232.775	90.75
233.009	73.75
233.243	77.75
233.477	86.75
233.711	66.75
233.945	81.75
234.179	74.75
234.413	88.75
234.647	81.75
234.881	78.75
235.115	81.75
235.349	78.75
235.583	83.75
235.817	69.75
236.051	71.75
236.285	85.75
236.519	84.75
236.753	81.75
236.987	76.75
237.221	78.75
237.455	88.75
237.689	85.75
237.922	80.75
238.156	67.75
238.39	74.75
238.624	62.75
238.858	68.75
239.091	79.75
239.325	79.75
239.559	79.75
239.793	86.75
240.027	70.75
240.26	71.75
240.494	89.75
240.728	70.75
240.961	87.75
241.195	63.75
241.429	66.75
241.662	83.75
241.896	81.75
242.13	72.75
242.363	77.75
242.597	70.75
242.83	80.75
243.064	78.75
243.298	79.75
243.531	79.75
243.765	78.75
243.998	79.75
244.232	76.75
244.465	67.75
244.699	77.75
244.932	77.75
245.166	79.75
245.399	55.75
245.633	86.75
245.866	85.75
246.099	92.75
246.333	77.75
246.566	79.75
246.8	76.75
247.033	69.75
247.266	64.75
247.5	70.75
247.733	89.75
247.966	68.75
248.2	79.75
248.433	80.75
248.666	70.75
248.899	78.75
249.133	80.75
249.366	80.75
249.599	76.75
249.832	80.75
250.066	64.75
250.299	66.75
250.532	83.75
250.765	70.75
250.998	71.75
251.231	81.75
251.465	72.75
251.698	74.75
251.931	91.75
252.164	65.75
252.397	59.75
252.63	74.75
252.863	72.75
253.096	94.75
253.329	67.75
253.562	82.75
253.795	77.75
254.028	95.75
254.261	81.75
254.494	71.75
254.727	89.75
254.96	82.75
255.193	68.75
255.426	75.75
255.659	75.75
255.892	71.75
256.124	68.75
256.357	84.75
256.59	81.75
256.823	82.75
257.056	77.75
257.289	63.75
257.521	77.75
257.754	70.75
257.987	73.75
258.22	83.75
258.452	74.75
258.685	88.75
258.918	68.75
259.151	78.75
259.383	100.75
259.616	87.75
259.849	83.75
260.081	82.75
260.314	71.75
260.547	75.75
260.779	88.75
261.012	91.75
261.244	75.75
261.477	100.75
261.71	78.75
261.942	72.75
262.175	74.75
262.407	84.75
262.64	76.75
262.872	82.75
263.105	73.75
263.337	82.75
263.57	83.75
263.802	79.75
264.035	88.75
264.267	82.75
264.499	82.75
264.732	74.75
264.964	87.75
265.197	70.75
265.429	84.75
265.661	68.75
265.894	72.75
266.126	82.75
266.358	71.75
266.591	80.75
266.823	80.75
267.055	78.75
267.287	76.75
267.52	84.75
267.752	88.75
267.984	79.75
268.216	76.75
268.448	76.75
268.681	76.75
268.913	71.75
269.145	83.75
269.377	84.75
269.609	88.75
269.841	95.75
270.073	74.75
270.306	66.75
270.538	86.75
270.77	74.75
271.002	77.75
271.234	84.75
271.466	79.75
271.698	80.75
271.93	91.75
272.162	88.75
272.394	86.75
272.626	73.75
272.858	80.75
273.09	82.75
273.322	69.75
273.553	90.75
273.785	74.75
274.017	78.75
274.249	87.75
274.481	76.75
274.713	84.75
274.945	68.75
275.176	91.75
275.408	78.75
275.64	76.75
275.872	76.75
276.104	82.75
276.335	68.75
276.567	74.75
276.799	75.75
277.031	74.75
277.262	66.75
277.494	86.75
277.726	84.75
277.957	79.75
278.189	80.75
278.421	69.75
278.652	74.75
278.884	100.75
279.115	75.75
279.347	82.75
279.579	81.75
279.81	84.75
280.042	93.75
280.273	82.75
280.505	64.75
280.736	89.75
280.968	77.75
281.199	83.75
281.431	85.75
281.662	85.75
281.894	91.75
282.125	86.75
282.356	78.75
282.588	80.75
282.819	70.75
283.051	68.75
283.282	81.75
283.513	102.75
283.745	82.75
283.976	82.75
284.207	92.75
284.439	91.75
284.67	88.75
284.901	96.75
285.132	76.75
285.364	98.75
285.595	81.75
285.826	84.75
286.057	94.75
286.288	103.75
286.52	73.75
286.751	68.75
286.982	79.75
287.213	87.75
287.444	79.75
287.675	74.75
287.906	71.75
288.138	92.75
288.369	83.75
288.6	71.75
288.831	82.75
289.062	80.75
289.293	78.75
289.524	85.75
289.755	81.75
289.986	94.75
290.217	94.75
290.448	77.75
290.679	76.75
290.91	89.75
291.141	90.75
291.371	87.75
291.602	73.75
291.833	72.75
292.064	85.75
292.295	82.75
292.526	88.75
292.757	97.75
292.987	90.75
293.218	87.75
293.449	80.75
293.68	89.75
293.91	78.75
294.141	104.75
294.372	96.75
294.603	89.75
294.833	70.75
295.064	75.75
295.295	83.75
295.525	77.75
295.756	89.75
295.987	96.75
296.217	90.75
296.448	74.75
296.679	85.75
296.909	91.75
297.14	78.75
297.37	80.75
297.601	84.75
297.831	86.75
298.062	94.75
298.292	81.75
298.523	84.75
298.753	94.75
298.984	88.75
299.214	84.75
299.445	84.75
299.675	93.75
299.905	82.75
300.136	84.75
300.366	79.75
300.597	93.75
300.827	89.75
301.057	91.75
301.288	77.75
301.518	81.75
301.748	80.75
301.979	82.75
302.209	80.75
302.439	81.75
302.669	80.75
302.9	82.75
303.13	91.75
303.36	82.75
303.59	83.75
303.82	85.75
304.051	81.75
304.281	94.75
304.511	84.75
304.741	76.75
304.971	85.75
305.201	86.75
305.431	81.75
305.661	74.75
305.891	80.75
306.121	94.75
306.352	63.75
306.582	73.75
306.812	83.75
307.042	85.75
307.272	88.75
307.502	86.75
307.731	71.75
307.961	80.75
308.191	87.75
308.421	89.75
308.651	91.75
308.881	79.75
309.111	74.75
309.341	90.75
309.571	105.75
309.8	76.75
310.03	92.75
310.26	85.75
310.49	92.75
310.72	86.75
310.949	88.75
311.179	90.75
311.409	76.75
311.639	83.75
311.868	91.75
312.098	94.75
312.328	99.75
312.557	82.75
312.787	90.75
313.017	86.75
313.246	98.75
313.476	80.75
313.706	89.75
313.935	74.75
314.165	79.75
314.394	72.75
314.624	78.75
314.853	86.75
315.083	97.75
315.312	86.75
315.542	86.75
315.771	87.75
316.001	76.75
316.23	91.75
316.46	71.75
316.689	94.75
316.919	87.75
317.148	90.75
317.377	92.75
317.607	101.75
317.836	84.75
318.065	88.75
318.295	77.75
318.524	84.75
318.753	87.75
318.983	89.75
319.212	84.75
319.441	70.75
319.67	90.75
319.9	85.75
320.129	77.75
320.358	83.75
320.587	85.75
320.816	88.75
321.046	86.75
321.275	92.75
321.504	73.75
321.733	82.75
321.962	86.75
322.191	86.75
322.42	95.75
322.649	87.75
322.878	83.75
323.108	72.75
323.337	80.75
323.566	70.75
323.795	99.75
324.024	85.75
324.253	91.75
324.482	103.75
324.71	89.75
324.939	100.75
325.168	82.75
325.397	87.75
325.626	70.75
325.855	88.75
326.084	101.75
326.313	67.75
326.542	76.75
326.77	92.75
326.999	87.75
327.228	75.75
327.457	92.75
327.686	82.75
327.914	78.75
328.143	91.75
328.372	82.75
328.6	88.75
328.829	92.75
329.058	77.75
329.287	85.75
329.515	81.75
329.744	84.75
329.972	74.75
330.201	84.75
330.43	96.75
330.658	80.75
330.887	86.75
331.115	80.75
331.344	83.75
331.572	101.75
331.801	82.75
332.03	82.75
332.258	82.75
332.486	95.75
332.715	87.75
332.943	66.75
333.172	96.75
333.4	69.75
333.629	92.75
333.857	78.75
334.085	80.75
334.314	91.75
334.542	100.75
334.771	81.75
334.999	95.75
335.227	91.75
335.455	82.75
335.684	100.75
335.912	94.75
336.14	84.75
336.369	97.75
336.597	89.75
336.825	79.75
337.053	85.75
337.281	88.75
337.51	80.75
337.738	85.75
337.966	76.75
338.194	87.75
338.422	82.75
338.65	76.75
338.878	86.75
339.106	80.75
339.334	95.75
339.562	78.75
339.79	88.75
340.018	78.75
340.246	73.75
340.474	92.75
340.702	88.75
340.93	86.75
341.158	93.75
341.386	85.75
341.614	88.75
341.842	93.75
342.07	79.75
342.298	73.75
342.526	79.75
342.754	87.75
342.981	81.75
343.209	87.75
343.437	103.75
343.665	88.75
343.893	62.75
344.12	84.75
344.348	78.75
344.576	78.75
344.804	92.75
345.031	87.75
345.259	86.75
345.487	86.75
345.714	73.75
345.942	75.75
346.17	71.75
346.397	70.75
346.625	76.75
346.853	68.75
347.08	78.75
347.308	99.75
347.535	78.75
347.763	80.75
347.99	78.75
348.218	82.75
348.445	90.75
348.673	72.75
348.9	82.75
349.128	86.75
349.355	95.75
349.583	86.75
349.81	75.75
350.037	88.75
350.265	78.75
350.492	82.75
350.72	72.75
350.947	81.75
351.174	80.75
351.402	87.75
351.629	83.75
351.856	85.75
352.083	90.75
352.311	90.75
352.538	88.75
352.765	75.75
352.992	102.75
353.22	79.75
353.447	80.75
353.674	89.75
353.901	70.75
354.128	81.75
354.355	90.75
354.583	88.75
354.81	88.75
355.037	72.75
355.264	66.75
355.491	69.75
355.718	80.75
355.945	88.75
356.172	75.75
356.399	90.75
356.626	83.75
356.853	82.75
357.08	87.75
357.307	92.75
357.534	90.75
357.761	100.75
357.988	89.75
358.215	84.75
358.441	76.75
358.668	90.75
358.895	82.75
359.122	86.75
359.349	85.75
359.576	76.75
359.802	91.75
360.029	78.75
360.256	82.75
360.483	74.75
360.709	82.75
360.936	90.75
361.163	96.75
361.39	74.75
361.616	89.75
361.843	88.75
362.07	84.75
362.296	81.75
362.523	83.75
362.749	71.75
362.976	89.75
363.203	94.75
363.429	89.75
363.656	89.75
363.882	86.75
364.109	96.75
364.335	101.75
364.562	83.75
364.788	77.75
365.015	88.75
365.241	71.75
365.468	95.75
365.694	88.75
365.92	88.75
366.147	86.75
366.373	85.75
366.599	92.75
366.826	98.75
367.052	92.75
367.278	95.75
367.505	71.75
367.731	86.75
367.957	92.75
368.184	83.75
368.41	83.75
368.636	68.75
368.862	82.75
369.089	84.75
369.315	76.75
369.541	81.75
369.767	76.75
369.993	82.75
370.219	88.75
370.445	86.75
370.672	82.75
370.898	84.75
371.124	98.75
371.35	87.75
371.576	86.75
371.802	88.75
372.028	76.75
372.254	83.75
372.48	82.75
372.706	76.75
372.932	74.75
373.158	76.75
373.384	104.75
373.61	93.75
373.835	94.75
374.061	88.75
374.287	82.75
374.513	98.75
374.739	80.75
374.965	75.75
375.191	86.75
375.416	88.75
375.642	89.75
375.868	87.75
376.094	98.75
376.319	95.75
376.545	87.75
376.771	71.75
376.997	85.75
377.222	86.75
377.448	84.75
377.674	76.75
377.899	80.75
378.125	86.75
378.35	77.75
378.576	105.75
378.802	91.75
379.027	83.75
379.253	69.75
379.478	78.75
379.704	96.75
379.929	83.75
380.155	90.75
380.38	95.75
380.606	89.75
380.831	79.75
381.057	102.75
381.282	83.75
381.507	81.75
381.733	91.75
381.958	76.75
382.184	89.75
382.409	95.75
382.634	84.75
382.86	77.75
383.085	82.75
383.31	98.75
383.535	87.75
383.761	92.75
383.986	93.75
384.211	87.75
384.436	100.75
384.662	86.75
384.887	90.75
385.112	91.75
385.337	81.75
385.562	87.75
385.787	86.75
386.013	91.75
386.238	92.75
386.463	91.75
386.688	101.75
386.913	80.75
387.138	89.75
387.363	72.75
387.588	95.75
387.813	79.75
388.038	92.75
388.263	86.75
388.488	92.75
388.713	73.75
388.938	74.75
389.163	94.75
389.387	77.75
389.612	89.75
389.837	77.75
390.062	86.75
390.287	88.75
390.512	93.75
390.736	80.75
390.961	93.75
391.186	91.75
391.411	95.75
391.636	93.75
391.86	79.75
392.085	92.75
392.31	90.75
392.534	87.75
392.759	94.75
392.984	116.75
393.208	132.75
393.433	188.75
393.658	152.75
393.882	101.75
394.107	99.75
394.331	102.75
394.556	104.75
394.78	92.75
395.005	89.75
395.229	76.75
395.454	82.75
395.678	77.75
395.903	94.75
396.127	112.75
396.352	113.75
396.576	108.75
396.801	138.75
397.025	172.75
397.249	107.75
397.474	92.75
397.698	86.75
397.922	82.75
398.147	82.75
398.371	87.75
398.595	72.75
398.82	81.75
399.044	88.75
399.268	87.75
399.492	78.75
399.717	88.75
399.941	82.75
400.165	86.75
400.389	97.75
400.613	96.75
400.837	88.75
401.062	82.75
401.286	91.75
401.51	80.75
401.734	82.75
401.958	75.75
402.182	90.75
402.406	91.75
402.63	95.75
402.854	83.75
403.078	88.75
403.302	91.75
403.526	80.75
403.75	82.75
403.974	94.75
404.198	90.75
404.422	89.75
404.645	95.75
404.869	90.75
405.093	82.75
405.317	90.75
405.541	80.75
405.765	62.75
405.988	88.75
406.212	86.75
406.436	86.75
406.66	83.75
406.883	75.75
407.107	84.75
407.331	96.75
407.555	91.75
407.778	103.75
408.002	88.75
408.226	76.75
408.449	96.75
408.673	69.75
408.896	85.75
409.12	79.75
409.344	86.75
409.567	81.75
409.791	85.75
410.014	92.75
410.238	96.75
410.461	86.75
410.685	92.75
410.908	95.75
411.132	100.75
411.355	95.75
411.578	76.75
411.802	78.75
412.025	82.75
412.249	86.75
412.472	76.75
412.695	75.75
412.919	73.75
413.142	88.75
413.365	76.75
413.589	81.75
413.812	84.75
414.035	92.75
414.258	80.75
414.482	82.75
414.705	91.75
414.928	94.75
415.151	94.75
415.374	68.75
415.597	80.75
415.821	91.75
416.044	82.75
416.267	93.75
416.49	85.75
416.713	81.75
416.936	95.75
417.159	81.75
417.382	93.75
417.605	77.75
417.828	66.75
418.051	97.75
418.274	83.75
418.497	82.75
418.72	73.75
418.943	77.75
419.166	79.75
419.389	85.75
419.611	77.75
419.834	81.75
420.057	84.75
420.28	89.75
420.503	96.75
420.726	84.75
420.948	89.75
421.171	88.75
421.394	94.75
421.617	99.75
421.839	89.75
422.062	90.75
422.285	95.75
422.507	154.75
422.73	214.75
422.953	222.75
423.175	126.75
423.398	98.75
423.621	98.75
423.843	99.75
424.066	93.75
424.288	80.75
424.511	68.75
424.733	94.75
424.956	72.75
425.178	98.75
425.401	76.75
425.623	89.75
425.846	79.75
426.068	83.75
426.291	87.75
426.513	81.75
426.735	100.75
426.958	95.75
427.18	91.75
427.402	90.75
427.625	94.75
427.847	75.75
428.069	82.75
428.292	112.75
428.514	107.75
428.736	94.75
428.958	89.75
429.181	91.75
429.403	90.75
429.625	99.75
429.847	94.75
430.069	105.75
430.292	136.75
430.514	120.75
430.736	102.75
430.958	89.75
431.18	84.75
431.402	87.75
431.624	88.75
431.846	86.75
432.068	120.75
432.29	84.75
432.512	88.75
432.734	83.75
432.956	97.75
433.178	97.75
433.4	86.75
433.622	82.75
433.844	77.75
434.066	87.75
434.287	67.75
434.509	70.75
434.731	77.75
434.953	89.75
435.175	88.75
435.397	79.75
435.618	76.75
435.84	72.75
436.062	87.75
436.284	89.75
436.505	80.75
436.727	83.75
436.949	71.75
437.17	79.75
437.392	86.75
437.614	105.75
437.835	82.75
438.057	68.75
438.278	90.75
438.5	89.75
438.721	84.75
438.943	95.75
439.165	79.75
439.386	84.75
439.608	89.75
439.829	72.75
440.05	86.75
440.272	86.75
440.493	74.75
440.715	90.75
440.936	77.75
441.158	98.75
441.379	87.75
441.6	88.75
441.822	85.75
442.043	80.75
442.264	74.75
442.486	106.75
442.707	122.75
442.928	94.75
443.149	85.75
443.371	102.75
443.592	146.75
443.813	145.75
444.034	80.75
444.255	86.75
444.476	76.75
444.698	65.75
444.919	70.75
445.14	171.75
445.361	163.75
445.582	175.75
445.803	166.75
446.024	92.75
446.245	86.75
446.466	76.75
446.687	69.75
446.908	87.75
447.129	90.75
447.35	80.75
447.571	104.75
447.792	93.75
448.013	86.75
448.234	91.75
448.455	78.75
448.675	91.75
448.896	80.75
449.117	76.75
449.338	71.75
449.559	98.75
449.779	87.75
450	85.75
450.221	77.75
450.442	85.75
450.662	89.75
450.883	78.75
451.104	97.75
451.324	82.75
451.545	79.75
451.766	84.75
451.986	84.75
452.207	90.75
452.428	90.75
452.648	90.75
452.869	87.75
453.089	88.75
453.31	82.75
453.53	87.75
453.751	90.75
453.971	74.75
454.192	83.75
454.412	80.75
454.633	70.75
454.853	80.75
455.073	82.75
455.294	76.75
455.514	73.75
455.734	94.75
455.955	83.75
456.175	86.75
456.395	82.75
456.616	74.75
456.836	82.75
457.056	80.75
457.276	68.75
457.497	71.75
457.717	82.75
457.937	92.75
458.157	92.75
458.377	85.75
458.598	95.75
458.818	102.75
459.038	87.75
459.258	84.75
459.478	86.75
459.698	91.75
459.918	76.75
460.138	78.75
460.358	64.75
460.578	87.75
460.798	97.75
461.018	95.75
461.238	101.75
461.458	90.75
461.678	94.75
461.898	78.75
462.118	81.75
462.338	72.75
462.558	85.75
462.777	88.75
462.997	73.75
463.217	92.75
463.437	89.75
463.657	81.75
463.876	87.75
464.096	78.75
464.316	66.75
464.536	89.75
464.755	80.75
464.975	75.75
465.195	77.75
465.414	72.75
465.634	80.75
465.854	80.75
466.073	69.75
466.293	95.75
466.512	86.75
466.732	74.75
466.951	78.75
467.171	88.75
467.391	63.75
467.61	72.75
467.829	96.75
468.049	86.75
468.268	87.75
468.488	83.75
468.707	88.75
468.927	86.75
469.146	87.75
469.365	74.75
469.585	73.75
469.804	83.75
470.023	83.75
470.243	87.75
470.462	77.75
470.681	86.75
470.901	89.75
471.12	86.75
471.339	90.75
471.558	83.75
471.777	93.75
471.997	88.75
472.216	89.75
472.435	81.75
472.654	63.75
472.873	98.75
473.092	82.75
473.311	85.75
473.53	90.75
473.749	86.75
473.968	89.75
474.187	79.75
474.406	81.75
474.625	78.75
474.844	87.75
475.063	77.75
475.282	77.75
475.501	84.75
475.72	96.75
475.939	70.75
476.158	75.75
476.377	72.75
476.596	77.75
476.814	71.75
477.033	83.75
477.252	77.75
477.471	76.75
477.69	88.75
477.908	85.75
478.127	94.75
478.346	83.75
478.564	78.75
478.783	67.75
479.002	77.75
479.22	78.75
479.439	91.75
479.658	83.75
479.876	77.75
480.095	71.75
480.313	76.75
480.532	75.75
480.751	98.75
480.969	84.75
481.188	84.75
481.406	87.75
481.624	90.75
481.843	70.75
482.061	74.75
482.28	91.75
482.498	84.75
482.717	83.75
482.935	90.75
483.153	72.75
483.372	99.75
483.59	90.75
483.808	79.75
484.027	78.75
484.245	82.75
484.463	76.75
484.681	89.75
484.9	78.75
485.118	84.75
485.336	82.75
485.554	76.75
485.772	88.75
485.99	89.75
486.209	86.75
486.427	80.75
486.645	80.75
486.863	70.75
487.081	84.75
487.299	78.75
487.517	83.75
487.735	92.75
487.953	105.75
488.171	108.75
488.389	85.75
488.607	83.75
488.825	86.75
489.043	82.75
489.261	90.75
489.479	111.75
489.696	103.75
489.914	84.75
490.132	94.75
490.35	81.75
490.568	90.75
490.786	82.75
491.003	95.75
491.221	79.75
491.439	93.75
491.657	89.75
491.874	88.75
492.092	73.75
492.31	86.75
492.527	83.75
492.745	79.75
492.963	90.75
493.18	90.75
493.398	75.75
493.615	84.75
493.833	94.75
494.05	90.75
494.268	83.75
494.485	81.75
494.703	72.75
494.92	89.75
495.138	81.75
495.355	83.75
495.573	81.75
495.79	92.75
496.008	78.75
496.225	87.75
496.442	82.75
496.66	63.75
496.877	72.75
497.094	89.75
497.312	93.75
497.529	97.75
497.746	74.75
497.963	80.75
498.181	80.75
498.398	83.75
498.615	72.75
498.832	85.75
499.049	74.75
499.267	79.75
499.484	75.75
499.701	82.75
499.918	94.75
500.135	86.75
500.352	86.75
500.569	86.75
500.786	93.75
501.003	82.75
501.22	89.75
501.437	91.75
501.654	75.75
501.871	71.75
502.088	87.75
502.305	95.75
502.522	92.75
502.739	74.75
502.956	78.75
503.172	66.75
503.389	96.75
503.606	66.75
503.823	94.75
504.04	100.75
504.256	108.75
504.473	108.75
504.69	79.75
504.907	80.75
505.123	74.75
505.34	90.75
505.557	96.75
505.773	79.75
505.99	86.75
506.207	72.75
506.423	91.75
506.64	75.75
506.856	84.75
507.073	84.75
507.289	67.75
507.506	92.75
507.722	78.75
507.939	79.75
508.155	90.75
508.372	86.75
508.588	82.75
508.805	94.75
509.021	87.75
509.238	89.75
509.454	80.75
509.67	84.75
509.887	90.75
510.103	104.75
510.319	81.75
510.536	89.75
510.752	72.75
510.968	73.75
511.184	96.75
511.401	86.75
511.617	92.75
511.833	95.75
512.049	79.75
512.265	92.75
512.481	71.75
512.698	96.75
512.914	88.75
513.13	96.75
513.346	101.75
513.562	78.75
513.778	83.75
513.994	82.75
514.21	89.75
514.426	86.75
514.642	73.75
514.858	81.75
515.074	72.75
515.29	82.75
515.506	87.75
515.721	89.75
515.937	101.75
516.153	73.75
516.369	83.75
516.585	83.75
516.801	76.75
517.016	80.75
517.232	84.75
517.448	84.75
517.664	92.75
517.879	86.75
518.095	81.75
518.311	84.75
518.527	90.75
518.742	83.75
518.958	103.75
519.173	119.75
519.389	85.75
