Data from HP_3_HRD10591_00046.txt Node
Date: Mon Jan 19 14:17:23 EST 2026
User: Yrep
Spectrometer: HR+D1059
Trigger mode: 1
Integration Time (sec): 1.000000E-1
Scans to average: 1
Electric dark correction enabled: true
Nonlinearity correction enabled: false
Boxcar width: 0
XAxis mode: Wavelengths
Number of Pixels in Spectrum: 2048
>>>>>Begin Spectral Data<<<<<
223.165	-19.88
223.4	-19.88
223.635	-19.88
223.869	-19.88
224.104	-27.88
224.338	-17.88
224.573	-7.88
224.808	-18.88
225.042	-1.88
225.277	-3.88
225.511	-2.88
225.746	3.12
225.98	5.12
226.215	24.12
226.449	17.12
226.683	25.12
226.918	25.12
227.152	21.12
227.387	40.12
227.621	32.12
227.856	42.12
228.09	48.12
228.324	54.12
228.559	69.12
228.793	57.12
229.027	62.12
229.262	58.12
229.496	78.12
229.73	61.12
229.964	66.12
230.199	65.12
230.433	83.12
230.667	81.12
230.901	76.12
231.136	80.12
231.37	67.12
231.604	83.12
231.838	73.12
232.072	84.12
232.306	85.12
232.541	88.12
232.775	75.12
233.009	78.12
233.243	89.12
233.477	68.12
233.711	88.12
233.945	72.12
234.179	79.12
234.413	89.12
234.647	71.12
234.881	87.12
235.115	73.12
235.349	82.12
235.583	79.12
235.817	76.12
236.051	82.12
236.285	79.12
236.519	81.12
236.753	86.12
236.987	86.12
237.221	78.12
237.455	70.12
237.689	79.12
237.922	78.12
238.156	59.12
238.39	88.12
238.624	73.12
238.858	64.12
239.091	77.12
239.325	73.12
239.559	72.12
239.793	77.12
240.027	76.12
240.26	72.12
240.494	67.12
240.728	67.12
240.961	83.12
241.195	82.12
241.429	70.12
241.662	73.12
241.896	73.12
242.13	66.12
242.363	71.12
242.597	72.12
242.83	80.12
243.064	77.12
243.298	73.12
243.531	72.12
243.765	75.12
243.998	74.12
244.232	83.12
244.465	70.12
244.699	81.12
244.932	69.12
245.166	68.12
245.399	85.12
245.633	64.12
245.866	84.12
246.099	75.12
246.333	68.12
246.566	81.12
246.8	79.12
247.033	72.12
247.266	72.12
247.5	67.12
247.733	74.12
247.966	68.12
248.2	71.12
248.433	97.12
248.666	66.12
248.899	74.12
249.133	68.12
249.366	79.12
249.599	72.12
249.832	81.12
250.066	74.12
250.299	82.12
250.532	67.12
250.765	75.12
250.998	73.12
251.231	80.12
251.465	84.12
251.698	73.12
251.931	80.12
252.164	85.12
252.397	84.12
252.63	71.12
252.863	79.12
253.096	85.12
253.329	85.12
253.562	88.12
253.795	73.12
254.028	74.12
254.261	84.12
254.494	86.12
254.727	76.12
254.96	68.12
255.193	72.12
255.426	77.12
255.659	78.12
255.892	68.12
256.124	80.12
256.357	72.12
256.59	91.12
256.823	82.12
257.056	72.12
257.289	82.12
257.521	92.12
257.754	86.12
257.987	69.12
258.22	75.12
258.452	77.12
258.685	80.12
258.918	79.12
259.151	72.12
259.383	62.12
259.616	86.12
259.849	78.12
260.081	77.12
260.314	80.12
260.547	89.12
260.779	87.12
261.012	72.12
261.244	68.12
261.477	79.12
261.71	79.12
261.942	69.12
262.175	77.12
262.407	87.12
262.64	74.12
262.872	90.12
263.105	72.12
263.337	90.12
263.57	70.12
263.802	69.12
264.035	85.12
264.267	82.12
264.499	82.12
264.732	76.12
264.964	93.12
265.197	76.12
265.429	72.12
265.661	76.12
265.894	83.12
266.126	78.12
266.358	81.12
266.591	77.12
266.823	90.12
267.055	82.12
267.287	80.12
267.52	71.12
267.752	84.12
267.984	74.12
268.216	76.12
268.448	81.12
268.681	87.12
268.913	63.12
269.145	87.12
269.377	95.12
269.609	78.12
269.841	82.12
270.073	65.12
270.306	70.12
270.538	74.12
270.77	81.12
271.002	78.12
271.234	66.12
271.466	82.12
271.698	84.12
271.93	86.12
272.162	86.12
272.394	90.12
272.626	82.12
272.858	75.12
273.09	74.12
273.322	78.12
273.553	75.12
273.785	75.12
274.017	84.12
274.249	62.12
274.481	86.12
274.713	68.12
274.945	88.12
275.176	88.12
275.408	85.12
275.64	75.12
275.872	83.12
276.104	81.12
276.335	75.12
276.567	89.12
276.799	84.12
277.031	79.12
277.262	84.12
277.494	94.12
277.726	74.12
277.957	82.12
278.189	73.12
278.421	72.12
278.652	86.12
278.884	70.12
279.115	82.12
279.347	87.12
279.579	75.12
279.81	86.12
280.042	86.12
280.273	85.12
280.505	78.12
280.736	86.12
280.968	80.12
281.199	79.12
281.431	88.12
281.662	76.12
281.894	83.12
282.125	70.12
282.356	80.12
282.588	71.12
282.819	74.12
283.051	72.12
283.282	78.12
283.513	88.12
283.745	84.12
283.976	78.12
284.207	78.12
284.439	74.12
284.67	86.12
284.901	91.12
285.132	83.12
285.364	91.12
285.595	78.12
285.826	81.12
286.057	78.12
286.288	69.12
286.52	79.12
286.751	82.12
286.982	77.12
287.213	87.12
287.444	81.12
287.675	82.12
287.906	92.12
288.138	80.12
288.369	87.12
288.6	90.12
288.831	82.12
289.062	83.12
289.293	73.12
289.524	76.12
289.755	72.12
289.986	81.12
290.217	80.12
290.448	73.12
290.679	74.12
290.91	90.12
291.141	84.12
291.371	83.12
291.602	71.12
291.833	79.12
292.064	70.12
292.295	74.12
292.526	76.12
292.757	88.12
292.987	95.12
293.218	85.12
293.449	91.12
293.68	82.12
293.91	78.12
294.141	95.12
294.372	91.12
294.603	78.12
294.833	88.12
295.064	83.12
295.295	77.12
295.525	82.12
295.756	86.12
295.987	80.12
296.217	95.12
296.448	84.12
296.679	78.12
296.909	85.12
297.14	89.12
297.37	84.12
297.601	76.12
297.831	92.12
298.062	95.12
298.292	66.12
298.523	79.12
298.753	84.12
298.984	83.12
299.214	84.12
299.445	86.12
299.675	91.12
299.905	88.12
300.136	74.12
300.366	71.12
300.597	78.12
300.827	84.12
301.057	82.12
301.288	72.12
301.518	84.12
301.748	72.12
301.979	99.12
302.209	85.12
302.439	93.12
302.669	83.12
302.9	72.12
303.13	80.12
303.36	82.12
303.59	79.12
303.82	97.12
304.051	86.12
304.281	90.12
304.511	82.12
304.741	96.12
304.971	93.12
305.201	75.12
305.431	86.12
305.661	66.12
305.891	84.12
306.121	102.12
306.352	77.12
306.582	82.12
306.812	83.12
307.042	69.12
307.272	68.12
307.502	74.12
307.731	75.12
307.961	89.12
308.191	96.12
308.421	91.12
308.651	86.12
308.881	101.12
309.111	87.12
309.341	77.12
309.571	103.12
309.8	80.12
310.03	84.12
310.26	83.12
310.49	88.12
310.72	84.12
310.949	84.12
311.179	96.12
311.409	83.12
311.639	77.12
311.868	82.12
312.098	75.12
312.328	82.12
312.557	72.12
312.787	70.12
313.017	88.12
313.246	89.12
313.476	81.12
313.706	89.12
313.935	86.12
314.165	75.12
314.394	75.12
314.624	93.12
314.853	91.12
315.083	80.12
315.312	85.12
315.542	77.12
315.771	82.12
316.001	89.12
316.23	89.12
316.46	90.12
316.689	90.12
316.919	76.12
317.148	87.12
317.377	89.12
317.607	87.12
317.836	110.12
318.065	90.12
318.295	86.12
318.524	82.12
318.753	69.12
318.983	90.12
319.212	82.12
319.441	86.12
319.67	86.12
319.9	83.12
320.129	85.12
320.358	67.12
320.587	100.12
320.816	83.12
321.046	63.12
321.275	87.12
321.504	77.12
321.733	82.12
321.962	87.12
322.191	81.12
322.42	79.12
322.649	74.12
322.878	80.12
323.108	84.12
323.337	84.12
323.566	95.12
323.795	83.12
324.024	87.12
324.253	88.12
324.482	88.12
324.71	76.12
324.939	67.12
325.168	74.12
325.397	78.12
325.626	82.12
325.855	73.12
326.084	82.12
326.313	72.12
326.542	80.12
326.77	74.12
326.999	90.12
327.228	76.12
327.457	103.12
327.686	76.12
327.914	87.12
328.143	81.12
328.372	77.12
328.6	88.12
328.829	82.12
329.058	94.12
329.287	95.12
329.515	82.12
329.744	75.12
329.972	74.12
330.201	84.12
330.43	77.12
330.658	85.12
330.887	95.12
331.115	82.12
331.344	86.12
331.572	72.12
331.801	89.12
332.03	85.12
332.258	103.12
332.486	99.12
332.715	80.12
332.943	77.12
333.172	84.12
333.4	91.12
333.629	88.12
333.857	83.12
334.085	78.12
334.314	71.12
334.542	78.12
334.771	74.12
334.999	84.12
335.227	69.12
335.455	86.12
335.684	76.12
335.912	82.12
336.14	90.12
336.369	91.12
336.597	77.12
336.825	82.12
337.053	66.12
337.281	72.12
337.51	92.12
337.738	88.12
337.966	86.12
338.194	82.12
338.422	84.12
338.65	77.12
338.878	94.12
339.106	80.12
339.334	88.12
339.562	82.12
339.79	80.12
340.018	71.12
340.246	88.12
340.474	90.12
340.702	74.12
340.93	90.12
341.158	84.12
341.386	81.12
341.614	78.12
341.842	92.12
342.07	94.12
342.298	84.12
342.526	87.12
342.754	99.12
342.981	94.12
343.209	62.12
343.437	111.12
343.665	77.12
343.893	83.12
344.12	92.12
344.348	91.12
344.576	83.12
344.804	84.12
345.031	95.12
345.259	84.12
345.487	82.12
345.714	87.12
345.942	80.12
346.17	99.12
346.397	92.12
346.625	82.12
346.853	82.12
347.08	80.12
347.308	80.12
347.535	95.12
347.763	85.12
347.99	76.12
348.218	90.12
348.445	76.12
348.673	85.12
348.9	86.12
349.128	81.12
349.355	73.12
349.583	78.12
349.81	81.12
350.037	88.12
350.265	87.12
350.492	83.12
350.72	97.12
350.947	83.12
351.174	98.12
351.402	85.12
351.629	89.12
351.856	75.12
352.083	78.12
352.311	77.12
352.538	72.12
352.765	80.12
352.992	82.12
353.22	68.12
353.447	78.12
353.674	75.12
353.901	92.12
354.128	76.12
354.355	83.12
354.583	80.12
354.81	75.12
355.037	79.12
355.264	75.12
355.491	80.12
355.718	77.12
355.945	82.12
356.172	82.12
356.399	83.12
356.626	82.12
356.853	83.12
357.08	81.12
357.307	72.12
357.534	74.12
357.761	81.12
357.988	97.12
358.215	71.12
358.441	84.12
358.668	90.12
358.895	82.12
359.122	101.12
359.349	91.12
359.576	87.12
359.802	86.12
360.029	86.12
360.256	77.12
360.483	74.12
360.709	84.12
360.936	81.12
361.163	105.12
361.39	97.12
361.616	81.12
361.843	88.12
362.07	90.12
362.296	79.12
362.523	90.12
362.749	91.12
362.976	86.12
363.203	85.12
363.429	82.12
363.656	80.12
363.882	75.12
364.109	99.12
364.335	92.12
364.562	91.12
364.788	88.12
365.015	94.12
365.241	84.12
365.468	74.12
365.694	82.12
365.92	79.12
366.147	79.12
366.373	90.12
366.599	84.12
366.826	77.12
367.052	84.12
367.278	98.12
367.505	92.12
367.731	86.12
367.957	69.12
368.184	84.12
368.41	90.12
368.636	88.12
368.862	97.12
369.089	82.12
369.315	65.12
369.541	89.12
369.767	86.12
369.993	80.12
370.219	86.12
370.445	84.12
370.672	95.12
370.898	87.12
371.124	68.12
371.35	86.12
371.576	77.12
371.802	83.12
372.028	70.12
372.254	82.12
372.48	82.12
372.706	81.12
372.932	84.12
373.158	86.12
373.384	85.12
373.61	91.12
373.835	78.12
374.061	91.12
374.287	90.12
374.513	79.12
374.739	90.12
374.965	80.12
375.191	84.12
375.416	85.12
375.642	82.12
375.868	76.12
376.094	81.12
376.319	76.12
376.545	87.12
376.771	67.12
376.997	77.12
377.222	76.12
377.448	96.12
377.674	73.12
377.899	87.12
378.125	81.12
378.35	80.12
378.576	69.12
378.802	77.12
379.027	79.12
379.253	78.12
379.478	74.12
379.704	71.12
379.929	91.12
380.155	74.12
380.38	72.12
380.606	81.12
380.831	104.12
381.057	85.12
381.282	89.12
381.507	86.12
381.733	71.12
381.958	96.12
382.184	86.12
382.409	90.12
382.634	85.12
382.86	87.12
383.085	79.12
383.31	78.12
383.535	92.12
383.761	97.12
383.986	82.12
384.211	70.12
384.436	78.12
384.662	77.12
384.887	78.12
385.112	83.12
385.337	77.12
385.562	76.12
385.787	94.12
386.013	92.12
386.238	86.12
386.463	88.12
386.688	98.12
386.913	83.12
387.138	83.12
387.363	100.12
387.588	87.12
387.813	86.12
388.038	80.12
388.263	81.12
388.488	87.12
388.713	69.12
388.938	94.12
389.163	76.12
389.387	70.12
389.612	85.12
389.837	78.12
390.062	79.12
390.287	70.12
390.512	76.12
390.736	76.12
390.961	77.12
391.186	82.12
391.411	82.12
391.636	79.12
391.86	78.12
392.085	90.12
392.31	74.12
392.534	86.12
392.759	106.12
392.984	112.12
393.208	182.12
393.433	297.12
393.658	223.12
393.882	108.12
394.107	91.12
394.331	85.12
394.556	89.12
394.78	81.12
395.005	91.12
395.229	74.12
395.454	67.12
395.678	85.12
395.903	96.12
396.127	102.12
396.352	126.12
396.576	129.12
396.801	200.12
397.025	216.12
397.249	138.12
397.474	94.12
397.698	82.12
397.922	99.12
398.147	99.12
398.371	97.12
398.595	76.12
398.82	76.12
399.044	68.12
399.268	75.12
399.492	70.12
399.717	60.12
399.941	79.12
400.165	88.12
400.389	81.12
400.613	78.12
400.837	80.12
401.062	75.12
401.286	66.12
401.51	86.12
401.734	86.12
401.958	87.12
402.182	88.12
402.406	79.12
402.63	87.12
402.854	93.12
403.078	62.12
403.302	83.12
403.526	84.12
403.75	81.12
403.974	84.12
404.198	70.12
404.422	96.12
404.645	81.12
404.869	86.12
405.093	76.12
405.317	84.12
405.541	77.12
405.765	82.12
405.988	80.12
406.212	81.12
406.436	67.12
406.66	87.12
406.883	86.12
407.107	86.12
407.331	75.12
407.555	94.12
407.778	110.12
408.002	87.12
408.226	91.12
408.449	83.12
408.673	66.12
408.896	83.12
409.12	80.12
409.344	77.12
409.567	82.12
409.791	81.12
410.014	65.12
410.238	66.12
410.461	76.12
410.685	83.12
410.908	76.12
411.132	79.12
411.355	82.12
411.578	70.12
411.802	79.12
412.025	97.12
412.249	66.12
412.472	80.12
412.695	84.12
412.919	84.12
413.142	82.12
413.365	95.12
413.589	71.12
413.812	73.12
414.035	86.12
414.258	92.12
414.482	74.12
414.705	93.12
414.928	81.12
415.151	75.12
415.374	62.12
415.597	69.12
415.821	66.12
416.044	80.12
416.267	77.12
416.49	87.12
416.713	75.12
416.936	88.12
417.159	74.12
417.382	71.12
417.605	70.12
417.828	69.12
418.051	79.12
418.274	79.12
418.497	81.12
418.72	80.12
418.943	89.12
419.166	81.12
419.389	87.12
419.611	70.12
419.834	72.12
420.057	76.12
420.28	73.12
420.503	75.12
420.726	74.12
420.948	84.12
421.171	94.12
421.394	92.12
421.617	106.12
421.839	72.12
422.062	78.12
422.285	96.12
422.507	141.12
422.73	225.12
422.953	193.12
423.175	106.12
423.398	79.12
423.621	79.12
423.843	84.12
424.066	77.12
424.288	82.12
424.511	89.12
424.733	78.12
424.956	86.12
425.178	79.12
425.401	75.12
425.623	82.12
425.846	62.12
426.068	72.12
426.291	69.12
426.513	90.12
426.735	87.12
426.958	84.12
427.18	76.12
427.402	79.12
427.625	79.12
427.847	74.12
428.069	78.12
428.292	87.12
428.514	96.12
428.736	91.12
428.958	87.12
429.181	95.12
429.403	87.12
429.625	86.12
429.847	80.12
430.069	101.12
430.292	115.12
430.514	102.12
430.736	103.12
430.958	98.12
431.18	88.12
431.402	71.12
431.624	84.12
431.846	89.12
432.068	117.12
432.29	95.12
432.512	88.12
432.734	82.12
432.956	91.12
433.178	78.12
433.4	82.12
433.622	84.12
433.844	79.12
434.066	75.12
434.287	82.12
434.509	73.12
434.731	72.12
434.953	77.12
435.175	84.12
435.397	91.12
435.618	74.12
435.84	74.12
436.062	83.12
436.284	75.12
436.505	65.12
436.727	73.12
436.949	80.12
437.17	88.12
437.392	89.12
437.614	80.12
437.835	68.12
438.057	79.12
438.278	74.12
438.5	82.12
438.721	72.12
438.943	70.12
439.165	81.12
439.386	85.12
439.608	66.12
439.829	73.12
440.05	74.12
440.272	69.12
440.493	84.12
440.715	84.12
440.936	83.12
441.158	89.12
441.379	84.12
441.6	98.12
441.822	89.12
442.043	79.12
442.264	74.12
442.486	89.12
442.707	94.12
442.928	86.12
443.149	76.12
443.371	97.12
443.592	124.12
443.813	102.12
444.034	84.12
444.255	95.12
444.476	87.12
444.698	72.12
444.919	85.12
445.14	190.12
445.361	140.12
445.582	132.12
445.803	123.12
446.024	79.12
446.245	84.12
446.466	81.12
446.687	87.12
446.908	72.12
447.129	82.12
447.35	70.12
447.571	76.12
447.792	79.12
448.013	79.12
448.234	56.12
448.455	71.12
448.675	81.12
448.896	74.12
449.117	80.12
449.338	73.12
449.559	78.12
449.779	73.12
450	93.12
450.221	94.12
450.442	81.12
450.662	87.12
450.883	84.12
451.104	83.12
451.324	75.12
451.545	86.12
451.766	89.12
451.986	92.12
452.207	82.12
452.428	92.12
452.648	81.12
452.869	80.12
453.089	95.12
453.31	84.12
453.53	86.12
453.751	87.12
453.971	80.12
454.192	76.12
454.412	76.12
454.633	76.12
454.853	85.12
455.073	82.12
455.294	91.12
455.514	72.12
455.734	75.12
455.955	83.12
456.175	67.12
456.395	72.12
456.616	86.12
456.836	100.12
457.056	82.12
457.276	82.12
457.497	78.12
457.717	91.12
457.937	105.12
458.157	88.12
458.377	87.12
458.598	97.12
458.818	100.12
459.038	76.12
459.258	71.12
459.478	81.12
459.698	69.12
459.918	86.12
460.138	73.12
460.358	75.12
460.578	85.12
460.798	92.12
461.018	94.12
461.238	101.12
461.458	87.12
461.678	63.12
461.898	75.12
462.118	70.12
462.338	64.12
462.558	84.12
462.777	84.12
462.997	81.12
463.217	87.12
463.437	76.12
463.657	80.12
463.876	82.12
464.096	74.12
464.316	76.12
464.536	68.12
464.755	74.12
464.975	83.12
465.195	78.12
465.414	74.12
465.634	82.12
465.854	90.12
466.073	71.12
466.293	76.12
466.512	81.12
466.732	74.12
466.951	73.12
467.171	71.12
467.391	80.12
467.61	92.12
467.829	90.12
468.049	76.12
468.268	86.12
468.488	87.12
468.707	68.12
468.927	84.12
469.146	75.12
469.365	84.12
469.585	86.12
469.804	71.12
470.023	85.12
470.243	86.12
470.462	66.12
470.681	76.12
470.901	81.12
471.12	78.12
471.339	80.12
471.558	73.12
471.777	80.12
471.997	69.12
472.216	64.12
472.435	80.12
472.654	79.12
472.873	89.12
473.092	90.12
473.311	87.12
473.53	84.12
473.749	98.12
473.968	87.12
474.187	69.12
474.406	76.12
474.625	70.12
474.844	75.12
475.063	68.12
475.282	74.12
475.501	71.12
475.72	68.12
475.939	67.12
476.158	69.12
476.377	87.12
476.596	102.12
476.814	82.12
477.033	77.12
477.252	88.12
477.471	83.12
477.69	70.12
477.908	97.12
478.127	81.12
478.346	77.12
478.564	80.12
478.783	76.12
479.002	91.12
479.22	71.12
479.439	78.12
479.658	82.12
479.876	87.12
480.095	80.12
480.313	72.12
480.532	63.12
480.751	86.12
480.969	69.12
481.188	81.12
481.406	74.12
481.624	80.12
481.843	84.12
482.061	84.12
482.28	85.12
482.498	96.12
482.717	79.12
482.935	96.12
483.153	82.12
483.372	87.12
483.59	86.12
483.808	90.12
484.027	87.12
484.245	83.12
484.463	82.12
484.681	72.12
484.9	83.12
485.118	83.12
485.336	83.12
485.554	88.12
485.772	82.12
485.99	72.12
486.209	89.12
486.427	80.12
486.645	77.12
486.863	82.12
487.081	88.12
487.299	89.12
487.517	82.12
487.735	80.12
487.953	105.12
488.171	89.12
488.389	75.12
488.607	75.12
488.825	71.12
489.043	87.12
489.261	94.12
489.479	92.12
489.696	75.12
489.914	83.12
490.132	69.12
490.35	83.12
490.568	66.12
490.786	80.12
491.003	86.12
491.221	91.12
491.439	89.12
491.657	81.12
491.874	81.12
492.092	75.12
492.31	83.12
492.527	72.12
492.745	67.12
492.963	90.12
493.18	74.12
493.398	77.12
493.615	66.12
493.833	81.12
494.05	105.12
494.268	79.12
494.485	83.12
494.703	83.12
494.92	71.12
495.138	88.12
495.355	94.12
495.573	87.12
495.79	81.12
496.008	84.12
496.225	87.12
496.442	77.12
496.66	81.12
496.877	71.12
497.094	87.12
497.312	89.12
497.529	81.12
497.746	92.12
497.963	87.12
498.181	86.12
498.398	81.12
498.615	96.12
498.832	68.12
499.049	86.12
499.267	74.12
499.484	74.12
499.701	96.12
499.918	84.12
500.135	83.12
500.352	77.12
500.569	66.12
500.786	87.12
501.003	82.12
501.22	77.12
501.437	95.12
501.654	86.12
501.871	90.12
502.088	69.12
502.305	88.12
502.522	85.12
502.739	73.12
502.956	82.12
503.172	77.12
503.389	94.12
503.606	84.12
503.823	80.12
504.04	96.12
504.256	76.12
504.473	80.12
504.69	75.12
504.907	101.12
505.123	90.12
505.34	79.12
505.557	84.12
505.773	88.12
505.99	84.12
506.207	86.12
506.423	73.12
506.64	75.12
506.856	71.12
507.073	83.12
507.289	90.12
507.506	84.12
507.722	94.12
507.939	80.12
508.155	73.12
508.372	73.12
508.588	67.12
508.805	80.12
509.021	97.12
509.238	82.12
509.454	86.12
509.67	94.12
509.887	89.12
510.103	80.12
510.319	79.12
510.536	78.12
510.752	83.12
510.968	85.12
511.184	68.12
511.401	76.12
511.617	90.12
511.833	73.12
512.049	97.12
512.265	89.12
512.481	82.12
512.698	68.12
512.914	68.12
513.13	81.12
513.346	66.12
513.562	66.12
513.778	88.12
513.994	92.12
514.21	83.12
514.426	77.12
514.642	84.12
514.858	78.12
515.074	81.12
515.29	88.12
515.506	77.12
515.721	87.12
515.937	85.12
516.153	81.12
516.369	89.12
516.585	94.12
516.801	83.12
517.016	94.12
517.232	75.12
517.448	86.12
517.664	77.12
517.879	81.12
518.095	71.12
518.311	73.12
518.527	86.12
518.742	84.12
518.958	94.12
519.173	82.12
519.389	90.12
519.605	88.12
