Data from HP_3_HRD10591_00030.txt Node
Date: Mon Jan 19 14:17:15 EST 2026
User: Yrep
Spectrometer: HR+D1059
Trigger mode: 1
Integration Time (sec): 1.000000E-1
Scans to average: 1
Electric dark correction enabled: true
Nonlinearity correction enabled: false
Boxcar width: 0
XAxis mode: Wavelengths
Number of Pixels in Spectrum: 2048
>>>>>Begin Spectral Data<<<<<
223.165	-17.81
223.4	-17.81
223.635	-17.81
223.869	-22.81
224.104	-19.81
224.338	-20.81
224.573	-19.81
224.808	-8.81
225.042	3.19
225.277	4.19
225.511	-5.81
225.746	16.19
225.98	4.19
226.215	8.19
226.449	12.19
226.683	12.19
226.918	28.19
227.152	27.19
227.387	30.19
227.621	41.19
227.856	48.19
228.09	52.19
228.324	41.19
228.559	64.19
228.793	46.19
229.027	59.19
229.262	44.19
229.496	80.19
229.73	64.19
229.964	76.19
230.199	66.19
230.433	72.19
230.667	70.19
230.901	69.19
231.136	74.19
231.37	92.19
231.604	80.19
231.838	87.19
232.072	76.19
232.306	63.19
232.541	73.19
232.775	68.19
233.009	72.19
233.243	72.19
233.477	86.19
233.711	78.19
233.945	85.19
234.179	77.19
234.413	79.19
234.647	79.19
234.881	82.19
235.115	73.19
235.349	86.19
235.583	94.19
235.817	73.19
236.051	85.19
236.285	83.19
236.519	69.19
236.753	84.19
236.987	88.19
237.221	82.19
237.455	76.19
237.689	99.19
237.922	75.19
238.156	73.19
238.39	84.19
238.624	67.19
238.858	76.19
239.091	75.19
239.325	58.19
239.559	77.19
239.793	70.19
240.027	70.19
240.26	66.19
240.494	69.19
240.728	62.19
240.961	69.19
241.195	75.19
241.429	76.19
241.662	82.19
241.896	86.19
242.13	75.19
242.363	65.19
242.597	64.19
242.83	85.19
243.064	78.19
243.298	71.19
243.531	63.19
243.765	63.19
243.998	89.19
244.232	80.19
244.465	71.19
244.699	74.19
244.932	73.19
245.166	75.19
245.399	73.19
245.633	76.19
245.866	77.19
246.099	84.19
246.333	79.19
246.566	87.19
246.8	72.19
247.033	75.19
247.266	67.19
247.5	76.19
247.733	68.19
247.966	83.19
248.2	76.19
248.433	72.19
248.666	80.19
248.899	77.19
249.133	71.19
249.366	73.19
249.599	86.19
249.832	79.19
250.066	81.19
250.299	73.19
250.532	75.19
250.765	72.19
250.998	83.19
251.231	71.19
251.465	94.19
251.698	62.19
251.931	76.19
252.164	81.19
252.397	86.19
252.63	64.19
252.863	58.19
253.096	76.19
253.329	78.19
253.562	72.19
253.795	80.19
254.028	88.19
254.261	82.19
254.494	66.19
254.727	79.19
254.96	77.19
255.193	80.19
255.426	67.19
255.659	66.19
255.892	72.19
256.124	81.19
256.357	68.19
256.59	91.19
256.823	81.19
257.056	73.19
257.289	67.19
257.521	77.19
257.754	77.19
257.987	84.19
258.22	72.19
258.452	96.19
258.685	86.19
258.918	74.19
259.151	87.19
259.383	84.19
259.616	78.19
259.849	82.19
260.081	65.19
260.314	84.19
260.547	75.19
260.779	86.19
261.012	93.19
261.244	75.19
261.477	77.19
261.71	80.19
261.942	86.19
262.175	79.19
262.407	67.19
262.64	68.19
262.872	67.19
263.105	83.19
263.337	94.19
263.57	78.19
263.802	76.19
264.035	86.19
264.267	74.19
264.499	70.19
264.732	70.19
264.964	85.19
265.197	81.19
265.429	60.19
265.661	88.19
265.894	90.19
266.126	80.19
266.358	77.19
266.591	87.19
266.823	71.19
267.055	83.19
267.287	84.19
267.52	82.19
267.752	85.19
267.984	74.19
268.216	78.19
268.448	83.19
268.681	94.19
268.913	79.19
269.145	78.19
269.377	81.19
269.609	91.19
269.841	84.19
270.073	74.19
270.306	84.19
270.538	75.19
270.77	78.19
271.002	83.19
271.234	72.19
271.466	92.19
271.698	84.19
271.93	77.19
272.162	75.19
272.394	86.19
272.626	83.19
272.858	90.19
273.09	82.19
273.322	74.19
273.553	91.19
273.785	65.19
274.017	83.19
274.249	77.19
274.481	73.19
274.713	72.19
274.945	73.19
275.176	75.19
275.408	81.19
275.64	84.19
275.872	81.19
276.104	86.19
276.335	85.19
276.567	93.19
276.799	80.19
277.031	89.19
277.262	80.19
277.494	60.19
277.726	87.19
277.957	86.19
278.189	81.19
278.421	87.19
278.652	88.19
278.884	76.19
279.115	73.19
279.347	76.19
279.579	88.19
279.81	83.19
280.042	82.19
280.273	78.19
280.505	76.19
280.736	80.19
280.968	74.19
281.199	92.19
281.431	86.19
281.662	71.19
281.894	87.19
282.125	83.19
282.356	90.19
282.588	75.19
282.819	70.19
283.051	84.19
283.282	69.19
283.513	81.19
283.745	81.19
283.976	102.19
284.207	91.19
284.439	79.19
284.67	101.19
284.901	68.19
285.132	82.19
285.364	90.19
285.595	89.19
285.826	74.19
286.057	91.19
286.288	82.19
286.52	83.19
286.751	66.19
286.982	97.19
287.213	81.19
287.444	73.19
287.675	84.19
287.906	88.19
288.138	80.19
288.369	91.19
288.6	65.19
288.831	66.19
289.062	83.19
289.293	98.19
289.524	80.19
289.755	82.19
289.986	78.19
290.217	86.19
290.448	78.19
290.679	74.19
290.91	95.19
291.141	74.19
291.371	83.19
291.602	74.19
291.833	74.19
292.064	73.19
292.295	76.19
292.526	82.19
292.757	74.19
292.987	78.19
293.218	87.19
293.449	75.19
293.68	83.19
293.91	70.19
294.141	82.19
294.372	89.19
294.603	95.19
294.833	88.19
295.064	87.19
295.295	60.19
295.525	70.19
295.756	92.19
295.987	89.19
296.217	87.19
296.448	78.19
296.679	82.19
296.909	98.19
297.14	84.19
297.37	86.19
297.601	77.19
297.831	84.19
298.062	84.19
298.292	67.19
298.523	83.19
298.753	80.19
298.984	86.19
299.214	80.19
299.445	87.19
299.675	84.19
299.905	80.19
300.136	75.19
300.366	82.19
300.597	74.19
300.827	76.19
301.057	74.19
301.288	91.19
301.518	94.19
301.748	84.19
301.979	89.19
302.209	85.19
302.439	75.19
302.669	75.19
302.9	70.19
303.13	83.19
303.36	77.19
303.59	87.19
303.82	77.19
304.051	80.19
304.281	82.19
304.511	85.19
304.741	95.19
304.971	75.19
305.201	86.19
305.431	92.19
305.661	81.19
305.891	88.19
306.121	76.19
306.352	75.19
306.582	75.19
306.812	79.19
307.042	76.19
307.272	86.19
307.502	79.19
307.731	95.19
307.961	82.19
308.191	83.19
308.421	97.19
308.651	81.19
308.881	92.19
309.111	89.19
309.341	84.19
309.571	97.19
309.8	85.19
310.03	83.19
310.26	83.19
310.49	77.19
310.72	76.19
310.949	84.19
311.179	74.19
311.409	84.19
311.639	82.19
311.868	74.19
312.098	81.19
312.328	78.19
312.557	80.19
312.787	75.19
313.017	113.19
313.246	90.19
313.476	79.19
313.706	75.19
313.935	82.19
314.165	84.19
314.394	85.19
314.624	59.19
314.853	76.19
315.083	75.19
315.312	88.19
315.542	79.19
315.771	92.19
316.001	86.19
316.23	80.19
316.46	71.19
316.689	84.19
316.919	84.19
317.148	89.19
317.377	89.19
317.607	80.19
317.836	92.19
318.065	106.19
318.295	96.19
318.524	75.19
318.753	75.19
318.983	81.19
319.212	72.19
319.441	70.19
319.67	87.19
319.9	89.19
320.129	84.19
320.358	83.19
320.587	90.19
320.816	72.19
321.046	82.19
321.275	82.19
321.504	75.19
321.733	102.19
321.962	90.19
322.191	79.19
322.42	74.19
322.649	96.19
322.878	82.19
323.108	77.19
323.337	90.19
323.566	82.19
323.795	90.19
324.024	79.19
324.253	76.19
324.482	93.19
324.71	72.19
324.939	86.19
325.168	88.19
325.397	91.19
325.626	83.19
325.855	78.19
326.084	84.19
326.313	84.19
326.542	73.19
326.77	72.19
326.999	82.19
327.228	86.19
327.457	88.19
327.686	98.19
327.914	94.19
328.143	83.19
328.372	79.19
328.6	83.19
328.829	74.19
329.058	82.19
329.287	70.19
329.515	86.19
329.744	88.19
329.972	90.19
330.201	83.19
330.43	84.19
330.658	82.19
330.887	84.19
331.115	67.19
331.344	74.19
331.572	72.19
331.801	89.19
332.03	94.19
332.258	78.19
332.486	74.19
332.715	76.19
332.943	77.19
333.172	89.19
333.4	82.19
333.629	85.19
333.857	97.19
334.085	84.19
334.314	74.19
334.542	72.19
334.771	91.19
334.999	85.19
335.227	72.19
335.455	81.19
335.684	76.19
335.912	82.19
336.14	84.19
336.369	77.19
336.597	78.19
336.825	91.19
337.053	83.19
337.281	75.19
337.51	70.19
337.738	79.19
337.966	75.19
338.194	84.19
338.422	85.19
338.65	97.19
338.878	100.19
339.106	67.19
339.334	82.19
339.562	88.19
339.79	84.19
340.018	82.19
340.246	84.19
340.474	85.19
340.702	81.19
340.93	77.19
341.158	85.19
341.386	80.19
341.614	76.19
341.842	76.19
342.07	83.19
342.298	96.19
342.526	95.19
342.754	88.19
342.981	81.19
343.209	79.19
343.437	90.19
343.665	90.19
343.893	83.19
344.12	94.19
344.348	89.19
344.576	100.19
344.804	83.19
345.031	78.19
345.259	82.19
345.487	75.19
345.714	67.19
345.942	64.19
346.17	75.19
346.397	79.19
346.625	83.19
346.853	82.19
347.08	70.19
347.308	85.19
347.535	66.19
347.763	75.19
347.99	83.19
348.218	91.19
348.445	82.19
348.673	80.19
348.9	63.19
349.128	84.19
349.355	84.19
349.583	77.19
349.81	83.19
350.037	67.19
350.265	82.19
350.492	90.19
350.72	76.19
350.947	89.19
351.174	89.19
351.402	81.19
351.629	79.19
351.856	87.19
352.083	74.19
352.311	95.19
352.538	88.19
352.765	82.19
352.992	83.19
353.22	84.19
353.447	83.19
353.674	82.19
353.901	85.19
354.128	79.19
354.355	80.19
354.583	81.19
354.81	73.19
355.037	82.19
355.264	79.19
355.491	80.19
355.718	72.19
355.945	73.19
356.172	67.19
356.399	79.19
356.626	79.19
356.853	85.19
357.08	99.19
357.307	82.19
357.534	74.19
357.761	90.19
357.988	90.19
358.215	97.19
358.441	83.19
358.668	82.19
358.895	62.19
359.122	90.19
359.349	74.19
359.576	72.19
359.802	73.19
360.029	71.19
360.256	83.19
360.483	80.19
360.709	84.19
360.936	98.19
361.163	82.19
361.39	87.19
361.616	95.19
361.843	86.19
362.07	91.19
362.296	86.19
362.523	91.19
362.749	86.19
362.976	90.19
363.203	90.19
363.429	73.19
363.656	71.19
363.882	76.19
364.109	68.19
364.335	92.19
364.562	94.19
364.788	82.19
365.015	85.19
365.241	73.19
365.468	95.19
365.694	76.19
365.92	80.19
366.147	84.19
366.373	92.19
366.599	87.19
366.826	90.19
367.052	76.19
367.278	81.19
367.505	73.19
367.731	70.19
367.957	81.19
368.184	75.19
368.41	79.19
368.636	88.19
368.862	77.19
369.089	86.19
369.315	94.19
369.541	77.19
369.767	80.19
369.993	82.19
370.219	81.19
370.445	80.19
370.672	81.19
370.898	80.19
371.124	80.19
371.35	84.19
371.576	86.19
371.802	81.19
372.028	78.19
372.254	85.19
372.48	77.19
372.706	75.19
372.932	76.19
373.158	72.19
373.384	90.19
373.61	90.19
373.835	93.19
374.061	86.19
374.287	81.19
374.513	81.19
374.739	81.19
374.965	72.19
375.191	83.19
375.416	78.19
375.642	76.19
375.868	95.19
376.094	89.19
376.319	94.19
376.545	94.19
376.771	75.19
376.997	65.19
377.222	94.19
377.448	91.19
377.674	82.19
377.899	77.19
378.125	91.19
378.35	67.19
378.576	62.19
378.802	81.19
379.027	77.19
379.253	91.19
379.478	84.19
379.704	79.19
379.929	77.19
380.155	91.19
380.38	68.19
380.606	84.19
380.831	88.19
381.057	90.19
381.282	88.19
381.507	91.19
381.733	90.19
381.958	79.19
382.184	78.19
382.409	104.19
382.634	75.19
382.86	106.19
383.085	76.19
383.31	74.19
383.535	87.19
383.761	76.19
383.986	83.19
384.211	90.19
384.436	91.19
384.662	81.19
384.887	79.19
385.112	82.19
385.337	85.19
385.562	75.19
385.787	83.19
386.013	83.19
386.238	92.19
386.463	88.19
386.688	98.19
386.913	90.19
387.138	73.19
387.363	80.19
387.588	86.19
387.813	89.19
388.038	96.19
388.263	94.19
388.488	85.19
388.713	86.19
388.938	75.19
389.163	73.19
389.387	76.19
389.612	88.19
389.837	72.19
390.062	81.19
390.287	84.19
390.512	70.19
390.736	86.19
390.961	80.19
391.186	92.19
391.411	85.19
391.636	80.19
391.86	86.19
392.085	90.19
392.31	68.19
392.534	90.19
392.759	82.19
392.984	104.19
393.208	145.19
393.433	210.19
393.658	168.19
393.882	99.19
394.107	80.19
394.331	96.19
394.556	90.19
394.78	80.19
395.005	87.19
395.229	75.19
395.454	72.19
395.678	72.19
395.903	92.19
396.127	106.19
396.352	113.19
396.576	106.19
396.801	159.19
397.025	165.19
397.249	100.19
397.474	91.19
397.698	58.19
397.922	81.19
398.147	82.19
398.371	72.19
398.595	77.19
398.82	84.19
399.044	83.19
399.268	79.19
399.492	82.19
399.717	83.19
399.941	80.19
400.165	76.19
400.389	80.19
400.613	76.19
400.837	71.19
401.062	73.19
401.286	92.19
401.51	87.19
401.734	69.19
401.958	82.19
402.182	75.19
402.406	66.19
402.63	79.19
402.854	72.19
403.078	74.19
403.302	82.19
403.526	75.19
403.75	72.19
403.974	62.19
404.198	77.19
404.422	85.19
404.645	70.19
404.869	92.19
405.093	83.19
405.317	83.19
405.541	82.19
405.765	72.19
405.988	64.19
406.212	76.19
406.436	81.19
406.66	81.19
406.883	91.19
407.107	86.19
407.331	72.19
407.555	76.19
407.778	73.19
408.002	88.19
408.226	76.19
408.449	79.19
408.673	72.19
408.896	81.19
409.12	78.19
409.344	81.19
409.567	68.19
409.791	68.19
410.014	54.19
410.238	66.19
410.461	81.19
410.685	72.19
410.908	82.19
411.132	86.19
411.355	81.19
411.578	87.19
411.802	73.19
412.025	80.19
412.249	74.19
412.472	78.19
412.695	85.19
412.919	83.19
413.142	66.19
413.365	70.19
413.589	78.19
413.812	76.19
414.035	73.19
414.258	85.19
414.482	78.19
414.705	84.19
414.928	76.19
415.151	75.19
415.374	81.19
415.597	87.19
415.821	66.19
416.044	72.19
416.267	82.19
416.49	81.19
416.713	84.19
416.936	77.19
417.159	80.19
417.382	89.19
417.605	88.19
417.828	84.19
418.051	75.19
418.274	72.19
418.497	86.19
418.72	85.19
418.943	81.19
419.166	87.19
419.389	84.19
419.611	89.19
419.834	71.19
420.057	94.19
420.28	74.19
420.503	89.19
420.726	82.19
420.948	77.19
421.171	75.19
421.394	86.19
421.617	90.19
421.839	76.19
422.062	75.19
422.285	82.19
422.507	119.19
422.73	166.19
422.953	153.19
423.175	102.19
423.398	84.19
423.621	79.19
423.843	86.19
424.066	92.19
424.288	83.19
424.511	79.19
424.733	81.19
424.956	80.19
425.178	82.19
425.401	77.19
425.623	83.19
425.846	80.19
426.068	80.19
426.291	79.19
426.513	82.19
426.735	85.19
426.958	89.19
427.18	93.19
427.402	74.19
427.625	74.19
427.847	91.19
428.069	75.19
428.292	80.19
428.514	106.19
428.736	80.19
428.958	81.19
429.181	93.19
429.403	81.19
429.625	89.19
429.847	74.19
430.069	90.19
430.292	102.19
430.514	91.19
430.736	79.19
430.958	96.19
431.18	88.19
431.402	74.19
431.624	88.19
431.846	87.19
432.068	97.19
432.29	81.19
432.512	85.19
432.734	90.19
432.956	84.19
433.178	82.19
433.4	73.19
433.622	80.19
433.844	70.19
434.066	78.19
434.287	81.19
434.509	86.19
434.731	81.19
434.953	76.19
435.175	69.19
435.397	87.19
435.618	87.19
435.84	86.19
436.062	80.19
436.284	88.19
436.505	72.19
436.727	67.19
436.949	79.19
437.17	89.19
437.392	76.19
437.614	75.19
437.835	72.19
438.057	76.19
438.278	81.19
438.5	90.19
438.721	80.19
438.943	78.19
439.165	73.19
439.386	83.19
439.608	86.19
439.829	86.19
440.05	64.19
440.272	76.19
440.493	82.19
440.715	71.19
440.936	76.19
441.158	81.19
441.379	90.19
441.6	87.19
441.822	74.19
442.043	68.19
442.264	59.19
442.486	70.19
442.707	98.19
442.928	79.19
443.149	86.19
443.371	101.19
443.592	100.19
443.813	91.19
444.034	75.19
444.255	74.19
444.476	75.19
444.698	91.19
444.919	78.19
445.14	168.19
445.361	136.19
445.582	129.19
445.803	102.19
446.024	85.19
446.245	81.19
446.466	85.19
446.687	82.19
446.908	90.19
447.129	74.19
447.35	73.19
447.571	80.19
447.792	85.19
448.013	75.19
448.234	80.19
448.455	82.19
448.675	77.19
448.896	71.19
449.117	71.19
449.338	74.19
449.559	89.19
449.779	68.19
450	86.19
450.221	88.19
450.442	90.19
450.662	70.19
450.883	66.19
451.104	74.19
451.324	85.19
451.545	78.19
451.766	75.19
451.986	80.19
452.207	76.19
452.428	74.19
452.648	67.19
452.869	90.19
453.089	81.19
453.31	81.19
453.53	87.19
453.751	90.19
453.971	78.19
454.192	67.19
454.412	82.19
454.633	74.19
454.853	71.19
455.073	74.19
455.294	76.19
455.514	86.19
455.734	71.19
455.955	72.19
456.175	77.19
456.395	94.19
456.616	84.19
456.836	77.19
457.056	78.19
457.276	75.19
457.497	72.19
457.717	68.19
457.937	76.19
458.157	66.19
458.377	69.19
458.598	72.19
458.818	91.19
459.038	77.19
459.258	86.19
459.478	77.19
459.698	80.19
459.918	86.19
460.138	77.19
460.358	70.19
460.578	68.19
460.798	100.19
461.018	98.19
461.238	76.19
461.458	85.19
461.678	80.19
461.898	95.19
462.118	84.19
462.338	80.19
462.558	82.19
462.777	84.19
462.997	74.19
463.217	80.19
463.437	72.19
463.657	82.19
463.876	80.19
464.096	63.19
464.316	72.19
464.536	72.19
464.755	76.19
464.975	70.19
465.195	83.19
465.414	84.19
465.634	81.19
465.854	90.19
466.073	74.19
466.293	80.19
466.512	83.19
466.732	75.19
466.951	79.19
467.171	86.19
467.391	73.19
467.61	88.19
467.829	83.19
468.049	101.19
468.268	80.19
468.488	76.19
468.707	71.19
468.927	83.19
469.146	81.19
469.365	73.19
469.585	88.19
469.804	73.19
470.023	79.19
470.243	84.19
470.462	82.19
470.681	83.19
470.901	71.19
471.12	79.19
471.339	77.19
471.558	88.19
471.777	82.19
471.997	103.19
472.216	76.19
472.435	74.19
472.654	78.19
472.873	90.19
473.092	95.19
473.311	84.19
473.53	91.19
473.749	74.19
473.968	84.19
474.187	88.19
474.406	80.19
474.625	79.19
474.844	66.19
475.063	72.19
475.282	79.19
475.501	80.19
475.72	87.19
475.939	89.19
476.158	77.19
476.377	78.19
476.596	72.19
476.814	92.19
477.033	95.19
477.252	94.19
477.471	91.19
477.69	80.19
477.908	79.19
478.127	82.19
478.346	91.19
478.564	84.19
478.783	80.19
479.002	95.19
479.22	82.19
479.439	81.19
479.658	78.19
479.876	87.19
480.095	90.19
480.313	82.19
480.532	76.19
480.751	86.19
480.969	86.19
481.188	87.19
481.406	95.19
481.624	69.19
481.843	82.19
482.061	86.19
482.28	70.19
482.498	73.19
482.717	92.19
482.935	76.19
483.153	81.19
483.372	74.19
483.59	80.19
483.808	80.19
484.027	81.19
484.245	94.19
484.463	73.19
484.681	96.19
484.9	81.19
485.118	84.19
485.336	73.19
485.554	80.19
485.772	90.19
485.99	76.19
486.209	75.19
486.427	76.19
486.645	82.19
486.863	80.19
487.081	78.19
487.299	90.19
487.517	89.19
487.735	93.19
487.953	77.19
488.171	85.19
488.389	91.19
488.607	74.19
488.825	77.19
489.043	88.19
489.261	86.19
489.479	95.19
489.696	86.19
489.914	89.19
490.132	89.19
490.35	100.19
490.568	79.19
490.786	85.19
491.003	68.19
491.221	76.19
491.439	78.19
491.657	82.19
491.874	86.19
492.092	80.19
492.31	81.19
492.527	84.19
492.745	79.19
492.963	90.19
493.18	76.19
493.398	88.19
493.615	84.19
493.833	89.19
494.05	76.19
494.268	75.19
494.485	84.19
494.703	73.19
494.92	76.19
495.138	73.19
495.355	81.19
495.573	95.19
495.79	82.19
496.008	91.19
496.225	73.19
496.442	71.19
496.66	87.19
496.877	74.19
497.094	77.19
497.312	80.19
497.529	81.19
497.746	75.19
497.963	70.19
498.181	74.19
498.398	78.19
498.615	94.19
498.832	90.19
499.049	83.19
499.267	85.19
499.484	94.19
499.701	87.19
499.918	81.19
500.135	82.19
500.352	76.19
500.569	84.19
500.786	81.19
501.003	82.19
501.22	73.19
501.437	66.19
501.654	90.19
501.871	85.19
502.088	79.19
502.305	82.19
502.522	84.19
502.739	94.19
502.956	79.19
503.172	73.19
503.389	77.19
503.606	68.19
503.823	82.19
504.04	66.19
504.256	81.19
504.473	88.19
504.69	77.19
504.907	85.19
505.123	84.19
505.34	87.19
505.557	75.19
505.773	94.19
505.99	70.19
506.207	94.19
506.423	85.19
506.64	85.19
506.856	87.19
507.073	95.19
507.289	71.19
507.506	77.19
507.722	83.19
507.939	89.19
508.155	87.19
508.372	78.19
508.588	82.19
508.805	66.19
509.021	87.19
509.238	96.19
509.454	81.19
509.67	87.19
509.887	89.19
510.103	74.19
510.319	86.19
510.536	87.19
510.752	75.19
510.968	76.19
511.184	81.19
511.401	74.19
511.617	81.19
511.833	64.19
512.049	81.19
512.265	86.19
512.481	83.19
512.698	90.19
512.914	76.19
513.13	91.19
513.346	88.19
513.562	90.19
513.778	83.19
513.994	78.19
514.21	91.19
514.426	89.19
514.642	79.19
514.858	77.19
515.074	74.19
515.29	93.19
515.506	84.19
515.721	83.19
515.937	79.19
516.153	91.19
516.369	70.19
516.585	88.19
516.801	88.19
517.016	92.19
517.232	89.19
517.448	82.19
517.664	75.19
517.879	69.19
518.095	76.19
518.311	76.19
518.527	88.19
518.742	80.19
518.958	85.19
519.173	85.19
519.389	88.19
519.605	86.19
519.82	70.19
