Data from HP_3_HRD10591_00002.txt Node
Date: Mon Jan 19 14:17:01 EST 2026
User: Yrep
Spectrometer: HR+D1059
Trigger mode: 1
Integration Time (sec): 1.000000E-1
Scans to average: 1
Electric dark correction enabled: true
Nonlinearity correction enabled: false
Boxcar width: 0
XAxis mode: Wavelengths
Number of Pixels in Spectrum: 2048
>>>>>Begin Spectral Data<<<<<
223.165	-25.12
223.4	-25.12
223.635	-25.12
223.869	-38.12
224.104	-17.12
224.338	-22.12
224.573	-16.12
224.808	-19.12
225.042	5.88
225.277	-12.12
225.511	0.88
225.746	21.88
225.98	1.88
226.215	16.88
226.449	9.88
226.683	29.88
226.918	31.88
227.152	30.88
227.387	22.88
227.621	42.88
227.856	42.88
228.09	42.88
228.324	41.88
228.559	61.88
228.793	60.88
229.027	60.88
229.262	53.88
229.496	62.88
229.73	66.88
229.964	73.88
230.199	77.88
230.433	84.88
230.667	72.88
230.901	74.88
231.136	74.88
231.37	78.88
231.604	68.88
231.838	78.88
232.072	74.88
232.306	74.88
232.541	86.88
232.775	87.88
233.009	79.88
233.243	65.88
233.477	76.88
233.711	75.88
233.945	70.88
234.179	77.88
234.413	80.88
234.647	88.88
234.881	82.88
235.115	81.88
235.349	70.88
235.583	70.88
235.817	79.88
236.051	84.88
236.285	82.88
236.519	68.88
236.753	95.88
236.987	78.88
237.221	70.88
237.455	84.88
237.689	72.88
237.922	68.88
238.156	74.88
238.39	85.88
238.624	84.88
238.858	72.88
239.091	66.88
239.325	73.88
239.559	65.88
239.793	68.88
240.027	64.88
240.26	58.88
240.494	76.88
240.728	66.88
240.961	84.88
241.195	72.88
241.429	80.88
241.662	64.88
241.896	75.88
242.13	80.88
242.363	59.88
242.597	85.88
242.83	68.88
243.064	82.88
243.298	72.88
243.531	74.88
243.765	66.88
243.998	71.88
244.232	80.88
244.465	82.88
244.699	78.88
244.932	86.88
245.166	84.88
245.399	65.88
245.633	76.88
245.866	68.88
246.099	71.88
246.333	62.88
246.566	64.88
246.8	60.88
247.033	78.88
247.266	86.88
247.5	70.88
247.733	73.88
247.966	77.88
248.2	76.88
248.433	73.88
248.666	79.88
248.899	79.88
249.133	77.88
249.366	75.88
249.599	81.88
249.832	60.88
250.066	72.88
250.299	73.88
250.532	71.88
250.765	76.88
250.998	72.88
251.231	78.88
251.465	71.88
251.698	77.88
251.931	82.88
252.164	75.88
252.397	66.88
252.63	76.88
252.863	88.88
253.096	81.88
253.329	81.88
253.562	73.88
253.795	73.88
254.028	85.88
254.261	75.88
254.494	75.88
254.727	93.88
254.96	80.88
255.193	66.88
255.426	87.88
255.659	60.88
255.892	70.88
256.124	62.88
256.357	74.88
256.59	78.88
256.823	86.88
257.056	65.88
257.289	87.88
257.521	79.88
257.754	80.88
257.987	81.88
258.22	74.88
258.452	73.88
258.685	69.88
258.918	83.88
259.151	78.88
259.383	65.88
259.616	72.88
259.849	81.88
260.081	72.88
260.314	75.88
260.547	83.88
260.779	73.88
261.012	74.88
261.244	77.88
261.477	92.88
261.71	84.88
261.942	77.88
262.175	77.88
262.407	85.88
262.64	81.88
262.872	76.88
263.105	78.88
263.337	75.88
263.57	74.88
263.802	82.88
264.035	86.88
264.267	68.88
264.499	68.88
264.732	78.88
264.964	84.88
265.197	83.88
265.429	78.88
265.661	72.88
265.894	72.88
266.126	81.88
266.358	84.88
266.591	83.88
266.823	66.88
267.055	66.88
267.287	79.88
267.52	84.88
267.752	68.88
267.984	74.88
268.216	73.88
268.448	83.88
268.681	71.88
268.913	76.88
269.145	86.88
269.377	71.88
269.609	64.88
269.841	62.88
270.073	85.88
270.306	74.88
270.538	67.88
270.77	85.88
271.002	77.88
271.234	91.88
271.466	88.88
271.698	88.88
271.93	66.88
272.162	74.88
272.394	81.88
272.626	79.88
272.858	84.88
273.09	80.88
273.322	77.88
273.553	76.88
273.785	75.88
274.017	99.88
274.249	82.88
274.481	79.88
274.713	68.88
274.945	93.88
275.176	73.88
275.408	96.88
275.64	85.88
275.872	96.88
276.104	78.88
276.335	76.88
276.567	89.88
276.799	90.88
277.031	77.88
277.262	87.88
277.494	79.88
277.726	82.88
277.957	87.88
278.189	83.88
278.421	88.88
278.652	89.88
278.884	92.88
279.115	82.88
279.347	68.88
279.579	100.88
279.81	84.88
280.042	78.88
280.273	98.88
280.505	74.88
280.736	84.88
280.968	74.88
281.199	84.88
281.431	74.88
281.662	82.88
281.894	72.88
282.125	77.88
282.356	86.88
282.588	84.88
282.819	74.88
283.051	70.88
283.282	97.88
283.513	92.88
283.745	89.88
283.976	85.88
284.207	78.88
284.439	71.88
284.67	86.88
284.901	88.88
285.132	86.88
285.364	86.88
285.595	91.88
285.826	76.88
286.057	81.88
286.288	84.88
286.52	77.88
286.751	76.88
286.982	85.88
287.213	88.88
287.444	93.88
287.675	80.88
287.906	95.88
288.138	85.88
288.369	100.88
288.6	81.88
288.831	78.88
289.062	86.88
289.293	86.88
289.524	81.88
289.755	76.88
289.986	81.88
290.217	84.88
290.448	84.88
290.679	78.88
290.91	75.88
291.141	65.88
291.371	78.88
291.602	72.88
291.833	71.88
292.064	72.88
292.295	73.88
292.526	81.88
292.757	82.88
292.987	81.88
293.218	86.88
293.449	78.88
293.68	81.88
293.91	73.88
294.141	92.88
294.372	81.88
294.603	76.88
294.833	85.88
295.064	73.88
295.295	82.88
295.525	73.88
295.756	89.88
295.987	86.88
296.217	92.88
296.448	74.88
296.679	84.88
296.909	84.88
297.14	83.88
297.37	85.88
297.601	85.88
297.831	83.88
298.062	82.88
298.292	72.88
298.523	73.88
298.753	82.88
298.984	78.88
299.214	80.88
299.445	69.88
299.675	95.88
299.905	89.88
300.136	87.88
300.366	92.88
300.597	93.88
300.827	98.88
301.057	92.88
301.288	77.88
301.518	97.88
301.748	80.88
301.979	89.88
302.209	80.88
302.439	90.88
302.669	95.88
302.9	87.88
303.13	87.88
303.36	78.88
303.59	73.88
303.82	73.88
304.051	83.88
304.281	98.88
304.511	86.88
304.741	85.88
304.971	76.88
305.201	74.88
305.431	81.88
305.661	80.88
305.891	87.88
306.121	94.88
306.352	73.88
306.582	80.88
306.812	89.88
307.042	88.88
307.272	62.88
307.502	75.88
307.731	92.88
307.961	84.88
308.191	85.88
308.421	105.88
308.651	92.88
308.881	95.88
309.111	88.88
309.341	92.88
309.571	72.88
309.8	80.88
310.03	82.88
310.26	85.88
310.49	80.88
310.72	75.88
310.949	74.88
311.179	75.88
311.409	87.88
311.639	73.88
311.868	80.88
312.098	77.88
312.328	78.88
312.557	91.88
312.787	75.88
313.017	81.88
313.246	94.88
313.476	79.88
313.706	75.88
313.935	79.88
314.165	81.88
314.394	89.88
314.624	95.88
314.853	69.88
315.083	83.88
315.312	72.88
315.542	80.88
315.771	75.88
316.001	91.88
316.23	96.88
316.46	90.88
316.689	77.88
316.919	82.88
317.148	83.88
317.377	86.88
317.607	80.88
317.836	90.88
318.065	88.88
318.295	90.88
318.524	87.88
318.753	90.88
318.983	90.88
319.212	99.88
319.441	86.88
319.67	90.88
319.9	81.88
320.129	88.88
320.358	92.88
320.587	102.88
320.816	82.88
321.046	86.88
321.275	99.88
321.504	90.88
321.733	90.88
321.962	85.88
322.191	81.88
322.42	79.88
322.649	92.88
322.878	81.88
323.108	88.88
323.337	84.88
323.566	70.88
323.795	88.88
324.024	78.88
324.253	67.88
324.482	84.88
324.71	88.88
324.939	80.88
325.168	88.88
325.397	69.88
325.626	82.88
325.855	78.88
326.084	72.88
326.313	83.88
326.542	80.88
326.77	78.88
326.999	75.88
327.228	88.88
327.457	80.88
327.686	88.88
327.914	85.88
328.143	84.88
328.372	73.88
328.6	73.88
328.829	95.88
329.058	79.88
329.287	83.88
329.515	88.88
329.744	99.88
329.972	93.88
330.201	81.88
330.43	81.88
330.658	80.88
330.887	68.88
331.115	89.88
331.344	72.88
331.572	79.88
331.801	87.88
332.03	70.88
332.258	82.88
332.486	68.88
332.715	88.88
332.943	87.88
333.172	81.88
333.4	88.88
333.629	88.88
333.857	83.88
334.085	85.88
334.314	97.88
334.542	97.88
334.771	88.88
334.999	95.88
335.227	96.88
335.455	88.88
335.684	95.88
335.912	102.88
336.14	94.88
336.369	89.88
336.597	83.88
336.825	78.88
337.053	71.88
337.281	81.88
337.51	84.88
337.738	85.88
337.966	90.88
338.194	83.88
338.422	92.88
338.65	83.88
338.878	84.88
339.106	81.88
339.334	76.88
339.562	92.88
339.79	89.88
340.018	78.88
340.246	81.88
340.474	92.88
340.702	76.88
340.93	80.88
341.158	86.88
341.386	82.88
341.614	81.88
341.842	82.88
342.07	99.88
342.298	98.88
342.526	95.88
342.754	85.88
342.981	76.88
343.209	81.88
343.437	96.88
343.665	64.88
343.893	95.88
344.12	92.88
344.348	82.88
344.576	76.88
344.804	84.88
345.031	69.88
345.259	82.88
345.487	73.88
345.714	63.88
345.942	78.88
346.17	82.88
346.397	88.88
346.625	85.88
346.853	82.88
347.08	80.88
347.308	78.88
347.535	78.88
347.763	85.88
347.99	90.88
348.218	97.88
348.445	87.88
348.673	76.88
348.9	80.88
349.128	92.88
349.355	82.88
349.583	83.88
349.81	87.88
350.037	99.88
350.265	85.88
350.492	73.88
350.72	74.88
350.947	84.88
351.174	90.88
351.402	89.88
351.629	97.88
351.856	75.88
352.083	77.88
352.311	78.88
352.538	77.88
352.765	78.88
352.992	92.88
353.22	80.88
353.447	83.88
353.674	66.88
353.901	82.88
354.128	83.88
354.355	82.88
354.583	69.88
354.81	87.88
355.037	81.88
355.264	88.88
355.491	81.88
355.718	85.88
355.945	85.88
356.172	73.88
356.399	89.88
356.626	71.88
356.853	83.88
357.08	100.88
357.307	74.88
357.534	81.88
357.761	92.88
357.988	94.88
358.215	98.88
358.441	99.88
358.668	95.88
358.895	95.88
359.122	81.88
359.349	79.88
359.576	85.88
359.802	71.88
360.029	84.88
360.256	82.88
360.483	79.88
360.709	97.88
360.936	86.88
361.163	88.88
361.39	92.88
361.616	83.88
361.843	87.88
362.07	97.88
362.296	82.88
362.523	97.88
362.749	102.88
362.976	134.88
363.203	153.88
363.429	92.88
363.656	89.88
363.882	95.88
364.109	124.88
364.335	129.88
364.562	152.88
364.788	124.88
365.015	99.88
365.241	90.88
365.468	93.88
365.694	77.88
365.92	87.88
366.147	80.88
366.373	85.88
366.599	94.88
366.826	93.88
367.052	92.88
367.278	80.88
367.505	89.88
367.731	78.88
367.957	94.88
368.184	85.88
368.41	74.88
368.636	82.88
368.862	96.88
369.089	95.88
369.315	84.88
369.541	86.88
369.767	83.88
369.993	76.88
370.219	78.88
370.445	95.88
370.672	86.88
370.898	90.88
371.124	80.88
371.35	73.88
371.576	92.88
371.802	86.88
372.028	80.88
372.254	97.88
372.48	83.88
372.706	89.88
372.932	93.88
373.158	103.88
373.384	116.88
373.61	126.88
373.835	110.88
374.061	98.88
374.287	100.88
374.513	89.88
374.739	108.88
374.965	97.88
375.191	97.88
375.416	111.88
375.642	115.88
375.868	102.88
376.094	78.88
376.319	95.88
376.545	98.88
376.771	91.88
376.997	87.88
377.222	91.88
377.448	80.88
377.674	84.88
377.899	75.88
378.125	88.88
378.35	95.88
378.576	90.88
378.802	83.88
379.027	74.88
379.253	83.88
379.478	93.88
379.704	85.88
379.929	88.88
380.155	90.88
380.38	67.88
380.606	98.88
380.831	76.88
381.057	88.88
381.282	99.88
381.507	96.88
381.733	85.88
381.958	101.88
382.184	99.88
382.409	102.88
382.634	126.88
382.86	109.88
383.085	84.88
383.31	98.88
383.535	110.88
383.761	93.88
383.986	114.88
384.211	106.88
384.436	94.88
384.662	80.88
384.887	89.88
385.112	100.88
385.337	92.88
385.562	83.88
385.787	97.88
386.013	105.88
386.238	106.88
386.463	97.88
386.688	87.88
386.913	97.88
387.138	88.88
387.363	86.88
387.588	88.88
387.813	98.88
388.038	92.88
388.263	97.88
388.488	92.88
388.713	98.88
388.938	92.88
389.163	87.88
389.387	94.88
389.612	90.88
389.837	96.88
390.062	74.88
390.287	89.88
390.512	88.88
390.736	82.88
390.961	75.88
391.186	80.88
391.411	95.88
391.636	85.88
391.86	87.88
392.085	97.88
392.31	102.88
392.534	104.88
392.759	136.88
392.984	163.88
393.208	292.88
393.433	423.88
393.658	308.88
393.882	153.88
394.107	108.88
394.331	130.88
394.556	134.88
394.78	102.88
395.005	93.88
395.229	96.88
395.454	99.88
395.678	108.88
395.903	130.88
396.127	154.88
396.352	178.88
396.576	194.88
396.801	302.88
397.025	340.88
397.249	188.88
397.474	126.88
397.698	102.88
397.922	93.88
398.147	94.88
398.371	99.88
398.595	92.88
398.82	94.88
399.044	92.88
399.268	93.88
399.492	72.88
399.717	80.88
399.941	90.88
400.165	84.88
400.389	85.88
400.613	82.88
400.837	91.88
401.062	96.88
401.286	84.88
401.51	74.88
401.734	78.88
401.958	99.88
402.182	80.88
402.406	83.88
402.63	102.88
402.854	77.88
403.078	101.88
403.302	100.88
403.526	96.88
403.75	93.88
403.974	85.88
404.198	89.88
404.422	108.88
404.645	99.88
404.869	111.88
405.093	87.88
405.317	93.88
405.541	91.88
405.765	75.88
405.988	69.88
406.212	94.88
406.436	98.88
406.66	86.88
406.883	90.88
407.107	87.88
407.331	93.88
407.555	102.88
407.778	117.88
408.002	140.88
408.226	99.88
408.449	70.88
408.673	85.88
408.896	89.88
409.12	81.88
409.344	105.88
409.567	94.88
409.791	104.88
410.014	100.88
410.238	91.88
410.461	78.88
410.685	97.88
410.908	97.88
411.132	99.88
411.355	94.88
411.578	67.88
411.802	88.88
412.025	72.88
412.249	81.88
412.472	85.88
412.695	79.88
412.919	82.88
413.142	97.88
413.365	81.88
413.589	79.88
413.812	89.88
414.035	85.88
414.258	87.88
414.482	75.88
414.705	79.88
414.928	85.88
415.151	90.88
415.374	80.88
415.597	102.88
415.821	78.88
416.044	82.88
416.267	81.88
416.49	93.88
416.713	95.88
416.936	81.88
417.159	80.88
417.382	82.88
417.605	89.88
417.828	72.88
418.051	73.88
418.274	72.88
418.497	79.88
418.72	79.88
418.943	83.88
419.166	76.88
419.389	96.88
419.611	86.88
419.834	78.88
420.057	109.88
420.28	93.88
420.503	98.88
420.726	91.88
420.948	88.88
421.171	111.88
421.394	108.88
421.617	124.88
421.839	149.88
422.062	138.88
422.285	202.88
422.507	357.88
422.73	552.88
422.953	486.88
423.175	266.88
423.398	150.88
423.621	124.88
423.843	108.88
424.066	100.88
424.288	105.88
424.511	104.88
424.733	106.88
424.956	100.88
425.178	81.88
425.401	90.88
425.623	90.88
425.846	91.88
426.068	105.88
426.291	75.88
426.513	80.88
426.735	84.88
426.958	107.88
427.18	85.88
427.402	89.88
427.625	78.88
427.847	84.88
428.069	108.88
428.292	133.88
428.514	153.88
428.736	125.88
428.958	139.88
429.181	150.88
429.403	118.88
429.625	109.88
429.847	135.88
430.069	190.88
430.292	210.88
430.514	192.88
430.736	168.88
430.958	172.88
431.18	114.88
431.402	89.88
431.624	104.88
431.846	128.88
432.068	161.88
432.29	106.88
432.512	86.88
432.734	87.88
432.956	85.88
433.178	90.88
433.4	89.88
433.622	81.88
433.844	81.88
434.066	69.88
434.287	72.88
434.509	81.88
434.731	74.88
434.953	97.88
435.175	84.88
435.397	80.88
435.618	100.88
435.84	98.88
436.062	81.88
436.284	80.88
436.505	90.88
436.727	82.88
436.949	92.88
437.17	82.88
437.392	87.88
437.614	92.88
437.835	93.88
438.057	79.88
438.278	81.88
438.5	91.88
438.721	79.88
438.943	97.88
439.165	98.88
439.386	92.88
439.608	94.88
439.829	85.88
440.05	81.88
440.272	90.88
440.493	96.88
440.715	85.88
440.936	93.88
441.158	105.88
441.379	87.88
441.6	80.88
441.822	104.88
442.043	96.88
442.264	99.88
442.486	153.88
442.707	209.88
442.928	138.88
443.149	115.88
443.371	181.88
443.592	334.88
443.813	266.88
444.034	139.88
444.255	90.88
444.476	98.88
444.698	87.88
444.919	115.88
445.14	194.88
445.361	243.88
445.582	374.88
445.803	320.88
446.024	144.88
446.245	111.88
446.466	89.88
446.687	77.88
446.908	90.88
447.129	83.88
447.35	82.88
447.571	82.88
447.792	75.88
448.013	78.88
448.234	92.88
448.455	84.88
448.675	83.88
448.896	82.88
449.117	85.88
449.338	97.88
449.559	100.88
449.779	78.88
450	86.88
450.221	86.88
450.442	85.88
450.662	91.88
450.883	89.88
451.104	95.88
451.324	81.88
451.545	80.88
451.766	71.88
451.986	79.88
452.207	81.88
452.428	85.88
452.648	99.88
452.869	109.88
453.089	94.88
453.31	92.88
453.53	89.88
453.751	99.88
453.971	89.88
454.192	89.88
454.412	76.88
454.633	83.88
454.853	90.88
455.073	93.88
455.294	82.88
455.514	81.88
455.734	82.88
455.955	90.88
456.175	81.88
456.395	82.88
456.616	91.88
456.836	86.88
457.056	88.88
457.276	74.88
457.497	89.88
457.717	91.88
457.937	112.88
458.157	147.88
458.377	128.88
458.598	150.88
458.818	150.88
459.038	92.88
459.258	97.88
459.478	99.88
459.698	89.88
459.918	88.88
460.138	89.88
460.358	94.88
460.578	112.88
460.798	140.88
461.018	138.88
461.238	88.88
461.458	78.88
461.678	90.88
461.898	80.88
462.118	91.88
462.338	78.88
462.558	103.88
462.777	84.88
462.997	80.88
463.217	77.88
463.437	94.88
463.657	70.88
463.876	90.88
464.096	85.88
464.316	85.88
464.536	84.88
464.755	79.88
464.975	83.88
465.195	100.88
465.414	96.88
465.634	84.88
465.854	81.88
466.073	79.88
466.293	83.88
466.512	94.88
466.732	84.88
466.951	66.88
467.171	93.88
467.391	96.88
467.61	92.88
467.829	97.88
468.049	80.88
468.268	70.88
468.488	99.88
468.707	85.88
468.927	70.88
469.146	76.88
469.365	90.88
469.585	86.88
469.804	89.88
470.023	81.88
470.243	84.88
470.462	86.88
470.681	89.88
470.901	79.88
471.12	93.88
471.339	91.88
471.558	85.88
471.777	81.88
471.997	81.88
472.216	92.88
472.435	87.88
472.654	92.88
472.873	74.88
473.092	85.88
473.311	96.88
473.53	88.88
473.749	96.88
473.968	75.88
474.187	94.88
474.406	92.88
474.625	93.88
474.844	85.88
475.063	84.88
475.282	72.88
475.501	77.88
475.72	95.88
475.939	82.88
476.158	75.88
476.377	89.88
476.596	88.88
476.814	89.88
477.033	96.88
477.252	87.88
477.471	74.88
477.69	94.88
477.908	84.88
478.127	79.88
478.346	83.88
478.564	88.88
478.783	85.88
479.002	84.88
479.22	87.88
479.439	83.88
479.658	91.88
479.876	84.88
480.095	84.88
480.313	81.88
480.532	76.88
480.751	95.88
480.969	79.88
481.188	86.88
481.406	104.88
481.624	90.88
481.843	80.88
482.061	83.88
482.28	92.88
482.498	80.88
482.717	92.88
482.935	91.88
483.153	85.88
483.372	89.88
483.59	104.88
483.808	92.88
484.027	91.88
484.245	75.88
484.463	88.88
484.681	90.88
484.9	96.88
485.118	86.88
485.336	102.88
485.554	88.88
485.772	77.88
485.99	96.88
486.209	84.88
486.427	97.88
486.645	99.88
486.863	74.88
487.081	88.88
487.299	99.88
487.517	113.88
487.735	116.88
487.953	212.88
488.171	164.88
488.389	105.88
488.607	106.88
488.825	87.88
489.043	88.88
489.261	95.88
489.479	85.88
489.696	78.88
489.914	91.88
490.132	96.88
490.35	92.88
490.568	87.88
490.786	84.88
491.003	93.88
491.221	94.88
491.439	97.88
491.657	90.88
491.874	86.88
492.092	92.88
492.31	83.88
492.527	91.88
492.745	87.88
492.963	102.88
493.18	77.88
493.398	86.88
493.615	93.88
493.833	90.88
494.05	76.88
494.268	92.88
494.485	83.88
494.703	78.88
494.92	92.88
495.138	89.88
495.355	104.88
495.573	85.88
495.79	87.88
496.008	94.88
496.225	98.88
496.442	91.88
496.66	81.88
496.877	81.88
497.094	93.88
497.312	92.88
497.529	96.88
497.746	96.88
497.963	94.88
498.181	86.88
498.398	100.88
498.615	88.88
498.832	87.88
499.049	89.88
499.267	110.88
499.484	88.88
499.701	75.88
499.918	112.88
500.135	96.88
500.352	78.88
500.569	91.88
500.786	99.88
501.003	94.88
501.22	92.88
501.437	105.88
501.654	95.88
501.871	82.88
502.088	81.88
502.305	69.88
502.522	86.88
502.739	92.88
502.956	89.88
503.172	88.88
503.389	79.88
503.606	102.88
503.823	89.88
504.04	101.88
504.256	149.88
504.473	141.88
504.69	99.88
504.907	84.88
505.123	79.88
505.34	88.88
505.557	92.88
505.773	90.88
505.99	92.88
506.207	80.88
506.423	80.88
506.64	94.88
506.856	78.88
507.073	82.88
507.289	98.88
507.506	86.88
507.722	75.88
507.939	70.88
508.155	88.88
508.372	82.88
508.588	89.88
508.805	92.88
509.021	80.88
509.238	83.88
509.454	83.88
509.67	84.88
509.887	82.88
510.103	100.88
510.319	92.88
510.536	92.88
510.752	70.88
510.968	82.88
511.184	81.88
511.401	93.88
511.617	85.88
511.833	92.88
512.049	78.88
512.265	76.88
512.481	102.88
512.698	84.88
512.914	99.88
513.13	92.88
513.346	88.88
513.562	79.88
513.778	96.88
513.994	99.88
514.21	98.88
514.426	90.88
514.642	82.88
514.858	93.88
515.074	95.88
515.29	92.88
515.506	89.88
515.721	86.88
515.937	73.88
516.153	96.88
516.369	88.88
516.585	94.88
516.801	94.88
517.016	99.88
517.232	106.88
517.448	104.88
517.664	102.88
517.879	79.88
518.095	86.88
