Data from HP_3_HRD10591_00009.txt Node
Date: Mon Jan 19 14:17:05 EST 2026
User: Yrep
Spectrometer: HR+D1059
Trigger mode: 1
Integration Time (sec): 1.000000E-1
Scans to average: 1
Electric dark correction enabled: true
Nonlinearity correction enabled: false
Boxcar width: 0
XAxis mode: Wavelengths
Number of Pixels in Spectrum: 2048
>>>>>Begin Spectral Data<<<<<
223.165	-19.81
223.4	-19.81
223.635	-19.81
223.869	-23.81
224.104	-11.81
224.338	-27.81
224.573	-5.81
224.808	-19.81
225.042	-1.81
225.277	4.19
225.511	-0.81
225.746	12.19
225.98	3.19
226.215	22.19
226.449	26.19
226.683	6.19
226.918	8.19
227.152	29.19
227.387	35.19
227.621	33.19
227.856	51.19
228.09	40.19
228.324	55.19
228.559	52.19
228.793	56.19
229.027	69.19
229.262	70.19
229.496	66.19
229.73	65.19
229.964	72.19
230.199	79.19
230.433	62.19
230.667	78.19
230.901	62.19
231.136	78.19
231.37	79.19
231.604	90.19
231.838	91.19
232.072	86.19
232.306	72.19
232.541	82.19
232.775	85.19
233.009	68.19
233.243	75.19
233.477	74.19
233.711	73.19
233.945	76.19
234.179	94.19
234.413	73.19
234.647	78.19
234.881	79.19
235.115	68.19
235.349	75.19
235.583	73.19
235.817	75.19
236.051	69.19
236.285	77.19
236.519	65.19
236.753	88.19
236.987	74.19
237.221	70.19
237.455	62.19
237.689	83.19
237.922	74.19
238.156	68.19
238.39	78.19
238.624	70.19
238.858	73.19
239.091	70.19
239.325	66.19
239.559	78.19
239.793	91.19
240.027	80.19
240.26	80.19
240.494	73.19
240.728	80.19
240.961	85.19
241.195	76.19
241.429	72.19
241.662	73.19
241.896	76.19
242.13	70.19
242.363	87.19
242.597	74.19
242.83	90.19
243.064	83.19
243.298	77.19
243.531	70.19
243.765	71.19
243.998	81.19
244.232	76.19
244.465	81.19
244.699	75.19
244.932	64.19
245.166	74.19
245.399	86.19
245.633	66.19
245.866	84.19
246.099	89.19
246.333	74.19
246.566	91.19
246.8	69.19
247.033	72.19
247.266	73.19
247.5	74.19
247.733	76.19
247.966	72.19
248.2	78.19
248.433	68.19
248.666	79.19
248.899	89.19
249.133	77.19
249.366	83.19
249.599	80.19
249.832	79.19
250.066	82.19
250.299	83.19
250.532	72.19
250.765	73.19
250.998	84.19
251.231	92.19
251.465	90.19
251.698	70.19
251.931	86.19
252.164	79.19
252.397	85.19
252.63	69.19
252.863	78.19
253.096	88.19
253.329	82.19
253.562	83.19
253.795	81.19
254.028	85.19
254.261	85.19
254.494	78.19
254.727	75.19
254.96	72.19
255.193	56.19
255.426	78.19
255.659	88.19
255.892	92.19
256.124	77.19
256.357	76.19
256.59	86.19
256.823	84.19
257.056	66.19
257.289	66.19
257.521	85.19
257.754	70.19
257.987	76.19
258.22	87.19
258.452	78.19
258.685	76.19
258.918	69.19
259.151	72.19
259.383	82.19
259.616	88.19
259.849	76.19
260.081	81.19
260.314	79.19
260.547	83.19
260.779	78.19
261.012	79.19
261.244	80.19
261.477	90.19
261.71	83.19
261.942	78.19
262.175	80.19
262.407	78.19
262.64	84.19
262.872	76.19
263.105	78.19
263.337	91.19
263.57	66.19
263.802	79.19
264.035	79.19
264.267	82.19
264.499	83.19
264.732	96.19
264.964	72.19
265.197	85.19
265.429	72.19
265.661	76.19
265.894	82.19
266.126	77.19
266.358	80.19
266.591	80.19
266.823	85.19
267.055	77.19
267.287	84.19
267.52	76.19
267.752	66.19
267.984	78.19
268.216	84.19
268.448	93.19
268.681	82.19
268.913	96.19
269.145	73.19
269.377	80.19
269.609	76.19
269.841	80.19
270.073	68.19
270.306	85.19
270.538	82.19
270.77	78.19
271.002	74.19
271.234	86.19
271.466	81.19
271.698	92.19
271.93	86.19
272.162	88.19
272.394	92.19
272.626	80.19
272.858	82.19
273.09	86.19
273.322	86.19
273.553	87.19
273.785	82.19
274.017	74.19
274.249	88.19
274.481	89.19
274.713	89.19
274.945	72.19
275.176	75.19
275.408	84.19
275.64	78.19
275.872	79.19
276.104	83.19
276.335	96.19
276.567	70.19
276.799	90.19
277.031	92.19
277.262	88.19
277.494	79.19
277.726	98.19
277.957	77.19
278.189	71.19
278.421	76.19
278.652	70.19
278.884	76.19
279.115	76.19
279.347	95.19
279.579	88.19
279.81	74.19
280.042	79.19
280.273	77.19
280.505	72.19
280.736	84.19
280.968	83.19
281.199	93.19
281.431	88.19
281.662	76.19
281.894	83.19
282.125	77.19
282.356	94.19
282.588	90.19
282.819	89.19
283.051	92.19
283.282	81.19
283.513	86.19
283.745	77.19
283.976	85.19
284.207	82.19
284.439	87.19
284.67	89.19
284.901	89.19
285.132	89.19
285.364	90.19
285.595	84.19
285.826	86.19
286.057	73.19
286.288	86.19
286.52	82.19
286.751	84.19
286.982	82.19
287.213	80.19
287.444	81.19
287.675	97.19
287.906	99.19
288.138	95.19
288.369	73.19
288.6	74.19
288.831	76.19
289.062	91.19
289.293	94.19
289.524	91.19
289.755	98.19
289.986	83.19
290.217	77.19
290.448	79.19
290.679	87.19
290.91	84.19
291.141	72.19
291.371	79.19
291.602	92.19
291.833	82.19
292.064	93.19
292.295	86.19
292.526	82.19
292.757	84.19
292.987	76.19
293.218	86.19
293.449	81.19
293.68	95.19
293.91	85.19
294.141	88.19
294.372	88.19
294.603	85.19
294.833	75.19
295.064	66.19
295.295	92.19
295.525	80.19
295.756	79.19
295.987	75.19
296.217	98.19
296.448	93.19
296.679	88.19
296.909	88.19
297.14	97.19
297.37	96.19
297.601	82.19
297.831	86.19
298.062	102.19
298.292	90.19
298.523	98.19
298.753	89.19
298.984	84.19
299.214	94.19
299.445	83.19
299.675	98.19
299.905	74.19
300.136	85.19
300.366	90.19
300.597	78.19
300.827	81.19
301.057	95.19
301.288	88.19
301.518	91.19
301.748	92.19
301.979	97.19
302.209	78.19
302.439	74.19
302.669	73.19
302.9	89.19
303.13	88.19
303.36	96.19
303.59	76.19
303.82	98.19
304.051	96.19
304.281	87.19
304.511	94.19
304.741	88.19
304.971	72.19
305.201	90.19
305.431	88.19
305.661	74.19
305.891	89.19
306.121	98.19
306.352	87.19
306.582	82.19
306.812	84.19
307.042	82.19
307.272	88.19
307.502	76.19
307.731	96.19
307.961	97.19
308.191	90.19
308.421	84.19
308.651	90.19
308.881	106.19
309.111	104.19
309.341	96.19
309.571	86.19
309.8	78.19
310.03	85.19
310.26	96.19
310.49	98.19
310.72	87.19
310.949	78.19
311.179	98.19
311.409	84.19
311.639	76.19
311.868	79.19
312.098	86.19
312.328	83.19
312.557	77.19
312.787	93.19
313.017	101.19
313.246	86.19
313.476	82.19
313.706	75.19
313.935	93.19
314.165	100.19
314.394	86.19
314.624	84.19
314.853	76.19
315.083	81.19
315.312	96.19
315.542	93.19
315.771	98.19
316.001	103.19
316.23	76.19
316.46	81.19
316.689	77.19
316.919	90.19
317.148	105.19
317.377	91.19
317.607	87.19
317.836	91.19
318.065	75.19
318.295	88.19
318.524	97.19
318.753	97.19
318.983	85.19
319.212	91.19
319.441	88.19
319.67	78.19
319.9	88.19
320.129	90.19
320.358	91.19
320.587	97.19
320.816	81.19
321.046	88.19
321.275	86.19
321.504	91.19
321.733	87.19
321.962	81.19
322.191	90.19
322.42	80.19
322.649	90.19
322.878	103.19
323.108	103.19
323.337	83.19
323.566	93.19
323.795	90.19
324.024	86.19
324.253	83.19
324.482	94.19
324.71	84.19
324.939	92.19
325.168	99.19
325.397	89.19
325.626	93.19
325.855	88.19
326.084	87.19
326.313	94.19
326.542	84.19
326.77	97.19
326.999	84.19
327.228	79.19
327.457	96.19
327.686	89.19
327.914	79.19
328.143	98.19
328.372	82.19
328.6	100.19
328.829	87.19
329.058	88.19
329.287	82.19
329.515	104.19
329.744	84.19
329.972	82.19
330.201	87.19
330.43	91.19
330.658	88.19
330.887	93.19
331.115	91.19
331.344	94.19
331.572	99.19
331.801	88.19
332.03	105.19
332.258	88.19
332.486	87.19
332.715	78.19
332.943	92.19
333.172	85.19
333.4	82.19
333.629	96.19
333.857	96.19
334.085	89.19
334.314	82.19
334.542	86.19
334.771	92.19
334.999	95.19
335.227	90.19
335.455	91.19
335.684	97.19
335.912	88.19
336.14	87.19
336.369	91.19
336.597	80.19
336.825	79.19
337.053	78.19
337.281	78.19
337.51	75.19
337.738	98.19
337.966	84.19
338.194	94.19
338.422	69.19
338.65	90.19
338.878	81.19
339.106	86.19
339.334	101.19
339.562	84.19
339.79	89.19
340.018	79.19
340.246	84.19
340.474	78.19
340.702	90.19
340.93	82.19
341.158	81.19
341.386	90.19
341.614	92.19
341.842	89.19
342.07	92.19
342.298	79.19
342.526	99.19
342.754	96.19
342.981	84.19
343.209	90.19
343.437	106.19
343.665	86.19
343.893	84.19
344.12	98.19
344.348	88.19
344.576	104.19
344.804	84.19
345.031	71.19
345.259	84.19
345.487	104.19
345.714	79.19
345.942	88.19
346.17	81.19
346.397	88.19
346.625	84.19
346.853	93.19
347.08	72.19
347.308	79.19
347.535	88.19
347.763	78.19
347.99	85.19
348.218	85.19
348.445	77.19
348.673	90.19
348.9	83.19
349.128	68.19
349.355	80.19
349.583	81.19
349.81	90.19
350.037	89.19
350.265	94.19
350.492	84.19
350.72	88.19
350.947	80.19
351.174	89.19
351.402	83.19
351.629	82.19
351.856	78.19
352.083	92.19
352.311	82.19
352.538	88.19
352.765	94.19
352.992	91.19
353.22	90.19
353.447	85.19
353.674	77.19
353.901	85.19
354.128	77.19
354.355	102.19
354.583	80.19
354.81	95.19
355.037	85.19
355.264	91.19
355.491	91.19
355.718	99.19
355.945	86.19
356.172	85.19
356.399	69.19
356.626	87.19
356.853	95.19
357.08	92.19
357.307	100.19
357.534	97.19
357.761	92.19
357.988	91.19
358.215	92.19
358.441	93.19
358.668	86.19
358.895	81.19
359.122	92.19
359.349	86.19
359.576	94.19
359.802	74.19
360.029	89.19
360.256	86.19
360.483	93.19
360.709	85.19
360.936	101.19
361.163	87.19
361.39	83.19
361.616	105.19
361.843	80.19
362.07	86.19
362.296	97.19
362.523	96.19
362.749	104.19
362.976	105.19
363.203	112.19
363.429	101.19
363.656	101.19
363.882	95.19
364.109	106.19
364.335	105.19
364.562	122.19
364.788	102.19
365.015	90.19
365.241	83.19
365.468	93.19
365.694	99.19
365.92	82.19
366.147	86.19
366.373	78.19
366.599	90.19
366.826	94.19
367.052	87.19
367.278	97.19
367.505	89.19
367.731	84.19
367.957	74.19
368.184	88.19
368.41	90.19
368.636	75.19
368.862	70.19
369.089	84.19
369.315	79.19
369.541	99.19
369.767	83.19
369.993	96.19
370.219	88.19
370.445	90.19
370.672	79.19
370.898	98.19
371.124	90.19
371.35	86.19
371.576	91.19
371.802	87.19
372.028	80.19
372.254	94.19
372.48	94.19
372.706	100.19
372.932	98.19
373.158	97.19
373.384	97.19
373.61	106.19
373.835	105.19
374.061	86.19
374.287	78.19
374.513	89.19
374.739	86.19
374.965	89.19
375.191	92.19
375.416	96.19
375.642	88.19
375.868	94.19
376.094	82.19
376.319	95.19
376.545	90.19
376.771	78.19
376.997	91.19
377.222	93.19
377.448	84.19
377.674	82.19
377.899	98.19
378.125	92.19
378.35	83.19
378.576	77.19
378.802	94.19
379.027	86.19
379.253	87.19
379.478	89.19
379.704	93.19
379.929	93.19
380.155	80.19
380.38	91.19
380.606	91.19
380.831	89.19
381.057	95.19
381.282	95.19
381.507	81.19
381.733	90.19
381.958	82.19
382.184	85.19
382.409	98.19
382.634	91.19
382.86	97.19
383.085	95.19
383.31	96.19
383.535	107.19
383.761	93.19
383.986	97.19
384.211	102.19
384.436	71.19
384.662	91.19
384.887	87.19
385.112	93.19
385.337	94.19
385.562	90.19
385.787	97.19
386.013	91.19
386.238	91.19
386.463	96.19
386.688	87.19
386.913	80.19
387.138	89.19
387.363	85.19
387.588	105.19
387.813	92.19
388.038	92.19
388.263	90.19
388.488	95.19
388.713	97.19
388.938	99.19
389.163	84.19
389.387	76.19
389.612	96.19
389.837	88.19
390.062	81.19
390.287	78.19
390.512	76.19
390.736	92.19
390.961	92.19
391.186	90.19
391.411	107.19
391.636	98.19
391.86	103.19
392.085	110.19
392.31	93.19
392.534	84.19
392.759	110.19
392.984	148.19
393.208	205.19
393.433	266.19
393.658	207.19
393.882	128.19
394.107	86.19
394.331	120.19
394.556	111.19
394.78	94.19
395.005	93.19
395.229	99.19
395.454	94.19
395.678	112.19
395.903	100.19
396.127	121.19
396.352	139.19
396.576	131.19
396.801	178.19
397.025	230.19
397.249	135.19
397.474	104.19
397.698	109.19
397.922	97.19
398.147	85.19
398.371	97.19
398.595	97.19
398.82	78.19
399.044	73.19
399.268	90.19
399.492	83.19
399.717	99.19
399.941	76.19
400.165	89.19
400.389	73.19
400.613	73.19
400.837	69.19
401.062	83.19
401.286	86.19
401.51	96.19
401.734	84.19
401.958	83.19
402.182	77.19
402.406	84.19
402.63	78.19
402.854	69.19
403.078	88.19
403.302	91.19
403.526	93.19
403.75	93.19
403.974	84.19
404.198	99.19
404.422	137.19
404.645	150.19
404.869	126.19
405.093	97.19
405.317	99.19
405.541	93.19
405.765	102.19
405.988	88.19
406.212	102.19
406.436	81.19
406.66	84.19
406.883	88.19
407.107	81.19
407.331	102.19
407.555	84.19
407.778	104.19
408.002	101.19
408.226	98.19
408.449	90.19
408.673	87.19
408.896	92.19
409.12	92.19
409.344	100.19
409.567	107.19
409.791	92.19
410.014	101.19
410.238	93.19
410.461	94.19
410.685	85.19
410.908	77.19
411.132	88.19
411.355	94.19
411.578	96.19
411.802	92.19
412.025	93.19
412.249	88.19
412.472	81.19
412.695	98.19
412.919	78.19
413.142	96.19
413.365	86.19
413.589	92.19
413.812	94.19
414.035	85.19
414.258	84.19
414.482	84.19
414.705	92.19
414.928	90.19
415.151	68.19
415.374	96.19
415.597	102.19
415.821	89.19
416.044	72.19
416.267	92.19
416.49	85.19
416.713	96.19
416.936	84.19
417.159	85.19
417.382	84.19
417.605	87.19
417.828	103.19
418.051	82.19
418.274	98.19
418.497	78.19
418.72	75.19
418.943	92.19
419.166	86.19
419.389	78.19
419.611	92.19
419.834	95.19
420.057	90.19
420.28	81.19
420.503	88.19
420.726	96.19
420.948	88.19
421.171	94.19
421.394	101.19
421.617	113.19
421.839	101.19
422.062	128.19
422.285	169.19
422.507	284.19
422.73	404.19
422.953	386.19
423.175	192.19
423.398	141.19
423.621	109.19
423.843	105.19
424.066	107.19
424.288	89.19
424.511	88.19
424.733	108.19
424.956	95.19
425.178	87.19
425.401	84.19
425.623	76.19
425.846	92.19
426.068	88.19
426.291	78.19
426.513	82.19
426.735	82.19
426.958	95.19
427.18	98.19
427.402	96.19
427.625	90.19
427.847	98.19
428.069	88.19
428.292	107.19
428.514	139.19
428.736	104.19
428.958	114.19
429.181	134.19
429.403	73.19
429.625	100.19
429.847	109.19
430.069	150.19
430.292	165.19
430.514	144.19
430.736	126.19
430.958	133.19
431.18	96.19
431.402	90.19
431.624	113.19
431.846	122.19
432.068	131.19
432.29	116.19
432.512	92.19
432.734	86.19
432.956	98.19
433.178	82.19
433.4	77.19
433.622	93.19
433.844	84.19
434.066	92.19
434.287	85.19
434.509	68.19
434.731	93.19
434.953	85.19
435.175	92.19
435.397	85.19
435.618	91.19
435.84	93.19
436.062	79.19
436.284	106.19
436.505	92.19
436.727	86.19
436.949	91.19
437.17	76.19
437.392	86.19
437.614	64.19
437.835	94.19
438.057	95.19
438.278	102.19
438.5	81.19
438.721	79.19
438.943	85.19
439.165	92.19
439.386	92.19
439.608	103.19
439.829	89.19
440.05	92.19
440.272	80.19
440.493	81.19
440.715	89.19
440.936	87.19
441.158	79.19
441.379	78.19
441.6	75.19
441.822	89.19
442.043	95.19
442.264	102.19
442.486	121.19
442.707	161.19
442.928	119.19
443.149	103.19
443.371	133.19
443.592	209.19
443.813	185.19
444.034	101.19
444.255	91.19
444.476	99.19
444.698	103.19
444.919	91.19
445.14	184.19
445.361	209.19
445.582	264.19
445.803	207.19
446.024	113.19
446.245	89.19
446.466	96.19
446.687	97.19
446.908	85.19
447.129	92.19
447.35	84.19
447.571	81.19
447.792	80.19
448.013	81.19
448.234	86.19
448.455	95.19
448.675	86.19
448.896	79.19
449.117	96.19
449.338	74.19
449.559	82.19
449.779	84.19
450	85.19
450.221	94.19
450.442	78.19
450.662	96.19
450.883	99.19
451.104	77.19
451.324	78.19
451.545	86.19
451.766	69.19
451.986	86.19
452.207	93.19
452.428	88.19
452.648	92.19
452.869	92.19
453.089	91.19
453.31	83.19
453.53	84.19
453.751	80.19
453.971	83.19
454.192	78.19
454.412	70.19
454.633	81.19
454.853	83.19
455.073	86.19
455.294	95.19
455.514	84.19
455.734	74.19
455.955	67.19
456.175	91.19
456.395	80.19
456.616	94.19
456.836	88.19
457.056	79.19
457.276	96.19
457.497	90.19
457.717	89.19
457.937	88.19
458.157	111.19
458.377	104.19
458.598	106.19
458.818	110.19
459.038	106.19
459.258	93.19
459.478	70.19
459.698	84.19
459.918	88.19
460.138	82.19
460.358	85.19
460.578	104.19
460.798	138.19
461.018	129.19
461.238	89.19
461.458	86.19
461.678	74.19
461.898	96.19
462.118	90.19
462.338	85.19
462.558	79.19
462.777	79.19
462.997	101.19
463.217	88.19
463.437	83.19
463.657	82.19
463.876	66.19
464.096	86.19
464.316	92.19
464.536	80.19
464.755	70.19
464.975	82.19
465.195	88.19
465.414	87.19
465.634	85.19
465.854	81.19
466.073	72.19
466.293	80.19
466.512	101.19
466.732	102.19
466.951	92.19
467.171	104.19
467.391	79.19
467.61	73.19
467.829	82.19
468.049	90.19
468.268	84.19
468.488	88.19
468.707	97.19
468.927	84.19
469.146	92.19
469.365	82.19
469.585	78.19
469.804	84.19
470.023	92.19
470.243	82.19
470.462	84.19
470.681	92.19
470.901	76.19
471.12	72.19
471.339	85.19
471.558	76.19
471.777	97.19
471.997	90.19
472.216	93.19
472.435	96.19
472.654	82.19
472.873	82.19
473.092	87.19
473.311	76.19
473.53	75.19
473.749	92.19
473.968	110.19
474.187	98.19
474.406	86.19
474.625	88.19
474.844	91.19
475.063	74.19
475.282	83.19
475.501	78.19
475.72	86.19
475.939	83.19
476.158	81.19
476.377	101.19
476.596	82.19
476.814	90.19
477.033	93.19
477.252	84.19
477.471	72.19
477.69	85.19
477.908	82.19
478.127	92.19
478.346	96.19
478.564	90.19
478.783	90.19
479.002	101.19
479.22	87.19
479.439	85.19
479.658	97.19
479.876	91.19
480.095	89.19
480.313	89.19
480.532	91.19
480.751	69.19
480.969	83.19
481.188	96.19
481.406	92.19
481.624	83.19
481.843	78.19
482.061	90.19
482.28	87.19
482.498	91.19
482.717	91.19
482.935	90.19
483.153	98.19
483.372	88.19
483.59	98.19
483.808	90.19
484.027	93.19
484.245	89.19
484.463	83.19
484.681	78.19
484.9	90.19
485.118	96.19
485.336	100.19
485.554	76.19
485.772	79.19
485.99	73.19
486.209	83.19
486.427	74.19
486.645	77.19
486.863	82.19
487.081	86.19
487.299	99.19
487.517	106.19
487.735	101.19
487.953	136.19
488.171	114.19
488.389	118.19
488.607	95.19
488.825	96.19
489.043	92.19
489.261	85.19
489.479	77.19
489.696	78.19
489.914	89.19
490.132	91.19
490.35	96.19
490.568	85.19
490.786	83.19
491.003	91.19
491.221	92.19
491.439	106.19
491.657	96.19
491.874	88.19
492.092	108.19
492.31	89.19
492.527	92.19
492.745	82.19
492.963	98.19
493.18	94.19
493.398	78.19
493.615	75.19
493.833	87.19
494.05	90.19
494.268	90.19
494.485	99.19
494.703	96.19
494.92	94.19
495.138	83.19
495.355	92.19
495.573	91.19
495.79	91.19
496.008	89.19
496.225	84.19
496.442	96.19
496.66	96.19
496.877	83.19
497.094	93.19
497.312	84.19
497.529	83.19
497.746	90.19
497.963	86.19
498.181	79.19
498.398	96.19
498.615	101.19
498.832	83.19
499.049	79.19
499.267	97.19
499.484	93.19
499.701	85.19
499.918	92.19
500.135	92.19
500.352	99.19
500.569	93.19
500.786	97.19
501.003	93.19
501.22	97.19
501.437	94.19
501.654	96.19
501.871	76.19
502.088	75.19
502.305	82.19
502.522	80.19
502.739	72.19
502.956	100.19
503.172	105.19
503.389	78.19
503.606	79.19
503.823	102.19
504.04	103.19
504.256	112.19
504.473	110.19
504.69	103.19
504.907	94.19
505.123	86.19
505.34	99.19
505.557	84.19
505.773	81.19
505.99	82.19
506.207	93.19
506.423	88.19
506.64	80.19
506.856	88.19
507.073	83.19
507.289	101.19
507.506	81.19
507.722	86.19
507.939	92.19
508.155	83.19
508.372	82.19
508.588	64.19
508.805	88.19
509.021	87.19
509.238	86.19
509.454	92.19
509.67	88.19
509.887	92.19
510.103	94.19
510.319	77.19
510.536	72.19
510.752	93.19
510.968	78.19
511.184	92.19
511.401	98.19
511.617	80.19
511.833	90.19
512.049	77.19
512.265	81.19
512.481	89.19
512.698	85.19
512.914	91.19
513.13	87.19
513.346	78.19
513.562	94.19
513.778	104.19
513.994	90.19
514.21	82.19
514.426	100.19
514.642	82.19
514.858	90.19
515.074	93.19
515.29	96.19
515.506	86.19
515.721	86.19
515.937	101.19
516.153	100.19
516.369	87.19
516.585	93.19
516.801	95.19
517.016	103.19
517.232	96.19
517.448	89.19
517.664	87.19
517.879	103.19
518.095	85.19
