Data from HP_3_HRD10591_00020.txt Node
Date: Mon Jan 19 14:17:10 EST 2026
User: Yrep
Spectrometer: HR+D1059
Trigger mode: 1
Integration Time (sec): 1.000000E-1
Scans to average: 1
Electric dark correction enabled: true
Nonlinearity correction enabled: false
Boxcar width: 0
XAxis mode: Wavelengths
Number of Pixels in Spectrum: 2048
>>>>>Begin Spectral Data<<<<<
223.165	-31.62
223.4	-31.62
223.635	-31.62
223.869	-11.62
224.104	2.38
224.338	-4.62
224.573	-13.62
224.808	-9.62
225.042	-8.62
225.277	-13.62
225.511	1.38
225.746	-0.62
225.98	10.38
226.215	6.38
226.449	17.38
226.683	3.38
226.918	23.38
227.152	29.38
227.387	38.38
227.621	45.38
227.856	58.38
228.09	43.38
228.324	46.38
228.559	58.38
228.793	52.38
229.027	56.38
229.262	73.38
229.496	56.38
229.73	65.38
229.964	65.38
230.199	76.38
230.433	86.38
230.667	100.38
230.901	58.38
231.136	66.38
231.37	82.38
231.604	73.38
231.838	77.38
232.072	61.38
232.306	84.38
232.541	65.38
232.775	85.38
233.009	85.38
233.243	83.38
233.477	71.38
233.711	81.38
233.945	65.38
234.179	89.38
234.413	76.38
234.647	93.38
234.881	70.38
235.115	81.38
235.349	75.38
235.583	79.38
235.817	63.38
236.051	80.38
236.285	78.38
236.519	88.38
236.753	72.38
236.987	80.38
237.221	69.38
237.455	74.38
237.689	66.38
237.922	80.38
238.156	76.38
238.39	71.38
238.624	66.38
238.858	83.38
239.091	58.38
239.325	66.38
239.559	66.38
239.793	77.38
240.027	73.38
240.26	69.38
240.494	71.38
240.728	78.38
240.961	81.38
241.195	80.38
241.429	75.38
241.662	82.38
241.896	69.38
242.13	69.38
242.363	83.38
242.597	71.38
242.83	75.38
243.064	80.38
243.298	71.38
243.531	69.38
243.765	66.38
243.998	78.38
244.232	75.38
244.465	69.38
244.699	81.38
244.932	75.38
245.166	76.38
245.399	76.38
245.633	80.38
245.866	77.38
246.099	74.38
246.333	81.38
246.566	66.38
246.8	79.38
247.033	78.38
247.266	83.38
247.5	86.38
247.733	73.38
247.966	77.38
248.2	77.38
248.433	82.38
248.666	67.38
248.899	73.38
249.133	77.38
249.366	83.38
249.599	86.38
249.832	83.38
250.066	74.38
250.299	88.38
250.532	70.38
250.765	83.38
250.998	65.38
251.231	69.38
251.465	84.38
251.698	73.38
251.931	73.38
252.164	75.38
252.397	76.38
252.63	71.38
252.863	67.38
253.096	83.38
253.329	75.38
253.562	68.38
253.795	70.38
254.028	69.38
254.261	83.38
254.494	68.38
254.727	83.38
254.96	75.38
255.193	85.38
255.426	81.38
255.659	87.38
255.892	75.38
256.124	74.38
256.357	73.38
256.59	75.38
256.823	69.38
257.056	81.38
257.289	75.38
257.521	80.38
257.754	84.38
257.987	71.38
258.22	79.38
258.452	63.38
258.685	77.38
258.918	85.38
259.151	70.38
259.383	87.38
259.616	79.38
259.849	94.38
260.081	81.38
260.314	63.38
260.547	81.38
260.779	87.38
261.012	77.38
261.244	80.38
261.477	81.38
261.71	86.38
261.942	78.38
262.175	63.38
262.407	76.38
262.64	71.38
262.872	67.38
263.105	79.38
263.337	79.38
263.57	94.38
263.802	76.38
264.035	90.38
264.267	84.38
264.499	94.38
264.732	87.38
264.964	81.38
265.197	69.38
265.429	77.38
265.661	74.38
265.894	77.38
266.126	79.38
266.358	95.38
266.591	82.38
266.823	71.38
267.055	83.38
267.287	79.38
267.52	73.38
267.752	77.38
267.984	87.38
268.216	94.38
268.448	80.38
268.681	82.38
268.913	83.38
269.145	79.38
269.377	75.38
269.609	78.38
269.841	74.38
270.073	69.38
270.306	76.38
270.538	67.38
270.77	89.38
271.002	78.38
271.234	88.38
271.466	91.38
271.698	84.38
271.93	90.38
272.162	86.38
272.394	70.38
272.626	90.38
272.858	85.38
273.09	84.38
273.322	77.38
273.553	72.38
273.785	79.38
274.017	77.38
274.249	85.38
274.481	83.38
274.713	75.38
274.945	80.38
275.176	63.38
275.408	83.38
275.64	100.38
275.872	90.38
276.104	88.38
276.335	80.38
276.567	75.38
276.799	85.38
277.031	69.38
277.262	88.38
277.494	90.38
277.726	98.38
277.957	66.38
278.189	75.38
278.421	96.38
278.652	81.38
278.884	86.38
279.115	75.38
279.347	81.38
279.579	93.38
279.81	83.38
280.042	95.38
280.273	85.38
280.505	77.38
280.736	80.38
280.968	81.38
281.199	67.38
281.431	91.38
281.662	75.38
281.894	88.38
282.125	80.38
282.356	78.38
282.588	87.38
282.819	78.38
283.051	87.38
283.282	83.38
283.513	85.38
283.745	76.38
283.976	83.38
284.207	76.38
284.439	81.38
284.67	74.38
284.901	74.38
285.132	83.38
285.364	96.38
285.595	99.38
285.826	85.38
286.057	85.38
286.288	61.38
286.52	79.38
286.751	91.38
286.982	88.38
287.213	91.38
287.444	77.38
287.675	86.38
287.906	83.38
288.138	74.38
288.369	75.38
288.6	87.38
288.831	73.38
289.062	82.38
289.293	95.38
289.524	80.38
289.755	110.38
289.986	88.38
290.217	83.38
290.448	77.38
290.679	81.38
290.91	83.38
291.141	64.38
291.371	74.38
291.602	75.38
291.833	76.38
292.064	85.38
292.295	78.38
292.526	65.38
292.757	86.38
292.987	78.38
293.218	73.38
293.449	79.38
293.68	87.38
293.91	73.38
294.141	85.38
294.372	88.38
294.603	82.38
294.833	78.38
295.064	87.38
295.295	76.38
295.525	70.38
295.756	82.38
295.987	85.38
296.217	73.38
296.448	82.38
296.679	75.38
296.909	76.38
297.14	89.38
297.37	79.38
297.601	88.38
297.831	84.38
298.062	87.38
298.292	80.38
298.523	73.38
298.753	97.38
298.984	81.38
299.214	93.38
299.445	81.38
299.675	85.38
299.905	70.38
300.136	73.38
300.366	76.38
300.597	86.38
300.827	90.38
301.057	85.38
301.288	87.38
301.518	88.38
301.748	83.38
301.979	88.38
302.209	94.38
302.439	90.38
302.669	80.38
302.9	87.38
303.13	86.38
303.36	90.38
303.59	79.38
303.82	88.38
304.051	89.38
304.281	86.38
304.511	103.38
304.741	89.38
304.971	80.38
305.201	90.38
305.431	81.38
305.661	70.38
305.891	89.38
306.121	81.38
306.352	76.38
306.582	80.38
306.812	80.38
307.042	88.38
307.272	82.38
307.502	74.38
307.731	88.38
307.961	82.38
308.191	101.38
308.421	76.38
308.651	90.38
308.881	82.38
309.111	77.38
309.341	81.38
309.571	89.38
309.8	85.38
310.03	78.38
310.26	78.38
310.49	68.38
310.72	72.38
310.949	87.38
311.179	71.38
311.409	93.38
311.639	74.38
311.868	69.38
312.098	73.38
312.328	88.38
312.557	101.38
312.787	95.38
313.017	97.38
313.246	77.38
313.476	88.38
313.706	65.38
313.935	75.38
314.165	78.38
314.394	85.38
314.624	76.38
314.853	89.38
315.083	89.38
315.312	94.38
315.542	83.38
315.771	82.38
316.001	75.38
316.23	86.38
316.46	79.38
316.689	85.38
316.919	71.38
317.148	87.38
317.377	85.38
317.607	82.38
317.836	70.38
318.065	87.38
318.295	88.38
318.524	78.38
318.753	71.38
318.983	89.38
319.212	81.38
319.441	82.38
319.67	102.38
319.9	75.38
320.129	83.38
320.358	74.38
320.587	82.38
320.816	81.38
321.046	90.38
321.275	88.38
321.504	88.38
321.733	80.38
321.962	64.38
322.191	81.38
322.42	72.38
322.649	93.38
322.878	85.38
323.108	89.38
323.337	79.38
323.566	76.38
323.795	81.38
324.024	67.38
324.253	86.38
324.482	67.38
324.71	73.38
324.939	86.38
325.168	93.38
325.397	87.38
325.626	88.38
325.855	97.38
326.084	81.38
326.313	88.38
326.542	75.38
326.77	75.38
326.999	73.38
327.228	85.38
327.457	89.38
327.686	91.38
327.914	81.38
328.143	81.38
328.372	93.38
328.6	81.38
328.829	87.38
329.058	70.38
329.287	70.38
329.515	87.38
329.744	102.38
329.972	79.38
330.201	81.38
330.43	93.38
330.658	80.38
330.887	84.38
331.115	81.38
331.344	79.38
331.572	85.38
331.801	84.38
332.03	77.38
332.258	80.38
332.486	90.38
332.715	76.38
332.943	76.38
333.172	87.38
333.4	84.38
333.629	73.38
333.857	86.38
334.085	76.38
334.314	82.38
334.542	87.38
334.771	76.38
334.999	78.38
335.227	73.38
335.455	68.38
335.684	79.38
335.912	83.38
336.14	70.38
336.369	87.38
336.597	89.38
336.825	87.38
337.053	75.38
337.281	88.38
337.51	83.38
337.738	73.38
337.966	77.38
338.194	73.38
338.422	85.38
338.65	94.38
338.878	82.38
339.106	86.38
339.334	86.38
339.562	91.38
339.79	82.38
340.018	72.38
340.246	81.38
340.474	82.38
340.702	81.38
340.93	74.38
341.158	81.38
341.386	80.38
341.614	97.38
341.842	83.38
342.07	97.38
342.298	86.38
342.526	80.38
342.754	80.38
342.981	91.38
343.209	89.38
343.437	81.38
343.665	91.38
343.893	89.38
344.12	91.38
344.348	78.38
344.576	71.38
344.804	81.38
345.031	47.38
345.259	74.38
345.487	75.38
345.714	90.38
345.942	89.38
346.17	81.38
346.397	75.38
346.625	72.38
346.853	79.38
347.08	73.38
347.308	85.38
347.535	93.38
347.763	81.38
347.99	77.38
348.218	94.38
348.445	102.38
348.673	76.38
348.9	78.38
349.128	78.38
349.355	65.38
349.583	86.38
349.81	84.38
350.037	82.38
350.265	88.38
350.492	73.38
350.72	74.38
350.947	77.38
351.174	96.38
351.402	84.38
351.629	81.38
351.856	92.38
352.083	75.38
352.311	82.38
352.538	82.38
352.765	83.38
352.992	84.38
353.22	74.38
353.447	87.38
353.674	81.38
353.901	77.38
354.128	89.38
354.355	83.38
354.583	78.38
354.81	91.38
355.037	89.38
355.264	68.38
355.491	96.38
355.718	82.38
355.945	81.38
356.172	76.38
356.399	73.38
356.626	89.38
356.853	72.38
357.08	86.38
357.307	71.38
357.534	82.38
357.761	71.38
357.988	78.38
358.215	87.38
358.441	96.38
358.668	89.38
358.895	76.38
359.122	79.38
359.349	82.38
359.576	77.38
359.802	82.38
360.029	81.38
360.256	80.38
360.483	90.38
360.709	75.38
360.936	97.38
361.163	79.38
361.39	83.38
361.616	80.38
361.843	81.38
362.07	85.38
362.296	90.38
362.523	80.38
362.749	76.38
362.976	82.38
363.203	90.38
363.429	71.38
363.656	89.38
363.882	72.38
364.109	91.38
364.335	94.38
364.562	90.38
364.788	69.38
365.015	86.38
365.241	89.38
365.468	88.38
365.694	86.38
365.92	74.38
366.147	85.38
366.373	89.38
366.599	73.38
366.826	82.38
367.052	78.38
367.278	98.38
367.505	79.38
367.731	82.38
367.957	78.38
368.184	93.38
368.41	80.38
368.636	83.38
368.862	83.38
369.089	86.38
369.315	65.38
369.541	71.38
369.767	93.38
369.993	88.38
370.219	81.38
370.445	82.38
370.672	90.38
370.898	89.38
371.124	64.38
371.35	79.38
371.576	98.38
371.802	80.38
372.028	78.38
372.254	90.38
372.48	86.38
372.706	95.38
372.932	73.38
373.158	87.38
373.384	87.38
373.61	84.38
373.835	90.38
374.061	77.38
374.287	85.38
374.513	73.38
374.739	85.38
374.965	85.38
375.191	91.38
375.416	72.38
375.642	93.38
375.868	90.38
376.094	73.38
376.319	84.38
376.545	70.38
376.771	83.38
376.997	89.38
377.222	78.38
377.448	97.38
377.674	90.38
377.899	82.38
378.125	83.38
378.35	74.38
378.576	79.38
378.802	73.38
379.027	82.38
379.253	89.38
379.478	100.38
379.704	79.38
379.929	91.38
380.155	90.38
380.38	85.38
380.606	82.38
380.831	87.38
381.057	90.38
381.282	79.38
381.507	88.38
381.733	88.38
381.958	93.38
382.184	73.38
382.409	75.38
382.634	89.38
382.86	73.38
383.085	81.38
383.31	79.38
383.535	98.38
383.761	74.38
383.986	83.38
384.211	64.38
384.436	69.38
384.662	83.38
384.887	81.38
385.112	74.38
385.337	90.38
385.562	93.38
385.787	90.38
386.013	77.38
386.238	83.38
386.463	71.38
386.688	81.38
386.913	75.38
387.138	86.38
387.363	86.38
387.588	86.38
387.813	89.38
388.038	77.38
388.263	86.38
388.488	78.38
388.713	78.38
388.938	90.38
389.163	90.38
389.387	89.38
389.612	72.38
389.837	75.38
390.062	89.38
390.287	83.38
390.512	83.38
390.736	72.38
390.961	82.38
391.186	86.38
391.411	79.38
391.636	76.38
391.86	91.38
392.085	71.38
392.31	67.38
392.534	85.38
392.759	81.38
392.984	92.38
393.208	101.38
393.433	127.38
393.658	115.38
393.882	91.38
394.107	81.38
394.331	80.38
394.556	93.38
394.78	79.38
395.005	87.38
395.229	89.38
395.454	80.38
395.678	95.38
395.903	83.38
396.127	85.38
396.352	86.38
396.576	94.38
396.801	90.38
397.025	97.38
397.249	88.38
397.474	84.38
397.698	72.38
397.922	83.38
398.147	72.38
398.371	78.38
398.595	84.38
398.82	89.38
399.044	78.38
399.268	79.38
399.492	82.38
399.717	66.38
399.941	76.38
400.165	82.38
400.389	76.38
400.613	78.38
400.837	81.38
401.062	68.38
401.286	82.38
401.51	83.38
401.734	87.38
401.958	91.38
402.182	88.38
402.406	88.38
402.63	80.38
402.854	77.38
403.078	75.38
403.302	93.38
403.526	83.38
403.75	82.38
403.974	82.38
404.198	80.38
404.422	81.38
404.645	86.38
404.869	90.38
405.093	83.38
405.317	81.38
405.541	71.38
405.765	86.38
405.988	81.38
406.212	81.38
406.436	66.38
406.66	83.38
406.883	85.38
407.107	81.38
407.331	80.38
407.555	83.38
407.778	74.38
408.002	80.38
408.226	65.38
408.449	79.38
408.673	85.38
408.896	91.38
409.12	86.38
409.344	81.38
409.567	79.38
409.791	79.38
410.014	89.38
410.238	86.38
410.461	83.38
410.685	87.38
410.908	80.38
411.132	73.38
411.355	76.38
411.578	75.38
411.802	87.38
412.025	79.38
412.249	70.38
412.472	83.38
412.695	98.38
412.919	81.38
413.142	77.38
413.365	81.38
413.589	88.38
413.812	88.38
414.035	81.38
414.258	88.38
414.482	62.38
414.705	89.38
414.928	75.38
415.151	84.38
415.374	71.38
415.597	93.38
415.821	94.38
416.044	81.38
416.267	62.38
416.49	73.38
416.713	88.38
416.936	71.38
417.159	72.38
417.382	77.38
417.605	84.38
417.828	69.38
418.051	79.38
418.274	92.38
418.497	76.38
418.72	96.38
418.943	85.38
419.166	74.38
419.389	61.38
419.611	82.38
419.834	76.38
420.057	88.38
420.28	67.38
420.503	87.38
420.726	85.38
420.948	75.38
421.171	85.38
421.394	86.38
421.617	97.38
421.839	86.38
422.062	89.38
422.285	111.38
422.507	127.38
422.73	146.38
422.953	128.38
423.175	96.38
423.398	91.38
423.621	89.38
423.843	83.38
424.066	84.38
424.288	86.38
424.511	76.38
424.733	81.38
424.956	82.38
425.178	74.38
425.401	81.38
425.623	85.38
425.846	81.38
426.068	76.38
426.291	94.38
426.513	82.38
426.735	80.38
426.958	66.38
427.18	81.38
427.402	71.38
427.625	65.38
427.847	78.38
428.069	79.38
428.292	72.38
428.514	85.38
428.736	97.38
428.958	81.38
429.181	96.38
429.403	82.38
429.625	79.38
429.847	75.38
430.069	104.38
430.292	110.38
430.514	93.38
430.736	79.38
430.958	91.38
431.18	75.38
431.402	86.38
431.624	76.38
431.846	83.38
432.068	77.38
432.29	75.38
432.512	79.38
432.734	90.38
432.956	81.38
433.178	82.38
433.4	73.38
433.622	86.38
433.844	82.38
434.066	82.38
434.287	89.38
434.509	83.38
434.731	87.38
434.953	80.38
435.175	69.38
435.397	84.38
435.618	82.38
435.84	79.38
436.062	85.38
436.284	81.38
436.505	81.38
436.727	83.38
436.949	84.38
437.17	85.38
437.392	75.38
437.614	80.38
437.835	74.38
438.057	81.38
438.278	79.38
438.5	75.38
438.721	71.38
438.943	85.38
439.165	86.38
439.386	74.38
439.608	84.38
439.829	82.38
440.05	88.38
440.272	95.38
440.493	86.38
440.715	101.38
440.936	87.38
441.158	78.38
441.379	84.38
441.6	95.38
441.822	70.38
442.043	97.38
442.264	85.38
442.486	71.38
442.707	90.38
442.928	83.38
443.149	81.38
443.371	97.38
443.592	110.38
443.813	104.38
444.034	87.38
444.255	95.38
444.476	86.38
444.698	81.38
444.919	69.38
445.14	164.38
445.361	119.38
445.582	109.38
445.803	108.38
446.024	88.38
446.245	88.38
446.466	77.38
446.687	81.38
446.908	67.38
447.129	90.38
447.35	75.38
447.571	82.38
447.792	79.38
448.013	79.38
448.234	88.38
448.455	76.38
448.675	74.38
448.896	73.38
449.117	75.38
449.338	69.38
449.559	85.38
449.779	91.38
450	74.38
450.221	86.38
450.442	84.38
450.662	79.38
450.883	77.38
451.104	86.38
451.324	75.38
451.545	79.38
451.766	79.38
451.986	88.38
452.207	69.38
452.428	77.38
452.648	87.38
452.869	86.38
453.089	87.38
453.31	72.38
453.53	86.38
453.751	81.38
453.971	76.38
454.192	65.38
454.412	86.38
454.633	81.38
454.853	75.38
455.073	74.38
455.294	70.38
455.514	83.38
455.734	80.38
455.955	92.38
456.175	82.38
456.395	69.38
456.616	81.38
456.836	65.38
457.056	88.38
457.276	75.38
457.497	81.38
457.717	98.38
457.937	84.38
458.157	74.38
458.377	84.38
458.598	76.38
458.818	83.38
459.038	80.38
459.258	84.38
459.478	83.38
459.698	81.38
459.918	90.38
460.138	81.38
460.358	76.38
460.578	87.38
460.798	85.38
461.018	86.38
461.238	88.38
461.458	66.38
461.678	76.38
461.898	73.38
462.118	81.38
462.338	64.38
462.558	75.38
462.777	74.38
462.997	78.38
463.217	77.38
463.437	88.38
463.657	78.38
463.876	99.38
464.096	81.38
464.316	81.38
464.536	77.38
464.755	76.38
464.975	74.38
465.195	61.38
465.414	81.38
465.634	77.38
465.854	82.38
466.073	65.38
466.293	81.38
466.512	73.38
466.732	85.38
466.951	82.38
467.171	60.38
467.391	75.38
467.61	79.38
467.829	96.38
468.049	76.38
468.268	85.38
468.488	99.38
468.707	94.38
468.927	83.38
469.146	79.38
469.365	85.38
469.585	69.38
469.804	85.38
470.023	84.38
470.243	83.38
470.462	87.38
470.681	87.38
470.901	70.38
471.12	73.38
471.339	108.38
471.558	89.38
471.777	81.38
471.997	80.38
472.216	86.38
472.435	70.38
472.654	74.38
472.873	69.38
473.092	81.38
473.311	95.38
473.53	79.38
473.749	91.38
473.968	74.38
474.187	93.38
474.406	85.38
474.625	75.38
474.844	99.38
475.063	74.38
475.282	84.38
475.501	76.38
475.72	83.38
475.939	88.38
476.158	86.38
476.377	63.38
476.596	75.38
476.814	76.38
477.033	75.38
477.252	79.38
477.471	83.38
477.69	87.38
477.908	75.38
478.127	88.38
478.346	83.38
478.564	78.38
478.783	75.38
479.002	87.38
479.22	77.38
479.439	82.38
479.658	65.38
479.876	61.38
480.095	78.38
480.313	77.38
480.532	71.38
480.751	79.38
480.969	92.38
481.188	73.38
481.406	93.38
481.624	84.38
481.843	75.38
482.061	69.38
482.28	70.38
482.498	79.38
482.717	90.38
482.935	92.38
483.153	78.38
483.372	81.38
483.59	89.38
483.808	76.38
484.027	74.38
484.245	94.38
484.463	88.38
484.681	87.38
484.9	88.38
485.118	79.38
485.336	73.38
485.554	67.38
485.772	85.38
485.99	77.38
486.209	84.38
486.427	78.38
486.645	82.38
486.863	75.38
487.081	81.38
487.299	81.38
487.517	74.38
487.735	75.38
487.953	90.38
488.171	82.38
488.389	72.38
488.607	73.38
488.825	88.38
489.043	73.38
489.261	81.38
489.479	81.38
489.696	78.38
489.914	70.38
490.132	72.38
490.35	94.38
490.568	82.38
490.786	84.38
491.003	90.38
491.221	80.38
491.439	99.38
491.657	74.38
491.874	69.38
492.092	79.38
492.31	97.38
492.527	78.38
492.745	93.38
492.963	89.38
493.18	79.38
493.398	89.38
493.615	88.38
493.833	65.38
494.05	88.38
494.268	80.38
494.485	85.38
494.703	81.38
494.92	82.38
495.138	86.38
495.355	90.38
495.573	93.38
495.79	81.38
496.008	80.38
496.225	83.38
496.442	93.38
496.66	83.38
496.877	80.38
497.094	84.38
497.312	90.38
497.529	83.38
497.746	88.38
497.963	80.38
498.181	83.38
498.398	85.38
498.615	71.38
498.832	62.38
499.049	75.38
499.267	76.38
499.484	69.38
499.701	81.38
499.918	83.38
500.135	89.38
500.352	90.38
500.569	86.38
500.786	82.38
501.003	87.38
501.22	70.38
501.437	71.38
501.654	79.38
501.871	70.38
502.088	93.38
502.305	63.38
502.522	74.38
502.739	88.38
502.956	85.38
503.172	95.38
503.389	83.38
503.606	74.38
503.823	83.38
504.04	76.38
504.256	98.38
504.473	81.38
504.69	74.38
504.907	88.38
505.123	82.38
505.34	64.38
505.557	82.38
505.773	90.38
505.99	98.38
506.207	82.38
506.423	85.38
506.64	83.38
506.856	89.38
507.073	76.38
507.289	65.38
507.506	67.38
507.722	82.38
507.939	82.38
508.155	82.38
508.372	87.38
508.588	87.38
508.805	81.38
509.021	79.38
509.238	79.38
509.454	77.38
509.67	97.38
509.887	79.38
510.103	87.38
510.319	77.38
510.536	71.38
510.752	69.38
510.968	86.38
511.184	84.38
511.401	69.38
511.617	74.38
511.833	76.38
512.049	70.38
512.265	85.38
512.481	89.38
512.698	76.38
512.914	85.38
513.13	87.38
513.346	86.38
513.562	86.38
513.778	75.38
513.994	82.38
514.21	75.38
514.426	79.38
514.642	69.38
514.858	81.38
515.074	76.38
515.29	90.38
515.506	80.38
515.721	94.38
515.937	94.38
516.153	83.38
516.369	86.38
516.585	91.38
516.801	77.38
517.016	90.38
517.232	90.38
517.448	82.38
517.664	78.38
517.879	88.38
518.095	75.38
518.311	73.38
518.527	66.38
518.742	81.38
518.958	85.38
519.173	90.38
519.389	67.38
519.605	87.38
519.82	81.38
520.036	81.38
