Data from HP_3_HRD10591_00017.txt Node
Date: Mon Jan 19 14:17:09 EST 2026
User: Yrep
Spectrometer: HR+D1059
Trigger mode: 1
Integration Time (sec): 1.000000E-1
Scans to average: 1
Electric dark correction enabled: true
Nonlinearity correction enabled: false
Boxcar width: 0
XAxis mode: Wavelengths
Number of Pixels in Spectrum: 2048
>>>>>Begin Spectral Data<<<<<
223.165	-17.88
223.4	-17.88
223.635	-17.88
223.869	-15.88
224.104	-28.88
224.338	-21.88
224.573	-21.88
224.808	-5.88
225.042	-0.88
225.277	-11.88
225.511	-2.88
225.746	-1.88
225.98	-8.88
226.215	18.12
226.449	16.12
226.683	29.12
226.918	42.12
227.152	33.12
227.387	25.12
227.621	36.12
227.856	41.12
228.09	45.12
228.324	43.12
228.559	55.12
228.793	50.12
229.027	73.12
229.262	66.12
229.496	60.12
229.73	68.12
229.964	81.12
230.199	60.12
230.433	67.12
230.667	84.12
230.901	84.12
231.136	76.12
231.37	76.12
231.604	89.12
231.838	90.12
232.072	96.12
232.306	80.12
232.541	92.12
232.775	74.12
233.009	84.12
233.243	64.12
233.477	84.12
233.711	78.12
233.945	83.12
234.179	66.12
234.413	78.12
234.647	88.12
234.881	92.12
235.115	86.12
235.349	85.12
235.583	86.12
235.817	85.12
236.051	83.12
236.285	80.12
236.519	72.12
236.753	71.12
236.987	71.12
237.221	72.12
237.455	80.12
237.689	76.12
237.922	75.12
238.156	72.12
238.39	84.12
238.624	79.12
238.858	78.12
239.091	66.12
239.325	82.12
239.559	92.12
239.793	92.12
240.027	81.12
240.26	73.12
240.494	84.12
240.728	74.12
240.961	67.12
241.195	75.12
241.429	63.12
241.662	70.12
241.896	79.12
242.13	75.12
242.363	82.12
242.597	76.12
242.83	89.12
243.064	74.12
243.298	92.12
243.531	67.12
243.765	77.12
243.998	74.12
244.232	82.12
244.465	89.12
244.699	73.12
244.932	83.12
245.166	81.12
245.399	86.12
245.633	82.12
245.866	71.12
246.099	70.12
246.333	62.12
246.566	72.12
246.8	77.12
247.033	70.12
247.266	73.12
247.5	89.12
247.733	86.12
247.966	66.12
248.2	73.12
248.433	73.12
248.666	76.12
248.899	74.12
249.133	95.12
249.366	70.12
249.599	64.12
249.832	78.12
250.066	76.12
250.299	75.12
250.532	85.12
250.765	85.12
250.998	71.12
251.231	69.12
251.465	77.12
251.698	83.12
251.931	72.12
252.164	66.12
252.397	74.12
252.63	74.12
252.863	83.12
253.096	84.12
253.329	71.12
253.562	73.12
253.795	96.12
254.028	77.12
254.261	76.12
254.494	64.12
254.727	91.12
254.96	82.12
255.193	80.12
255.426	71.12
255.659	87.12
255.892	91.12
256.124	71.12
256.357	72.12
256.59	86.12
256.823	68.12
257.056	87.12
257.289	91.12
257.521	78.12
257.754	72.12
257.987	95.12
258.22	83.12
258.452	75.12
258.685	70.12
258.918	90.12
259.151	85.12
259.383	79.12
259.616	84.12
259.849	84.12
260.081	87.12
260.314	82.12
260.547	77.12
260.779	84.12
261.012	95.12
261.244	92.12
261.477	84.12
261.71	74.12
261.942	82.12
262.175	69.12
262.407	78.12
262.64	67.12
262.872	84.12
263.105	84.12
263.337	76.12
263.57	96.12
263.802	84.12
264.035	82.12
264.267	67.12
264.499	77.12
264.732	81.12
264.964	78.12
265.197	77.12
265.429	86.12
265.661	84.12
265.894	76.12
266.126	79.12
266.358	94.12
266.591	86.12
266.823	80.12
267.055	74.12
267.287	82.12
267.52	84.12
267.752	89.12
267.984	82.12
268.216	82.12
268.448	92.12
268.681	81.12
268.913	72.12
269.145	81.12
269.377	79.12
269.609	69.12
269.841	80.12
270.073	76.12
270.306	85.12
270.538	81.12
270.77	83.12
271.002	71.12
271.234	77.12
271.466	73.12
271.698	72.12
271.93	86.12
272.162	82.12
272.394	85.12
272.626	90.12
272.858	85.12
273.09	77.12
273.322	87.12
273.553	92.12
273.785	91.12
274.017	86.12
274.249	98.12
274.481	83.12
274.713	90.12
274.945	96.12
275.176	77.12
275.408	86.12
275.64	77.12
275.872	88.12
276.104	82.12
276.335	89.12
276.567	85.12
276.799	81.12
277.031	88.12
277.262	91.12
277.494	87.12
277.726	75.12
277.957	75.12
278.189	92.12
278.421	73.12
278.652	81.12
278.884	81.12
279.115	74.12
279.347	85.12
279.579	86.12
279.81	78.12
280.042	88.12
280.273	80.12
280.505	86.12
280.736	98.12
280.968	73.12
281.199	65.12
281.431	88.12
281.662	95.12
281.894	68.12
282.125	83.12
282.356	94.12
282.588	84.12
282.819	76.12
283.051	96.12
283.282	78.12
283.513	81.12
283.745	74.12
283.976	79.12
284.207	96.12
284.439	94.12
284.67	79.12
284.901	86.12
285.132	91.12
285.364	74.12
285.595	82.12
285.826	81.12
286.057	76.12
286.288	87.12
286.52	75.12
286.751	77.12
286.982	86.12
287.213	78.12
287.444	75.12
287.675	96.12
287.906	79.12
288.138	83.12
288.369	83.12
288.6	92.12
288.831	77.12
289.062	86.12
289.293	82.12
289.524	93.12
289.755	78.12
289.986	85.12
290.217	84.12
290.448	86.12
290.679	79.12
290.91	97.12
291.141	89.12
291.371	92.12
291.602	79.12
291.833	99.12
292.064	79.12
292.295	76.12
292.526	91.12
292.757	80.12
292.987	70.12
293.218	79.12
293.449	74.12
293.68	64.12
293.91	89.12
294.141	89.12
294.372	90.12
294.603	91.12
294.833	84.12
295.064	75.12
295.295	74.12
295.525	61.12
295.756	87.12
295.987	104.12
296.217	93.12
296.448	74.12
296.679	89.12
296.909	78.12
297.14	84.12
297.37	82.12
297.601	89.12
297.831	67.12
298.062	82.12
298.292	83.12
298.523	87.12
298.753	83.12
298.984	93.12
299.214	87.12
299.445	77.12
299.675	77.12
299.905	87.12
300.136	93.12
300.366	90.12
300.597	82.12
300.827	83.12
301.057	84.12
301.288	90.12
301.518	87.12
301.748	74.12
301.979	96.12
302.209	90.12
302.439	97.12
302.669	85.12
302.9	95.12
303.13	102.12
303.36	86.12
303.59	79.12
303.82	81.12
304.051	94.12
304.281	85.12
304.511	89.12
304.741	80.12
304.971	98.12
305.201	71.12
305.431	79.12
305.661	82.12
305.891	85.12
306.121	76.12
306.352	80.12
306.582	84.12
306.812	80.12
307.042	90.12
307.272	76.12
307.502	82.12
307.731	72.12
307.961	84.12
308.191	92.12
308.421	88.12
308.651	83.12
308.881	91.12
309.111	82.12
309.341	85.12
309.571	80.12
309.8	98.12
310.03	82.12
310.26	75.12
310.49	74.12
310.72	92.12
310.949	81.12
311.179	74.12
311.409	81.12
311.639	93.12
311.868	78.12
312.098	86.12
312.328	101.12
312.557	85.12
312.787	93.12
313.017	73.12
313.246	97.12
313.476	73.12
313.706	86.12
313.935	77.12
314.165	87.12
314.394	80.12
314.624	85.12
314.853	95.12
315.083	66.12
315.312	68.12
315.542	70.12
315.771	77.12
316.001	83.12
316.23	78.12
316.46	96.12
316.689	97.12
316.919	85.12
317.148	78.12
317.377	76.12
317.607	91.12
317.836	89.12
318.065	88.12
318.295	82.12
318.524	86.12
318.753	102.12
318.983	101.12
319.212	82.12
319.441	78.12
319.67	78.12
319.9	79.12
320.129	76.12
320.358	85.12
320.587	79.12
320.816	91.12
321.046	72.12
321.275	80.12
321.504	93.12
321.733	90.12
321.962	76.12
322.191	88.12
322.42	88.12
322.649	89.12
322.878	75.12
323.108	94.12
323.337	100.12
323.566	79.12
323.795	79.12
324.024	103.12
324.253	76.12
324.482	80.12
324.71	76.12
324.939	76.12
325.168	87.12
325.397	90.12
325.626	73.12
325.855	73.12
326.084	85.12
326.313	81.12
326.542	83.12
326.77	87.12
326.999	89.12
327.228	91.12
327.457	85.12
327.686	84.12
327.914	81.12
328.143	75.12
328.372	90.12
328.6	92.12
328.829	82.12
329.058	78.12
329.287	74.12
329.515	86.12
329.744	85.12
329.972	83.12
330.201	75.12
330.43	82.12
330.658	94.12
330.887	84.12
331.115	95.12
331.344	98.12
331.572	85.12
331.801	92.12
332.03	98.12
332.258	84.12
332.486	83.12
332.715	72.12
332.943	72.12
333.172	72.12
333.4	90.12
333.629	90.12
333.857	75.12
334.085	90.12
334.314	79.12
334.542	91.12
334.771	86.12
334.999	70.12
335.227	88.12
335.455	88.12
335.684	91.12
335.912	85.12
336.14	86.12
336.369	87.12
336.597	93.12
336.825	78.12
337.053	86.12
337.281	79.12
337.51	86.12
337.738	86.12
337.966	93.12
338.194	78.12
338.422	74.12
338.65	80.12
338.878	84.12
339.106	97.12
339.334	92.12
339.562	96.12
339.79	85.12
340.018	80.12
340.246	94.12
340.474	84.12
340.702	73.12
340.93	75.12
341.158	89.12
341.386	84.12
341.614	90.12
341.842	76.12
342.07	72.12
342.298	78.12
342.526	82.12
342.754	76.12
342.981	88.12
343.209	84.12
343.437	97.12
343.665	88.12
343.893	100.12
344.12	81.12
344.348	87.12
344.576	76.12
344.804	81.12
345.031	96.12
345.259	86.12
345.487	84.12
345.714	87.12
345.942	86.12
346.17	85.12
346.397	82.12
346.625	72.12
346.853	86.12
347.08	68.12
347.308	88.12
347.535	96.12
347.763	88.12
347.99	86.12
348.218	94.12
348.445	88.12
348.673	83.12
348.9	86.12
349.128	96.12
349.355	86.12
349.583	93.12
349.81	82.12
350.037	71.12
350.265	84.12
350.492	91.12
350.72	91.12
350.947	90.12
351.174	86.12
351.402	91.12
351.629	80.12
351.856	81.12
352.083	79.12
352.311	85.12
352.538	70.12
352.765	91.12
352.992	77.12
353.22	92.12
353.447	81.12
353.674	75.12
353.901	91.12
354.128	92.12
354.355	88.12
354.583	84.12
354.81	86.12
355.037	89.12
355.264	70.12
355.491	78.12
355.718	90.12
355.945	83.12
356.172	80.12
356.399	83.12
356.626	77.12
356.853	80.12
357.08	83.12
357.307	90.12
357.534	88.12
357.761	81.12
357.988	88.12
358.215	74.12
358.441	89.12
358.668	80.12
358.895	79.12
359.122	80.12
359.349	85.12
359.576	88.12
359.802	81.12
360.029	76.12
360.256	75.12
360.483	76.12
360.709	74.12
360.936	83.12
361.163	72.12
361.39	90.12
361.616	73.12
361.843	100.12
362.07	86.12
362.296	84.12
362.523	81.12
362.749	87.12
362.976	85.12
363.203	106.12
363.429	82.12
363.656	90.12
363.882	94.12
364.109	81.12
364.335	101.12
364.562	87.12
364.788	88.12
365.015	96.12
365.241	94.12
365.468	99.12
365.694	74.12
365.92	100.12
366.147	78.12
366.373	79.12
366.599	88.12
366.826	89.12
367.052	74.12
367.278	85.12
367.505	86.12
367.731	88.12
367.957	86.12
368.184	97.12
368.41	89.12
368.636	78.12
368.862	89.12
369.089	94.12
369.315	95.12
369.541	87.12
369.767	78.12
369.993	86.12
370.219	71.12
370.445	86.12
370.672	94.12
370.898	82.12
371.124	85.12
371.35	81.12
371.576	92.12
371.802	83.12
372.028	91.12
372.254	82.12
372.48	79.12
372.706	89.12
372.932	93.12
373.158	88.12
373.384	89.12
373.61	91.12
373.835	92.12
374.061	83.12
374.287	99.12
374.513	86.12
374.739	92.12
374.965	88.12
375.191	93.12
375.416	100.12
375.642	83.12
375.868	81.12
376.094	89.12
376.319	96.12
376.545	83.12
376.771	95.12
376.997	88.12
377.222	81.12
377.448	90.12
377.674	86.12
377.899	84.12
378.125	80.12
378.35	79.12
378.576	70.12
378.802	87.12
379.027	86.12
379.253	82.12
379.478	73.12
379.704	83.12
379.929	78.12
380.155	86.12
380.38	101.12
380.606	88.12
380.831	84.12
381.057	76.12
381.282	77.12
381.507	96.12
381.733	98.12
381.958	75.12
382.184	89.12
382.409	87.12
382.634	86.12
382.86	73.12
383.085	68.12
383.31	84.12
383.535	77.12
383.761	78.12
383.986	87.12
384.211	86.12
384.436	79.12
384.662	87.12
384.887	74.12
385.112	90.12
385.337	83.12
385.562	90.12
385.787	87.12
386.013	76.12
386.238	88.12
386.463	88.12
386.688	91.12
386.913	68.12
387.138	84.12
387.363	99.12
387.588	79.12
387.813	100.12
388.038	84.12
388.263	77.12
388.488	74.12
388.713	81.12
388.938	96.12
389.163	98.12
389.387	84.12
389.612	90.12
389.837	88.12
390.062	79.12
390.287	97.12
390.512	94.12
390.736	90.12
390.961	88.12
391.186	76.12
391.411	76.12
391.636	67.12
391.86	85.12
392.085	86.12
392.31	90.12
392.534	75.12
392.759	118.12
392.984	104.12
393.208	127.12
393.433	173.12
393.658	145.12
393.882	92.12
394.107	89.12
394.331	84.12
394.556	96.12
394.78	92.12
395.005	92.12
395.229	95.12
395.454	94.12
395.678	87.12
395.903	103.12
396.127	105.12
396.352	112.12
396.576	95.12
396.801	141.12
397.025	140.12
397.249	110.12
397.474	91.12
397.698	90.12
397.922	69.12
398.147	100.12
398.371	66.12
398.595	81.12
398.82	95.12
399.044	84.12
399.268	82.12
399.492	78.12
399.717	80.12
399.941	88.12
400.165	79.12
400.389	92.12
400.613	83.12
400.837	78.12
401.062	72.12
401.286	91.12
401.51	77.12
401.734	82.12
401.958	81.12
402.182	77.12
402.406	84.12
402.63	72.12
402.854	84.12
403.078	76.12
403.302	81.12
403.526	93.12
403.75	99.12
403.974	90.12
404.198	95.12
404.422	74.12
404.645	90.12
404.869	83.12
405.093	73.12
405.317	91.12
405.541	77.12
405.765	91.12
405.988	73.12
406.212	90.12
406.436	88.12
406.66	112.12
406.883	102.12
407.107	73.12
407.331	84.12
407.555	94.12
407.778	96.12
408.002	104.12
408.226	80.12
408.449	93.12
408.673	79.12
408.896	90.12
409.12	85.12
409.344	77.12
409.567	83.12
409.791	94.12
410.014	91.12
410.238	87.12
410.461	83.12
410.685	92.12
410.908	84.12
411.132	89.12
411.355	78.12
411.578	82.12
411.802	84.12
412.025	86.12
412.249	83.12
412.472	92.12
412.695	76.12
412.919	75.12
413.142	81.12
413.365	65.12
413.589	92.12
413.812	74.12
414.035	82.12
414.258	97.12
414.482	96.12
414.705	77.12
414.928	89.12
415.151	77.12
415.374	86.12
415.597	80.12
415.821	84.12
416.044	76.12
416.267	77.12
416.49	59.12
416.713	84.12
416.936	93.12
417.159	69.12
417.382	72.12
417.605	69.12
417.828	79.12
418.051	63.12
418.274	90.12
418.497	82.12
418.72	76.12
418.943	74.12
419.166	77.12
419.389	79.12
419.611	73.12
419.834	73.12
420.057	83.12
420.28	94.12
420.503	88.12
420.726	74.12
420.948	84.12
421.171	90.12
421.394	93.12
421.617	93.12
421.839	94.12
422.062	91.12
422.285	115.12
422.507	135.12
422.73	229.12
422.953	200.12
423.175	123.12
423.398	93.12
423.621	85.12
423.843	98.12
424.066	66.12
424.288	74.12
424.511	74.12
424.733	92.12
424.956	80.12
425.178	88.12
425.401	71.12
425.623	79.12
425.846	85.12
426.068	82.12
426.291	83.12
426.513	90.12
426.735	102.12
426.958	81.12
427.18	62.12
427.402	91.12
427.625	87.12
427.847	86.12
428.069	92.12
428.292	107.12
428.514	98.12
428.736	97.12
428.958	102.12
429.181	106.12
429.403	90.12
429.625	79.12
429.847	88.12
430.069	93.12
430.292	120.12
430.514	114.12
430.736	108.12
430.958	105.12
431.18	102.12
431.402	79.12
431.624	88.12
431.846	88.12
432.068	99.12
432.29	78.12
432.512	83.12
432.734	85.12
432.956	74.12
433.178	86.12
433.4	96.12
433.622	85.12
433.844	73.12
434.066	86.12
434.287	68.12
434.509	80.12
434.731	78.12
434.953	71.12
435.175	86.12
435.397	70.12
435.618	74.12
435.84	74.12
436.062	92.12
436.284	78.12
436.505	84.12
436.727	91.12
436.949	89.12
437.17	72.12
437.392	93.12
437.614	83.12
437.835	70.12
438.057	100.12
438.278	99.12
438.5	85.12
438.721	74.12
438.943	72.12
439.165	73.12
439.386	82.12
439.608	76.12
439.829	82.12
440.05	84.12
440.272	88.12
440.493	74.12
440.715	88.12
440.936	90.12
441.158	96.12
441.379	85.12
441.6	72.12
441.822	98.12
442.043	85.12
442.264	85.12
442.486	79.12
442.707	106.12
442.928	101.12
443.149	87.12
443.371	106.12
443.592	129.12
443.813	128.12
444.034	99.12
444.255	90.12
444.476	82.12
444.698	85.12
444.919	96.12
445.14	171.12
445.361	154.12
445.582	140.12
445.803	124.12
446.024	89.12
446.245	94.12
446.466	88.12
446.687	86.12
446.908	79.12
447.129	87.12
447.35	79.12
447.571	76.12
447.792	94.12
448.013	84.12
448.234	76.12
448.455	84.12
448.675	82.12
448.896	85.12
449.117	75.12
449.338	79.12
449.559	96.12
449.779	73.12
450	91.12
450.221	90.12
450.442	82.12
450.662	72.12
450.883	74.12
451.104	99.12
451.324	83.12
451.545	70.12
451.766	82.12
451.986	79.12
452.207	93.12
452.428	89.12
452.648	98.12
452.869	90.12
453.089	79.12
453.31	84.12
453.53	67.12
453.751	85.12
453.971	88.12
454.192	79.12
454.412	83.12
454.633	77.12
454.853	77.12
455.073	60.12
455.294	82.12
455.514	90.12
455.734	81.12
455.955	73.12
456.175	91.12
456.395	88.12
456.616	83.12
456.836	94.12
457.056	82.12
457.276	75.12
457.497	83.12
457.717	82.12
457.937	86.12
458.157	76.12
458.377	78.12
458.598	84.12
458.818	99.12
459.038	76.12
459.258	73.12
459.478	78.12
459.698	84.12
459.918	78.12
460.138	78.12
460.358	97.12
460.578	85.12
460.798	97.12
461.018	96.12
461.238	86.12
461.458	66.12
461.678	97.12
461.898	89.12
462.118	94.12
462.338	87.12
462.558	83.12
462.777	70.12
462.997	86.12
463.217	81.12
463.437	92.12
463.657	94.12
463.876	89.12
464.096	91.12
464.316	96.12
464.536	71.12
464.755	82.12
464.975	74.12
465.195	83.12
465.414	80.12
465.634	85.12
465.854	62.12
466.073	92.12
466.293	86.12
466.512	100.12
466.732	85.12
466.951	71.12
467.171	86.12
467.391	72.12
467.61	76.12
467.829	85.12
468.049	73.12
468.268	83.12
468.488	88.12
468.707	88.12
468.927	92.12
469.146	74.12
469.365	76.12
469.585	76.12
469.804	75.12
470.023	78.12
470.243	81.12
470.462	70.12
470.681	86.12
470.901	86.12
471.12	82.12
471.339	75.12
471.558	81.12
471.777	82.12
471.997	81.12
472.216	82.12
472.435	79.12
472.654	79.12
472.873	86.12
473.092	73.12
473.311	89.12
473.53	74.12
473.749	71.12
473.968	92.12
474.187	94.12
474.406	92.12
474.625	83.12
474.844	82.12
475.063	84.12
475.282	84.12
475.501	78.12
475.72	93.12
475.939	79.12
476.158	91.12
476.377	91.12
476.596	78.12
476.814	93.12
477.033	73.12
477.252	73.12
477.471	84.12
477.69	101.12
477.908	100.12
478.127	89.12
478.346	88.12
478.564	85.12
478.783	77.12
479.002	68.12
479.22	85.12
479.439	78.12
479.658	74.12
479.876	84.12
480.095	75.12
480.313	84.12
480.532	77.12
480.751	80.12
480.969	82.12
481.188	86.12
481.406	90.12
481.624	80.12
481.843	90.12
482.061	77.12
482.28	85.12
482.498	78.12
482.717	85.12
482.935	78.12
483.153	79.12
483.372	86.12
483.59	58.12
483.808	91.12
484.027	90.12
484.245	74.12
484.463	89.12
484.681	96.12
484.9	98.12
485.118	85.12
485.336	74.12
485.554	82.12
485.772	99.12
485.99	87.12
486.209	93.12
486.427	96.12
486.645	100.12
486.863	83.12
487.081	84.12
487.299	80.12
487.517	83.12
487.735	91.12
487.953	102.12
488.171	93.12
488.389	92.12
488.607	89.12
488.825	103.12
489.043	77.12
489.261	101.12
489.479	78.12
489.696	82.12
489.914	73.12
490.132	91.12
490.35	98.12
490.568	88.12
490.786	87.12
491.003	90.12
491.221	69.12
491.439	79.12
491.657	74.12
491.874	88.12
492.092	90.12
492.31	90.12
492.527	78.12
492.745	86.12
492.963	76.12
493.18	89.12
493.398	100.12
493.615	97.12
493.833	84.12
494.05	75.12
494.268	84.12
494.485	78.12
494.703	76.12
494.92	82.12
495.138	83.12
495.355	87.12
495.573	89.12
495.79	91.12
496.008	72.12
496.225	91.12
496.442	90.12
496.66	90.12
496.877	83.12
497.094	88.12
497.312	86.12
497.529	85.12
497.746	81.12
497.963	88.12
498.181	75.12
498.398	81.12
498.615	84.12
498.832	77.12
499.049	81.12
499.267	87.12
499.484	90.12
499.701	93.12
499.918	88.12
500.135	87.12
500.352	99.12
500.569	82.12
500.786	82.12
501.003	85.12
501.22	85.12
501.437	79.12
501.654	88.12
501.871	74.12
502.088	96.12
502.305	82.12
502.522	83.12
502.739	83.12
502.956	82.12
503.172	84.12
503.389	74.12
503.606	85.12
503.823	98.12
504.04	98.12
504.256	85.12
504.473	90.12
504.69	76.12
504.907	91.12
505.123	85.12
505.34	89.12
505.557	73.12
505.773	64.12
505.99	81.12
506.207	83.12
506.423	81.12
506.64	100.12
506.856	84.12
507.073	96.12
507.289	77.12
507.506	88.12
507.722	88.12
507.939	107.12
508.155	77.12
508.372	70.12
508.588	96.12
508.805	81.12
509.021	87.12
509.238	95.12
509.454	72.12
509.67	91.12
509.887	88.12
510.103	81.12
510.319	101.12
510.536	89.12
510.752	83.12
510.968	92.12
511.184	75.12
511.401	94.12
511.617	92.12
511.833	89.12
512.049	86.12
512.265	88.12
512.481	101.12
512.698	89.12
512.914	87.12
513.13	88.12
513.346	79.12
513.562	72.12
513.778	82.12
513.994	80.12
514.21	85.12
514.426	84.12
514.642	72.12
514.858	85.12
515.074	74.12
515.29	89.12
515.506	91.12
515.721	74.12
515.937	86.12
516.153	94.12
516.369	94.12
516.585	104.12
516.801	84.12
517.016	89.12
517.232	80.12
517.448	98.12
517.664	88.12
517.879	86.12
518.095	88.12
518.311	93.12
518.527	84.12
518.742	98.12
518.958	107.12
519.173	102.12
519.389	102.12
