Data from HP_3_HRD10591_00044.txt Node
Date: Mon Jan 19 14:17:22 EST 2026
User: Yrep
Spectrometer: HR+D1059
Trigger mode: 1
Integration Time (sec): 1.000000E-1
Scans to average: 1
Electric dark correction enabled: true
Nonlinearity correction enabled: false
Boxcar width: 0
XAxis mode: Wavelengths
Number of Pixels in Spectrum: 2048
>>>>>Begin Spectral Data<<<<<
223.165	-20.19
223.4	-20.19
223.635	-20.19
223.869	-31.19
224.104	-26.19
224.338	-9.19
224.573	-21.19
224.808	-18.19
225.042	15.81
225.277	-5.19
225.511	0.81
225.746	0.81
225.98	4.81
226.215	9.81
226.449	14.81
226.683	17.81
226.918	29.81
227.152	36.81
227.387	44.81
227.621	26.81
227.856	46.81
228.09	41.81
228.324	50.81
228.559	67.81
228.793	57.81
229.027	56.81
229.262	64.81
229.496	52.81
229.73	65.81
229.964	69.81
230.199	67.81
230.433	74.81
230.667	80.81
230.901	74.81
231.136	78.81
231.37	90.81
231.604	78.81
231.838	80.81
232.072	84.81
232.306	81.81
232.541	80.81
232.775	80.81
233.009	87.81
233.243	70.81
233.477	78.81
233.711	64.81
233.945	74.81
234.179	59.81
234.413	89.81
234.647	73.81
234.881	52.81
235.115	69.81
235.349	69.81
235.583	80.81
235.817	60.81
236.051	74.81
236.285	77.81
236.519	80.81
236.753	74.81
236.987	80.81
237.221	64.81
237.455	62.81
237.689	88.81
237.922	64.81
238.156	74.81
238.39	66.81
238.624	74.81
238.858	81.81
239.091	62.81
239.325	65.81
239.559	77.81
239.793	79.81
240.027	83.81
240.26	69.81
240.494	68.81
240.728	72.81
240.961	72.81
241.195	80.81
241.429	82.81
241.662	73.81
241.896	73.81
242.13	64.81
242.363	68.81
242.597	77.81
242.83	66.81
243.064	77.81
243.298	71.81
243.531	61.81
243.765	62.81
243.998	68.81
244.232	73.81
244.465	69.81
244.699	72.81
244.932	85.81
245.166	89.81
245.399	78.81
245.633	64.81
245.866	71.81
246.099	69.81
246.333	68.81
246.566	74.81
246.8	80.81
247.033	67.81
247.266	89.81
247.5	89.81
247.733	74.81
247.966	78.81
248.2	72.81
248.433	70.81
248.666	71.81
248.899	77.81
249.133	84.81
249.366	64.81
249.599	68.81
249.832	77.81
250.066	67.81
250.299	79.81
250.532	65.81
250.765	74.81
250.998	80.81
251.231	88.81
251.465	74.81
251.698	72.81
251.931	84.81
252.164	82.81
252.397	80.81
252.63	73.81
252.863	76.81
253.096	66.81
253.329	69.81
253.562	63.81
253.795	86.81
254.028	86.81
254.261	85.81
254.494	78.81
254.727	75.81
254.96	69.81
255.193	74.81
255.426	79.81
255.659	78.81
255.892	80.81
256.124	77.81
256.357	73.81
256.59	68.81
256.823	73.81
257.056	72.81
257.289	72.81
257.521	76.81
257.754	78.81
257.987	80.81
258.22	76.81
258.452	77.81
258.685	83.81
258.918	74.81
259.151	80.81
259.383	92.81
259.616	57.81
259.849	85.81
260.081	87.81
260.314	61.81
260.547	81.81
260.779	80.81
261.012	72.81
261.244	85.81
261.477	80.81
261.71	77.81
261.942	85.81
262.175	75.81
262.407	74.81
262.64	74.81
262.872	71.81
263.105	76.81
263.337	73.81
263.57	73.81
263.802	69.81
264.035	87.81
264.267	80.81
264.499	70.81
264.732	70.81
264.964	85.81
265.197	82.81
265.429	79.81
265.661	85.81
265.894	78.81
266.126	87.81
266.358	80.81
266.591	72.81
266.823	71.81
267.055	82.81
267.287	82.81
267.52	86.81
267.752	90.81
267.984	87.81
268.216	79.81
268.448	97.81
268.681	75.81
268.913	75.81
269.145	83.81
269.377	65.81
269.609	67.81
269.841	64.81
270.073	84.81
270.306	88.81
270.538	92.81
270.77	79.81
271.002	86.81
271.234	82.81
271.466	88.81
271.698	83.81
271.93	83.81
272.162	81.81
272.394	97.81
272.626	93.81
272.858	93.81
273.09	72.81
273.322	80.81
273.553	76.81
273.785	71.81
274.017	66.81
274.249	77.81
274.481	86.81
274.713	88.81
274.945	80.81
275.176	87.81
275.408	79.81
275.64	72.81
275.872	56.81
276.104	81.81
276.335	83.81
276.567	60.81
276.799	84.81
277.031	88.81
277.262	69.81
277.494	73.81
277.726	73.81
277.957	67.81
278.189	73.81
278.421	74.81
278.652	75.81
278.884	71.81
279.115	80.81
279.347	82.81
279.579	84.81
279.81	78.81
280.042	85.81
280.273	75.81
280.505	82.81
280.736	85.81
280.968	71.81
281.199	76.81
281.431	78.81
281.662	70.81
281.894	65.81
282.125	80.81
282.356	81.81
282.588	79.81
282.819	86.81
283.051	78.81
283.282	96.81
283.513	86.81
283.745	83.81
283.976	79.81
284.207	82.81
284.439	91.81
284.67	74.81
284.901	90.81
285.132	96.81
285.364	78.81
285.595	77.81
285.826	82.81
286.057	73.81
286.288	89.81
286.52	78.81
286.751	81.81
286.982	80.81
287.213	78.81
287.444	84.81
287.675	75.81
287.906	71.81
288.138	67.81
288.369	80.81
288.6	84.81
288.831	84.81
289.062	76.81
289.293	72.81
289.524	86.81
289.755	84.81
289.986	73.81
290.217	80.81
290.448	83.81
290.679	83.81
290.91	83.81
291.141	64.81
291.371	83.81
291.602	80.81
291.833	88.81
292.064	83.81
292.295	95.81
292.526	93.81
292.757	61.81
292.987	87.81
293.218	80.81
293.449	85.81
293.68	80.81
293.91	74.81
294.141	76.81
294.372	76.81
294.603	78.81
294.833	75.81
295.064	67.81
295.295	83.81
295.525	88.81
295.756	84.81
295.987	92.81
296.217	89.81
296.448	84.81
296.679	85.81
296.909	77.81
297.14	71.81
297.37	79.81
297.601	84.81
297.831	73.81
298.062	98.81
298.292	90.81
298.523	86.81
298.753	73.81
298.984	88.81
299.214	82.81
299.445	68.81
299.675	86.81
299.905	80.81
300.136	82.81
300.366	78.81
300.597	80.81
300.827	90.81
301.057	74.81
301.288	75.81
301.518	73.81
301.748	88.81
301.979	105.81
302.209	80.81
302.439	73.81
302.669	91.81
302.9	78.81
303.13	80.81
303.36	88.81
303.59	88.81
303.82	89.81
304.051	99.81
304.281	84.81
304.511	88.81
304.741	78.81
304.971	78.81
305.201	77.81
305.431	75.81
305.661	87.81
305.891	65.81
306.121	75.81
306.352	85.81
306.582	81.81
306.812	72.81
307.042	74.81
307.272	70.81
307.502	77.81
307.731	83.81
307.961	75.81
308.191	82.81
308.421	100.81
308.651	96.81
308.881	85.81
309.111	72.81
309.341	84.81
309.571	88.81
309.8	84.81
310.03	85.81
310.26	83.81
310.49	80.81
310.72	72.81
310.949	77.81
311.179	78.81
311.409	96.81
311.639	76.81
311.868	75.81
312.098	75.81
312.328	68.81
312.557	78.81
312.787	72.81
313.017	71.81
313.246	80.81
313.476	84.81
313.706	86.81
313.935	67.81
314.165	96.81
314.394	85.81
314.624	84.81
314.853	76.81
315.083	90.81
315.312	89.81
315.542	96.81
315.771	78.81
316.001	85.81
316.23	86.81
316.46	79.81
316.689	77.81
316.919	79.81
317.148	82.81
317.377	73.81
317.607	81.81
317.836	79.81
318.065	84.81
318.295	73.81
318.524	84.81
318.753	81.81
318.983	87.81
319.212	92.81
319.441	92.81
319.67	77.81
319.9	77.81
320.129	70.81
320.358	90.81
320.587	88.81
320.816	82.81
321.046	75.81
321.275	96.81
321.504	86.81
321.733	88.81
321.962	83.81
322.191	84.81
322.42	87.81
322.649	89.81
322.878	82.81
323.108	83.81
323.337	87.81
323.566	81.81
323.795	80.81
324.024	85.81
324.253	83.81
324.482	77.81
324.71	87.81
324.939	76.81
325.168	83.81
325.397	87.81
325.626	78.81
325.855	97.81
326.084	78.81
326.313	94.81
326.542	99.81
326.77	77.81
326.999	86.81
327.228	86.81
327.457	88.81
327.686	96.81
327.914	84.81
328.143	95.81
328.372	73.81
328.6	96.81
328.829	85.81
329.058	88.81
329.287	78.81
329.515	74.81
329.744	89.81
329.972	94.81
330.201	80.81
330.43	96.81
330.658	75.81
330.887	90.81
331.115	81.81
331.344	93.81
331.572	85.81
331.801	81.81
332.03	84.81
332.258	73.81
332.486	75.81
332.715	68.81
332.943	65.81
333.172	72.81
333.4	71.81
333.629	75.81
333.857	80.81
334.085	89.81
334.314	72.81
334.542	81.81
334.771	88.81
334.999	72.81
335.227	87.81
335.455	78.81
335.684	86.81
335.912	97.81
336.14	88.81
336.369	88.81
336.597	76.81
336.825	80.81
337.053	65.81
337.281	90.81
337.51	81.81
337.738	84.81
337.966	82.81
338.194	96.81
338.422	77.81
338.65	76.81
338.878	79.81
339.106	84.81
339.334	74.81
339.562	80.81
339.79	93.81
340.018	91.81
340.246	77.81
340.474	79.81
340.702	88.81
340.93	89.81
341.158	93.81
341.386	82.81
341.614	92.81
341.842	73.81
342.07	79.81
342.298	72.81
342.526	75.81
342.754	78.81
342.981	78.81
343.209	84.81
343.437	99.81
343.665	83.81
343.893	86.81
344.12	83.81
344.348	76.81
344.576	87.81
344.804	80.81
345.031	65.81
345.259	79.81
345.487	82.81
345.714	91.81
345.942	76.81
346.17	73.81
346.397	89.81
346.625	92.81
346.853	84.81
347.08	74.81
347.308	82.81
347.535	85.81
347.763	84.81
347.99	86.81
348.218	88.81
348.445	88.81
348.673	81.81
348.9	84.81
349.128	82.81
349.355	81.81
349.583	86.81
349.81	93.81
350.037	81.81
350.265	89.81
350.492	79.81
350.72	82.81
350.947	87.81
351.174	84.81
351.402	73.81
351.629	72.81
351.856	69.81
352.083	84.81
352.311	80.81
352.538	75.81
352.765	82.81
352.992	86.81
353.22	88.81
353.447	82.81
353.674	86.81
353.901	98.81
354.128	82.81
354.355	71.81
354.583	78.81
354.81	82.81
355.037	69.81
355.264	86.81
355.491	78.81
355.718	81.81
355.945	81.81
356.172	77.81
356.399	75.81
356.626	95.81
356.853	92.81
357.08	85.81
357.307	73.81
357.534	75.81
357.761	80.81
357.988	81.81
358.215	91.81
358.441	84.81
358.668	73.81
358.895	89.81
359.122	78.81
359.349	92.81
359.576	76.81
359.802	88.81
360.029	88.81
360.256	73.81
360.483	85.81
360.709	89.81
360.936	79.81
361.163	83.81
361.39	72.81
361.616	73.81
361.843	86.81
362.07	83.81
362.296	70.81
362.523	75.81
362.749	84.81
362.976	68.81
363.203	92.81
363.429	78.81
363.656	75.81
363.882	97.81
364.109	88.81
364.335	79.81
364.562	88.81
364.788	70.81
365.015	74.81
365.241	82.81
365.468	80.81
365.694	74.81
365.92	80.81
366.147	78.81
366.373	73.81
366.599	84.81
366.826	68.81
367.052	86.81
367.278	95.81
367.505	82.81
367.731	89.81
367.957	86.81
368.184	69.81
368.41	80.81
368.636	85.81
368.862	81.81
369.089	77.81
369.315	73.81
369.541	67.81
369.767	64.81
369.993	65.81
370.219	81.81
370.445	79.81
370.672	81.81
370.898	82.81
371.124	87.81
371.35	88.81
371.576	68.81
371.802	76.81
372.028	88.81
372.254	81.81
372.48	83.81
372.706	74.81
372.932	86.81
373.158	94.81
373.384	91.81
373.61	79.81
373.835	93.81
374.061	75.81
374.287	68.81
374.513	87.81
374.739	72.81
374.965	73.81
375.191	89.81
375.416	96.81
375.642	77.81
375.868	76.81
376.094	79.81
376.319	84.81
376.545	80.81
376.771	78.81
376.997	81.81
377.222	79.81
377.448	76.81
377.674	85.81
377.899	87.81
378.125	74.81
378.35	82.81
378.576	74.81
378.802	71.81
379.027	86.81
379.253	63.81
379.478	68.81
379.704	64.81
379.929	81.81
380.155	80.81
380.38	80.81
380.606	76.81
380.831	76.81
381.057	81.81
381.282	78.81
381.507	76.81
381.733	88.81
381.958	84.81
382.184	75.81
382.409	81.81
382.634	79.81
382.86	82.81
383.085	82.81
383.31	79.81
383.535	79.81
383.761	80.81
383.986	78.81
384.211	86.81
384.436	88.81
384.662	69.81
384.887	88.81
385.112	89.81
385.337	82.81
385.562	82.81
385.787	70.81
386.013	74.81
386.238	86.81
386.463	92.81
386.688	92.81
386.913	81.81
387.138	87.81
387.363	88.81
387.588	93.81
387.813	74.81
388.038	81.81
388.263	82.81
388.488	65.81
388.713	73.81
388.938	86.81
389.163	64.81
389.387	89.81
389.612	77.81
389.837	87.81
390.062	65.81
390.287	71.81
390.512	83.81
390.736	85.81
390.961	68.81
391.186	81.81
391.411	79.81
391.636	70.81
391.86	85.81
392.085	80.81
392.31	89.81
392.534	76.81
392.759	82.81
392.984	94.81
393.208	155.81
393.433	214.81
393.658	185.81
393.882	93.81
394.107	101.81
394.331	94.81
394.556	86.81
394.78	97.81
395.005	84.81
395.229	74.81
395.454	87.81
395.678	96.81
395.903	89.81
396.127	96.81
396.352	99.81
396.576	103.81
396.801	156.81
397.025	194.81
397.249	105.81
397.474	84.81
397.698	87.81
397.922	75.81
398.147	72.81
398.371	86.81
398.595	86.81
398.82	62.81
399.044	70.81
399.268	69.81
399.492	89.81
399.717	86.81
399.941	82.81
400.165	82.81
400.389	81.81
400.613	80.81
400.837	68.81
401.062	70.81
401.286	81.81
401.51	84.81
401.734	81.81
401.958	84.81
402.182	84.81
402.406	92.81
402.63	61.81
402.854	78.81
403.078	65.81
403.302	71.81
403.526	79.81
403.75	80.81
403.974	80.81
404.198	88.81
404.422	86.81
404.645	95.81
404.869	96.81
405.093	79.81
405.317	76.81
405.541	83.81
405.765	75.81
405.988	71.81
406.212	88.81
406.436	64.81
406.66	83.81
406.883	84.81
407.107	75.81
407.331	69.81
407.555	86.81
407.778	90.81
408.002	98.81
408.226	84.81
408.449	84.81
408.673	81.81
408.896	72.81
409.12	70.81
409.344	71.81
409.567	81.81
409.791	83.81
410.014	84.81
410.238	59.81
410.461	80.81
410.685	81.81
410.908	82.81
411.132	89.81
411.355	84.81
411.578	87.81
411.802	69.81
412.025	63.81
412.249	82.81
412.472	79.81
412.695	73.81
412.919	78.81
413.142	82.81
413.365	65.81
413.589	66.81
413.812	70.81
414.035	98.81
414.258	78.81
414.482	84.81
414.705	69.81
414.928	67.81
415.151	75.81
415.374	86.81
415.597	85.81
415.821	79.81
416.044	97.81
416.267	82.81
416.49	77.81
416.713	67.81
416.936	72.81
417.159	72.81
417.382	79.81
417.605	85.81
417.828	82.81
418.051	76.81
418.274	85.81
418.497	91.81
418.72	89.81
418.943	80.81
419.166	88.81
419.389	78.81
419.611	67.81
419.834	78.81
420.057	96.81
420.28	62.81
420.503	89.81
420.726	85.81
420.948	89.81
421.171	72.81
421.394	79.81
421.617	100.81
421.839	96.81
422.062	95.81
422.285	99.81
422.507	119.81
422.73	162.81
422.953	147.81
423.175	100.81
423.398	74.81
423.621	81.81
423.843	88.81
424.066	71.81
424.288	75.81
424.511	75.81
424.733	73.81
424.956	76.81
425.178	68.81
425.401	79.81
425.623	74.81
425.846	73.81
426.068	68.81
426.291	81.81
426.513	73.81
426.735	88.81
426.958	66.81
427.18	96.81
427.402	92.81
427.625	94.81
427.847	68.81
428.069	82.81
428.292	76.81
428.514	89.81
428.736	88.81
428.958	79.81
429.181	99.81
429.403	89.81
429.625	81.81
429.847	75.81
430.069	90.81
430.292	96.81
430.514	117.81
430.736	93.81
430.958	88.81
431.18	80.81
431.402	79.81
431.624	73.81
431.846	84.81
432.068	88.81
432.29	74.81
432.512	83.81
432.734	79.81
432.956	71.81
433.178	86.81
433.4	72.81
433.622	87.81
433.844	72.81
434.066	84.81
434.287	69.81
434.509	73.81
434.731	82.81
434.953	70.81
435.175	66.81
435.397	78.81
435.618	62.81
435.84	73.81
436.062	85.81
436.284	68.81
436.505	82.81
436.727	74.81
436.949	87.81
437.17	82.81
437.392	78.81
437.614	82.81
437.835	82.81
438.057	84.81
438.278	78.81
438.5	85.81
438.721	73.81
438.943	88.81
439.165	85.81
439.386	67.81
439.608	72.81
439.829	83.81
440.05	78.81
440.272	89.81
440.493	71.81
440.715	75.81
440.936	87.81
441.158	74.81
441.379	74.81
441.6	79.81
441.822	88.81
442.043	74.81
442.264	80.81
442.486	94.81
442.707	83.81
442.928	88.81
443.149	77.81
443.371	94.81
443.592	109.81
443.813	102.81
444.034	83.81
444.255	76.81
444.476	65.81
444.698	80.81
444.919	81.81
445.14	160.81
445.361	113.81
445.582	110.81
445.803	104.81
446.024	71.81
446.245	94.81
446.466	87.81
446.687	76.81
446.908	81.81
447.129	60.81
447.35	84.81
447.571	79.81
447.792	78.81
448.013	87.81
448.234	82.81
448.455	77.81
448.675	81.81
448.896	62.81
449.117	81.81
449.338	77.81
449.559	75.81
449.779	69.81
450	68.81
450.221	74.81
450.442	75.81
450.662	62.81
450.883	68.81
451.104	87.81
451.324	72.81
451.545	89.81
451.766	82.81
451.986	84.81
452.207	57.81
452.428	74.81
452.648	86.81
452.869	85.81
453.089	92.81
453.31	90.81
453.53	71.81
453.751	79.81
453.971	73.81
454.192	78.81
454.412	83.81
454.633	78.81
454.853	78.81
455.073	71.81
455.294	71.81
455.514	85.81
455.734	69.81
455.955	79.81
456.175	64.81
456.395	68.81
456.616	87.81
456.836	81.81
457.056	77.81
457.276	82.81
457.497	68.81
457.717	90.81
457.937	75.81
458.157	76.81
458.377	72.81
458.598	72.81
458.818	77.81
459.038	76.81
459.258	70.81
459.478	66.81
459.698	86.81
459.918	73.81
460.138	77.81
460.358	80.81
460.578	80.81
460.798	85.81
461.018	93.81
461.238	84.81
461.458	83.81
461.678	55.81
461.898	66.81
462.118	88.81
462.338	74.81
462.558	83.81
462.777	74.81
462.997	86.81
463.217	92.81
463.437	68.81
463.657	74.81
463.876	66.81
464.096	78.81
464.316	69.81
464.536	63.81
464.755	68.81
464.975	85.81
465.195	68.81
465.414	87.81
465.634	72.81
465.854	71.81
466.073	68.81
466.293	71.81
466.512	80.81
466.732	72.81
466.951	80.81
467.171	84.81
467.391	84.81
467.61	72.81
467.829	79.81
468.049	74.81
468.268	98.81
468.488	79.81
468.707	78.81
468.927	77.81
469.146	81.81
469.365	73.81
469.585	90.81
469.804	77.81
470.023	77.81
470.243	70.81
470.462	75.81
470.681	82.81
470.901	88.81
471.12	93.81
471.339	86.81
471.558	74.81
471.777	75.81
471.997	75.81
472.216	82.81
472.435	92.81
472.654	71.81
472.873	68.81
473.092	67.81
473.311	70.81
473.53	70.81
473.749	81.81
473.968	88.81
474.187	64.81
474.406	79.81
474.625	77.81
474.844	74.81
475.063	65.81
475.282	85.81
475.501	85.81
475.72	87.81
475.939	92.81
476.158	90.81
476.377	73.81
476.596	78.81
476.814	69.81
477.033	78.81
477.252	79.81
477.471	68.81
477.69	73.81
477.908	85.81
478.127	74.81
478.346	70.81
478.564	84.81
478.783	73.81
479.002	78.81
479.22	80.81
479.439	82.81
479.658	73.81
479.876	90.81
480.095	80.81
480.313	76.81
480.532	80.81
480.751	80.81
480.969	80.81
481.188	85.81
481.406	76.81
481.624	73.81
481.843	81.81
482.061	89.81
482.28	74.81
482.498	80.81
482.717	88.81
482.935	77.81
483.153	82.81
483.372	75.81
483.59	79.81
483.808	99.81
484.027	83.81
484.245	73.81
484.463	80.81
484.681	87.81
484.9	78.81
485.118	85.81
485.336	81.81
485.554	73.81
485.772	74.81
485.99	78.81
486.209	77.81
486.427	82.81
486.645	74.81
486.863	81.81
487.081	81.81
487.299	92.81
487.517	90.81
487.735	78.81
487.953	88.81
488.171	80.81
488.389	78.81
488.607	73.81
488.825	77.81
489.043	85.81
489.261	80.81
489.479	82.81
489.696	84.81
489.914	76.81
490.132	74.81
490.35	79.81
490.568	79.81
490.786	75.81
491.003	67.81
491.221	82.81
491.439	91.81
491.657	94.81
491.874	67.81
492.092	81.81
492.31	77.81
492.527	80.81
492.745	78.81
492.963	85.81
493.18	90.81
493.398	67.81
493.615	72.81
493.833	90.81
494.05	93.81
494.268	88.81
494.485	78.81
494.703	94.81
494.92	74.81
495.138	76.81
495.355	66.81
495.573	77.81
495.79	77.81
496.008	85.81
496.225	72.81
496.442	90.81
496.66	85.81
496.877	76.81
497.094	81.81
497.312	81.81
497.529	66.81
497.746	83.81
497.963	92.81
498.181	73.81
498.398	70.81
498.615	87.81
498.832	74.81
499.049	74.81
499.267	85.81
499.484	83.81
499.701	59.81
499.918	72.81
500.135	77.81
500.352	75.81
500.569	86.81
500.786	97.81
501.003	78.81
501.22	77.81
501.437	80.81
501.654	79.81
501.871	69.81
502.088	76.81
502.305	78.81
502.522	80.81
502.739	88.81
502.956	81.81
503.172	68.81
503.389	60.81
503.606	62.81
503.823	84.81
504.04	72.81
504.256	80.81
504.473	85.81
504.69	79.81
504.907	83.81
505.123	81.81
505.34	88.81
505.557	70.81
505.773	79.81
505.99	84.81
506.207	73.81
506.423	78.81
506.64	88.81
506.856	79.81
507.073	81.81
507.289	86.81
507.506	65.81
507.722	72.81
507.939	65.81
508.155	84.81
508.372	90.81
508.588	71.81
508.805	87.81
509.021	76.81
509.238	83.81
509.454	63.81
509.67	85.81
509.887	74.81
510.103	81.81
510.319	81.81
510.536	88.81
510.752	81.81
510.968	84.81
511.184	68.81
511.401	86.81
511.617	94.81
511.833	74.81
512.049	70.81
512.265	89.81
512.481	70.81
512.698	73.81
512.914	71.81
513.13	92.81
513.346	73.81
513.562	75.81
513.778	88.81
513.994	72.81
514.21	81.81
514.426	75.81
514.642	89.81
514.858	72.81
515.074	86.81
515.29	100.81
515.506	75.81
515.721	76.81
515.937	87.81
516.153	79.81
516.369	92.81
516.585	75.81
516.801	88.81
517.016	81.81
517.232	75.81
517.448	93.81
517.664	80.81
517.879	77.81
518.095	76.81
518.311	74.81
518.527	80.81
518.742	80.81
518.958	83.81
519.173	98.81
519.389	93.81
519.605	86.81
519.82	60.81
520.036	71.81
