Data from HP_3_HRD10591_00007.txt Node
Date: Mon Jan 19 14:17:04 EST 2026
User: Yrep
Spectrometer: HR+D1059
Trigger mode: 1
Integration Time (sec): 1.000000E-1
Scans to average: 1
Electric dark correction enabled: true
Nonlinearity correction enabled: false
Boxcar width: 0
XAxis mode: Wavelengths
Number of Pixels in Spectrum: 2048
>>>>>Begin Spectral Data<<<<<
223.165	-27.31
223.4	-27.31
223.635	-27.31
223.869	-29.31
224.104	-18.31
224.338	-19.31
224.573	-7.31
224.808	-13.31
225.042	1.69
225.277	12.69
225.511	-13.31
225.746	13.69
225.98	-0.31
226.215	12.69
226.449	14.69
226.683	18.69
226.918	33.69
227.152	20.69
227.387	27.69
227.621	37.69
227.856	50.69
228.09	56.69
228.324	59.69
228.559	53.69
228.793	64.69
229.027	77.69
229.262	60.69
229.496	66.69
229.73	70.69
229.964	91.69
230.199	61.69
230.433	75.69
230.667	68.69
230.901	72.69
231.136	65.69
231.37	66.69
231.604	85.69
231.838	74.69
232.072	83.69
232.306	68.69
232.541	81.69
232.775	76.69
233.009	81.69
233.243	73.69
233.477	89.69
233.711	70.69
233.945	60.69
234.179	80.69
234.413	83.69
234.647	76.69
234.881	82.69
235.115	70.69
235.349	74.69
235.583	79.69
235.817	77.69
236.051	73.69
236.285	100.69
236.519	86.69
236.753	87.69
236.987	84.69
237.221	65.69
237.455	64.69
237.689	70.69
237.922	63.69
238.156	75.69
238.39	63.69
238.624	60.69
238.858	85.69
239.091	80.69
239.325	73.69
239.559	65.69
239.793	82.69
240.027	75.69
240.26	79.69
240.494	72.69
240.728	91.69
240.961	69.69
241.195	84.69
241.429	77.69
241.662	74.69
241.896	77.69
242.13	75.69
242.363	79.69
242.597	77.69
242.83	72.69
243.064	72.69
243.298	69.69
243.531	71.69
243.765	92.69
243.998	61.69
244.232	64.69
244.465	82.69
244.699	72.69
244.932	91.69
245.166	63.69
245.399	88.69
245.633	83.69
245.866	89.69
246.099	84.69
246.333	87.69
246.566	92.69
246.8	93.69
247.033	75.69
247.266	75.69
247.5	68.69
247.733	84.69
247.966	93.69
248.2	78.69
248.433	86.69
248.666	67.69
248.899	91.69
249.133	84.69
249.366	81.69
249.599	98.69
249.832	70.69
250.066	92.69
250.299	86.69
250.532	73.69
250.765	86.69
250.998	80.69
251.231	76.69
251.465	82.69
251.698	87.69
251.931	69.69
252.164	64.69
252.397	70.69
252.63	81.69
252.863	90.69
253.096	90.69
253.329	91.69
253.562	74.69
253.795	79.69
254.028	69.69
254.261	84.69
254.494	76.69
254.727	85.69
254.96	87.69
255.193	80.69
255.426	87.69
255.659	68.69
255.892	82.69
256.124	84.69
256.357	88.69
256.59	82.69
256.823	93.69
257.056	72.69
257.289	82.69
257.521	89.69
257.754	79.69
257.987	85.69
258.22	76.69
258.452	78.69
258.685	62.69
258.918	76.69
259.151	78.69
259.383	72.69
259.616	75.69
259.849	82.69
260.081	82.69
260.314	78.69
260.547	82.69
260.779	76.69
261.012	82.69
261.244	71.69
261.477	91.69
261.71	84.69
261.942	83.69
262.175	101.69
262.407	79.69
262.64	73.69
262.872	70.69
263.105	67.69
263.337	86.69
263.57	78.69
263.802	79.69
264.035	76.69
264.267	96.69
264.499	76.69
264.732	91.69
264.964	71.69
265.197	100.69
265.429	77.69
265.661	69.69
265.894	87.69
266.126	86.69
266.358	82.69
266.591	92.69
266.823	92.69
267.055	75.69
267.287	89.69
267.52	90.69
267.752	78.69
267.984	91.69
268.216	77.69
268.448	78.69
268.681	92.69
268.913	99.69
269.145	84.69
269.377	76.69
269.609	88.69
269.841	76.69
270.073	82.69
270.306	85.69
270.538	89.69
270.77	87.69
271.002	74.69
271.234	73.69
271.466	77.69
271.698	77.69
271.93	67.69
272.162	76.69
272.394	76.69
272.626	88.69
272.858	86.69
273.09	75.69
273.322	81.69
273.553	86.69
273.785	77.69
274.017	71.69
274.249	87.69
274.481	86.69
274.713	88.69
274.945	72.69
275.176	84.69
275.408	73.69
275.64	83.69
275.872	74.69
276.104	83.69
276.335	87.69
276.567	82.69
276.799	79.69
277.031	88.69
277.262	78.69
277.494	77.69
277.726	79.69
277.957	74.69
278.189	82.69
278.421	77.69
278.652	86.69
278.884	74.69
279.115	79.69
279.347	82.69
279.579	91.69
279.81	83.69
280.042	90.69
280.273	96.69
280.505	74.69
280.736	86.69
280.968	90.69
281.199	81.69
281.431	86.69
281.662	87.69
281.894	98.69
282.125	83.69
282.356	74.69
282.588	78.69
282.819	90.69
283.051	84.69
283.282	71.69
283.513	83.69
283.745	85.69
283.976	77.69
284.207	91.69
284.439	64.69
284.67	88.69
284.901	90.69
285.132	91.69
285.364	75.69
285.595	86.69
285.826	84.69
286.057	87.69
286.288	96.69
286.52	86.69
286.751	81.69
286.982	78.69
287.213	72.69
287.444	77.69
287.675	84.69
287.906	76.69
288.138	75.69
288.369	69.69
288.6	90.69
288.831	83.69
289.062	87.69
289.293	94.69
289.524	88.69
289.755	93.69
289.986	101.69
290.217	71.69
290.448	77.69
290.679	97.69
290.91	74.69
291.141	92.69
291.371	104.69
291.602	78.69
291.833	93.69
292.064	100.69
292.295	79.69
292.526	77.69
292.757	86.69
292.987	92.69
293.218	86.69
293.449	88.69
293.68	94.69
293.91	94.69
294.141	81.69
294.372	73.69
294.603	82.69
294.833	76.69
295.064	76.69
295.295	79.69
295.525	91.69
295.756	87.69
295.987	77.69
296.217	100.69
296.448	96.69
296.679	80.69
296.909	99.69
297.14	90.69
297.37	96.69
297.601	88.69
297.831	102.69
298.062	79.69
298.292	90.69
298.523	86.69
298.753	82.69
298.984	95.69
299.214	105.69
299.445	92.69
299.675	76.69
299.905	88.69
300.136	82.69
300.366	82.69
300.597	88.69
300.827	85.69
301.057	74.69
301.288	75.69
301.518	89.69
301.748	89.69
301.979	99.69
302.209	98.69
302.439	94.69
302.669	87.69
302.9	79.69
303.13	82.69
303.36	89.69
303.59	78.69
303.82	98.69
304.051	88.69
304.281	83.69
304.511	93.69
304.741	78.69
304.971	75.69
305.201	96.69
305.431	97.69
305.661	85.69
305.891	93.69
306.121	82.69
306.352	89.69
306.582	83.69
306.812	87.69
307.042	78.69
307.272	83.69
307.502	84.69
307.731	91.69
307.961	100.69
308.191	97.69
308.421	83.69
308.651	85.69
308.881	95.69
309.111	68.69
309.341	74.69
309.571	94.69
309.8	79.69
310.03	88.69
310.26	89.69
310.49	87.69
310.72	90.69
310.949	76.69
311.179	81.69
311.409	93.69
311.639	107.69
311.868	76.69
312.098	87.69
312.328	77.69
312.557	78.69
312.787	100.69
313.017	98.69
313.246	100.69
313.476	90.69
313.706	77.69
313.935	83.69
314.165	85.69
314.394	78.69
314.624	79.69
314.853	89.69
315.083	94.69
315.312	73.69
315.542	82.69
315.771	82.69
316.001	91.69
316.23	79.69
316.46	76.69
316.689	92.69
316.919	95.69
317.148	84.69
317.377	105.69
317.607	85.69
317.836	92.69
318.065	84.69
318.295	86.69
318.524	77.69
318.753	89.69
318.983	84.69
319.212	85.69
319.441	69.69
319.67	83.69
319.9	91.69
320.129	81.69
320.358	89.69
320.587	73.69
320.816	78.69
321.046	98.69
321.275	82.69
321.504	94.69
321.733	91.69
321.962	97.69
322.191	82.69
322.42	82.69
322.649	100.69
322.878	79.69
323.108	78.69
323.337	78.69
323.566	86.69
323.795	90.69
324.024	78.69
324.253	98.69
324.482	90.69
324.71	94.69
324.939	93.69
325.168	89.69
325.397	81.69
325.626	92.69
325.855	92.69
326.084	94.69
326.313	82.69
326.542	89.69
326.77	81.69
326.999	84.69
327.228	88.69
327.457	68.69
327.686	88.69
327.914	88.69
328.143	86.69
328.372	96.69
328.6	84.69
328.829	93.69
329.058	91.69
329.287	93.69
329.515	89.69
329.744	99.69
329.972	72.69
330.201	85.69
330.43	92.69
330.658	70.69
330.887	72.69
331.115	73.69
331.344	74.69
331.572	82.69
331.801	80.69
332.03	88.69
332.258	78.69
332.486	72.69
332.715	82.69
332.943	87.69
333.172	89.69
333.4	89.69
333.629	85.69
333.857	81.69
334.085	76.69
334.314	77.69
334.542	93.69
334.771	85.69
334.999	77.69
335.227	92.69
335.455	89.69
335.684	90.69
335.912	88.69
336.14	82.69
336.369	78.69
336.597	72.69
336.825	82.69
337.053	78.69
337.281	85.69
337.51	76.69
337.738	92.69
337.966	94.69
338.194	89.69
338.422	65.69
338.65	90.69
338.878	90.69
339.106	94.69
339.334	96.69
339.562	96.69
339.79	88.69
340.018	89.69
340.246	89.69
340.474	85.69
340.702	81.69
340.93	82.69
341.158	91.69
341.386	93.69
341.614	72.69
341.842	84.69
342.07	77.69
342.298	88.69
342.526	84.69
342.754	84.69
342.981	82.69
343.209	88.69
343.437	100.69
343.665	82.69
343.893	70.69
344.12	96.69
344.348	82.69
344.576	85.69
344.804	95.69
345.031	99.69
345.259	74.69
345.487	87.69
345.714	75.69
345.942	88.69
346.17	91.69
346.397	77.69
346.625	72.69
346.853	100.69
347.08	82.69
347.308	89.69
347.535	96.69
347.763	92.69
347.99	95.69
348.218	77.69
348.445	89.69
348.673	90.69
348.9	83.69
349.128	89.69
349.355	88.69
349.583	88.69
349.81	92.69
350.037	78.69
350.265	85.69
350.492	86.69
350.72	83.69
350.947	81.69
351.174	100.69
351.402	83.69
351.629	87.69
351.856	84.69
352.083	80.69
352.311	79.69
352.538	89.69
352.765	77.69
352.992	101.69
353.22	91.69
353.447	88.69
353.674	81.69
353.901	69.69
354.128	78.69
354.355	76.69
354.583	81.69
354.81	84.69
355.037	86.69
355.264	90.69
355.491	81.69
355.718	72.69
355.945	72.69
356.172	85.69
356.399	96.69
356.626	72.69
356.853	94.69
357.08	93.69
357.307	87.69
357.534	86.69
357.761	84.69
357.988	90.69
358.215	74.69
358.441	92.69
358.668	78.69
358.895	90.69
359.122	97.69
359.349	92.69
359.576	77.69
359.802	92.69
360.029	82.69
360.256	82.69
360.483	72.69
360.709	90.69
360.936	97.69
361.163	89.69
361.39	90.69
361.616	73.69
361.843	73.69
362.07	75.69
362.296	72.69
362.523	85.69
362.749	92.69
362.976	89.69
363.203	95.69
363.429	82.69
363.656	93.69
363.882	99.69
364.109	102.69
364.335	79.69
364.562	100.69
364.788	96.69
365.015	99.69
365.241	88.69
365.468	76.69
365.694	84.69
365.92	88.69
366.147	81.69
366.373	82.69
366.599	81.69
366.826	82.69
367.052	77.69
367.278	80.69
367.505	90.69
367.731	93.69
367.957	96.69
368.184	83.69
368.41	72.69
368.636	88.69
368.862	90.69
369.089	99.69
369.315	76.69
369.541	70.69
369.767	82.69
369.993	81.69
370.219	90.69
370.445	86.69
370.672	78.69
370.898	88.69
371.124	90.69
371.35	93.69
371.576	81.69
371.802	86.69
372.028	91.69
372.254	88.69
372.48	92.69
372.706	82.69
372.932	96.69
373.158	84.69
373.384	91.69
373.61	64.69
373.835	76.69
374.061	90.69
374.287	79.69
374.513	84.69
374.739	90.69
374.965	76.69
375.191	77.69
375.416	98.69
375.642	84.69
375.868	90.69
376.094	82.69
376.319	103.69
376.545	92.69
376.771	90.69
376.997	84.69
377.222	92.69
377.448	89.69
377.674	86.69
377.899	87.69
378.125	76.69
378.35	79.69
378.576	78.69
378.802	84.69
379.027	85.69
379.253	92.69
379.478	71.69
379.704	99.69
379.929	87.69
380.155	92.69
380.38	91.69
380.606	78.69
380.831	76.69
381.057	91.69
381.282	82.69
381.507	80.69
381.733	83.69
381.958	78.69
382.184	84.69
382.409	88.69
382.634	85.69
382.86	72.69
383.085	94.69
383.31	92.69
383.535	86.69
383.761	85.69
383.986	78.69
384.211	80.69
384.436	84.69
384.662	93.69
384.887	83.69
385.112	95.69
385.337	89.69
385.562	82.69
385.787	72.69
386.013	88.69
386.238	86.69
386.463	81.69
386.688	88.69
386.913	80.69
387.138	80.69
387.363	89.69
387.588	86.69
387.813	94.69
388.038	71.69
388.263	102.69
388.488	87.69
388.713	77.69
388.938	89.69
389.163	77.69
389.387	86.69
389.612	97.69
389.837	82.69
390.062	83.69
390.287	88.69
390.512	96.69
390.736	93.69
390.961	82.69
391.186	75.69
391.411	75.69
391.636	83.69
391.86	86.69
392.085	88.69
392.31	81.69
392.534	85.69
392.759	100.69
392.984	101.69
393.208	130.69
393.433	141.69
393.658	126.69
393.882	98.69
394.107	90.69
394.331	84.69
394.556	96.69
394.78	96.69
395.005	75.69
395.229	78.69
395.454	86.69
395.678	102.69
395.903	98.69
396.127	102.69
396.352	97.69
396.576	108.69
396.801	124.69
397.025	130.69
397.249	106.69
397.474	108.69
397.698	78.69
397.922	71.69
398.147	91.69
398.371	92.69
398.595	88.69
398.82	68.69
399.044	88.69
399.268	73.69
399.492	84.69
399.717	91.69
399.941	73.69
400.165	89.69
400.389	96.69
400.613	82.69
400.837	91.69
401.062	93.69
401.286	89.69
401.51	82.69
401.734	81.69
401.958	80.69
402.182	77.69
402.406	76.69
402.63	82.69
402.854	76.69
403.078	90.69
403.302	90.69
403.526	84.69
403.75	96.69
403.974	84.69
404.198	84.69
404.422	81.69
404.645	105.69
404.869	79.69
405.093	75.69
405.317	96.69
405.541	86.69
405.765	82.69
405.988	78.69
406.212	77.69
406.436	86.69
406.66	89.69
406.883	77.69
407.107	95.69
407.331	90.69
407.555	94.69
407.778	87.69
408.002	102.69
408.226	93.69
408.449	91.69
408.673	90.69
408.896	74.69
409.12	96.69
409.344	89.69
409.567	92.69
409.791	82.69
410.014	88.69
410.238	84.69
410.461	85.69
410.685	90.69
410.908	86.69
411.132	97.69
411.355	95.69
411.578	84.69
411.802	88.69
412.025	94.69
412.249	79.69
412.472	88.69
412.695	76.69
412.919	74.69
413.142	87.69
413.365	89.69
413.589	85.69
413.812	82.69
414.035	77.69
414.258	75.69
414.482	88.69
414.705	84.69
414.928	76.69
415.151	94.69
415.374	84.69
415.597	88.69
415.821	100.69
416.044	90.69
416.267	75.69
416.49	84.69
416.713	82.69
416.936	82.69
417.159	75.69
417.382	77.69
417.605	96.69
417.828	89.69
418.051	72.69
418.274	96.69
418.497	88.69
418.72	90.69
418.943	84.69
419.166	83.69
419.389	90.69
419.611	99.69
419.834	88.69
420.057	86.69
420.28	85.69
420.503	87.69
420.726	84.69
420.948	84.69
421.171	87.69
421.394	76.69
421.617	98.69
421.839	102.69
422.062	107.69
422.285	131.69
422.507	151.69
422.73	219.69
422.953	209.69
423.175	133.69
423.398	110.69
423.621	89.69
423.843	97.69
424.066	88.69
424.288	73.69
424.511	85.69
424.733	85.69
424.956	82.69
425.178	77.69
425.401	90.69
425.623	80.69
425.846	79.69
426.068	85.69
426.291	88.69
426.513	81.69
426.735	82.69
426.958	67.69
427.18	91.69
427.402	83.69
427.625	86.69
427.847	93.69
428.069	102.69
428.292	98.69
428.514	100.69
428.736	85.69
428.958	99.69
429.181	93.69
429.403	82.69
429.625	91.69
429.847	92.69
430.069	125.69
430.292	99.69
430.514	122.69
430.736	108.69
430.958	107.69
431.18	82.69
431.402	92.69
431.624	94.69
431.846	99.69
432.068	105.69
432.29	84.69
432.512	92.69
432.734	68.69
432.956	89.69
433.178	83.69
433.4	77.69
433.622	88.69
433.844	88.69
434.066	87.69
434.287	84.69
434.509	96.69
434.731	79.69
434.953	78.69
435.175	70.69
435.397	92.69
435.618	90.69
435.84	73.69
436.062	94.69
436.284	96.69
436.505	83.69
436.727	89.69
436.949	75.69
437.17	70.69
437.392	96.69
437.614	83.69
437.835	85.69
438.057	91.69
438.278	86.69
438.5	82.69
438.721	89.69
438.943	63.69
439.165	97.69
439.386	80.69
439.608	86.69
439.829	83.69
440.05	85.69
440.272	74.69
440.493	90.69
440.715	79.69
440.936	90.69
441.158	87.69
441.379	74.69
441.6	85.69
441.822	85.69
442.043	84.69
442.264	84.69
442.486	91.69
442.707	110.69
442.928	107.69
443.149	86.69
443.371	104.69
443.592	141.69
443.813	124.69
444.034	84.69
444.255	91.69
444.476	101.69
444.698	92.69
444.919	100.69
445.14	181.69
445.361	159.69
445.582	159.69
445.803	149.69
446.024	88.69
446.245	84.69
446.466	85.69
446.687	79.69
446.908	85.69
447.129	92.69
447.35	95.69
447.571	78.69
447.792	74.69
448.013	82.69
448.234	85.69
448.455	86.69
448.675	81.69
448.896	74.69
449.117	73.69
449.338	76.69
449.559	80.69
449.779	76.69
450	73.69
450.221	82.69
450.442	84.69
450.662	83.69
450.883	83.69
451.104	77.69
451.324	76.69
451.545	95.69
451.766	84.69
451.986	82.69
452.207	96.69
452.428	75.69
452.648	94.69
452.869	94.69
453.089	85.69
453.31	83.69
453.53	97.69
453.751	81.69
453.971	78.69
454.192	101.69
454.412	94.69
454.633	91.69
454.853	84.69
455.073	90.69
455.294	99.69
455.514	70.69
455.734	86.69
455.955	89.69
456.175	74.69
456.395	79.69
456.616	81.69
456.836	76.69
457.056	74.69
457.276	72.69
457.497	96.69
457.717	90.69
457.937	100.69
458.157	86.69
458.377	89.69
458.598	83.69
458.818	78.69
459.038	95.69
459.258	79.69
459.478	77.69
459.698	79.69
459.918	85.69
460.138	81.69
460.358	89.69
460.578	83.69
460.798	101.69
461.018	96.69
461.238	83.69
461.458	89.69
461.678	94.69
461.898	75.69
462.118	89.69
462.338	87.69
462.558	78.69
462.777	82.69
462.997	72.69
463.217	89.69
463.437	81.69
463.657	83.69
463.876	78.69
464.096	91.69
464.316	67.69
464.536	105.69
464.755	80.69
464.975	93.69
465.195	64.69
465.414	96.69
465.634	87.69
465.854	91.69
466.073	82.69
466.293	82.69
466.512	81.69
466.732	82.69
466.951	89.69
467.171	68.69
467.391	83.69
467.61	86.69
467.829	94.69
468.049	101.69
468.268	94.69
468.488	83.69
468.707	91.69
468.927	84.69
469.146	74.69
469.365	72.69
469.585	91.69
469.804	87.69
470.023	72.69
470.243	82.69
470.462	98.69
470.681	101.69
470.901	83.69
471.12	96.69
471.339	80.69
471.558	91.69
471.777	101.69
471.997	74.69
472.216	84.69
472.435	94.69
472.654	93.69
472.873	86.69
473.092	85.69
473.311	105.69
473.53	88.69
473.749	73.69
473.968	81.69
474.187	87.69
474.406	93.69
474.625	96.69
474.844	84.69
475.063	89.69
475.282	90.69
475.501	84.69
475.72	89.69
475.939	90.69
476.158	100.69
476.377	87.69
476.596	90.69
476.814	89.69
477.033	77.69
477.252	97.69
477.471	84.69
477.69	88.69
477.908	106.69
478.127	81.69
478.346	88.69
478.564	80.69
478.783	100.69
479.002	89.69
479.22	92.69
479.439	82.69
479.658	87.69
479.876	78.69
480.095	84.69
480.313	84.69
480.532	90.69
480.751	84.69
480.969	90.69
481.188	77.69
481.406	82.69
481.624	93.69
481.843	91.69
482.061	88.69
482.28	102.69
482.498	104.69
482.717	98.69
482.935	81.69
483.153	91.69
483.372	101.69
483.59	94.69
483.808	82.69
484.027	76.69
484.245	84.69
484.463	92.69
484.681	90.69
484.9	75.69
485.118	86.69
485.336	74.69
485.554	75.69
485.772	79.69
485.99	93.69
486.209	79.69
486.427	87.69
486.645	93.69
486.863	90.69
487.081	89.69
487.299	82.69
487.517	94.69
487.735	84.69
487.953	120.69
488.171	114.69
488.389	94.69
488.607	95.69
488.825	87.69
489.043	81.69
489.261	79.69
489.479	90.69
489.696	92.69
489.914	87.69
490.132	94.69
490.35	91.69
490.568	85.69
490.786	92.69
491.003	86.69
491.221	73.69
491.439	87.69
491.657	93.69
491.874	81.69
492.092	97.69
492.31	103.69
492.527	93.69
492.745	85.69
492.963	99.69
493.18	90.69
493.398	78.69
493.615	95.69
493.833	92.69
494.05	92.69
494.268	83.69
494.485	85.69
494.703	94.69
494.92	90.69
495.138	76.69
495.355	102.69
495.573	77.69
495.79	88.69
496.008	103.69
496.225	77.69
496.442	86.69
496.66	100.69
496.877	82.69
497.094	95.69
497.312	85.69
497.529	85.69
497.746	89.69
497.963	93.69
498.181	88.69
498.398	98.69
498.615	82.69
498.832	88.69
499.049	87.69
499.267	86.69
499.484	87.69
499.701	80.69
499.918	96.69
500.135	88.69
500.352	89.69
500.569	84.69
500.786	90.69
501.003	88.69
501.22	86.69
501.437	85.69
501.654	85.69
501.871	98.69
502.088	98.69
502.305	98.69
502.522	92.69
502.739	89.69
502.956	88.69
503.172	82.69
503.389	91.69
503.606	92.69
503.823	88.69
504.04	82.69
504.256	88.69
504.473	107.69
504.69	109.69
504.907	94.69
505.123	89.69
505.34	86.69
505.557	79.69
505.773	86.69
505.99	96.69
506.207	92.69
506.423	93.69
506.64	84.69
506.856	82.69
507.073	77.69
507.289	82.69
507.506	80.69
507.722	87.69
507.939	88.69
508.155	74.69
508.372	82.69
508.588	93.69
508.805	87.69
509.021	93.69
509.238	91.69
509.454	85.69
509.67	81.69
509.887	78.69
510.103	75.69
510.319	90.69
510.536	83.69
510.752	77.69
510.968	86.69
511.184	74.69
511.401	84.69
511.617	91.69
511.833	84.69
512.049	83.69
512.265	92.69
512.481	87.69
512.698	84.69
512.914	86.69
513.13	76.69
513.346	82.69
513.562	94.69
513.778	71.69
513.994	91.69
514.21	94.69
514.426	97.69
514.642	100.69
514.858	89.69
515.074	72.69
515.29	104.69
515.506	86.69
515.721	82.69
515.937	92.69
516.153	74.69
516.369	90.69
516.585	85.69
516.801	71.69
517.016	89.69
517.232	81.69
517.448	88.69
517.664	82.69
517.879	77.69
518.095	92.69
518.311	98.69
518.527	94.69
518.742	109.69
518.958	97.69
