Data from HP_3_HRD10591_00041.txt Node
Date: Mon Jan 19 14:17:21 EST 2026
User: Yrep
Spectrometer: HR+D1059
Trigger mode: 1
Integration Time (sec): 1.000000E-1
Scans to average: 1
Electric dark correction enabled: true
Nonlinearity correction enabled: false
Boxcar width: 0
XAxis mode: Wavelengths
Number of Pixels in Spectrum: 2048
>>>>>Begin Spectral Data<<<<<
223.165	-14.69
223.4	-14.69
223.635	-14.69
223.869	-21.69
224.104	-11.69
224.338	-15.69
224.573	-24.69
224.808	-27.69
225.042	-8.69
225.277	-3.69
225.511	9.31
225.746	0.31
225.98	12.31
226.215	22.31
226.449	10.31
226.683	22.31
226.918	29.31
227.152	22.31
227.387	35.31
227.621	52.31
227.856	38.31
228.09	55.31
228.324	54.31
228.559	71.31
228.793	70.31
229.027	71.31
229.262	59.31
229.496	73.31
229.73	61.31
229.964	78.31
230.199	73.31
230.433	64.31
230.667	75.31
230.901	65.31
231.136	78.31
231.37	83.31
231.604	76.31
231.838	91.31
232.072	75.31
232.306	89.31
232.541	90.31
232.775	93.31
233.009	78.31
233.243	80.31
233.477	86.31
233.711	88.31
233.945	84.31
234.179	88.31
234.413	73.31
234.647	85.31
234.881	75.31
235.115	72.31
235.349	71.31
235.583	92.31
235.817	70.31
236.051	80.31
236.285	84.31
236.519	74.31
236.753	68.31
236.987	76.31
237.221	71.31
237.455	76.31
237.689	84.31
237.922	78.31
238.156	79.31
238.39	77.31
238.624	76.31
238.858	75.31
239.091	78.31
239.325	80.31
239.559	64.31
239.793	71.31
240.027	84.31
240.26	74.31
240.494	76.31
240.728	74.31
240.961	74.31
241.195	63.31
241.429	68.31
241.662	78.31
241.896	84.31
242.13	74.31
242.363	74.31
242.597	88.31
242.83	87.31
243.064	88.31
243.298	75.31
243.531	73.31
243.765	76.31
243.998	70.31
244.232	78.31
244.465	74.31
244.699	74.31
244.932	79.31
245.166	74.31
245.399	86.31
245.633	74.31
245.866	72.31
246.099	90.31
246.333	86.31
246.566	72.31
246.8	75.31
247.033	79.31
247.266	69.31
247.5	83.31
247.733	78.31
247.966	61.31
248.2	79.31
248.433	84.31
248.666	72.31
248.899	87.31
249.133	84.31
249.366	78.31
249.599	88.31
249.832	82.31
250.066	85.31
250.299	82.31
250.532	93.31
250.765	71.31
250.998	77.31
251.231	77.31
251.465	92.31
251.698	92.31
251.931	85.31
252.164	83.31
252.397	90.31
252.63	77.31
252.863	90.31
253.096	87.31
253.329	68.31
253.562	72.31
253.795	84.31
254.028	78.31
254.261	81.31
254.494	91.31
254.727	96.31
254.96	94.31
255.193	79.31
255.426	74.31
255.659	68.31
255.892	78.31
256.124	74.31
256.357	82.31
256.59	74.31
256.823	86.31
257.056	87.31
257.289	86.31
257.521	85.31
257.754	90.31
257.987	87.31
258.22	90.31
258.452	76.31
258.685	88.31
258.918	86.31
259.151	72.31
259.383	69.31
259.616	93.31
259.849	79.31
260.081	88.31
260.314	86.31
260.547	74.31
260.779	88.31
261.012	76.31
261.244	80.31
261.477	91.31
261.71	76.31
261.942	82.31
262.175	84.31
262.407	68.31
262.64	81.31
262.872	85.31
263.105	82.31
263.337	84.31
263.57	86.31
263.802	83.31
264.035	83.31
264.267	90.31
264.499	72.31
264.732	78.31
264.964	83.31
265.197	78.31
265.429	88.31
265.661	91.31
265.894	77.31
266.126	85.31
266.358	86.31
266.591	85.31
266.823	77.31
267.055	86.31
267.287	96.31
267.52	95.31
267.752	90.31
267.984	84.31
268.216	78.31
268.448	88.31
268.681	78.31
268.913	96.31
269.145	88.31
269.377	84.31
269.609	81.31
269.841	92.31
270.073	90.31
270.306	93.31
270.538	85.31
270.77	86.31
271.002	81.31
271.234	86.31
271.466	75.31
271.698	71.31
271.93	89.31
272.162	82.31
272.394	96.31
272.626	86.31
272.858	78.31
273.09	86.31
273.322	77.31
273.553	78.31
273.785	83.31
274.017	79.31
274.249	97.31
274.481	89.31
274.713	75.31
274.945	89.31
275.176	90.31
275.408	71.31
275.64	75.31
275.872	89.31
276.104	82.31
276.335	82.31
276.567	86.31
276.799	69.31
277.031	63.31
277.262	78.31
277.494	93.31
277.726	77.31
277.957	76.31
278.189	92.31
278.421	74.31
278.652	88.31
278.884	80.31
279.115	92.31
279.347	81.31
279.579	102.31
279.81	84.31
280.042	100.31
280.273	96.31
280.505	80.31
280.736	86.31
280.968	95.31
281.199	72.31
281.431	82.31
281.662	84.31
281.894	90.31
282.125	94.31
282.356	85.31
282.588	80.31
282.819	94.31
283.051	86.31
283.282	81.31
283.513	90.31
283.745	88.31
283.976	71.31
284.207	97.31
284.439	84.31
284.67	81.31
284.901	94.31
285.132	89.31
285.364	89.31
285.595	90.31
285.826	73.31
286.057	93.31
286.288	67.31
286.52	88.31
286.751	103.31
286.982	85.31
287.213	92.31
287.444	86.31
287.675	82.31
287.906	77.31
288.138	82.31
288.369	83.31
288.6	78.31
288.831	90.31
289.062	94.31
289.293	85.31
289.524	89.31
289.755	81.31
289.986	84.31
290.217	81.31
290.448	75.31
290.679	93.31
290.91	99.31
291.141	75.31
291.371	88.31
291.602	99.31
291.833	88.31
292.064	92.31
292.295	95.31
292.526	81.31
292.757	82.31
292.987	99.31
293.218	77.31
293.449	85.31
293.68	82.31
293.91	93.31
294.141	85.31
294.372	72.31
294.603	78.31
294.833	70.31
295.064	84.31
295.295	84.31
295.525	76.31
295.756	90.31
295.987	96.31
296.217	100.31
296.448	83.31
296.679	89.31
296.909	76.31
297.14	101.31
297.37	91.31
297.601	85.31
297.831	77.31
298.062	98.31
298.292	97.31
298.523	89.31
298.753	77.31
298.984	82.31
299.214	74.31
299.445	82.31
299.675	91.31
299.905	89.31
300.136	89.31
300.366	83.31
300.597	75.31
300.827	82.31
301.057	82.31
301.288	73.31
301.518	79.31
301.748	83.31
301.979	108.31
302.209	85.31
302.439	78.31
302.669	76.31
302.9	88.31
303.13	82.31
303.36	97.31
303.59	76.31
303.82	85.31
304.051	84.31
304.281	85.31
304.511	61.31
304.741	70.31
304.971	85.31
305.201	74.31
305.431	103.31
305.661	91.31
305.891	88.31
306.121	88.31
306.352	96.31
306.582	86.31
306.812	85.31
307.042	87.31
307.272	79.31
307.502	86.31
307.731	98.31
307.961	88.31
308.191	85.31
308.421	72.31
308.651	100.31
308.881	83.31
309.111	98.31
309.341	89.31
309.571	94.31
309.8	89.31
310.03	87.31
310.26	75.31
310.49	104.31
310.72	100.31
310.949	93.31
311.179	94.31
311.409	85.31
311.639	86.31
311.868	97.31
312.098	88.31
312.328	100.31
312.557	88.31
312.787	90.31
313.017	86.31
313.246	90.31
313.476	88.31
313.706	86.31
313.935	90.31
314.165	87.31
314.394	84.31
314.624	88.31
314.853	92.31
315.083	75.31
315.312	95.31
315.542	72.31
315.771	80.31
316.001	93.31
316.23	85.31
316.46	91.31
316.689	76.31
316.919	81.31
317.148	95.31
317.377	76.31
317.607	90.31
317.836	79.31
318.065	90.31
318.295	83.31
318.524	97.31
318.753	85.31
318.983	74.31
319.212	100.31
319.441	86.31
319.67	76.31
319.9	77.31
320.129	70.31
320.358	89.31
320.587	84.31
320.816	89.31
321.046	88.31
321.275	85.31
321.504	70.31
321.733	74.31
321.962	74.31
322.191	81.31
322.42	91.31
322.649	89.31
322.878	88.31
323.108	84.31
323.337	73.31
323.566	88.31
323.795	83.31
324.024	88.31
324.253	86.31
324.482	90.31
324.71	79.31
324.939	87.31
325.168	86.31
325.397	85.31
325.626	75.31
325.855	90.31
326.084	94.31
326.313	99.31
326.542	70.31
326.77	93.31
326.999	102.31
327.228	82.31
327.457	84.31
327.686	71.31
327.914	84.31
328.143	100.31
328.372	96.31
328.6	89.31
328.829	93.31
329.058	90.31
329.287	79.31
329.515	88.31
329.744	85.31
329.972	74.31
330.201	83.31
330.43	78.31
330.658	82.31
330.887	80.31
331.115	81.31
331.344	89.31
331.572	93.31
331.801	78.31
332.03	87.31
332.258	87.31
332.486	81.31
332.715	98.31
332.943	85.31
333.172	85.31
333.4	78.31
333.629	100.31
333.857	93.31
334.085	84.31
334.314	94.31
334.542	88.31
334.771	75.31
334.999	77.31
335.227	83.31
335.455	84.31
335.684	91.31
335.912	78.31
336.14	88.31
336.369	92.31
336.597	86.31
336.825	95.31
337.053	69.31
337.281	76.31
337.51	77.31
337.738	84.31
337.966	78.31
338.194	95.31
338.422	97.31
338.65	86.31
338.878	91.31
339.106	81.31
339.334	76.31
339.562	85.31
339.79	88.31
340.018	82.31
340.246	85.31
340.474	82.31
340.702	99.31
340.93	85.31
341.158	85.31
341.386	79.31
341.614	93.31
341.842	74.31
342.07	85.31
342.298	96.31
342.526	72.31
342.754	86.31
342.981	82.31
343.209	86.31
343.437	106.31
343.665	89.31
343.893	81.31
344.12	96.31
344.348	94.31
344.576	79.31
344.804	89.31
345.031	93.31
345.259	75.31
345.487	79.31
345.714	94.31
345.942	86.31
346.17	78.31
346.397	87.31
346.625	92.31
346.853	86.31
347.08	97.31
347.308	80.31
347.535	83.31
347.763	77.31
347.99	90.31
348.218	99.31
348.445	85.31
348.673	81.31
348.9	100.31
349.128	92.31
349.355	88.31
349.583	93.31
349.81	80.31
350.037	78.31
350.265	74.31
350.492	66.31
350.72	74.31
350.947	94.31
351.174	76.31
351.402	80.31
351.629	102.31
351.856	84.31
352.083	70.31
352.311	92.31
352.538	84.31
352.765	78.31
352.992	102.31
353.22	90.31
353.447	78.31
353.674	101.31
353.901	97.31
354.128	96.31
354.355	83.31
354.583	75.31
354.81	84.31
355.037	84.31
355.264	76.31
355.491	83.31
355.718	85.31
355.945	90.31
356.172	85.31
356.399	76.31
356.626	69.31
356.853	75.31
357.08	76.31
357.307	92.31
357.534	78.31
357.761	84.31
357.988	79.31
358.215	81.31
358.441	88.31
358.668	88.31
358.895	83.31
359.122	96.31
359.349	74.31
359.576	80.31
359.802	92.31
360.029	68.31
360.256	77.31
360.483	92.31
360.709	82.31
360.936	84.31
361.163	79.31
361.39	84.31
361.616	89.31
361.843	86.31
362.07	84.31
362.296	92.31
362.523	74.31
362.749	86.31
362.976	88.31
363.203	96.31
363.429	95.31
363.656	87.31
363.882	77.31
364.109	101.31
364.335	86.31
364.562	91.31
364.788	70.31
365.015	87.31
365.241	98.31
365.468	95.31
365.694	90.31
365.92	87.31
366.147	86.31
366.373	80.31
366.599	79.31
366.826	90.31
367.052	78.31
367.278	82.31
367.505	83.31
367.731	87.31
367.957	88.31
368.184	74.31
368.41	95.31
368.636	84.31
368.862	92.31
369.089	86.31
369.315	83.31
369.541	105.31
369.767	86.31
369.993	93.31
370.219	72.31
370.445	88.31
370.672	90.31
370.898	77.31
371.124	77.31
371.35	74.31
371.576	79.31
371.802	98.31
372.028	95.31
372.254	76.31
372.48	93.31
372.706	98.31
372.932	84.31
373.158	89.31
373.384	92.31
373.61	78.31
373.835	98.31
374.061	85.31
374.287	78.31
374.513	92.31
374.739	98.31
374.965	78.31
375.191	88.31
375.416	91.31
375.642	82.31
375.868	92.31
376.094	81.31
376.319	79.31
376.545	89.31
376.771	91.31
376.997	76.31
377.222	83.31
377.448	87.31
377.674	74.31
377.899	78.31
378.125	77.31
378.35	92.31
378.576	73.31
378.802	86.31
379.027	84.31
379.253	88.31
379.478	100.31
379.704	92.31
379.929	96.31
380.155	80.31
380.38	77.31
380.606	80.31
380.831	84.31
381.057	94.31
381.282	82.31
381.507	86.31
381.733	82.31
381.958	79.31
382.184	102.31
382.409	86.31
382.634	92.31
382.86	84.31
383.085	81.31
383.31	72.31
383.535	102.31
383.761	90.31
383.986	92.31
384.211	88.31
384.436	82.31
384.662	87.31
384.887	83.31
385.112	76.31
385.337	76.31
385.562	76.31
385.787	88.31
386.013	78.31
386.238	91.31
386.463	80.31
386.688	88.31
386.913	86.31
387.138	83.31
387.363	87.31
387.588	83.31
387.813	78.31
388.038	91.31
388.263	88.31
388.488	90.31
388.713	75.31
388.938	72.31
389.163	94.31
389.387	86.31
389.612	70.31
389.837	70.31
390.062	80.31
390.287	71.31
390.512	76.31
390.736	81.31
390.961	90.31
391.186	89.31
391.411	81.31
391.636	89.31
391.86	82.31
392.085	92.31
392.31	78.31
392.534	79.31
392.759	91.31
392.984	109.31
393.208	130.31
393.433	176.31
393.658	140.31
393.882	95.31
394.107	90.31
394.331	88.31
394.556	87.31
394.78	80.31
395.005	73.31
395.229	86.31
395.454	86.31
395.678	85.31
395.903	73.31
396.127	98.31
396.352	101.31
396.576	118.31
396.801	151.31
397.025	155.31
397.249	107.31
397.474	70.31
397.698	103.31
397.922	86.31
398.147	70.31
398.371	80.31
398.595	76.31
398.82	74.31
399.044	76.31
399.268	88.31
399.492	73.31
399.717	99.31
399.941	86.31
400.165	70.31
400.389	84.31
400.613	81.31
400.837	75.31
401.062	87.31
401.286	78.31
401.51	88.31
401.734	64.31
401.958	79.31
402.182	77.31
402.406	84.31
402.63	83.31
402.854	83.31
403.078	84.31
403.302	83.31
403.526	81.31
403.75	80.31
403.974	85.31
404.198	64.31
404.422	96.31
404.645	77.31
404.869	74.31
405.093	83.31
405.317	80.31
405.541	82.31
405.765	81.31
405.988	76.31
406.212	82.31
406.436	84.31
406.66	84.31
406.883	90.31
407.107	84.31
407.331	87.31
407.555	86.31
407.778	93.31
408.002	88.31
408.226	79.31
408.449	87.31
408.673	84.31
408.896	80.31
409.12	90.31
409.344	78.31
409.567	84.31
409.791	80.31
410.014	81.31
410.238	86.31
410.461	82.31
410.685	81.31
410.908	79.31
411.132	91.31
411.355	83.31
411.578	93.31
411.802	94.31
412.025	78.31
412.249	83.31
412.472	84.31
412.695	89.31
412.919	87.31
413.142	89.31
413.365	92.31
413.589	91.31
413.812	75.31
414.035	90.31
414.258	82.31
414.482	63.31
414.705	85.31
414.928	89.31
415.151	78.31
415.374	77.31
415.597	82.31
415.821	76.31
416.044	84.31
416.267	87.31
416.49	76.31
416.713	96.31
416.936	93.31
417.159	84.31
417.382	90.31
417.605	76.31
417.828	91.31
418.051	67.31
418.274	94.31
418.497	96.31
418.72	84.31
418.943	84.31
419.166	74.31
419.389	88.31
419.611	91.31
419.834	74.31
420.057	87.31
420.28	87.31
420.503	67.31
420.726	91.31
420.948	89.31
421.171	70.31
421.394	88.31
421.617	92.31
421.839	98.31
422.062	97.31
422.285	89.31
422.507	118.31
422.73	143.31
422.953	131.31
423.175	99.31
423.398	93.31
423.621	83.31
423.843	92.31
424.066	90.31
424.288	93.31
424.511	85.31
424.733	79.31
424.956	85.31
425.178	87.31
425.401	101.31
425.623	80.31
425.846	68.31
426.068	85.31
426.291	84.31
426.513	88.31
426.735	75.31
426.958	86.31
427.18	74.31
427.402	83.31
427.625	77.31
427.847	82.31
428.069	87.31
428.292	90.31
428.514	97.31
428.736	90.31
428.958	93.31
429.181	96.31
429.403	92.31
429.625	76.31
429.847	75.31
430.069	96.31
430.292	102.31
430.514	97.31
430.736	84.31
430.958	91.31
431.18	81.31
431.402	86.31
431.624	90.31
431.846	75.31
432.068	100.31
432.29	83.31
432.512	86.31
432.734	82.31
432.956	77.31
433.178	74.31
433.4	82.31
433.622	76.31
433.844	68.31
434.066	89.31
434.287	72.31
434.509	66.31
434.731	78.31
434.953	74.31
435.175	79.31
435.397	88.31
435.618	83.31
435.84	86.31
436.062	79.31
436.284	83.31
436.505	76.31
436.727	82.31
436.949	82.31
437.17	86.31
437.392	68.31
437.614	84.31
437.835	84.31
438.057	87.31
438.278	94.31
438.5	74.31
438.721	86.31
438.943	88.31
439.165	83.31
439.386	84.31
439.608	84.31
439.829	81.31
440.05	82.31
440.272	87.31
440.493	81.31
440.715	91.31
440.936	90.31
441.158	88.31
441.379	86.31
441.6	88.31
441.822	83.31
442.043	84.31
442.264	105.31
442.486	90.31
442.707	92.31
442.928	85.31
443.149	84.31
443.371	84.31
443.592	86.31
443.813	89.31
444.034	93.31
444.255	85.31
444.476	81.31
444.698	94.31
444.919	84.31
445.14	157.31
445.361	133.31
445.582	102.31
445.803	98.31
446.024	85.31
446.245	76.31
446.466	80.31
446.687	84.31
446.908	97.31
447.129	79.31
447.35	72.31
447.571	91.31
447.792	94.31
448.013	93.31
448.234	69.31
448.455	74.31
448.675	77.31
448.896	86.31
449.117	81.31
449.338	80.31
449.559	77.31
449.779	80.31
450	84.31
450.221	75.31
450.442	88.31
450.662	84.31
450.883	77.31
451.104	86.31
451.324	83.31
451.545	78.31
451.766	74.31
451.986	88.31
452.207	82.31
452.428	86.31
452.648	87.31
452.869	83.31
453.089	84.31
453.31	84.31
453.53	93.31
453.751	86.31
453.971	88.31
454.192	83.31
454.412	84.31
454.633	88.31
454.853	65.31
455.073	82.31
455.294	92.31
455.514	97.31
455.734	84.31
455.955	69.31
456.175	74.31
456.395	73.31
456.616	97.31
456.836	73.31
457.056	82.31
457.276	85.31
457.497	82.31
457.717	72.31
457.937	80.31
458.157	82.31
458.377	86.31
458.598	78.31
458.818	92.31
459.038	101.31
459.258	82.31
459.478	93.31
459.698	93.31
459.918	82.31
460.138	74.31
460.358	63.31
460.578	72.31
460.798	89.31
461.018	90.31
461.238	97.31
461.458	80.31
461.678	94.31
461.898	84.31
462.118	85.31
462.338	84.31
462.558	82.31
462.777	80.31
462.997	84.31
463.217	86.31
463.437	102.31
463.657	85.31
463.876	78.31
464.096	88.31
464.316	82.31
464.536	90.31
464.755	72.31
464.975	84.31
465.195	78.31
465.414	88.31
465.634	89.31
465.854	77.31
466.073	85.31
466.293	85.31
466.512	68.31
466.732	78.31
466.951	87.31
467.171	76.31
467.391	82.31
467.61	86.31
467.829	75.31
468.049	88.31
468.268	83.31
468.488	85.31
468.707	82.31
468.927	73.31
469.146	90.31
469.365	90.31
469.585	84.31
469.804	92.31
470.023	68.31
470.243	79.31
470.462	90.31
470.681	76.31
470.901	86.31
471.12	70.31
471.339	87.31
471.558	88.31
471.777	83.31
471.997	84.31
472.216	79.31
472.435	73.31
472.654	69.31
472.873	85.31
473.092	68.31
473.311	85.31
473.53	84.31
473.749	79.31
473.968	96.31
474.187	88.31
474.406	91.31
474.625	85.31
474.844	88.31
475.063	74.31
475.282	73.31
475.501	82.31
475.72	79.31
475.939	81.31
476.158	82.31
476.377	65.31
476.596	81.31
476.814	91.31
477.033	83.31
477.252	93.31
477.471	85.31
477.69	83.31
477.908	83.31
478.127	100.31
478.346	75.31
478.564	84.31
478.783	80.31
479.002	72.31
479.22	82.31
479.439	98.31
479.658	83.31
479.876	83.31
480.095	80.31
480.313	82.31
480.532	81.31
480.751	82.31
480.969	72.31
481.188	85.31
481.406	89.31
481.624	89.31
481.843	84.31
482.061	84.31
482.28	93.31
482.498	85.31
482.717	81.31
482.935	78.31
483.153	79.31
483.372	82.31
483.59	81.31
483.808	79.31
484.027	81.31
484.245	82.31
484.463	86.31
484.681	86.31
484.9	72.31
485.118	82.31
485.336	84.31
485.554	77.31
485.772	80.31
485.99	73.31
486.209	66.31
486.427	70.31
486.645	91.31
486.863	85.31
487.081	85.31
487.299	94.31
487.517	86.31
487.735	99.31
487.953	87.31
488.171	98.31
488.389	90.31
488.607	84.31
488.825	76.31
489.043	84.31
489.261	85.31
489.479	76.31
489.696	82.31
489.914	77.31
490.132	73.31
490.35	101.31
490.568	87.31
490.786	76.31
491.003	90.31
491.221	85.31
491.439	92.31
491.657	83.31
491.874	105.31
492.092	90.31
492.31	89.31
492.527	83.31
492.745	86.31
492.963	68.31
493.18	88.31
493.398	81.31
493.615	78.31
493.833	86.31
494.05	82.31
494.268	88.31
494.485	80.31
494.703	88.31
494.92	75.31
495.138	86.31
495.355	74.31
495.573	82.31
495.79	82.31
496.008	85.31
496.225	90.31
496.442	85.31
496.66	71.31
496.877	86.31
497.094	92.31
497.312	84.31
497.529	68.31
497.746	85.31
497.963	69.31
498.181	84.31
498.398	86.31
498.615	78.31
498.832	80.31
499.049	91.31
499.267	89.31
499.484	89.31
499.701	84.31
499.918	86.31
500.135	76.31
500.352	86.31
500.569	74.31
500.786	85.31
501.003	90.31
501.22	88.31
501.437	92.31
501.654	92.31
501.871	70.31
502.088	87.31
502.305	92.31
502.522	77.31
502.739	88.31
502.956	90.31
503.172	91.31
503.389	86.31
503.606	92.31
503.823	90.31
504.04	84.31
504.256	77.31
504.473	78.31
504.69	85.31
504.907	84.31
505.123	89.31
505.34	82.31
505.557	88.31
505.773	85.31
505.99	91.31
506.207	87.31
506.423	97.31
506.64	87.31
506.856	98.31
507.073	76.31
507.289	75.31
507.506	87.31
507.722	93.31
507.939	81.31
508.155	95.31
508.372	97.31
508.588	77.31
508.805	92.31
509.021	87.31
509.238	89.31
509.454	83.31
509.67	87.31
509.887	74.31
510.103	89.31
510.319	84.31
510.536	79.31
510.752	70.31
510.968	91.31
511.184	80.31
511.401	84.31
511.617	81.31
511.833	83.31
512.049	77.31
512.265	78.31
512.481	93.31
512.698	83.31
512.914	77.31
513.13	75.31
513.346	74.31
513.562	89.31
513.778	92.31
513.994	93.31
514.21	81.31
514.426	101.31
514.642	78.31
514.858	92.31
515.074	77.31
515.29	87.31
515.506	92.31
515.721	85.31
515.937	85.31
516.153	101.31
516.369	78.31
516.585	88.31
516.801	86.31
517.016	91.31
517.232	96.31
517.448	96.31
517.664	92.31
517.879	78.31
518.095	82.31
518.311	93.31
518.527	84.31
518.742	78.31
518.958	84.31
519.173	84.31
519.389	77.31
519.605	73.31
