Data from HP_3_HRD10591_00049.txt Node
Date: Mon Jan 19 14:17:25 EST 2026
User: Yrep
Spectrometer: HR+D1059
Trigger mode: 1
Integration Time (sec): 1.000000E-1
Scans to average: 1
Electric dark correction enabled: true
Nonlinearity correction enabled: false
Boxcar width: 0
XAxis mode: Wavelengths
Number of Pixels in Spectrum: 2048
>>>>>Begin Spectral Data<<<<<
223.165	-29.31
223.4	-29.31
223.635	-29.31
223.869	-17.31
224.104	-23.31
224.338	-25.31
224.573	-9.31
224.808	-21.31
225.042	-0.31
225.277	-1.31
225.511	14.69
225.746	11.69
225.98	9.69
226.215	3.69
226.449	16.69
226.683	16.69
226.918	17.69
227.152	36.69
227.387	33.69
227.621	34.69
227.856	46.69
228.09	50.69
228.324	50.69
228.559	61.69
228.793	63.69
229.027	58.69
229.262	61.69
229.496	71.69
229.73	71.69
229.964	75.69
230.199	85.69
230.433	68.69
230.667	92.69
230.901	66.69
231.136	87.69
231.37	84.69
231.604	89.69
231.838	82.69
232.072	79.69
232.306	94.69
232.541	75.69
232.775	86.69
233.009	85.69
233.243	82.69
233.477	93.69
233.711	88.69
233.945	72.69
234.179	81.69
234.413	98.69
234.647	75.69
234.881	92.69
235.115	76.69
235.349	88.69
235.583	87.69
235.817	89.69
236.051	81.69
236.285	84.69
236.519	80.69
236.753	70.69
236.987	86.69
237.221	68.69
237.455	74.69
237.689	77.69
237.922	59.69
238.156	63.69
238.39	72.69
238.624	65.69
238.858	78.69
239.091	92.69
239.325	81.69
239.559	88.69
239.793	79.69
240.027	82.69
240.26	79.69
240.494	78.69
240.728	71.69
240.961	70.69
241.195	79.69
241.429	70.69
241.662	75.69
241.896	74.69
242.13	75.69
242.363	63.69
242.597	81.69
242.83	82.69
243.064	79.69
243.298	77.69
243.531	91.69
243.765	73.69
243.998	91.69
244.232	73.69
244.465	81.69
244.699	84.69
244.932	77.69
245.166	80.69
245.399	70.69
245.633	69.69
245.866	80.69
246.099	87.69
246.333	79.69
246.566	79.69
246.8	78.69
247.033	83.69
247.266	88.69
247.5	79.69
247.733	86.69
247.966	86.69
248.2	75.69
248.433	86.69
248.666	74.69
248.899	76.69
249.133	77.69
249.366	83.69
249.599	79.69
249.832	74.69
250.066	100.69
250.299	80.69
250.532	77.69
250.765	90.69
250.998	76.69
251.231	91.69
251.465	82.69
251.698	84.69
251.931	89.69
252.164	84.69
252.397	85.69
252.63	79.69
252.863	76.69
253.096	88.69
253.329	89.69
253.562	73.69
253.795	77.69
254.028	78.69
254.261	91.69
254.494	82.69
254.727	74.69
254.96	76.69
255.193	99.69
255.426	89.69
255.659	84.69
255.892	78.69
256.124	74.69
256.357	82.69
256.59	77.69
256.823	91.69
257.056	84.69
257.289	76.69
257.521	79.69
257.754	88.69
257.987	93.69
258.22	86.69
258.452	84.69
258.685	81.69
258.918	65.69
259.151	82.69
259.383	97.69
259.616	78.69
259.849	79.69
260.081	90.69
260.314	73.69
260.547	77.69
260.779	85.69
261.012	75.69
261.244	75.69
261.477	92.69
261.71	77.69
261.942	80.69
262.175	92.69
262.407	68.69
262.64	85.69
262.872	74.69
263.105	92.69
263.337	101.69
263.57	79.69
263.802	92.69
264.035	90.69
264.267	84.69
264.499	81.69
264.732	82.69
264.964	87.69
265.197	85.69
265.429	81.69
265.661	81.69
265.894	88.69
266.126	77.69
266.358	87.69
266.591	67.69
266.823	82.69
267.055	101.69
267.287	78.69
267.52	76.69
267.752	81.69
267.984	80.69
268.216	98.69
268.448	72.69
268.681	88.69
268.913	76.69
269.145	74.69
269.377	68.69
269.609	81.69
269.841	73.69
270.073	86.69
270.306	79.69
270.538	78.69
270.77	75.69
271.002	70.69
271.234	86.69
271.466	77.69
271.698	91.69
271.93	92.69
272.162	98.69
272.394	88.69
272.626	78.69
272.858	84.69
273.09	71.69
273.322	89.69
273.553	80.69
273.785	85.69
274.017	84.69
274.249	72.69
274.481	94.69
274.713	80.69
274.945	94.69
275.176	75.69
275.408	78.69
275.64	82.69
275.872	79.69
276.104	85.69
276.335	95.69
276.567	77.69
276.799	78.69
277.031	76.69
277.262	91.69
277.494	74.69
277.726	78.69
277.957	93.69
278.189	77.69
278.421	83.69
278.652	87.69
278.884	94.69
279.115	90.69
279.347	85.69
279.579	94.69
279.81	96.69
280.042	87.69
280.273	85.69
280.505	80.69
280.736	84.69
280.968	84.69
281.199	105.69
281.431	94.69
281.662	98.69
281.894	89.69
282.125	79.69
282.356	88.69
282.588	81.69
282.819	91.69
283.051	86.69
283.282	92.69
283.513	79.69
283.745	71.69
283.976	74.69
284.207	73.69
284.439	101.69
284.67	86.69
284.901	82.69
285.132	89.69
285.364	84.69
285.595	92.69
285.826	92.69
286.057	102.69
286.288	87.69
286.52	77.69
286.751	83.69
286.982	88.69
287.213	86.69
287.444	90.69
287.675	97.69
287.906	87.69
288.138	92.69
288.369	89.69
288.6	90.69
288.831	86.69
289.062	93.69
289.293	89.69
289.524	88.69
289.755	103.69
289.986	90.69
290.217	80.69
290.448	81.69
290.679	98.69
290.91	88.69
291.141	87.69
291.371	80.69
291.602	88.69
291.833	76.69
292.064	93.69
292.295	68.69
292.526	86.69
292.757	90.69
292.987	90.69
293.218	89.69
293.449	90.69
293.68	99.69
293.91	87.69
294.141	93.69
294.372	80.69
294.603	81.69
294.833	93.69
295.064	86.69
295.295	80.69
295.525	86.69
295.756	94.69
295.987	84.69
296.217	86.69
296.448	85.69
296.679	94.69
296.909	80.69
297.14	92.69
297.37	84.69
297.601	76.69
297.831	84.69
298.062	94.69
298.292	94.69
298.523	103.69
298.753	98.69
298.984	86.69
299.214	93.69
299.445	94.69
299.675	77.69
299.905	102.69
300.136	84.69
300.366	86.69
300.597	84.69
300.827	78.69
301.057	84.69
301.288	80.69
301.518	80.69
301.748	65.69
301.979	96.69
302.209	81.69
302.439	90.69
302.669	74.69
302.9	88.69
303.13	91.69
303.36	88.69
303.59	100.69
303.82	89.69
304.051	90.69
304.281	89.69
304.511	84.69
304.741	105.69
304.971	86.69
305.201	82.69
305.431	80.69
305.661	86.69
305.891	81.69
306.121	86.69
306.352	90.69
306.582	95.69
306.812	75.69
307.042	79.69
307.272	87.69
307.502	84.69
307.731	85.69
307.961	86.69
308.191	83.69
308.421	96.69
308.651	98.69
308.881	96.69
309.111	80.69
309.341	79.69
309.571	98.69
309.8	88.69
310.03	95.69
310.26	91.69
310.49	93.69
310.72	76.69
310.949	86.69
311.179	88.69
311.409	88.69
311.639	83.69
311.868	93.69
312.098	89.69
312.328	89.69
312.557	85.69
312.787	73.69
313.017	88.69
313.246	82.69
313.476	95.69
313.706	82.69
313.935	87.69
314.165	96.69
314.394	100.69
314.624	80.69
314.853	95.69
315.083	80.69
315.312	107.69
315.542	94.69
315.771	98.69
316.001	94.69
316.23	100.69
316.46	66.69
316.689	83.69
316.919	88.69
317.148	86.69
317.377	96.69
317.607	87.69
317.836	100.69
318.065	97.69
318.295	92.69
318.524	87.69
318.753	86.69
318.983	86.69
319.212	89.69
319.441	85.69
319.67	94.69
319.9	99.69
320.129	68.69
320.358	95.69
320.587	96.69
320.816	84.69
321.046	99.69
321.275	94.69
321.504	76.69
321.733	93.69
321.962	86.69
322.191	75.69
322.42	84.69
322.649	84.69
322.878	83.69
323.108	94.69
323.337	96.69
323.566	99.69
323.795	96.69
324.024	76.69
324.253	69.69
324.482	80.69
324.71	90.69
324.939	74.69
325.168	92.69
325.397	81.69
325.626	91.69
325.855	100.69
326.084	92.69
326.313	101.69
326.542	100.69
326.77	82.69
326.999	95.69
327.228	96.69
327.457	90.69
327.686	87.69
327.914	74.69
328.143	96.69
328.372	85.69
328.6	92.69
328.829	87.69
329.058	95.69
329.287	93.69
329.515	84.69
329.744	86.69
329.972	91.69
330.201	71.69
330.43	68.69
330.658	84.69
330.887	90.69
331.115	80.69
331.344	73.69
331.572	90.69
331.801	79.69
332.03	92.69
332.258	91.69
332.486	76.69
332.715	86.69
332.943	80.69
333.172	93.69
333.4	84.69
333.629	82.69
333.857	80.69
334.085	94.69
334.314	87.69
334.542	79.69
334.771	86.69
334.999	99.69
335.227	83.69
335.455	91.69
335.684	94.69
335.912	96.69
336.14	86.69
336.369	94.69
336.597	83.69
336.825	82.69
337.053	78.69
337.281	95.69
337.51	97.69
337.738	85.69
337.966	92.69
338.194	85.69
338.422	77.69
338.65	86.69
338.878	88.69
339.106	90.69
339.334	84.69
339.562	71.69
339.79	93.69
340.018	86.69
340.246	72.69
340.474	97.69
340.702	80.69
340.93	80.69
341.158	90.69
341.386	95.69
341.614	93.69
341.842	79.69
342.07	86.69
342.298	97.69
342.526	78.69
342.754	90.69
342.981	83.69
343.209	88.69
343.437	95.69
343.665	84.69
343.893	95.69
344.12	98.69
344.348	98.69
344.576	80.69
344.804	75.69
345.031	90.69
345.259	84.69
345.487	90.69
345.714	92.69
345.942	76.69
346.17	78.69
346.397	81.69
346.625	82.69
346.853	90.69
347.08	92.69
347.308	94.69
347.535	106.69
347.763	94.69
347.99	90.69
348.218	85.69
348.445	80.69
348.673	94.69
348.9	100.69
349.128	84.69
349.355	80.69
349.583	79.69
349.81	80.69
350.037	81.69
350.265	87.69
350.492	77.69
350.72	84.69
350.947	86.69
351.174	86.69
351.402	66.69
351.629	83.69
351.856	92.69
352.083	84.69
352.311	69.69
352.538	75.69
352.765	91.69
352.992	102.69
353.22	88.69
353.447	74.69
353.674	90.69
353.901	92.69
354.128	96.69
354.355	84.69
354.583	90.69
354.81	90.69
355.037	86.69
355.264	88.69
355.491	79.69
355.718	94.69
355.945	64.69
356.172	97.69
356.399	92.69
356.626	82.69
356.853	88.69
357.08	95.69
357.307	102.69
357.534	93.69
357.761	78.69
357.988	92.69
358.215	92.69
358.441	94.69
358.668	93.69
358.895	100.69
359.122	98.69
359.349	77.69
359.576	80.69
359.802	98.69
360.029	90.69
360.256	71.69
360.483	82.69
360.709	74.69
360.936	93.69
361.163	98.69
361.39	80.69
361.616	91.69
361.843	77.69
362.07	79.69
362.296	86.69
362.523	92.69
362.749	99.69
362.976	98.69
363.203	107.69
363.429	95.69
363.656	95.69
363.882	89.69
364.109	89.69
364.335	103.69
364.562	89.69
364.788	81.69
365.015	94.69
365.241	94.69
365.468	81.69
365.694	86.69
365.92	92.69
366.147	87.69
366.373	77.69
366.599	79.69
366.826	99.69
367.052	104.69
367.278	87.69
367.505	89.69
367.731	86.69
367.957	75.69
368.184	85.69
368.41	84.69
368.636	79.69
368.862	86.69
369.089	69.69
369.315	89.69
369.541	78.69
369.767	79.69
369.993	79.69
370.219	77.69
370.445	80.69
370.672	89.69
370.898	82.69
371.124	99.69
371.35	90.69
371.576	84.69
371.802	89.69
372.028	74.69
372.254	82.69
372.48	80.69
372.706	78.69
372.932	87.69
373.158	91.69
373.384	94.69
373.61	104.69
373.835	107.69
374.061	98.69
374.287	87.69
374.513	90.69
374.739	88.69
374.965	98.69
375.191	93.69
375.416	86.69
375.642	91.69
375.868	77.69
376.094	80.69
376.319	92.69
376.545	90.69
376.771	72.69
376.997	76.69
377.222	71.69
377.448	83.69
377.674	97.69
377.899	94.69
378.125	77.69
378.35	90.69
378.576	96.69
378.802	80.69
379.027	90.69
379.253	90.69
379.478	90.69
379.704	88.69
379.929	75.69
380.155	88.69
380.38	84.69
380.606	86.69
380.831	88.69
381.057	95.69
381.282	91.69
381.507	78.69
381.733	88.69
381.958	88.69
382.184	99.69
382.409	82.69
382.634	76.69
382.86	73.69
383.085	87.69
383.31	90.69
383.535	95.69
383.761	76.69
383.986	79.69
384.211	87.69
384.436	92.69
384.662	95.69
384.887	86.69
385.112	92.69
385.337	104.69
385.562	90.69
385.787	92.69
386.013	83.69
386.238	74.69
386.463	81.69
386.688	90.69
386.913	83.69
387.138	92.69
387.363	95.69
387.588	94.69
387.813	101.69
388.038	80.69
388.263	91.69
388.488	86.69
388.713	75.69
388.938	78.69
389.163	71.69
389.387	86.69
389.612	89.69
389.837	90.69
390.062	82.69
390.287	92.69
390.512	88.69
390.736	88.69
390.961	77.69
391.186	94.69
391.411	94.69
391.636	80.69
391.86	84.69
392.085	88.69
392.31	85.69
392.534	97.69
392.759	102.69
392.984	125.69
393.208	214.69
393.433	323.69
393.658	246.69
393.882	115.69
394.107	91.69
394.331	100.69
394.556	96.69
394.78	84.69
395.005	92.69
395.229	70.69
395.454	95.69
395.678	93.69
395.903	103.69
396.127	105.69
396.352	119.69
396.576	136.69
396.801	226.69
397.025	251.69
397.249	136.69
397.474	99.69
397.698	91.69
397.922	83.69
398.147	80.69
398.371	77.69
398.595	78.69
398.82	82.69
399.044	85.69
399.268	92.69
399.492	91.69
399.717	75.69
399.941	74.69
400.165	99.69
400.389	76.69
400.613	87.69
400.837	82.69
401.062	90.69
401.286	84.69
401.51	98.69
401.734	80.69
401.958	96.69
402.182	92.69
402.406	81.69
402.63	80.69
402.854	91.69
403.078	93.69
403.302	80.69
403.526	79.69
403.75	92.69
403.974	99.69
404.198	84.69
404.422	92.69
404.645	90.69
404.869	102.69
405.093	86.69
405.317	91.69
405.541	83.69
405.765	93.69
405.988	88.69
406.212	100.69
406.436	90.69
406.66	86.69
406.883	104.69
407.107	94.69
407.331	97.69
407.555	100.69
407.778	101.69
408.002	111.69
408.226	82.69
408.449	84.69
408.673	80.69
408.896	95.69
409.12	94.69
409.344	86.69
409.567	100.69
409.791	84.69
410.014	92.69
410.238	95.69
410.461	101.69
410.685	80.69
410.908	100.69
411.132	81.69
411.355	97.69
411.578	86.69
411.802	72.69
412.025	75.69
412.249	90.69
412.472	73.69
412.695	73.69
412.919	80.69
413.142	61.69
413.365	92.69
413.589	68.69
413.812	86.69
414.035	99.69
414.258	90.69
414.482	82.69
414.705	90.69
414.928	88.69
415.151	79.69
415.374	87.69
415.597	86.69
415.821	80.69
416.044	76.69
416.267	93.69
416.49	80.69
416.713	94.69
416.936	79.69
417.159	106.69
417.382	80.69
417.605	86.69
417.828	95.69
418.051	77.69
418.274	86.69
418.497	91.69
418.72	75.69
418.943	84.69
419.166	80.69
419.389	72.69
419.611	86.69
419.834	78.69
420.057	67.69
420.28	73.69
420.503	80.69
420.726	84.69
420.948	72.69
421.171	84.69
421.394	90.69
421.617	81.69
421.839	94.69
422.062	86.69
422.285	94.69
422.507	110.69
422.73	173.69
422.953	166.69
423.175	110.69
423.398	81.69
423.621	77.69
423.843	75.69
424.066	95.69
424.288	82.69
424.511	76.69
424.733	90.69
424.956	90.69
425.178	70.69
425.401	65.69
425.623	81.69
425.846	89.69
426.068	62.69
426.291	80.69
426.513	80.69
426.735	76.69
426.958	74.69
427.18	84.69
427.402	84.69
427.625	80.69
427.847	90.69
428.069	97.69
428.292	105.69
428.514	99.69
428.736	80.69
428.958	95.69
429.181	82.69
429.403	88.69
429.625	73.69
429.847	93.69
430.069	119.69
430.292	116.69
430.514	88.69
430.736	74.69
430.958	91.69
431.18	100.69
431.402	80.69
431.624	102.69
431.846	80.69
432.068	93.69
432.29	78.69
432.512	78.69
432.734	86.69
432.956	78.69
433.178	89.69
433.4	74.69
433.622	74.69
433.844	73.69
434.066	82.69
434.287	92.69
434.509	85.69
434.731	98.69
434.953	82.69
435.175	84.69
435.397	99.69
435.618	81.69
435.84	91.69
436.062	95.69
436.284	88.69
436.505	78.69
436.727	88.69
436.949	68.69
437.17	88.69
437.392	77.69
437.614	88.69
437.835	85.69
438.057	80.69
438.278	80.69
438.5	78.69
438.721	76.69
438.943	72.69
439.165	88.69
439.386	87.69
439.608	73.69
439.829	75.69
440.05	81.69
440.272	80.69
440.493	70.69
440.715	78.69
440.936	86.69
441.158	84.69
441.379	94.69
441.6	76.69
441.822	82.69
442.043	85.69
442.264	79.69
442.486	84.69
442.707	90.69
442.928	94.69
443.149	89.69
443.371	100.69
443.592	92.69
443.813	97.69
444.034	89.69
444.255	96.69
444.476	86.69
444.698	93.69
444.919	93.69
445.14	139.69
445.361	131.69
445.582	114.69
445.803	117.69
446.024	101.69
446.245	77.69
446.466	86.69
446.687	80.69
446.908	79.69
447.129	80.69
447.35	91.69
447.571	92.69
447.792	98.69
448.013	92.69
448.234	94.69
448.455	93.69
448.675	74.69
448.896	86.69
449.117	86.69
449.338	80.69
449.559	84.69
449.779	75.69
450	84.69
450.221	82.69
450.442	88.69
450.662	88.69
450.883	95.69
451.104	100.69
451.324	86.69
451.545	90.69
451.766	89.69
451.986	90.69
452.207	83.69
452.428	84.69
452.648	88.69
452.869	81.69
453.089	82.69
453.31	71.69
453.53	76.69
453.751	82.69
453.971	82.69
454.192	75.69
454.412	71.69
454.633	62.69
454.853	80.69
455.073	93.69
455.294	83.69
455.514	96.69
455.734	78.69
455.955	80.69
456.175	75.69
456.395	83.69
456.616	74.69
456.836	96.69
457.056	87.69
457.276	84.69
457.497	84.69
457.717	78.69
457.937	76.69
458.157	86.69
458.377	85.69
458.598	86.69
458.818	94.69
459.038	74.69
459.258	84.69
459.478	73.69
459.698	90.69
459.918	79.69
460.138	94.69
460.358	94.69
460.578	92.69
460.798	84.69
461.018	103.69
461.238	75.69
461.458	86.69
461.678	96.69
461.898	82.69
462.118	87.69
462.338	81.69
462.558	77.69
462.777	90.69
462.997	84.69
463.217	83.69
463.437	91.69
463.657	81.69
463.876	87.69
464.096	83.69
464.316	78.69
464.536	76.69
464.755	85.69
464.975	76.69
465.195	86.69
465.414	99.69
465.634	84.69
465.854	93.69
466.073	96.69
466.293	76.69
466.512	76.69
466.732	92.69
466.951	90.69
467.171	83.69
467.391	79.69
467.61	87.69
467.829	81.69
468.049	89.69
468.268	90.69
468.488	83.69
468.707	89.69
468.927	90.69
469.146	89.69
469.365	87.69
469.585	87.69
469.804	88.69
470.023	97.69
470.243	81.69
470.462	97.69
470.681	94.69
470.901	91.69
471.12	75.69
471.339	93.69
471.558	83.69
471.777	75.69
471.997	83.69
472.216	92.69
472.435	78.69
472.654	80.69
472.873	90.69
473.092	84.69
473.311	81.69
473.53	77.69
473.749	98.69
473.968	90.69
474.187	81.69
474.406	90.69
474.625	94.69
474.844	75.69
475.063	85.69
475.282	92.69
475.501	88.69
475.72	103.69
475.939	80.69
476.158	82.69
476.377	79.69
476.596	90.69
476.814	93.69
477.033	86.69
477.252	86.69
477.471	80.69
477.69	82.69
477.908	97.69
478.127	85.69
478.346	72.69
478.564	73.69
478.783	75.69
479.002	80.69
479.22	101.69
479.439	92.69
479.658	88.69
479.876	94.69
480.095	83.69
480.313	88.69
480.532	97.69
480.751	87.69
480.969	82.69
481.188	79.69
481.406	84.69
481.624	86.69
481.843	86.69
482.061	77.69
482.28	95.69
482.498	94.69
482.717	85.69
482.935	102.69
483.153	92.69
483.372	92.69
483.59	91.69
483.808	79.69
484.027	94.69
484.245	96.69
484.463	90.69
484.681	102.69
484.9	87.69
485.118	94.69
485.336	85.69
485.554	84.69
485.772	86.69
485.99	84.69
486.209	67.69
486.427	77.69
486.645	93.69
486.863	86.69
487.081	90.69
487.299	89.69
487.517	90.69
487.735	87.69
487.953	88.69
488.171	95.69
488.389	77.69
488.607	84.69
488.825	88.69
489.043	92.69
489.261	86.69
489.479	81.69
489.696	86.69
489.914	70.69
490.132	102.69
490.35	86.69
490.568	87.69
490.786	82.69
491.003	80.69
491.221	98.69
491.439	102.69
491.657	92.69
491.874	80.69
492.092	84.69
492.31	94.69
492.527	82.69
492.745	87.69
492.963	84.69
493.18	76.69
493.398	76.69
493.615	96.69
493.833	69.69
494.05	94.69
494.268	99.69
494.485	82.69
494.703	77.69
494.92	86.69
495.138	90.69
495.355	91.69
495.573	103.69
495.79	93.69
496.008	75.69
496.225	93.69
496.442	78.69
496.66	100.69
496.877	90.69
497.094	88.69
497.312	84.69
497.529	85.69
497.746	95.69
497.963	78.69
498.181	76.69
498.398	101.69
498.615	90.69
498.832	78.69
499.049	86.69
499.267	74.69
499.484	84.69
499.701	88.69
499.918	88.69
500.135	77.69
500.352	94.69
500.569	75.69
500.786	98.69
501.003	88.69
501.22	81.69
501.437	91.69
501.654	85.69
501.871	86.69
502.088	79.69
502.305	68.69
502.522	72.69
502.739	92.69
502.956	103.69
503.172	80.69
503.389	87.69
503.606	82.69
503.823	96.69
504.04	86.69
504.256	92.69
504.473	79.69
504.69	77.69
504.907	77.69
505.123	95.69
505.34	90.69
505.557	93.69
505.773	93.69
505.99	87.69
506.207	81.69
506.423	76.69
506.64	94.69
506.856	93.69
507.073	88.69
507.289	86.69
507.506	74.69
507.722	85.69
507.939	86.69
508.155	77.69
508.372	86.69
508.588	80.69
508.805	90.69
509.021	80.69
509.238	72.69
509.454	67.69
509.67	77.69
509.887	95.69
510.103	80.69
510.319	91.69
510.536	90.69
510.752	96.69
510.968	86.69
511.184	85.69
511.401	89.69
511.617	82.69
511.833	92.69
512.049	87.69
512.265	83.69
512.481	107.69
512.698	81.69
512.914	83.69
513.13	99.69
513.346	99.69
513.562	88.69
513.778	95.69
513.994	90.69
514.21	91.69
514.426	90.69
514.642	94.69
514.858	84.69
515.074	76.69
515.29	80.69
515.506	81.69
515.721	66.69
515.937	79.69
516.153	89.69
516.369	80.69
516.585	88.69
516.801	92.69
517.016	86.69
517.232	83.69
517.448	86.69
517.664	88.69
517.879	94.69
518.095	84.69
518.311	90.69
518.527	94.69
518.742	89.69
518.958	86.69
519.173	85.69
