Data from HP_3_HRD10591_00029.txt Node
Date: Mon Jan 19 14:17:15 EST 2026
User: Yrep
Spectrometer: HR+D1059
Trigger mode: 1
Integration Time (sec): 1.000000E-1
Scans to average: 1
Electric dark correction enabled: true
Nonlinearity correction enabled: false
Boxcar width: 0
XAxis mode: Wavelengths
Number of Pixels in Spectrum: 2048
>>>>>Begin Spectral Data<<<<<
223.165	-16.62
223.4	-16.62
223.635	-16.62
223.869	-23.62
224.104	-18.62
224.338	-18.62
224.573	-21.62
224.808	-12.62
225.042	-4.62
225.277	-13.62
225.511	2.38
225.746	2.38
225.98	-4.62
226.215	21.38
226.449	19.38
226.683	23.38
226.918	31.38
227.152	34.38
227.387	31.38
227.621	38.38
227.856	42.38
228.09	42.38
228.324	37.38
228.559	57.38
228.793	68.38
229.027	56.38
229.262	72.38
229.496	67.38
229.73	75.38
229.964	67.38
230.199	80.38
230.433	77.38
230.667	74.38
230.901	66.38
231.136	89.38
231.37	73.38
231.604	93.38
231.838	79.38
232.072	70.38
232.306	68.38
232.541	76.38
232.775	85.38
233.009	94.38
233.243	76.38
233.477	103.38
233.711	73.38
233.945	85.38
234.179	67.38
234.413	75.38
234.647	76.38
234.881	83.38
235.115	77.38
235.349	83.38
235.583	83.38
235.817	94.38
236.051	77.38
236.285	79.38
236.519	86.38
236.753	82.38
236.987	73.38
237.221	81.38
237.455	78.38
237.689	73.38
237.922	74.38
238.156	79.38
238.39	71.38
238.624	59.38
238.858	74.38
239.091	70.38
239.325	91.38
239.559	81.38
239.793	87.38
240.027	86.38
240.26	80.38
240.494	83.38
240.728	71.38
240.961	67.38
241.195	71.38
241.429	77.38
241.662	65.38
241.896	73.38
242.13	77.38
242.363	79.38
242.597	70.38
242.83	80.38
243.064	85.38
243.298	74.38
243.531	69.38
243.765	60.38
243.998	67.38
244.232	81.38
244.465	86.38
244.699	85.38
244.932	66.38
245.166	85.38
245.399	70.38
245.633	80.38
245.866	85.38
246.099	78.38
246.333	81.38
246.566	85.38
246.8	84.38
247.033	84.38
247.266	72.38
247.5	89.38
247.733	76.38
247.966	88.38
248.2	88.38
248.433	71.38
248.666	73.38
248.899	83.38
249.133	69.38
249.366	78.38
249.599	74.38
249.832	88.38
250.066	74.38
250.299	85.38
250.532	87.38
250.765	79.38
250.998	70.38
251.231	75.38
251.465	61.38
251.698	75.38
251.931	76.38
252.164	81.38
252.397	78.38
252.63	84.38
252.863	74.38
253.096	72.38
253.329	71.38
253.562	75.38
253.795	76.38
254.028	67.38
254.261	65.38
254.494	85.38
254.727	85.38
254.96	75.38
255.193	61.38
255.426	84.38
255.659	74.38
255.892	78.38
256.124	90.38
256.357	75.38
256.59	78.38
256.823	73.38
257.056	80.38
257.289	92.38
257.521	79.38
257.754	81.38
257.987	72.38
258.22	93.38
258.452	76.38
258.685	79.38
258.918	87.38
259.151	82.38
259.383	78.38
259.616	75.38
259.849	68.38
260.081	83.38
260.314	81.38
260.547	80.38
260.779	71.38
261.012	87.38
261.244	79.38
261.477	86.38
261.71	74.38
261.942	71.38
262.175	72.38
262.407	75.38
262.64	92.38
262.872	85.38
263.105	77.38
263.337	85.38
263.57	77.38
263.802	85.38
264.035	81.38
264.267	84.38
264.499	82.38
264.732	81.38
264.964	76.38
265.197	75.38
265.429	87.38
265.661	78.38
265.894	77.38
266.126	85.38
266.358	86.38
266.591	79.38
266.823	87.38
267.055	83.38
267.287	83.38
267.52	81.38
267.752	93.38
267.984	83.38
268.216	86.38
268.448	88.38
268.681	87.38
268.913	92.38
269.145	87.38
269.377	96.38
269.609	69.38
269.841	95.38
270.073	79.38
270.306	76.38
270.538	74.38
270.77	74.38
271.002	78.38
271.234	62.38
271.466	68.38
271.698	73.38
271.93	80.38
272.162	89.38
272.394	88.38
272.626	79.38
272.858	94.38
273.09	69.38
273.322	73.38
273.553	86.38
273.785	74.38
274.017	85.38
274.249	79.38
274.481	88.38
274.713	74.38
274.945	89.38
275.176	75.38
275.408	79.38
275.64	70.38
275.872	76.38
276.104	95.38
276.335	72.38
276.567	93.38
276.799	83.38
277.031	85.38
277.262	69.38
277.494	80.38
277.726	81.38
277.957	62.38
278.189	73.38
278.421	96.38
278.652	85.38
278.884	99.38
279.115	83.38
279.347	80.38
279.579	74.38
279.81	83.38
280.042	82.38
280.273	75.38
280.505	83.38
280.736	82.38
280.968	70.38
281.199	82.38
281.431	76.38
281.662	80.38
281.894	84.38
282.125	86.38
282.356	89.38
282.588	78.38
282.819	88.38
283.051	69.38
283.282	77.38
283.513	86.38
283.745	79.38
283.976	74.38
284.207	87.38
284.439	101.38
284.67	93.38
284.901	72.38
285.132	85.38
285.364	75.38
285.595	61.38
285.826	71.38
286.057	72.38
286.288	76.38
286.52	85.38
286.751	89.38
286.982	76.38
287.213	83.38
287.444	100.38
287.675	71.38
287.906	80.38
288.138	93.38
288.369	85.38
288.6	87.38
288.831	87.38
289.062	84.38
289.293	86.38
289.524	81.38
289.755	73.38
289.986	81.38
290.217	76.38
290.448	77.38
290.679	91.38
290.91	105.38
291.141	83.38
291.371	80.38
291.602	91.38
291.833	96.38
292.064	68.38
292.295	79.38
292.526	93.38
292.757	72.38
292.987	82.38
293.218	90.38
293.449	91.38
293.68	90.38
293.91	90.38
294.141	87.38
294.372	67.38
294.603	91.38
294.833	88.38
295.064	88.38
295.295	91.38
295.525	88.38
295.756	89.38
295.987	85.38
296.217	86.38
296.448	82.38
296.679	76.38
296.909	94.38
297.14	81.38
297.37	78.38
297.601	83.38
297.831	70.38
298.062	87.38
298.292	87.38
298.523	76.38
298.753	71.38
298.984	82.38
299.214	91.38
299.445	72.38
299.675	80.38
299.905	82.38
300.136	78.38
300.366	84.38
300.597	77.38
300.827	74.38
301.057	79.38
301.288	84.38
301.518	91.38
301.748	90.38
301.979	112.38
302.209	87.38
302.439	86.38
302.669	90.38
302.9	100.38
303.13	80.38
303.36	88.38
303.59	84.38
303.82	81.38
304.051	94.38
304.281	73.38
304.511	91.38
304.741	87.38
304.971	85.38
305.201	74.38
305.431	75.38
305.661	90.38
305.891	84.38
306.121	94.38
306.352	84.38
306.582	91.38
306.812	81.38
307.042	77.38
307.272	101.38
307.502	94.38
307.731	93.38
307.961	85.38
308.191	89.38
308.421	86.38
308.651	85.38
308.881	88.38
309.111	69.38
309.341	78.38
309.571	89.38
309.8	84.38
310.03	84.38
310.26	91.38
310.49	89.38
310.72	90.38
310.949	93.38
311.179	82.38
311.409	85.38
311.639	75.38
311.868	93.38
312.098	80.38
312.328	89.38
312.557	78.38
312.787	92.38
313.017	69.38
313.246	84.38
313.476	83.38
313.706	75.38
313.935	98.38
314.165	85.38
314.394	84.38
314.624	84.38
314.853	93.38
315.083	78.38
315.312	79.38
315.542	93.38
315.771	80.38
316.001	85.38
316.23	90.38
316.46	98.38
316.689	81.38
316.919	83.38
317.148	73.38
317.377	88.38
317.607	77.38
317.836	85.38
318.065	89.38
318.295	85.38
318.524	81.38
318.753	97.38
318.983	81.38
319.212	77.38
319.441	96.38
319.67	70.38
319.9	72.38
320.129	84.38
320.358	84.38
320.587	84.38
320.816	78.38
321.046	102.38
321.275	86.38
321.504	93.38
321.733	69.38
321.962	78.38
322.191	95.38
322.42	70.38
322.649	78.38
322.878	84.38
323.108	80.38
323.337	85.38
323.566	91.38
323.795	81.38
324.024	73.38
324.253	92.38
324.482	96.38
324.71	77.38
324.939	84.38
325.168	82.38
325.397	79.38
325.626	79.38
325.855	87.38
326.084	86.38
326.313	74.38
326.542	72.38
326.77	88.38
326.999	79.38
327.228	94.38
327.457	89.38
327.686	86.38
327.914	74.38
328.143	71.38
328.372	77.38
328.6	93.38
328.829	87.38
329.058	78.38
329.287	99.38
329.515	71.38
329.744	80.38
329.972	85.38
330.201	88.38
330.43	94.38
330.658	88.38
330.887	78.38
331.115	95.38
331.344	89.38
331.572	77.38
331.801	93.38
332.03	75.38
332.258	87.38
332.486	74.38
332.715	80.38
332.943	61.38
333.172	81.38
333.4	82.38
333.629	89.38
333.857	85.38
334.085	78.38
334.314	73.38
334.542	79.38
334.771	77.38
334.999	75.38
335.227	63.38
335.455	88.38
335.684	97.38
335.912	87.38
336.14	76.38
336.369	73.38
336.597	74.38
336.825	91.38
337.053	79.38
337.281	92.38
337.51	81.38
337.738	65.38
337.966	89.38
338.194	83.38
338.422	78.38
338.65	76.38
338.878	80.38
339.106	84.38
339.334	88.38
339.562	71.38
339.79	75.38
340.018	79.38
340.246	79.38
340.474	78.38
340.702	69.38
340.93	93.38
341.158	82.38
341.386	74.38
341.614	81.38
341.842	103.38
342.07	78.38
342.298	87.38
342.526	87.38
342.754	91.38
342.981	77.38
343.209	73.38
343.437	93.38
343.665	97.38
343.893	81.38
344.12	87.38
344.348	67.38
344.576	74.38
344.804	84.38
345.031	88.38
345.259	83.38
345.487	81.38
345.714	61.38
345.942	87.38
346.17	81.38
346.397	77.38
346.625	83.38
346.853	86.38
347.08	85.38
347.308	95.38
347.535	93.38
347.763	85.38
347.99	100.38
348.218	86.38
348.445	71.38
348.673	93.38
348.9	77.38
349.128	88.38
349.355	88.38
349.583	80.38
349.81	77.38
350.037	79.38
350.265	71.38
350.492	80.38
350.72	75.38
350.947	86.38
351.174	79.38
351.402	88.38
351.629	80.38
351.856	79.38
352.083	77.38
352.311	86.38
352.538	66.38
352.765	85.38
352.992	87.38
353.22	76.38
353.447	86.38
353.674	81.38
353.901	101.38
354.128	91.38
354.355	94.38
354.583	70.38
354.81	81.38
355.037	82.38
355.264	65.38
355.491	90.38
355.718	84.38
355.945	73.38
356.172	89.38
356.399	72.38
356.626	81.38
356.853	74.38
357.08	77.38
357.307	87.38
357.534	85.38
357.761	85.38
357.988	83.38
358.215	81.38
358.441	94.38
358.668	85.38
358.895	89.38
359.122	85.38
359.349	89.38
359.576	86.38
359.802	81.38
360.029	86.38
360.256	68.38
360.483	67.38
360.709	82.38
360.936	81.38
361.163	83.38
361.39	86.38
361.616	81.38
361.843	75.38
362.07	73.38
362.296	93.38
362.523	81.38
362.749	73.38
362.976	80.38
363.203	78.38
363.429	73.38
363.656	81.38
363.882	79.38
364.109	82.38
364.335	98.38
364.562	79.38
364.788	81.38
365.015	81.38
365.241	79.38
365.468	75.38
365.694	87.38
365.92	95.38
366.147	72.38
366.373	72.38
366.599	84.38
366.826	89.38
367.052	87.38
367.278	89.38
367.505	103.38
367.731	99.38
367.957	92.38
368.184	103.38
368.41	90.38
368.636	68.38
368.862	84.38
369.089	95.38
369.315	77.38
369.541	103.38
369.767	88.38
369.993	71.38
370.219	71.38
370.445	78.38
370.672	97.38
370.898	95.38
371.124	85.38
371.35	90.38
371.576	89.38
371.802	66.38
372.028	81.38
372.254	69.38
372.48	79.38
372.706	74.38
372.932	81.38
373.158	77.38
373.384	92.38
373.61	81.38
373.835	75.38
374.061	79.38
374.287	86.38
374.513	83.38
374.739	91.38
374.965	81.38
375.191	80.38
375.416	70.38
375.642	82.38
375.868	83.38
376.094	81.38
376.319	88.38
376.545	81.38
376.771	87.38
376.997	70.38
377.222	76.38
377.448	63.38
377.674	88.38
377.899	83.38
378.125	78.38
378.35	79.38
378.576	79.38
378.802	81.38
379.027	81.38
379.253	86.38
379.478	72.38
379.704	93.38
379.929	81.38
380.155	83.38
380.38	85.38
380.606	70.38
380.831	76.38
381.057	85.38
381.282	78.38
381.507	92.38
381.733	88.38
381.958	70.38
382.184	65.38
382.409	85.38
382.634	90.38
382.86	65.38
383.085	80.38
383.31	80.38
383.535	74.38
383.761	70.38
383.986	83.38
384.211	81.38
384.436	90.38
384.662	70.38
384.887	72.38
385.112	69.38
385.337	92.38
385.562	75.38
385.787	80.38
386.013	90.38
386.238	69.38
386.463	89.38
386.688	96.38
386.913	87.38
387.138	95.38
387.363	77.38
387.588	91.38
387.813	74.38
388.038	87.38
388.263	83.38
388.488	79.38
388.713	80.38
388.938	86.38
389.163	82.38
389.387	66.38
389.612	81.38
389.837	87.38
390.062	81.38
390.287	88.38
390.512	73.38
390.736	88.38
390.961	78.38
391.186	86.38
391.411	79.38
391.636	73.38
391.86	71.38
392.085	83.38
392.31	82.38
392.534	74.38
392.759	94.38
392.984	82.38
393.208	118.38
393.433	137.38
393.658	145.38
393.882	96.38
394.107	82.38
394.331	88.38
394.556	81.38
394.78	84.38
395.005	86.38
395.229	73.38
395.454	76.38
395.678	92.38
395.903	77.38
396.127	98.38
396.352	83.38
396.576	98.38
396.801	117.38
397.025	113.38
397.249	96.38
397.474	86.38
397.698	97.38
397.922	84.38
398.147	70.38
398.371	88.38
398.595	83.38
398.82	81.38
399.044	76.38
399.268	78.38
399.492	72.38
399.717	81.38
399.941	77.38
400.165	76.38
400.389	86.38
400.613	66.38
400.837	76.38
401.062	73.38
401.286	76.38
401.51	75.38
401.734	73.38
401.958	91.38
402.182	75.38
402.406	86.38
402.63	71.38
402.854	73.38
403.078	86.38
403.302	74.38
403.526	86.38
403.75	89.38
403.974	83.38
404.198	75.38
404.422	89.38
404.645	78.38
404.869	80.38
405.093	90.38
405.317	80.38
405.541	87.38
405.765	94.38
405.988	95.38
406.212	74.38
406.436	79.38
406.66	82.38
406.883	73.38
407.107	85.38
407.331	94.38
407.555	94.38
407.778	87.38
408.002	81.38
408.226	81.38
408.449	85.38
408.673	63.38
408.896	71.38
409.12	75.38
409.344	73.38
409.567	83.38
409.791	79.38
410.014	73.38
410.238	66.38
410.461	64.38
410.685	70.38
410.908	68.38
411.132	75.38
411.355	91.38
411.578	75.38
411.802	82.38
412.025	65.38
412.249	75.38
412.472	74.38
412.695	76.38
412.919	74.38
413.142	78.38
413.365	89.38
413.589	74.38
413.812	71.38
414.035	89.38
414.258	67.38
414.482	84.38
414.705	74.38
414.928	88.38
415.151	84.38
415.374	84.38
415.597	81.38
415.821	82.38
416.044	78.38
416.267	85.38
416.49	67.38
416.713	92.38
416.936	76.38
417.159	86.38
417.382	88.38
417.605	67.38
417.828	85.38
418.051	86.38
418.274	75.38
418.497	72.38
418.72	64.38
418.943	92.38
419.166	85.38
419.389	82.38
419.611	68.38
419.834	76.38
420.057	86.38
420.28	78.38
420.503	81.38
420.726	85.38
420.948	83.38
421.171	81.38
421.394	77.38
421.617	84.38
421.839	97.38
422.062	76.38
422.285	91.38
422.507	117.38
422.73	138.38
422.953	133.38
423.175	91.38
423.398	59.38
423.621	74.38
423.843	71.38
424.066	72.38
424.288	89.38
424.511	75.38
424.733	87.38
424.956	83.38
425.178	84.38
425.401	89.38
425.623	94.38
425.846	75.38
426.068	85.38
426.291	81.38
426.513	82.38
426.735	83.38
426.958	79.38
427.18	79.38
427.402	86.38
427.625	82.38
427.847	73.38
428.069	69.38
428.292	81.38
428.514	77.38
428.736	87.38
428.958	91.38
429.181	83.38
429.403	81.38
429.625	83.38
429.847	90.38
430.069	89.38
430.292	102.38
430.514	90.38
430.736	101.38
430.958	92.38
431.18	74.38
431.402	81.38
431.624	81.38
431.846	89.38
432.068	100.38
432.29	75.38
432.512	86.38
432.734	73.38
432.956	73.38
433.178	83.38
433.4	92.38
433.622	89.38
433.844	81.38
434.066	83.38
434.287	82.38
434.509	90.38
434.731	99.38
434.953	73.38
435.175	71.38
435.397	85.38
435.618	73.38
435.84	77.38
436.062	89.38
436.284	84.38
436.505	83.38
436.727	74.38
436.949	89.38
437.17	64.38
437.392	79.38
437.614	74.38
437.835	75.38
438.057	87.38
438.278	76.38
438.5	91.38
438.721	67.38
438.943	67.38
439.165	69.38
439.386	76.38
439.608	76.38
439.829	82.38
440.05	72.38
440.272	80.38
440.493	74.38
440.715	63.38
440.936	82.38
441.158	92.38
441.379	83.38
441.6	73.38
441.822	87.38
442.043	80.38
442.264	89.38
442.486	88.38
442.707	97.38
442.928	95.38
443.149	83.38
443.371	98.38
443.592	111.38
443.813	90.38
444.034	85.38
444.255	85.38
444.476	82.38
444.698	71.38
444.919	79.38
445.14	165.38
445.361	125.38
445.582	96.38
445.803	104.38
446.024	81.38
446.245	77.38
446.466	72.38
446.687	89.38
446.908	82.38
447.129	70.38
447.35	89.38
447.571	85.38
447.792	90.38
448.013	68.38
448.234	94.38
448.455	76.38
448.675	70.38
448.896	82.38
449.117	75.38
449.338	86.38
449.559	78.38
449.779	83.38
450	72.38
450.221	85.38
450.442	89.38
450.662	89.38
450.883	74.38
451.104	86.38
451.324	75.38
451.545	76.38
451.766	91.38
451.986	73.38
452.207	66.38
452.428	64.38
452.648	90.38
452.869	85.38
453.089	85.38
453.31	90.38
453.53	89.38
453.751	82.38
453.971	90.38
454.192	87.38
454.412	79.38
454.633	70.38
454.853	86.38
455.073	74.38
455.294	73.38
455.514	78.38
455.734	81.38
455.955	72.38
456.175	79.38
456.395	83.38
456.616	86.38
456.836	69.38
457.056	71.38
457.276	92.38
457.497	79.38
457.717	70.38
457.937	77.38
458.157	74.38
458.377	85.38
458.598	80.38
458.818	76.38
459.038	86.38
459.258	76.38
459.478	82.38
459.698	72.38
459.918	73.38
460.138	84.38
460.358	69.38
460.578	75.38
460.798	102.38
461.018	81.38
461.238	90.38
461.458	67.38
461.678	72.38
461.898	93.38
462.118	76.38
462.338	77.38
462.558	86.38
462.777	69.38
462.997	79.38
463.217	87.38
463.437	77.38
463.657	82.38
463.876	91.38
464.096	73.38
464.316	65.38
464.536	66.38
464.755	74.38
464.975	74.38
465.195	82.38
465.414	79.38
465.634	68.38
465.854	89.38
466.073	87.38
466.293	85.38
466.512	86.38
466.732	74.38
466.951	72.38
467.171	75.38
467.391	80.38
467.61	92.38
467.829	90.38
468.049	76.38
468.268	82.38
468.488	83.38
468.707	70.38
468.927	71.38
469.146	78.38
469.365	77.38
469.585	73.38
469.804	79.38
470.023	70.38
470.243	77.38
470.462	73.38
470.681	86.38
470.901	74.38
471.12	79.38
471.339	72.38
471.558	80.38
471.777	79.38
471.997	72.38
472.216	78.38
472.435	75.38
472.654	70.38
472.873	83.38
473.092	81.38
473.311	76.38
473.53	81.38
473.749	69.38
473.968	64.38
474.187	82.38
474.406	86.38
474.625	93.38
474.844	90.38
475.063	75.38
475.282	73.38
475.501	80.38
475.72	92.38
475.939	74.38
476.158	90.38
476.377	70.38
476.596	86.38
476.814	85.38
477.033	98.38
477.252	84.38
477.471	83.38
477.69	66.38
477.908	75.38
478.127	85.38
478.346	93.38
478.564	81.38
478.783	85.38
479.002	89.38
479.22	67.38
479.439	69.38
479.658	71.38
479.876	74.38
480.095	67.38
480.313	81.38
480.532	65.38
480.751	71.38
480.969	91.38
481.188	83.38
481.406	82.38
481.624	76.38
481.843	80.38
482.061	84.38
482.28	73.38
482.498	93.38
482.717	90.38
482.935	75.38
483.153	68.38
483.372	65.38
483.59	82.38
483.808	72.38
484.027	75.38
484.245	80.38
484.463	83.38
484.681	77.38
484.9	83.38
485.118	85.38
485.336	81.38
485.554	69.38
485.772	85.38
485.99	89.38
486.209	89.38
486.427	80.38
486.645	73.38
486.863	79.38
487.081	65.38
487.299	76.38
487.517	83.38
487.735	84.38
487.953	74.38
488.171	86.38
488.389	81.38
488.607	82.38
488.825	74.38
489.043	70.38
489.261	73.38
489.479	87.38
489.696	67.38
489.914	93.38
490.132	96.38
490.35	88.38
490.568	75.38
490.786	76.38
491.003	92.38
491.221	71.38
491.439	83.38
491.657	75.38
491.874	84.38
492.092	78.38
492.31	75.38
492.527	81.38
492.745	81.38
492.963	82.38
493.18	79.38
493.398	85.38
493.615	78.38
493.833	73.38
494.05	92.38
494.268	79.38
494.485	71.38
494.703	89.38
494.92	76.38
495.138	91.38
495.355	73.38
495.573	76.38
495.79	84.38
496.008	87.38
496.225	76.38
496.442	88.38
496.66	91.38
496.877	89.38
497.094	83.38
497.312	85.38
497.529	91.38
497.746	88.38
497.963	86.38
498.181	76.38
498.398	99.38
498.615	85.38
498.832	75.38
499.049	79.38
499.267	82.38
499.484	74.38
499.701	85.38
499.918	91.38
500.135	73.38
500.352	71.38
500.569	94.38
500.786	88.38
501.003	81.38
501.22	83.38
501.437	70.38
501.654	86.38
501.871	70.38
502.088	87.38
502.305	77.38
502.522	85.38
502.739	81.38
502.956	76.38
503.172	67.38
503.389	79.38
503.606	87.38
503.823	83.38
504.04	81.38
504.256	84.38
504.473	88.38
504.69	89.38
504.907	84.38
505.123	72.38
505.34	74.38
505.557	86.38
505.773	71.38
505.99	72.38
506.207	77.38
506.423	79.38
506.64	86.38
506.856	91.38
507.073	70.38
507.289	81.38
507.506	80.38
507.722	78.38
507.939	87.38
508.155	74.38
508.372	81.38
508.588	90.38
508.805	95.38
509.021	83.38
509.238	83.38
509.454	70.38
509.67	85.38
509.887	75.38
510.103	81.38
510.319	78.38
510.536	79.38
510.752	86.38
510.968	66.38
511.184	81.38
511.401	78.38
511.617	80.38
511.833	91.38
512.049	106.38
512.265	96.38
512.481	77.38
512.698	87.38
512.914	79.38
513.13	78.38
513.346	81.38
513.562	76.38
513.778	90.38
513.994	79.38
514.21	94.38
514.426	72.38
514.642	97.38
514.858	94.38
515.074	89.38
515.29	80.38
515.506	84.38
515.721	86.38
515.937	89.38
516.153	79.38
516.369	75.38
516.585	87.38
516.801	66.38
517.016	94.38
517.232	76.38
517.448	66.38
517.664	79.38
517.879	79.38
518.095	86.38
518.311	89.38
518.527	90.38
518.742	72.38
518.958	88.38
519.173	78.38
519.389	95.38
519.605	69.38
519.82	83.38
