Data from HP_3_HRD10591_00006.txt Node
Date: Mon Jan 19 14:17:03 EST 2026
User: Yrep
Spectrometer: HR+D1059
Trigger mode: 1
Integration Time (sec): 1.000000E-1
Scans to average: 1
Electric dark correction enabled: true
Nonlinearity correction enabled: false
Boxcar width: 0
XAxis mode: Wavelengths
Number of Pixels in Spectrum: 2048
>>>>>Begin Spectral Data<<<<<
223.165	-13.81
223.4	-13.81
223.635	-13.81
223.869	-16.81
224.104	-24.81
224.338	-20.81
224.573	-11.81
224.808	-14.81
225.042	-6.81
225.277	2.19
225.511	9.19
225.746	9.19
225.98	0.19
226.215	8.19
226.449	10.19
226.683	23.19
226.918	26.19
227.152	21.19
227.387	23.19
227.621	49.19
227.856	48.19
228.09	35.19
228.324	56.19
228.559	67.19
228.793	50.19
229.027	72.19
229.262	55.19
229.496	57.19
229.73	64.19
229.964	76.19
230.199	79.19
230.433	78.19
230.667	81.19
230.901	79.19
231.136	75.19
231.37	77.19
231.604	77.19
231.838	64.19
232.072	77.19
232.306	78.19
232.541	81.19
232.775	78.19
233.009	74.19
233.243	89.19
233.477	83.19
233.711	89.19
233.945	83.19
234.179	81.19
234.413	85.19
234.647	86.19
234.881	79.19
235.115	82.19
235.349	71.19
235.583	85.19
235.817	83.19
236.051	90.19
236.285	68.19
236.519	71.19
236.753	79.19
236.987	85.19
237.221	79.19
237.455	78.19
237.689	80.19
237.922	72.19
238.156	72.19
238.39	71.19
238.624	75.19
238.858	76.19
239.091	80.19
239.325	76.19
239.559	83.19
239.793	67.19
240.027	57.19
240.26	77.19
240.494	77.19
240.728	76.19
240.961	87.19
241.195	74.19
241.429	63.19
241.662	65.19
241.896	81.19
242.13	76.19
242.363	73.19
242.597	91.19
242.83	85.19
243.064	96.19
243.298	77.19
243.531	60.19
243.765	89.19
243.998	70.19
244.232	87.19
244.465	103.19
244.699	68.19
244.932	85.19
245.166	74.19
245.399	71.19
245.633	75.19
245.866	79.19
246.099	73.19
246.333	72.19
246.566	93.19
246.8	83.19
247.033	81.19
247.266	79.19
247.5	76.19
247.733	87.19
247.966	87.19
248.2	88.19
248.433	75.19
248.666	78.19
248.899	83.19
249.133	90.19
249.366	94.19
249.599	77.19
249.832	80.19
250.066	88.19
250.299	88.19
250.532	67.19
250.765	80.19
250.998	75.19
251.231	84.19
251.465	85.19
251.698	78.19
251.931	75.19
252.164	65.19
252.397	77.19
252.63	82.19
252.863	72.19
253.096	63.19
253.329	75.19
253.562	84.19
253.795	74.19
254.028	87.19
254.261	62.19
254.494	85.19
254.727	91.19
254.96	86.19
255.193	74.19
255.426	65.19
255.659	79.19
255.892	85.19
256.124	72.19
256.357	83.19
256.59	88.19
256.823	69.19
257.056	82.19
257.289	68.19
257.521	73.19
257.754	80.19
257.987	85.19
258.22	68.19
258.452	87.19
258.685	85.19
258.918	76.19
259.151	85.19
259.383	77.19
259.616	77.19
259.849	73.19
260.081	75.19
260.314	84.19
260.547	94.19
260.779	84.19
261.012	81.19
261.244	78.19
261.477	77.19
261.71	74.19
261.942	89.19
262.175	83.19
262.407	77.19
262.64	70.19
262.872	89.19
263.105	83.19
263.337	87.19
263.57	72.19
263.802	89.19
264.035	80.19
264.267	83.19
264.499	79.19
264.732	77.19
264.964	88.19
265.197	83.19
265.429	92.19
265.661	73.19
265.894	89.19
266.126	84.19
266.358	82.19
266.591	77.19
266.823	77.19
267.055	83.19
267.287	93.19
267.52	97.19
267.752	91.19
267.984	83.19
268.216	88.19
268.448	85.19
268.681	87.19
268.913	94.19
269.145	72.19
269.377	82.19
269.609	86.19
269.841	95.19
270.073	88.19
270.306	93.19
270.538	73.19
270.77	83.19
271.002	83.19
271.234	77.19
271.466	88.19
271.698	77.19
271.93	90.19
272.162	90.19
272.394	84.19
272.626	85.19
272.858	87.19
273.09	75.19
273.322	74.19
273.553	77.19
273.785	76.19
274.017	85.19
274.249	83.19
274.481	82.19
274.713	80.19
274.945	86.19
275.176	83.19
275.408	84.19
275.64	78.19
275.872	74.19
276.104	78.19
276.335	74.19
276.567	81.19
276.799	83.19
277.031	83.19
277.262	88.19
277.494	88.19
277.726	93.19
277.957	84.19
278.189	75.19
278.421	93.19
278.652	71.19
278.884	87.19
279.115	87.19
279.347	104.19
279.579	81.19
279.81	81.19
280.042	71.19
280.273	89.19
280.505	77.19
280.736	87.19
280.968	78.19
281.199	91.19
281.431	103.19
281.662	74.19
281.894	88.19
282.125	85.19
282.356	87.19
282.588	95.19
282.819	75.19
283.051	78.19
283.282	87.19
283.513	92.19
283.745	97.19
283.976	84.19
284.207	86.19
284.439	70.19
284.67	81.19
284.901	94.19
285.132	74.19
285.364	100.19
285.595	92.19
285.826	75.19
286.057	86.19
286.288	77.19
286.52	85.19
286.751	84.19
286.982	89.19
287.213	87.19
287.444	87.19
287.675	78.19
287.906	92.19
288.138	101.19
288.369	85.19
288.6	93.19
288.831	87.19
289.062	74.19
289.293	87.19
289.524	82.19
289.755	69.19
289.986	71.19
290.217	93.19
290.448	83.19
290.679	85.19
290.91	82.19
291.141	102.19
291.371	95.19
291.602	75.19
291.833	88.19
292.064	90.19
292.295	83.19
292.526	59.19
292.757	80.19
292.987	83.19
293.218	75.19
293.449	84.19
293.68	75.19
293.91	71.19
294.141	92.19
294.372	72.19
294.603	87.19
294.833	79.19
295.064	83.19
295.295	78.19
295.525	81.19
295.756	90.19
295.987	99.19
296.217	85.19
296.448	75.19
296.679	83.19
296.909	87.19
297.14	90.19
297.37	85.19
297.601	88.19
297.831	68.19
298.062	81.19
298.292	85.19
298.523	83.19
298.753	91.19
298.984	81.19
299.214	89.19
299.445	73.19
299.675	91.19
299.905	74.19
300.136	88.19
300.366	89.19
300.597	91.19
300.827	87.19
301.057	84.19
301.288	78.19
301.518	84.19
301.748	95.19
301.979	105.19
302.209	78.19
302.439	93.19
302.669	92.19
302.9	88.19
303.13	86.19
303.36	91.19
303.59	81.19
303.82	91.19
304.051	91.19
304.281	84.19
304.511	74.19
304.741	77.19
304.971	92.19
305.201	89.19
305.431	81.19
305.661	71.19
305.891	73.19
306.121	82.19
306.352	70.19
306.582	92.19
306.812	91.19
307.042	78.19
307.272	96.19
307.502	80.19
307.731	84.19
307.961	75.19
308.191	82.19
308.421	88.19
308.651	73.19
308.881	74.19
309.111	75.19
309.341	89.19
309.571	85.19
309.8	84.19
310.03	103.19
310.26	84.19
310.49	78.19
310.72	67.19
310.949	84.19
311.179	71.19
311.409	83.19
311.639	93.19
311.868	77.19
312.098	84.19
312.328	87.19
312.557	94.19
312.787	91.19
313.017	78.19
313.246	79.19
313.476	90.19
313.706	91.19
313.935	80.19
314.165	76.19
314.394	83.19
314.624	77.19
314.853	75.19
315.083	72.19
315.312	79.19
315.542	65.19
315.771	94.19
316.001	83.19
316.23	87.19
316.46	81.19
316.689	92.19
316.919	75.19
317.148	96.19
317.377	71.19
317.607	84.19
317.836	87.19
318.065	88.19
318.295	84.19
318.524	91.19
318.753	82.19
318.983	76.19
319.212	75.19
319.441	91.19
319.67	76.19
319.9	81.19
320.129	79.19
320.358	105.19
320.587	88.19
320.816	83.19
321.046	87.19
321.275	91.19
321.504	74.19
321.733	90.19
321.962	92.19
322.191	95.19
322.42	95.19
322.649	86.19
322.878	98.19
323.108	81.19
323.337	95.19
323.566	80.19
323.795	84.19
324.024	74.19
324.253	76.19
324.482	91.19
324.71	97.19
324.939	85.19
325.168	83.19
325.397	82.19
325.626	72.19
325.855	84.19
326.084	90.19
326.313	91.19
326.542	79.19
326.77	71.19
326.999	82.19
327.228	73.19
327.457	85.19
327.686	79.19
327.914	93.19
328.143	81.19
328.372	81.19
328.6	89.19
328.829	93.19
329.058	81.19
329.287	79.19
329.515	85.19
329.744	83.19
329.972	83.19
330.201	82.19
330.43	93.19
330.658	75.19
330.887	79.19
331.115	89.19
331.344	87.19
331.572	67.19
331.801	76.19
332.03	88.19
332.258	87.19
332.486	93.19
332.715	88.19
332.943	79.19
333.172	79.19
333.4	84.19
333.629	84.19
333.857	84.19
334.085	83.19
334.314	82.19
334.542	93.19
334.771	94.19
334.999	87.19
335.227	84.19
335.455	84.19
335.684	88.19
335.912	86.19
336.14	86.19
336.369	82.19
336.597	62.19
336.825	81.19
337.053	63.19
337.281	97.19
337.51	93.19
337.738	89.19
337.966	87.19
338.194	96.19
338.422	87.19
338.65	88.19
338.878	78.19
339.106	81.19
339.334	76.19
339.562	86.19
339.79	73.19
340.018	84.19
340.246	81.19
340.474	92.19
340.702	86.19
340.93	86.19
341.158	91.19
341.386	85.19
341.614	85.19
341.842	92.19
342.07	89.19
342.298	75.19
342.526	97.19
342.754	81.19
342.981	82.19
343.209	79.19
343.437	96.19
343.665	84.19
343.893	87.19
344.12	91.19
344.348	78.19
344.576	73.19
344.804	85.19
345.031	81.19
345.259	73.19
345.487	105.19
345.714	88.19
345.942	92.19
346.17	91.19
346.397	82.19
346.625	92.19
346.853	69.19
347.08	76.19
347.308	75.19
347.535	82.19
347.763	82.19
347.99	83.19
348.218	88.19
348.445	91.19
348.673	71.19
348.9	81.19
349.128	93.19
349.355	89.19
349.583	100.19
349.81	75.19
350.037	75.19
350.265	88.19
350.492	87.19
350.72	91.19
350.947	82.19
351.174	78.19
351.402	83.19
351.629	83.19
351.856	78.19
352.083	85.19
352.311	78.19
352.538	83.19
352.765	87.19
352.992	95.19
353.22	91.19
353.447	75.19
353.674	81.19
353.901	81.19
354.128	95.19
354.355	87.19
354.583	83.19
354.81	65.19
355.037	86.19
355.264	84.19
355.491	89.19
355.718	83.19
355.945	76.19
356.172	78.19
356.399	86.19
356.626	79.19
356.853	93.19
357.08	92.19
357.307	86.19
357.534	97.19
357.761	91.19
357.988	77.19
358.215	91.19
358.441	88.19
358.668	65.19
358.895	69.19
359.122	95.19
359.349	88.19
359.576	91.19
359.802	83.19
360.029	83.19
360.256	80.19
360.483	87.19
360.709	99.19
360.936	85.19
361.163	76.19
361.39	81.19
361.616	72.19
361.843	91.19
362.07	85.19
362.296	95.19
362.523	95.19
362.749	93.19
362.976	85.19
363.203	88.19
363.429	75.19
363.656	68.19
363.882	91.19
364.109	85.19
364.335	88.19
364.562	85.19
364.788	92.19
365.015	86.19
365.241	75.19
365.468	85.19
365.694	94.19
365.92	81.19
366.147	79.19
366.373	76.19
366.599	94.19
366.826	87.19
367.052	85.19
367.278	78.19
367.505	73.19
367.731	95.19
367.957	74.19
368.184	80.19
368.41	78.19
368.636	71.19
368.862	95.19
369.089	85.19
369.315	73.19
369.541	86.19
369.767	83.19
369.993	74.19
370.219	86.19
370.445	87.19
370.672	87.19
370.898	70.19
371.124	74.19
371.35	91.19
371.576	79.19
371.802	74.19
372.028	100.19
372.254	84.19
372.48	72.19
372.706	79.19
372.932	87.19
373.158	85.19
373.384	95.19
373.61	91.19
373.835	77.19
374.061	82.19
374.287	88.19
374.513	75.19
374.739	78.19
374.965	73.19
375.191	86.19
375.416	75.19
375.642	100.19
375.868	86.19
376.094	95.19
376.319	85.19
376.545	88.19
376.771	80.19
376.997	79.19
377.222	77.19
377.448	92.19
377.674	81.19
377.899	80.19
378.125	87.19
378.35	80.19
378.576	72.19
378.802	87.19
379.027	82.19
379.253	82.19
379.478	73.19
379.704	84.19
379.929	84.19
380.155	82.19
380.38	84.19
380.606	83.19
380.831	70.19
381.057	90.19
381.282	95.19
381.507	83.19
381.733	73.19
381.958	92.19
382.184	79.19
382.409	88.19
382.634	86.19
382.86	65.19
383.085	95.19
383.31	87.19
383.535	81.19
383.761	98.19
383.986	95.19
384.211	91.19
384.436	81.19
384.662	71.19
384.887	71.19
385.112	68.19
385.337	85.19
385.562	82.19
385.787	93.19
386.013	95.19
386.238	78.19
386.463	91.19
386.688	91.19
386.913	80.19
387.138	85.19
387.363	91.19
387.588	84.19
387.813	69.19
388.038	90.19
388.263	83.19
388.488	81.19
388.713	78.19
388.938	62.19
389.163	91.19
389.387	75.19
389.612	80.19
389.837	82.19
390.062	69.19
390.287	82.19
390.512	85.19
390.736	82.19
390.961	79.19
391.186	68.19
391.411	91.19
391.636	97.19
391.86	92.19
392.085	83.19
392.31	77.19
392.534	89.19
392.759	81.19
392.984	81.19
393.208	102.19
393.433	108.19
393.658	94.19
393.882	92.19
394.107	81.19
394.331	88.19
394.556	92.19
394.78	88.19
395.005	80.19
395.229	69.19
395.454	84.19
395.678	83.19
395.903	96.19
396.127	111.19
396.352	91.19
396.576	91.19
396.801	97.19
397.025	91.19
397.249	82.19
397.474	86.19
397.698	91.19
397.922	100.19
398.147	79.19
398.371	75.19
398.595	74.19
398.82	99.19
399.044	92.19
399.268	75.19
399.492	82.19
399.717	87.19
399.941	71.19
400.165	74.19
400.389	76.19
400.613	90.19
400.837	85.19
401.062	86.19
401.286	81.19
401.51	81.19
401.734	81.19
401.958	76.19
402.182	75.19
402.406	81.19
402.63	85.19
402.854	89.19
403.078	76.19
403.302	85.19
403.526	82.19
403.75	94.19
403.974	84.19
404.198	81.19
404.422	87.19
404.645	83.19
404.869	89.19
405.093	68.19
405.317	60.19
405.541	81.19
405.765	87.19
405.988	70.19
406.212	75.19
406.436	84.19
406.66	82.19
406.883	80.19
407.107	77.19
407.331	89.19
407.555	60.19
407.778	79.19
408.002	79.19
408.226	81.19
408.449	93.19
408.673	90.19
408.896	72.19
409.12	85.19
409.344	91.19
409.567	98.19
409.791	76.19
410.014	85.19
410.238	83.19
410.461	75.19
410.685	90.19
410.908	91.19
411.132	89.19
411.355	90.19
411.578	78.19
411.802	87.19
412.025	76.19
412.249	91.19
412.472	79.19
412.695	83.19
412.919	81.19
413.142	81.19
413.365	79.19
413.589	87.19
413.812	74.19
414.035	87.19
414.258	75.19
414.482	91.19
414.705	91.19
414.928	84.19
415.151	85.19
415.374	94.19
415.597	81.19
415.821	75.19
416.044	84.19
416.267	75.19
416.49	85.19
416.713	79.19
416.936	70.19
417.159	84.19
417.382	90.19
417.605	75.19
417.828	67.19
418.051	70.19
418.274	83.19
418.497	90.19
418.72	86.19
418.943	83.19
419.166	78.19
419.389	92.19
419.611	88.19
419.834	76.19
420.057	81.19
420.28	83.19
420.503	77.19
420.726	93.19
420.948	78.19
421.171	77.19
421.394	87.19
421.617	83.19
421.839	96.19
422.062	85.19
422.285	80.19
422.507	119.19
422.73	130.19
422.953	137.19
423.175	101.19
423.398	89.19
423.621	94.19
423.843	80.19
424.066	87.19
424.288	83.19
424.511	88.19
424.733	87.19
424.956	82.19
425.178	85.19
425.401	79.19
425.623	81.19
425.846	83.19
426.068	77.19
426.291	81.19
426.513	87.19
426.735	82.19
426.958	87.19
427.18	75.19
427.402	81.19
427.625	85.19
427.847	80.19
428.069	66.19
428.292	75.19
428.514	95.19
428.736	95.19
428.958	74.19
429.181	82.19
429.403	102.19
429.625	65.19
429.847	78.19
430.069	109.19
430.292	96.19
430.514	83.19
430.736	91.19
430.958	91.19
431.18	77.19
431.402	77.19
431.624	86.19
431.846	84.19
432.068	99.19
432.29	86.19
432.512	95.19
432.734	84.19
432.956	85.19
433.178	82.19
433.4	71.19
433.622	90.19
433.844	94.19
434.066	90.19
434.287	91.19
434.509	83.19
434.731	77.19
434.953	83.19
435.175	81.19
435.397	67.19
435.618	72.19
435.84	90.19
436.062	85.19
436.284	94.19
436.505	91.19
436.727	73.19
436.949	90.19
437.17	89.19
437.392	93.19
437.614	78.19
437.835	88.19
438.057	80.19
438.278	81.19
438.5	72.19
438.721	101.19
438.943	96.19
439.165	93.19
439.386	79.19
439.608	72.19
439.829	96.19
440.05	75.19
440.272	77.19
440.493	83.19
440.715	90.19
440.936	77.19
441.158	87.19
441.379	75.19
441.6	73.19
441.822	92.19
442.043	71.19
442.264	86.19
442.486	89.19
442.707	89.19
442.928	92.19
443.149	82.19
443.371	92.19
443.592	105.19
443.813	97.19
444.034	80.19
444.255	81.19
444.476	96.19
444.698	87.19
444.919	77.19
445.14	179.19
445.361	129.19
445.582	96.19
445.803	113.19
446.024	88.19
446.245	81.19
446.466	85.19
446.687	82.19
446.908	88.19
447.129	89.19
447.35	74.19
447.571	85.19
447.792	73.19
448.013	79.19
448.234	83.19
448.455	95.19
448.675	91.19
448.896	83.19
449.117	88.19
449.338	89.19
449.559	92.19
449.779	88.19
450	85.19
450.221	68.19
450.442	77.19
450.662	88.19
450.883	71.19
451.104	97.19
451.324	79.19
451.545	89.19
451.766	81.19
451.986	80.19
452.207	93.19
452.428	87.19
452.648	85.19
452.869	94.19
453.089	85.19
453.31	66.19
453.53	91.19
453.751	69.19
453.971	91.19
454.192	84.19
454.412	88.19
454.633	81.19
454.853	75.19
455.073	91.19
455.294	69.19
455.514	92.19
455.734	85.19
455.955	91.19
456.175	89.19
456.395	79.19
456.616	72.19
456.836	83.19
457.056	78.19
457.276	91.19
457.497	77.19
457.717	87.19
457.937	80.19
458.157	80.19
458.377	90.19
458.598	83.19
458.818	87.19
459.038	89.19
459.258	78.19
459.478	83.19
459.698	84.19
459.918	76.19
460.138	77.19
460.358	67.19
460.578	87.19
460.798	76.19
461.018	83.19
461.238	75.19
461.458	83.19
461.678	81.19
461.898	79.19
462.118	84.19
462.338	82.19
462.558	87.19
462.777	77.19
462.997	91.19
463.217	81.19
463.437	97.19
463.657	90.19
463.876	71.19
464.096	80.19
464.316	87.19
464.536	90.19
464.755	89.19
464.975	79.19
465.195	88.19
465.414	93.19
465.634	82.19
465.854	88.19
466.073	75.19
466.293	75.19
466.512	74.19
466.732	83.19
466.951	83.19
467.171	92.19
467.391	94.19
467.61	82.19
467.829	84.19
468.049	87.19
468.268	75.19
468.488	80.19
468.707	85.19
468.927	71.19
469.146	83.19
469.365	85.19
469.585	82.19
469.804	72.19
470.023	77.19
470.243	74.19
470.462	90.19
470.681	89.19
470.901	67.19
471.12	82.19
471.339	73.19
471.558	81.19
471.777	81.19
471.997	83.19
472.216	69.19
472.435	92.19
472.654	90.19
472.873	96.19
473.092	84.19
473.311	93.19
473.53	93.19
473.749	83.19
473.968	96.19
474.187	83.19
474.406	71.19
474.625	89.19
474.844	91.19
475.063	71.19
475.282	87.19
475.501	84.19
475.72	91.19
475.939	79.19
476.158	64.19
476.377	82.19
476.596	94.19
476.814	78.19
477.033	81.19
477.252	88.19
477.471	74.19
477.69	102.19
477.908	84.19
478.127	97.19
478.346	79.19
478.564	94.19
478.783	87.19
479.002	95.19
479.22	77.19
479.439	92.19
479.658	74.19
479.876	75.19
480.095	77.19
480.313	86.19
480.532	83.19
480.751	83.19
480.969	82.19
481.188	87.19
481.406	81.19
481.624	93.19
481.843	61.19
482.061	77.19
482.28	84.19
482.498	83.19
482.717	81.19
482.935	93.19
483.153	76.19
483.372	104.19
483.59	83.19
483.808	80.19
484.027	79.19
484.245	92.19
484.463	85.19
484.681	104.19
484.9	89.19
485.118	101.19
485.336	77.19
485.554	89.19
485.772	85.19
485.99	87.19
486.209	98.19
486.427	77.19
486.645	73.19
486.863	82.19
487.081	72.19
487.299	86.19
487.517	89.19
487.735	82.19
487.953	80.19
488.171	83.19
488.389	92.19
488.607	79.19
488.825	65.19
489.043	88.19
489.261	90.19
489.479	73.19
489.696	93.19
489.914	82.19
490.132	92.19
490.35	91.19
490.568	78.19
490.786	83.19
491.003	81.19
491.221	71.19
491.439	73.19
491.657	80.19
491.874	95.19
492.092	95.19
492.31	93.19
492.527	80.19
492.745	77.19
492.963	86.19
493.18	83.19
493.398	96.19
493.615	79.19
493.833	88.19
494.05	85.19
494.268	81.19
494.485	80.19
494.703	80.19
494.92	77.19
495.138	92.19
495.355	91.19
495.573	78.19
495.79	77.19
496.008	85.19
496.225	93.19
496.442	77.19
496.66	91.19
496.877	79.19
497.094	90.19
497.312	85.19
497.529	88.19
497.746	84.19
497.963	81.19
498.181	82.19
498.398	84.19
498.615	80.19
498.832	102.19
499.049	91.19
499.267	89.19
499.484	77.19
499.701	79.19
499.918	85.19
500.135	87.19
500.352	77.19
500.569	84.19
500.786	80.19
501.003	76.19
501.22	73.19
501.437	92.19
501.654	91.19
501.871	89.19
502.088	74.19
502.305	94.19
502.522	81.19
502.739	85.19
502.956	96.19
503.172	79.19
503.389	83.19
503.606	86.19
503.823	90.19
504.04	79.19
504.256	89.19
504.473	75.19
504.69	72.19
504.907	89.19
505.123	99.19
505.34	83.19
505.557	68.19
505.773	88.19
505.99	66.19
506.207	74.19
506.423	77.19
506.64	83.19
506.856	87.19
507.073	78.19
507.289	88.19
507.506	83.19
507.722	86.19
507.939	83.19
508.155	83.19
508.372	68.19
508.588	81.19
508.805	99.19
509.021	100.19
509.238	96.19
509.454	91.19
509.67	86.19
509.887	83.19
510.103	85.19
510.319	95.19
510.536	83.19
510.752	77.19
510.968	75.19
511.184	88.19
511.401	91.19
511.617	91.19
511.833	95.19
512.049	91.19
512.265	91.19
512.481	84.19
512.698	95.19
512.914	73.19
513.13	85.19
513.346	87.19
513.562	87.19
513.778	68.19
513.994	90.19
514.21	79.19
514.426	86.19
514.642	97.19
514.858	92.19
515.074	84.19
515.29	100.19
515.506	94.19
515.721	80.19
515.937	102.19
516.153	82.19
516.369	86.19
516.585	91.19
516.801	87.19
517.016	85.19
517.232	93.19
517.448	81.19
517.664	83.19
517.879	77.19
518.095	72.19
518.311	83.19
518.527	87.19
518.742	71.19
518.958	83.19
519.173	97.19
519.389	88.19
519.605	84.19
519.82	89.19
