Data from HP_3_HRD10591_00033.txt Node
Date: Mon Jan 19 14:17:17 EST 2026
User: Yrep
Spectrometer: HR+D1059
Trigger mode: 1
Integration Time (sec): 1.000000E-1
Scans to average: 1
Electric dark correction enabled: true
Nonlinearity correction enabled: false
Boxcar width: 0
XAxis mode: Wavelengths
Number of Pixels in Spectrum: 2048
>>>>>Begin Spectral Data<<<<<
223.165	-3.81
223.4	-3.81
223.635	-3.81
223.869	-13.81
224.104	-21.81
224.338	-1.81
224.573	-27.81
224.808	-12.81
225.042	-3.81
225.277	1.19
225.511	-5.81
225.746	0.19
225.98	-1.81
226.215	1.19
226.449	26.19
226.683	18.19
226.918	17.19
227.152	29.19
227.387	38.19
227.621	40.19
227.856	52.19
228.09	40.19
228.324	56.19
228.559	50.19
228.793	70.19
229.027	64.19
229.262	62.19
229.496	70.19
229.73	68.19
229.964	61.19
230.199	84.19
230.433	82.19
230.667	82.19
230.901	74.19
231.136	88.19
231.37	92.19
231.604	62.19
231.838	94.19
232.072	87.19
232.306	68.19
232.541	76.19
232.775	82.19
233.009	70.19
233.243	81.19
233.477	86.19
233.711	87.19
233.945	92.19
234.179	84.19
234.413	93.19
234.647	72.19
234.881	82.19
235.115	82.19
235.349	93.19
235.583	85.19
235.817	77.19
236.051	76.19
236.285	86.19
236.519	90.19
236.753	71.19
236.987	67.19
237.221	82.19
237.455	92.19
237.689	89.19
237.922	76.19
238.156	72.19
238.39	73.19
238.624	60.19
238.858	75.19
239.091	74.19
239.325	77.19
239.559	74.19
239.793	74.19
240.027	90.19
240.26	81.19
240.494	92.19
240.728	77.19
240.961	75.19
241.195	90.19
241.429	74.19
241.662	78.19
241.896	81.19
242.13	84.19
242.363	83.19
242.597	58.19
242.83	70.19
243.064	82.19
243.298	78.19
243.531	70.19
243.765	82.19
243.998	81.19
244.232	88.19
244.465	83.19
244.699	79.19
244.932	72.19
245.166	64.19
245.399	77.19
245.633	85.19
245.866	82.19
246.099	84.19
246.333	77.19
246.566	94.19
246.8	71.19
247.033	78.19
247.266	60.19
247.5	62.19
247.733	87.19
247.966	74.19
248.2	74.19
248.433	85.19
248.666	95.19
248.899	92.19
249.133	75.19
249.366	90.19
249.599	93.19
249.832	76.19
250.066	76.19
250.299	82.19
250.532	84.19
250.765	71.19
250.998	80.19
251.231	86.19
251.465	82.19
251.698	67.19
251.931	74.19
252.164	90.19
252.397	63.19
252.63	76.19
252.863	76.19
253.096	78.19
253.329	91.19
253.562	74.19
253.795	72.19
254.028	96.19
254.261	80.19
254.494	78.19
254.727	92.19
254.96	83.19
255.193	90.19
255.426	75.19
255.659	68.19
255.892	86.19
256.124	74.19
256.357	84.19
256.59	76.19
256.823	70.19
257.056	82.19
257.289	73.19
257.521	88.19
257.754	88.19
257.987	79.19
258.22	90.19
258.452	90.19
258.685	77.19
258.918	74.19
259.151	90.19
259.383	80.19
259.616	76.19
259.849	81.19
260.081	86.19
260.314	90.19
260.547	73.19
260.779	74.19
261.012	68.19
261.244	68.19
261.477	92.19
261.71	78.19
261.942	92.19
262.175	79.19
262.407	92.19
262.64	70.19
262.872	72.19
263.105	74.19
263.337	76.19
263.57	78.19
263.802	81.19
264.035	78.19
264.267	76.19
264.499	89.19
264.732	79.19
264.964	81.19
265.197	95.19
265.429	85.19
265.661	90.19
265.894	88.19
266.126	74.19
266.358	93.19
266.591	82.19
266.823	96.19
267.055	89.19
267.287	76.19
267.52	73.19
267.752	80.19
267.984	75.19
268.216	75.19
268.448	89.19
268.681	74.19
268.913	73.19
269.145	70.19
269.377	77.19
269.609	92.19
269.841	85.19
270.073	80.19
270.306	93.19
270.538	77.19
270.77	88.19
271.002	80.19
271.234	81.19
271.466	88.19
271.698	87.19
271.93	90.19
272.162	86.19
272.394	81.19
272.626	74.19
272.858	83.19
273.09	79.19
273.322	97.19
273.553	90.19
273.785	87.19
274.017	81.19
274.249	78.19
274.481	74.19
274.713	77.19
274.945	97.19
275.176	85.19
275.408	74.19
275.64	84.19
275.872	78.19
276.104	82.19
276.335	85.19
276.567	59.19
276.799	88.19
277.031	73.19
277.262	86.19
277.494	73.19
277.726	89.19
277.957	82.19
278.189	74.19
278.421	76.19
278.652	85.19
278.884	81.19
279.115	98.19
279.347	81.19
279.579	105.19
279.81	84.19
280.042	76.19
280.273	94.19
280.505	78.19
280.736	73.19
280.968	86.19
281.199	87.19
281.431	92.19
281.662	78.19
281.894	71.19
282.125	64.19
282.356	95.19
282.588	88.19
282.819	90.19
283.051	82.19
283.282	83.19
283.513	93.19
283.745	85.19
283.976	76.19
284.207	73.19
284.439	96.19
284.67	99.19
284.901	96.19
285.132	87.19
285.364	70.19
285.595	73.19
285.826	89.19
286.057	83.19
286.288	84.19
286.52	81.19
286.751	80.19
286.982	84.19
287.213	95.19
287.444	99.19
287.675	86.19
287.906	89.19
288.138	89.19
288.369	88.19
288.6	90.19
288.831	81.19
289.062	81.19
289.293	84.19
289.524	83.19
289.755	88.19
289.986	92.19
290.217	77.19
290.448	93.19
290.679	98.19
290.91	80.19
291.141	88.19
291.371	94.19
291.602	79.19
291.833	80.19
292.064	88.19
292.295	89.19
292.526	81.19
292.757	73.19
292.987	84.19
293.218	90.19
293.449	79.19
293.68	96.19
293.91	81.19
294.141	86.19
294.372	80.19
294.603	84.19
294.833	76.19
295.064	80.19
295.295	78.19
295.525	89.19
295.756	102.19
295.987	78.19
296.217	89.19
296.448	84.19
296.679	84.19
296.909	88.19
297.14	78.19
297.37	96.19
297.601	65.19
297.831	96.19
298.062	96.19
298.292	92.19
298.523	87.19
298.753	82.19
298.984	82.19
299.214	87.19
299.445	84.19
299.675	86.19
299.905	79.19
300.136	88.19
300.366	98.19
300.597	86.19
300.827	82.19
301.057	92.19
301.288	78.19
301.518	94.19
301.748	85.19
301.979	104.19
302.209	74.19
302.439	78.19
302.669	75.19
302.9	73.19
303.13	89.19
303.36	75.19
303.59	91.19
303.82	92.19
304.051	84.19
304.281	95.19
304.511	88.19
304.741	92.19
304.971	97.19
305.201	68.19
305.431	86.19
305.661	89.19
305.891	86.19
306.121	80.19
306.352	75.19
306.582	90.19
306.812	92.19
307.042	87.19
307.272	85.19
307.502	81.19
307.731	82.19
307.961	80.19
308.191	80.19
308.421	86.19
308.651	90.19
308.881	72.19
309.111	83.19
309.341	82.19
309.571	76.19
309.8	86.19
310.03	92.19
310.26	92.19
310.49	92.19
310.72	86.19
310.949	91.19
311.179	93.19
311.409	105.19
311.639	84.19
311.868	67.19
312.098	72.19
312.328	89.19
312.557	98.19
312.787	82.19
313.017	81.19
313.246	76.19
313.476	78.19
313.706	93.19
313.935	84.19
314.165	88.19
314.394	92.19
314.624	81.19
314.853	88.19
315.083	94.19
315.312	108.19
315.542	80.19
315.771	73.19
316.001	99.19
316.23	102.19
316.46	93.19
316.689	88.19
316.919	87.19
317.148	92.19
317.377	91.19
317.607	98.19
317.836	85.19
318.065	93.19
318.295	100.19
318.524	66.19
318.753	79.19
318.983	80.19
319.212	87.19
319.441	85.19
319.67	86.19
319.9	83.19
320.129	83.19
320.358	98.19
320.587	79.19
320.816	91.19
321.046	75.19
321.275	84.19
321.504	106.19
321.733	81.19
321.962	86.19
322.191	101.19
322.42	76.19
322.649	77.19
322.878	77.19
323.108	91.19
323.337	86.19
323.566	77.19
323.795	91.19
324.024	91.19
324.253	89.19
324.482	86.19
324.71	88.19
324.939	79.19
325.168	80.19
325.397	82.19
325.626	88.19
325.855	87.19
326.084	94.19
326.313	74.19
326.542	94.19
326.77	91.19
326.999	89.19
327.228	89.19
327.457	83.19
327.686	94.19
327.914	100.19
328.143	102.19
328.372	75.19
328.6	81.19
328.829	78.19
329.058	90.19
329.287	88.19
329.515	87.19
329.744	90.19
329.972	101.19
330.201	79.19
330.43	82.19
330.658	91.19
330.887	93.19
331.115	80.19
331.344	85.19
331.572	80.19
331.801	79.19
332.03	70.19
332.258	86.19
332.486	87.19
332.715	85.19
332.943	93.19
333.172	92.19
333.4	91.19
333.629	89.19
333.857	96.19
334.085	92.19
334.314	71.19
334.542	76.19
334.771	78.19
334.999	88.19
335.227	84.19
335.455	84.19
335.684	76.19
335.912	110.19
336.14	80.19
336.369	93.19
336.597	86.19
336.825	86.19
337.053	88.19
337.281	83.19
337.51	88.19
337.738	96.19
337.966	91.19
338.194	84.19
338.422	88.19
338.65	92.19
338.878	86.19
339.106	92.19
339.334	100.19
339.562	76.19
339.79	81.19
340.018	84.19
340.246	94.19
340.474	81.19
340.702	89.19
340.93	84.19
341.158	71.19
341.386	84.19
341.614	79.19
341.842	76.19
342.07	98.19
342.298	84.19
342.526	80.19
342.754	84.19
342.981	74.19
343.209	79.19
343.437	84.19
343.665	81.19
343.893	75.19
344.12	84.19
344.348	88.19
344.576	82.19
344.804	80.19
345.031	92.19
345.259	84.19
345.487	96.19
345.714	80.19
345.942	78.19
346.17	88.19
346.397	77.19
346.625	99.19
346.853	81.19
347.08	72.19
347.308	77.19
347.535	75.19
347.763	75.19
347.99	75.19
348.218	87.19
348.445	78.19
348.673	103.19
348.9	91.19
349.128	90.19
349.355	88.19
349.583	85.19
349.81	92.19
350.037	83.19
350.265	76.19
350.492	83.19
350.72	77.19
350.947	72.19
351.174	77.19
351.402	83.19
351.629	88.19
351.856	86.19
352.083	88.19
352.311	84.19
352.538	84.19
352.765	85.19
352.992	87.19
353.22	86.19
353.447	87.19
353.674	89.19
353.901	74.19
354.128	96.19
354.355	77.19
354.583	92.19
354.81	101.19
355.037	81.19
355.264	79.19
355.491	82.19
355.718	73.19
355.945	96.19
356.172	76.19
356.399	87.19
356.626	88.19
356.853	113.19
357.08	100.19
357.307	81.19
357.534	90.19
357.761	86.19
357.988	89.19
358.215	91.19
358.441	85.19
358.668	92.19
358.895	94.19
359.122	94.19
359.349	78.19
359.576	92.19
359.802	80.19
360.029	68.19
360.256	92.19
360.483	87.19
360.709	87.19
360.936	87.19
361.163	84.19
361.39	88.19
361.616	91.19
361.843	89.19
362.07	85.19
362.296	80.19
362.523	79.19
362.749	107.19
362.976	91.19
363.203	85.19
363.429	93.19
363.656	71.19
363.882	78.19
364.109	76.19
364.335	91.19
364.562	85.19
364.788	89.19
365.015	86.19
365.241	96.19
365.468	92.19
365.694	82.19
365.92	91.19
366.147	80.19
366.373	75.19
366.599	98.19
366.826	64.19
367.052	84.19
367.278	84.19
367.505	66.19
367.731	80.19
367.957	100.19
368.184	76.19
368.41	89.19
368.636	89.19
368.862	88.19
369.089	97.19
369.315	87.19
369.541	96.19
369.767	73.19
369.993	88.19
370.219	88.19
370.445	74.19
370.672	84.19
370.898	72.19
371.124	81.19
371.35	77.19
371.576	83.19
371.802	90.19
372.028	92.19
372.254	83.19
372.48	83.19
372.706	76.19
372.932	80.19
373.158	85.19
373.384	89.19
373.61	98.19
373.835	104.19
374.061	77.19
374.287	86.19
374.513	89.19
374.739	84.19
374.965	86.19
375.191	98.19
375.416	92.19
375.642	73.19
375.868	91.19
376.094	98.19
376.319	90.19
376.545	77.19
376.771	84.19
376.997	86.19
377.222	77.19
377.448	88.19
377.674	91.19
377.899	82.19
378.125	93.19
378.35	86.19
378.576	80.19
378.802	82.19
379.027	84.19
379.253	98.19
379.478	82.19
379.704	84.19
379.929	85.19
380.155	84.19
380.38	96.19
380.606	93.19
380.831	94.19
381.057	91.19
381.282	89.19
381.507	84.19
381.733	100.19
381.958	77.19
382.184	88.19
382.409	94.19
382.634	89.19
382.86	92.19
383.085	86.19
383.31	81.19
383.535	87.19
383.761	90.19
383.986	66.19
384.211	81.19
384.436	98.19
384.662	88.19
384.887	95.19
385.112	101.19
385.337	92.19
385.562	74.19
385.787	96.19
386.013	78.19
386.238	87.19
386.463	77.19
386.688	85.19
386.913	73.19
387.138	102.19
387.363	82.19
387.588	82.19
387.813	89.19
388.038	88.19
388.263	84.19
388.488	90.19
388.713	98.19
388.938	98.19
389.163	88.19
389.387	88.19
389.612	83.19
389.837	84.19
390.062	91.19
390.287	99.19
390.512	98.19
390.736	80.19
390.961	74.19
391.186	85.19
391.411	84.19
391.636	73.19
391.86	84.19
392.085	84.19
392.31	78.19
392.534	101.19
392.759	83.19
392.984	118.19
393.208	172.19
393.433	270.19
393.658	200.19
393.882	95.19
394.107	98.19
394.331	98.19
394.556	86.19
394.78	77.19
395.005	71.19
395.229	79.19
395.454	90.19
395.678	92.19
395.903	83.19
396.127	112.19
396.352	107.19
396.576	123.19
396.801	172.19
397.025	206.19
397.249	120.19
397.474	82.19
397.698	95.19
397.922	89.19
398.147	79.19
398.371	84.19
398.595	79.19
398.82	77.19
399.044	94.19
399.268	90.19
399.492	82.19
399.717	74.19
399.941	88.19
400.165	95.19
400.389	81.19
400.613	94.19
400.837	91.19
401.062	83.19
401.286	92.19
401.51	72.19
401.734	80.19
401.958	84.19
402.182	95.19
402.406	82.19
402.63	70.19
402.854	81.19
403.078	85.19
403.302	88.19
403.526	90.19
403.75	92.19
403.974	97.19
404.198	84.19
404.422	77.19
404.645	94.19
404.869	61.19
405.093	87.19
405.317	78.19
405.541	80.19
405.765	82.19
405.988	91.19
406.212	80.19
406.436	83.19
406.66	92.19
406.883	85.19
407.107	82.19
407.331	77.19
407.555	88.19
407.778	92.19
408.002	110.19
408.226	86.19
408.449	92.19
408.673	86.19
408.896	78.19
409.12	88.19
409.344	78.19
409.567	96.19
409.791	78.19
410.014	90.19
410.238	79.19
410.461	86.19
410.685	75.19
410.908	79.19
411.132	92.19
411.355	88.19
411.578	92.19
411.802	92.19
412.025	76.19
412.249	81.19
412.472	72.19
412.695	84.19
412.919	72.19
413.142	78.19
413.365	81.19
413.589	74.19
413.812	92.19
414.035	85.19
414.258	82.19
414.482	85.19
414.705	84.19
414.928	92.19
415.151	82.19
415.374	82.19
415.597	86.19
415.821	90.19
416.044	84.19
416.267	78.19
416.49	76.19
416.713	85.19
416.936	87.19
417.159	91.19
417.382	77.19
417.605	73.19
417.828	89.19
418.051	86.19
418.274	87.19
418.497	73.19
418.72	90.19
418.943	82.19
419.166	95.19
419.389	79.19
419.611	72.19
419.834	73.19
420.057	82.19
420.28	82.19
420.503	90.19
420.726	77.19
420.948	78.19
421.171	78.19
421.394	88.19
421.617	104.19
421.839	93.19
422.062	83.19
422.285	74.19
422.507	125.19
422.73	201.19
422.953	161.19
423.175	97.19
423.398	78.19
423.621	101.19
423.843	93.19
424.066	80.19
424.288	88.19
424.511	102.19
424.733	85.19
424.956	93.19
425.178	100.19
425.401	92.19
425.623	82.19
425.846	88.19
426.068	84.19
426.291	88.19
426.513	78.19
426.735	80.19
426.958	82.19
427.18	77.19
427.402	78.19
427.625	77.19
427.847	75.19
428.069	78.19
428.292	84.19
428.514	90.19
428.736	88.19
428.958	93.19
429.181	95.19
429.403	97.19
429.625	83.19
429.847	98.19
430.069	89.19
430.292	109.19
430.514	103.19
430.736	88.19
430.958	92.19
431.18	103.19
431.402	80.19
431.624	96.19
431.846	77.19
432.068	94.19
432.29	96.19
432.512	79.19
432.734	83.19
432.956	100.19
433.178	82.19
433.4	83.19
433.622	89.19
433.844	84.19
434.066	71.19
434.287	86.19
434.509	82.19
434.731	84.19
434.953	85.19
435.175	89.19
435.397	82.19
435.618	88.19
435.84	78.19
436.062	85.19
436.284	82.19
436.505	89.19
436.727	84.19
436.949	78.19
437.17	73.19
437.392	88.19
437.614	97.19
437.835	87.19
438.057	79.19
438.278	75.19
438.5	73.19
438.721	61.19
438.943	86.19
439.165	87.19
439.386	78.19
439.608	86.19
439.829	76.19
440.05	92.19
440.272	88.19
440.493	70.19
440.715	73.19
440.936	81.19
441.158	83.19
441.379	79.19
441.6	61.19
441.822	67.19
442.043	77.19
442.264	89.19
442.486	98.19
442.707	90.19
442.928	77.19
443.149	90.19
443.371	80.19
443.592	111.19
443.813	106.19
444.034	86.19
444.255	96.19
444.476	79.19
444.698	70.19
444.919	80.19
445.14	166.19
445.361	143.19
445.582	110.19
445.803	102.19
446.024	84.19
446.245	94.19
446.466	70.19
446.687	92.19
446.908	84.19
447.129	81.19
447.35	75.19
447.571	84.19
447.792	76.19
448.013	93.19
448.234	77.19
448.455	88.19
448.675	71.19
448.896	82.19
449.117	88.19
449.338	72.19
449.559	83.19
449.779	80.19
450	69.19
450.221	74.19
450.442	95.19
450.662	75.19
450.883	76.19
451.104	97.19
451.324	77.19
451.545	85.19
451.766	88.19
451.986	78.19
452.207	96.19
452.428	80.19
452.648	70.19
452.869	96.19
453.089	70.19
453.31	81.19
453.53	84.19
453.751	69.19
453.971	76.19
454.192	84.19
454.412	77.19
454.633	78.19
454.853	90.19
455.073	70.19
455.294	64.19
455.514	93.19
455.734	68.19
455.955	74.19
456.175	81.19
456.395	70.19
456.616	92.19
456.836	67.19
457.056	73.19
457.276	93.19
457.497	85.19
457.717	69.19
457.937	75.19
458.157	89.19
458.377	76.19
458.598	75.19
458.818	79.19
459.038	81.19
459.258	71.19
459.478	81.19
459.698	86.19
459.918	77.19
460.138	84.19
460.358	78.19
460.578	97.19
460.798	98.19
461.018	85.19
461.238	86.19
461.458	76.19
461.678	82.19
461.898	73.19
462.118	75.19
462.338	89.19
462.558	92.19
462.777	86.19
462.997	78.19
463.217	82.19
463.437	88.19
463.657	90.19
463.876	69.19
464.096	84.19
464.316	83.19
464.536	86.19
464.755	86.19
464.975	80.19
465.195	99.19
465.414	77.19
465.634	91.19
465.854	90.19
466.073	77.19
466.293	90.19
466.512	69.19
466.732	85.19
466.951	86.19
467.171	88.19
467.391	78.19
467.61	86.19
467.829	80.19
468.049	89.19
468.268	86.19
468.488	88.19
468.707	87.19
468.927	86.19
469.146	84.19
469.365	82.19
469.585	80.19
469.804	68.19
470.023	88.19
470.243	98.19
470.462	85.19
470.681	84.19
470.901	81.19
471.12	77.19
471.339	86.19
471.558	84.19
471.777	83.19
471.997	77.19
472.216	83.19
472.435	96.19
472.654	97.19
472.873	77.19
473.092	86.19
473.311	78.19
473.53	74.19
473.749	78.19
473.968	69.19
474.187	75.19
474.406	92.19
474.625	85.19
474.844	91.19
475.063	94.19
475.282	82.19
475.501	73.19
475.72	90.19
475.939	86.19
476.158	81.19
476.377	76.19
476.596	88.19
476.814	66.19
477.033	92.19
477.252	82.19
477.471	88.19
477.69	89.19
477.908	84.19
478.127	90.19
478.346	85.19
478.564	86.19
478.783	77.19
479.002	94.19
479.22	92.19
479.439	93.19
479.658	92.19
479.876	75.19
480.095	87.19
480.313	74.19
480.532	97.19
480.751	96.19
480.969	94.19
481.188	85.19
481.406	85.19
481.624	77.19
481.843	92.19
482.061	93.19
482.28	85.19
482.498	74.19
482.717	77.19
482.935	82.19
483.153	85.19
483.372	85.19
483.59	75.19
483.808	76.19
484.027	91.19
484.245	85.19
484.463	82.19
484.681	75.19
484.9	83.19
485.118	74.19
485.336	75.19
485.554	81.19
485.772	84.19
485.99	99.19
486.209	91.19
486.427	93.19
486.645	75.19
486.863	85.19
487.081	88.19
487.299	78.19
487.517	86.19
487.735	96.19
487.953	86.19
488.171	89.19
488.389	90.19
488.607	82.19
488.825	73.19
489.043	85.19
489.261	89.19
489.479	95.19
489.696	73.19
489.914	85.19
490.132	86.19
490.35	93.19
490.568	74.19
490.786	79.19
491.003	81.19
491.221	87.19
491.439	69.19
491.657	87.19
491.874	92.19
492.092	89.19
492.31	77.19
492.527	83.19
492.745	90.19
492.963	101.19
493.18	82.19
493.398	88.19
493.615	89.19
493.833	85.19
494.05	87.19
494.268	88.19
494.485	73.19
494.703	94.19
494.92	90.19
495.138	84.19
495.355	70.19
495.573	69.19
495.79	88.19
496.008	89.19
496.225	84.19
496.442	80.19
496.66	87.19
496.877	88.19
497.094	88.19
497.312	83.19
497.529	75.19
497.746	92.19
497.963	85.19
498.181	86.19
498.398	86.19
498.615	90.19
498.832	97.19
499.049	74.19
499.267	104.19
499.484	75.19
499.701	75.19
499.918	80.19
500.135	97.19
500.352	79.19
500.569	89.19
500.786	84.19
501.003	78.19
501.22	92.19
501.437	85.19
501.654	94.19
501.871	84.19
502.088	88.19
502.305	69.19
502.522	90.19
502.739	80.19
502.956	97.19
503.172	87.19
503.389	84.19
503.606	82.19
503.823	79.19
504.04	88.19
504.256	88.19
504.473	91.19
504.69	86.19
504.907	93.19
505.123	83.19
505.34	78.19
505.557	85.19
505.773	96.19
505.99	98.19
506.207	86.19
506.423	76.19
506.64	95.19
506.856	98.19
507.073	83.19
507.289	80.19
507.506	85.19
507.722	79.19
507.939	84.19
508.155	95.19
508.372	101.19
508.588	76.19
508.805	89.19
509.021	78.19
509.238	75.19
509.454	73.19
509.67	86.19
509.887	91.19
510.103	89.19
510.319	80.19
510.536	92.19
510.752	82.19
510.968	77.19
511.184	90.19
511.401	89.19
511.617	79.19
511.833	71.19
512.049	96.19
512.265	93.19
512.481	97.19
512.698	88.19
512.914	84.19
513.13	77.19
513.346	95.19
513.562	92.19
513.778	85.19
513.994	80.19
514.21	77.19
514.426	89.19
514.642	91.19
514.858	81.19
515.074	80.19
515.29	84.19
515.506	91.19
515.721	88.19
515.937	87.19
516.153	93.19
516.369	82.19
516.585	78.19
516.801	68.19
517.016	78.19
517.232	77.19
517.448	84.19
517.664	82.19
517.879	97.19
518.095	90.19
518.311	99.19
518.527	88.19
518.742	90.19
518.958	84.19
519.173	107.19
519.389	93.19
519.605	86.19
