Data from HP_3_HRD10591_00015.txt Node
Date: Mon Jan 19 14:17:08 EST 2026
User: Yrep
Spectrometer: HR+D1059
Trigger mode: 1
Integration Time (sec): 1.000000E-1
Scans to average: 1
Electric dark correction enabled: true
Nonlinearity correction enabled: false
Boxcar width: 0
XAxis mode: Wavelengths
Number of Pixels in Spectrum: 2048
>>>>>Begin Spectral Data<<<<<
223.165	-21.25
223.4	-21.25
223.635	-21.25
223.869	-33.25
224.104	-13.25
224.338	-26.25
224.573	-15.25
224.808	-8.25
225.042	3.75
225.277	-3.25
225.511	-7.25
225.746	0.75
225.98	1.75
226.215	13.75
226.449	14.75
226.683	27.75
226.918	25.75
227.152	39.75
227.387	54.75
227.621	49.75
227.856	40.75
228.09	39.75
228.324	50.75
228.559	61.75
228.793	48.75
229.027	59.75
229.262	57.75
229.496	61.75
229.73	65.75
229.964	66.75
230.199	67.75
230.433	85.75
230.667	82.75
230.901	65.75
231.136	87.75
231.37	79.75
231.604	73.75
231.838	89.75
232.072	82.75
232.306	99.75
232.541	79.75
232.775	89.75
233.009	75.75
233.243	87.75
233.477	75.75
233.711	79.75
233.945	73.75
234.179	77.75
234.413	82.75
234.647	72.75
234.881	83.75
235.115	70.75
235.349	65.75
235.583	69.75
235.817	74.75
236.051	82.75
236.285	62.75
236.519	75.75
236.753	82.75
236.987	77.75
237.221	81.75
237.455	81.75
237.689	81.75
237.922	78.75
238.156	70.75
238.39	69.75
238.624	75.75
238.858	90.75
239.091	81.75
239.325	65.75
239.559	67.75
239.793	83.75
240.027	75.75
240.26	75.75
240.494	78.75
240.728	70.75
240.961	57.75
241.195	74.75
241.429	69.75
241.662	79.75
241.896	73.75
242.13	75.75
242.363	70.75
242.597	78.75
242.83	78.75
243.064	78.75
243.298	70.75
243.531	71.75
243.765	69.75
243.998	85.75
244.232	94.75
244.465	64.75
244.699	76.75
244.932	73.75
245.166	73.75
245.399	82.75
245.633	79.75
245.866	73.75
246.099	63.75
246.333	71.75
246.566	78.75
246.8	75.75
247.033	75.75
247.266	83.75
247.5	76.75
247.733	79.75
247.966	64.75
248.2	70.75
248.433	73.75
248.666	61.75
248.899	68.75
249.133	75.75
249.366	79.75
249.599	71.75
249.832	79.75
250.066	73.75
250.299	70.75
250.532	81.75
250.765	81.75
250.998	78.75
251.231	55.75
251.465	80.75
251.698	75.75
251.931	85.75
252.164	72.75
252.397	71.75
252.63	73.75
252.863	74.75
253.096	91.75
253.329	88.75
253.562	67.75
253.795	90.75
254.028	83.75
254.261	83.75
254.494	82.75
254.727	76.75
254.96	81.75
255.193	82.75
255.426	75.75
255.659	75.75
255.892	74.75
256.124	73.75
256.357	63.75
256.59	86.75
256.823	79.75
257.056	83.75
257.289	88.75
257.521	81.75
257.754	95.75
257.987	84.75
258.22	89.75
258.452	83.75
258.685	86.75
258.918	81.75
259.151	84.75
259.383	77.75
259.616	84.75
259.849	71.75
260.081	75.75
260.314	75.75
260.547	72.75
260.779	81.75
261.012	79.75
261.244	81.75
261.477	75.75
261.71	80.75
261.942	89.75
262.175	73.75
262.407	70.75
262.64	84.75
262.872	83.75
263.105	79.75
263.337	84.75
263.57	90.75
263.802	85.75
264.035	88.75
264.267	81.75
264.499	69.75
264.732	84.75
264.964	79.75
265.197	83.75
265.429	75.75
265.661	72.75
265.894	81.75
266.126	74.75
266.358	68.75
266.591	86.75
266.823	64.75
267.055	68.75
267.287	78.75
267.52	70.75
267.752	79.75
267.984	77.75
268.216	91.75
268.448	72.75
268.681	83.75
268.913	77.75
269.145	85.75
269.377	83.75
269.609	81.75
269.841	80.75
270.073	85.75
270.306	85.75
270.538	72.75
270.77	73.75
271.002	64.75
271.234	94.75
271.466	74.75
271.698	93.75
271.93	69.75
272.162	86.75
272.394	71.75
272.626	85.75
272.858	81.75
273.09	91.75
273.322	78.75
273.553	90.75
273.785	90.75
274.017	76.75
274.249	74.75
274.481	80.75
274.713	75.75
274.945	71.75
275.176	78.75
275.408	80.75
275.64	81.75
275.872	86.75
276.104	100.75
276.335	78.75
276.567	84.75
276.799	72.75
277.031	91.75
277.262	81.75
277.494	84.75
277.726	75.75
277.957	71.75
278.189	75.75
278.421	74.75
278.652	80.75
278.884	73.75
279.115	86.75
279.347	74.75
279.579	82.75
279.81	61.75
280.042	77.75
280.273	77.75
280.505	73.75
280.736	83.75
280.968	73.75
281.199	72.75
281.431	76.75
281.662	87.75
281.894	91.75
282.125	67.75
282.356	82.75
282.588	87.75
282.819	84.75
283.051	85.75
283.282	89.75
283.513	69.75
283.745	86.75
283.976	71.75
284.207	81.75
284.439	80.75
284.67	78.75
284.901	82.75
285.132	85.75
285.364	73.75
285.595	79.75
285.826	82.75
286.057	82.75
286.288	73.75
286.52	87.75
286.751	86.75
286.982	67.75
287.213	83.75
287.444	77.75
287.675	70.75
287.906	88.75
288.138	87.75
288.369	90.75
288.6	72.75
288.831	73.75
289.062	77.75
289.293	92.75
289.524	88.75
289.755	78.75
289.986	64.75
290.217	84.75
290.448	78.75
290.679	97.75
290.91	84.75
291.141	89.75
291.371	79.75
291.602	85.75
291.833	72.75
292.064	87.75
292.295	71.75
292.526	80.75
292.757	78.75
292.987	72.75
293.218	81.75
293.449	87.75
293.68	87.75
293.91	75.75
294.141	68.75
294.372	74.75
294.603	78.75
294.833	78.75
295.064	89.75
295.295	79.75
295.525	86.75
295.756	93.75
295.987	94.75
296.217	80.75
296.448	63.75
296.679	83.75
296.909	93.75
297.14	86.75
297.37	95.75
297.601	94.75
297.831	90.75
298.062	91.75
298.292	80.75
298.523	86.75
298.753	79.75
298.984	84.75
299.214	70.75
299.445	83.75
299.675	81.75
299.905	76.75
300.136	86.75
300.366	93.75
300.597	90.75
300.827	87.75
301.057	96.75
301.288	89.75
301.518	88.75
301.748	76.75
301.979	89.75
302.209	90.75
302.439	85.75
302.669	66.75
302.9	81.75
303.13	88.75
303.36	91.75
303.59	96.75
303.82	95.75
304.051	72.75
304.281	93.75
304.511	91.75
304.741	77.75
304.971	84.75
305.201	89.75
305.431	90.75
305.661	90.75
305.891	83.75
306.121	81.75
306.352	83.75
306.582	75.75
306.812	86.75
307.042	85.75
307.272	89.75
307.502	70.75
307.731	86.75
307.961	97.75
308.191	79.75
308.421	91.75
308.651	78.75
308.881	93.75
309.111	87.75
309.341	95.75
309.571	104.75
309.8	73.75
310.03	91.75
310.26	72.75
310.49	87.75
310.72	82.75
310.949	85.75
311.179	89.75
311.409	82.75
311.639	90.75
311.868	81.75
312.098	92.75
312.328	81.75
312.557	73.75
312.787	73.75
313.017	71.75
313.246	78.75
313.476	73.75
313.706	85.75
313.935	87.75
314.165	86.75
314.394	86.75
314.624	88.75
314.853	87.75
315.083	68.75
315.312	76.75
315.542	82.75
315.771	82.75
316.001	76.75
316.23	84.75
316.46	71.75
316.689	73.75
316.919	82.75
317.148	82.75
317.377	86.75
317.607	79.75
317.836	88.75
318.065	81.75
318.295	89.75
318.524	69.75
318.753	70.75
318.983	97.75
319.212	89.75
319.441	91.75
319.67	86.75
319.9	89.75
320.129	83.75
320.358	85.75
320.587	84.75
320.816	91.75
321.046	70.75
321.275	76.75
321.504	85.75
321.733	81.75
321.962	83.75
322.191	90.75
322.42	94.75
322.649	80.75
322.878	90.75
323.108	78.75
323.337	91.75
323.566	82.75
323.795	80.75
324.024	83.75
324.253	90.75
324.482	76.75
324.71	86.75
324.939	91.75
325.168	100.75
325.397	85.75
325.626	80.75
325.855	89.75
326.084	93.75
326.313	71.75
326.542	79.75
326.77	81.75
326.999	83.75
327.228	85.75
327.457	64.75
327.686	95.75
327.914	76.75
328.143	93.75
328.372	87.75
328.6	86.75
328.829	87.75
329.058	74.75
329.287	99.75
329.515	78.75
329.744	90.75
329.972	66.75
330.201	73.75
330.43	79.75
330.658	84.75
330.887	88.75
331.115	77.75
331.344	86.75
331.572	81.75
331.801	81.75
332.03	73.75
332.258	82.75
332.486	91.75
332.715	86.75
332.943	75.75
333.172	76.75
333.4	87.75
333.629	68.75
333.857	75.75
334.085	86.75
334.314	83.75
334.542	88.75
334.771	89.75
334.999	84.75
335.227	82.75
335.455	101.75
335.684	106.75
335.912	91.75
336.14	93.75
336.369	91.75
336.597	83.75
336.825	76.75
337.053	84.75
337.281	94.75
337.51	97.75
337.738	87.75
337.966	65.75
338.194	89.75
338.422	78.75
338.65	73.75
338.878	81.75
339.106	88.75
339.334	85.75
339.562	84.75
339.79	75.75
340.018	79.75
340.246	66.75
340.474	94.75
340.702	95.75
340.93	82.75
341.158	72.75
341.386	89.75
341.614	75.75
341.842	86.75
342.07	89.75
342.298	74.75
342.526	71.75
342.754	88.75
342.981	91.75
343.209	71.75
343.437	96.75
343.665	81.75
343.893	84.75
344.12	90.75
344.348	93.75
344.576	84.75
344.804	81.75
345.031	72.75
345.259	80.75
345.487	81.75
345.714	87.75
345.942	87.75
346.17	74.75
346.397	90.75
346.625	82.75
346.853	82.75
347.08	82.75
347.308	81.75
347.535	94.75
347.763	90.75
347.99	88.75
348.218	83.75
348.445	89.75
348.673	83.75
348.9	101.75
349.128	95.75
349.355	89.75
349.583	93.75
349.81	86.75
350.037	85.75
350.265	89.75
350.492	86.75
350.72	92.75
350.947	69.75
351.174	72.75
351.402	87.75
351.629	73.75
351.856	87.75
352.083	75.75
352.311	88.75
352.538	98.75
352.765	89.75
352.992	90.75
353.22	82.75
353.447	71.75
353.674	83.75
353.901	95.75
354.128	73.75
354.355	81.75
354.583	87.75
354.81	78.75
355.037	90.75
355.264	88.75
355.491	88.75
355.718	74.75
355.945	94.75
356.172	87.75
356.399	100.75
356.626	84.75
356.853	83.75
357.08	84.75
357.307	76.75
357.534	85.75
357.761	82.75
357.988	82.75
358.215	85.75
358.441	95.75
358.668	81.75
358.895	88.75
359.122	96.75
359.349	104.75
359.576	102.75
359.802	87.75
360.029	99.75
360.256	93.75
360.483	74.75
360.709	93.75
360.936	97.75
361.163	81.75
361.39	89.75
361.616	94.75
361.843	88.75
362.07	95.75
362.296	84.75
362.523	87.75
362.749	81.75
362.976	89.75
363.203	113.75
363.429	89.75
363.656	80.75
363.882	93.75
364.109	96.75
364.335	107.75
364.562	106.75
364.788	90.75
365.015	103.75
365.241	70.75
365.468	93.75
365.694	78.75
365.92	73.75
366.147	81.75
366.373	88.75
366.599	77.75
366.826	73.75
367.052	88.75
367.278	85.75
367.505	81.75
367.731	87.75
367.957	78.75
368.184	91.75
368.41	71.75
368.636	86.75
368.862	85.75
369.089	87.75
369.315	83.75
369.541	87.75
369.767	83.75
369.993	89.75
370.219	81.75
370.445	78.75
370.672	103.75
370.898	93.75
371.124	89.75
371.35	74.75
371.576	88.75
371.802	95.75
372.028	81.75
372.254	83.75
372.48	86.75
372.706	84.75
372.932	78.75
373.158	84.75
373.384	86.75
373.61	94.75
373.835	97.75
374.061	96.75
374.287	96.75
374.513	84.75
374.739	89.75
374.965	96.75
375.191	89.75
375.416	87.75
375.642	80.75
375.868	101.75
376.094	81.75
376.319	83.75
376.545	102.75
376.771	85.75
376.997	76.75
377.222	81.75
377.448	91.75
377.674	77.75
377.899	82.75
378.125	77.75
378.35	69.75
378.576	91.75
378.802	72.75
379.027	96.75
379.253	74.75
379.478	92.75
379.704	78.75
379.929	71.75
380.155	89.75
380.38	81.75
380.606	85.75
380.831	79.75
381.057	95.75
381.282	90.75
381.507	83.75
381.733	90.75
381.958	83.75
382.184	79.75
382.409	90.75
382.634	97.75
382.86	97.75
383.085	94.75
383.31	95.75
383.535	82.75
383.761	98.75
383.986	88.75
384.211	97.75
384.436	105.75
384.662	82.75
384.887	90.75
385.112	79.75
385.337	88.75
385.562	84.75
385.787	89.75
386.013	90.75
386.238	93.75
386.463	81.75
386.688	111.75
386.913	91.75
387.138	97.75
387.363	81.75
387.588	83.75
387.813	91.75
388.038	96.75
388.263	85.75
388.488	95.75
388.713	94.75
388.938	90.75
389.163	82.75
389.387	79.75
389.612	73.75
389.837	79.75
390.062	82.75
390.287	91.75
390.512	99.75
390.736	74.75
390.961	75.75
391.186	94.75
391.411	82.75
391.636	83.75
391.86	88.75
392.085	98.75
392.31	85.75
392.534	97.75
392.759	104.75
392.984	126.75
393.208	189.75
393.433	247.75
393.658	197.75
393.882	110.75
394.107	95.75
394.331	112.75
394.556	132.75
394.78	105.75
395.005	81.75
395.229	93.75
395.454	86.75
395.678	106.75
395.903	108.75
396.127	127.75
396.352	132.75
396.576	129.75
396.801	202.75
397.025	204.75
397.249	137.75
397.474	86.75
397.698	83.75
397.922	86.75
398.147	78.75
398.371	83.75
398.595	96.75
398.82	97.75
399.044	78.75
399.268	82.75
399.492	81.75
399.717	84.75
399.941	81.75
400.165	77.75
400.389	80.75
400.613	87.75
400.837	85.75
401.062	91.75
401.286	84.75
401.51	89.75
401.734	87.75
401.958	81.75
402.182	82.75
402.406	79.75
402.63	84.75
402.854	82.75
403.078	98.75
403.302	84.75
403.526	93.75
403.75	95.75
403.974	98.75
404.198	75.75
404.422	112.75
404.645	124.75
404.869	106.75
405.093	111.75
405.317	78.75
405.541	84.75
405.765	86.75
405.988	78.75
406.212	66.75
406.436	81.75
406.66	89.75
406.883	96.75
407.107	87.75
407.331	85.75
407.555	85.75
407.778	96.75
408.002	109.75
408.226	86.75
408.449	71.75
408.673	80.75
408.896	89.75
409.12	81.75
409.344	104.75
409.567	87.75
409.791	93.75
410.014	99.75
410.238	76.75
410.461	82.75
410.685	101.75
410.908	81.75
411.132	83.75
411.355	76.75
411.578	92.75
411.802	86.75
412.025	77.75
412.249	73.75
412.472	66.75
412.695	80.75
412.919	88.75
413.142	66.75
413.365	89.75
413.589	81.75
413.812	79.75
414.035	81.75
414.258	80.75
414.482	83.75
414.705	77.75
414.928	70.75
415.151	89.75
415.374	79.75
415.597	84.75
415.821	65.75
416.044	79.75
416.267	77.75
416.49	81.75
416.713	86.75
416.936	74.75
417.159	94.75
417.382	78.75
417.605	77.75
417.828	90.75
418.051	101.75
418.274	75.75
418.497	90.75
418.72	86.75
418.943	82.75
419.166	86.75
419.389	80.75
419.611	87.75
419.834	77.75
420.057	76.75
420.28	65.75
420.503	90.75
420.726	82.75
420.948	98.75
421.171	86.75
421.394	93.75
421.617	98.75
421.839	115.75
422.062	117.75
422.285	161.75
422.507	248.75
422.73	388.75
422.953	345.75
423.175	182.75
423.398	126.75
423.621	92.75
423.843	109.75
424.066	75.75
424.288	89.75
424.511	104.75
424.733	84.75
424.956	87.75
425.178	91.75
425.401	73.75
425.623	76.75
425.846	89.75
426.068	104.75
426.291	78.75
426.513	84.75
426.735	72.75
426.958	88.75
427.18	80.75
427.402	86.75
427.625	94.75
427.847	74.75
428.069	109.75
428.292	110.75
428.514	130.75
428.736	111.75
428.958	114.75
429.181	117.75
429.403	94.75
429.625	99.75
429.847	105.75
430.069	137.75
430.292	174.75
430.514	158.75
430.736	119.75
430.958	123.75
431.18	105.75
431.402	78.75
431.624	99.75
431.846	96.75
432.068	109.75
432.29	91.75
432.512	96.75
432.734	88.75
432.956	65.75
433.178	88.75
433.4	81.75
433.622	89.75
433.844	81.75
434.066	88.75
434.287	86.75
434.509	82.75
434.731	81.75
434.953	79.75
435.175	89.75
435.397	72.75
435.618	89.75
435.84	90.75
436.062	74.75
436.284	90.75
436.505	75.75
436.727	73.75
436.949	79.75
437.17	85.75
437.392	95.75
437.614	74.75
437.835	79.75
438.057	85.75
438.278	86.75
438.5	81.75
438.721	105.75
438.943	96.75
439.165	84.75
439.386	85.75
439.608	84.75
439.829	77.75
440.05	71.75
440.272	79.75
440.493	78.75
440.715	78.75
440.936	89.75
441.158	92.75
441.379	75.75
441.6	97.75
441.822	72.75
442.043	90.75
442.264	107.75
442.486	110.75
442.707	147.75
442.928	110.75
443.149	111.75
443.371	127.75
443.592	220.75
443.813	190.75
444.034	107.75
444.255	93.75
444.476	86.75
444.698	78.75
444.919	90.75
445.14	168.75
445.361	196.75
445.582	249.75
445.803	210.75
446.024	98.75
446.245	99.75
446.466	75.75
446.687	83.75
446.908	95.75
447.129	79.75
447.35	80.75
447.571	75.75
447.792	86.75
448.013	84.75
448.234	88.75
448.455	82.75
448.675	81.75
448.896	88.75
449.117	85.75
449.338	73.75
449.559	79.75
449.779	87.75
450	85.75
450.221	80.75
450.442	76.75
450.662	82.75
450.883	94.75
451.104	79.75
451.324	75.75
451.545	98.75
451.766	85.75
451.986	89.75
452.207	83.75
452.428	82.75
452.648	66.75
452.869	81.75
453.089	86.75
453.31	84.75
453.53	73.75
453.751	89.75
453.971	88.75
454.192	86.75
454.412	58.75
454.633	73.75
454.853	75.75
455.073	75.75
455.294	90.75
455.514	84.75
455.734	78.75
455.955	83.75
456.175	85.75
456.395	80.75
456.616	81.75
456.836	80.75
457.056	78.75
457.276	74.75
457.497	93.75
457.717	91.75
457.937	97.75
458.157	112.75
458.377	104.75
458.598	101.75
458.818	109.75
459.038	87.75
459.258	87.75
459.478	82.75
459.698	77.75
459.918	72.75
460.138	81.75
460.358	61.75
460.578	91.75
460.798	121.75
461.018	102.75
461.238	76.75
461.458	87.75
461.678	75.75
461.898	84.75
462.118	99.75
462.338	69.75
462.558	94.75
462.777	95.75
462.997	96.75
463.217	94.75
463.437	84.75
463.657	97.75
463.876	73.75
464.096	78.75
464.316	77.75
464.536	79.75
464.755	64.75
464.975	60.75
465.195	90.75
465.414	81.75
465.634	80.75
465.854	79.75
466.073	81.75
466.293	80.75
466.512	76.75
466.732	76.75
466.951	68.75
467.171	85.75
467.391	80.75
467.61	78.75
467.829	90.75
468.049	78.75
468.268	95.75
468.488	82.75
468.707	95.75
468.927	64.75
469.146	87.75
469.365	78.75
469.585	83.75
469.804	72.75
470.023	96.75
470.243	89.75
470.462	89.75
470.681	76.75
470.901	74.75
471.12	91.75
471.339	82.75
471.558	91.75
471.777	89.75
471.997	90.75
472.216	76.75
472.435	82.75
472.654	86.75
472.873	86.75
473.092	72.75
473.311	89.75
473.53	73.75
473.749	92.75
473.968	71.75
474.187	82.75
474.406	86.75
474.625	82.75
474.844	69.75
475.063	89.75
475.282	79.75
475.501	89.75
475.72	96.75
475.939	77.75
476.158	74.75
476.377	81.75
476.596	75.75
476.814	85.75
477.033	89.75
477.252	80.75
477.471	82.75
477.69	86.75
477.908	79.75
478.127	80.75
478.346	89.75
478.564	86.75
478.783	95.75
479.002	89.75
479.22	88.75
479.439	78.75
479.658	91.75
479.876	75.75
480.095	76.75
480.313	91.75
480.532	79.75
480.751	78.75
480.969	90.75
481.188	82.75
481.406	96.75
481.624	98.75
481.843	71.75
482.061	87.75
482.28	82.75
482.498	83.75
482.717	84.75
482.935	98.75
483.153	86.75
483.372	87.75
483.59	103.75
483.808	86.75
484.027	89.75
484.245	85.75
484.463	78.75
484.681	89.75
484.9	89.75
485.118	86.75
485.336	87.75
485.554	81.75
485.772	78.75
485.99	75.75
486.209	87.75
486.427	96.75
486.645	81.75
486.863	83.75
487.081	87.75
487.299	83.75
487.517	91.75
487.735	109.75
487.953	131.75
488.171	123.75
488.389	82.75
488.607	95.75
488.825	79.75
489.043	74.75
489.261	79.75
489.479	81.75
489.696	79.75
489.914	85.75
490.132	83.75
490.35	90.75
490.568	73.75
490.786	91.75
491.003	86.75
491.221	75.75
491.439	75.75
491.657	75.75
491.874	90.75
492.092	96.75
492.31	74.75
492.527	90.75
492.745	95.75
492.963	97.75
493.18	87.75
493.398	79.75
493.615	81.75
493.833	68.75
494.05	83.75
494.268	75.75
494.485	89.75
494.703	86.75
494.92	66.75
495.138	88.75
495.355	88.75
495.573	83.75
495.79	86.75
496.008	80.75
496.225	87.75
496.442	90.75
496.66	86.75
496.877	86.75
497.094	99.75
497.312	82.75
497.529	72.75
497.746	95.75
497.963	81.75
498.181	86.75
498.398	93.75
498.615	87.75
498.832	87.75
499.049	81.75
499.267	85.75
499.484	89.75
499.701	79.75
499.918	80.75
500.135	78.75
500.352	77.75
500.569	86.75
500.786	88.75
501.003	99.75
501.22	83.75
501.437	84.75
501.654	87.75
501.871	82.75
502.088	88.75
502.305	99.75
502.522	93.75
502.739	86.75
502.956	85.75
503.172	85.75
503.389	91.75
503.606	90.75
503.823	83.75
504.04	99.75
504.256	108.75
504.473	104.75
504.69	82.75
504.907	86.75
505.123	86.75
505.34	98.75
505.557	81.75
505.773	83.75
505.99	84.75
506.207	80.75
506.423	86.75
506.64	89.75
506.856	75.75
507.073	78.75
507.289	102.75
507.506	85.75
507.722	91.75
507.939	95.75
508.155	96.75
508.372	90.75
508.588	83.75
508.805	86.75
509.021	83.75
509.238	88.75
509.454	79.75
509.67	85.75
509.887	83.75
510.103	76.75
510.319	93.75
510.536	79.75
510.752	82.75
510.968	77.75
511.184	95.75
511.401	96.75
511.617	97.75
511.833	82.75
512.049	89.75
512.265	86.75
512.481	89.75
512.698	87.75
512.914	85.75
513.13	83.75
513.346	89.75
513.562	88.75
513.778	80.75
513.994	82.75
514.21	81.75
514.426	68.75
514.642	91.75
514.858	90.75
515.074	89.75
515.29	98.75
515.506	65.75
515.721	81.75
515.937	93.75
516.153	80.75
516.369	89.75
516.585	91.75
516.801	89.75
517.016	74.75
517.232	93.75
517.448	100.75
517.664	85.75
517.879	82.75
518.095	84.75
518.311	92.75
518.527	91.75
518.742	88.75
518.958	128.75
