Data from TenMicroDelayPb_HRD10591_00001.txt Node
Date: Mon Nov 24 14:57:27 EST 2025
User: Yrep
Spectrometer: HR+D1059
Trigger mode: 5
Integration Time (sec): 1.000000E-1
Scans to average: 1
Electric dark correction enabled: true
Nonlinearity correction enabled: false
Boxcar width: 0
XAxis mode: Wavelengths
Number of Pixels in Spectrum: 2048
>>>>>Begin Spectral Data<<<<<
223.165	-13.56
223.4	-13.56
223.635	-13.56
223.869	-23.56
224.104	-29.56
224.338	-14.56
224.573	-10.56
224.808	-16.56
225.042	3.44
225.277	5.44
225.511	-11.56
225.746	9.44
225.98	4.44
226.215	18.44
226.449	5.44
226.683	24.44
226.918	21.44
227.152	27.44
227.387	27.44
227.621	42.44
227.856	52.44
228.09	47.44
228.324	49.44
228.559	71.44
228.793	74.44
229.027	88.44
229.262	86.44
229.496	71.44
229.73	80.44
229.964	107.44
230.199	78.44
230.433	81.44
230.667	96.44
230.901	89.44
231.136	79.44
231.37	81.44
231.604	93.44
231.838	92.44
232.072	96.44
232.306	87.44
232.541	86.44
232.775	74.44
233.009	96.44
233.243	95.44
233.477	95.44
233.711	92.44
233.945	90.44
234.179	98.44
234.413	95.44
234.647	101.44
234.881	97.44
235.115	109.44
235.349	87.44
235.583	89.44
235.817	85.44
236.051	81.44
236.285	98.44
236.519	97.44
236.753	94.44
236.987	89.44
237.221	93.44
237.455	91.44
237.689	99.44
237.922	105.44
238.156	97.44
238.39	88.44
238.624	93.44
238.858	106.44
239.091	87.44
239.325	79.44
239.559	83.44
239.793	90.44
240.027	106.44
240.26	87.44
240.494	101.44
240.728	87.44
240.961	86.44
241.195	107.44
241.429	105.44
241.662	99.44
241.896	87.44
242.13	93.44
242.363	68.44
242.597	78.44
242.83	97.44
243.064	95.44
243.298	91.44
243.531	95.44
243.765	97.44
243.998	92.44
244.232	96.44
244.465	100.44
244.699	94.44
244.932	91.44
245.166	90.44
245.399	94.44
245.633	101.44
245.866	81.44
246.099	85.44
246.333	80.44
246.566	93.44
246.8	87.44
247.033	88.44
247.266	95.44
247.5	86.44
247.733	90.44
247.966	114.44
248.2	108.44
248.433	107.44
248.666	90.44
248.899	113.44
249.133	101.44
249.366	108.44
249.599	91.44
249.832	89.44
250.066	111.44
250.299	102.44
250.532	106.44
250.765	102.44
250.998	90.44
251.231	96.44
251.465	100.44
251.698	95.44
251.931	91.44
252.164	123.44
252.397	97.44
252.63	102.44
252.863	109.44
253.096	99.44
253.329	111.44
253.562	113.44
253.795	107.44
254.028	130.44
254.261	117.44
254.494	111.44
254.727	109.44
254.96	98.44
255.193	97.44
255.426	106.44
255.659	109.44
255.892	110.44
256.124	118.44
256.357	116.44
256.59	111.44
256.823	107.44
257.056	108.44
257.289	111.44
257.521	113.44
257.754	119.44
257.987	107.44
258.22	117.44
258.452	108.44
258.685	109.44
258.918	106.44
259.151	96.44
259.383	135.44
259.616	106.44
259.849	114.44
260.081	114.44
260.314	117.44
260.547	123.44
260.779	121.44
261.012	126.44
261.244	145.44
261.477	181.44
261.71	163.44
261.942	131.44
262.175	120.44
262.407	136.44
262.64	108.44
262.872	113.44
263.105	121.44
263.337	118.44
263.57	117.44
263.802	130.44
264.035	114.44
264.267	116.44
264.499	114.44
264.732	122.44
264.964	112.44
265.197	128.44
265.429	109.44
265.661	125.44
265.894	128.44
266.126	128.44
266.358	138.44
266.591	144.44
266.823	144.44
267.055	113.44
267.287	115.44
267.52	118.44
267.752	117.44
267.984	111.44
268.216	111.44
268.448	125.44
268.681	115.44
268.913	106.44
269.145	114.44
269.377	125.44
269.609	126.44
269.841	116.44
270.073	139.44
270.306	128.44
270.538	125.44
270.77	99.44
271.002	115.44
271.234	110.44
271.466	114.44
271.698	113.44
271.93	100.44
272.162	111.44
272.394	119.44
272.626	102.44
272.858	119.44
273.09	108.44
273.322	127.44
273.553	105.44
273.785	111.44
274.017	115.44
274.249	121.44
274.481	120.44
274.713	96.44
274.945	115.44
275.176	117.44
275.408	111.44
275.64	111.44
275.872	106.44
276.104	139.44
276.335	114.44
276.567	125.44
276.799	120.44
277.031	115.44
277.262	114.44
277.494	121.44
277.726	129.44
277.957	129.44
278.189	116.44
278.421	125.44
278.652	122.44
278.884	130.44
279.115	124.44
279.347	135.44
279.579	156.44
279.81	170.44
280.042	204.44
280.273	206.44
280.505	190.44
280.736	167.44
280.968	139.44
281.199	140.44
281.431	129.44
281.662	128.44
281.894	138.44
282.125	148.44
282.356	158.44
282.588	143.44
282.819	154.44
283.051	145.44
283.282	182.44
283.513	171.44
283.745	176.44
283.976	148.44
284.207	150.44
284.439	131.44
284.67	132.44
284.901	132.44
285.132	115.44
285.364	126.44
285.595	143.44
285.826	120.44
286.057	153.44
286.288	136.44
286.52	144.44
286.751	137.44
286.982	148.44
287.213	142.44
287.444	175.44
287.675	162.44
287.906	140.44
288.138	132.44
288.369	137.44
288.6	126.44
288.831	130.44
289.062	127.44
289.293	119.44
289.524	112.44
289.755	126.44
289.986	105.44
290.217	124.44
290.448	124.44
290.679	116.44
290.91	138.44
291.141	127.44
291.371	127.44
291.602	117.44
291.833	126.44
292.064	143.44
292.295	103.44
292.526	126.44
292.757	139.44
292.987	121.44
293.218	116.44
293.449	133.44
293.68	118.44
293.91	105.44
294.141	132.44
294.372	121.44
294.603	116.44
294.833	125.44
295.064	117.44
295.295	117.44
295.525	125.44
295.756	138.44
295.987	116.44
296.217	122.44
296.448	130.44
296.679	123.44
296.909	133.44
297.14	144.44
297.37	135.44
297.601	111.44
297.831	133.44
298.062	132.44
298.292	123.44
298.523	126.44
298.753	108.44
298.984	117.44
299.214	134.44
299.445	132.44
299.675	127.44
299.905	125.44
300.136	123.44
300.366	113.44
300.597	123.44
300.827	118.44
301.057	118.44
301.288	139.44
301.518	122.44
301.748	127.44
301.979	179.44
302.209	137.44
302.439	123.44
302.669	143.44
302.9	131.44
303.13	128.44
303.36	135.44
303.59	126.44
303.82	145.44
304.051	139.44
304.281	132.44
304.511	144.44
304.741	128.44
304.971	121.44
305.201	142.44
305.431	126.44
305.661	127.44
305.891	129.44
306.121	120.44
306.352	126.44
306.582	107.44
306.812	129.44
307.042	126.44
307.272	128.44
307.502	144.44
307.731	130.44
307.961	125.44
308.191	125.44
308.421	117.44
308.651	134.44
308.881	119.44
309.111	133.44
309.341	119.44
309.571	127.44
309.8	127.44
310.03	122.44
310.26	131.44
310.49	136.44
310.72	126.44
310.949	138.44
311.179	125.44
311.409	135.44
311.639	126.44
311.868	139.44
312.098	134.44
312.328	131.44
312.557	131.44
312.787	136.44
313.017	121.44
313.246	118.44
313.476	136.44
313.706	142.44
313.935	149.44
314.165	131.44
314.394	145.44
314.624	145.44
314.853	156.44
315.083	140.44
315.312	136.44
315.542	139.44
315.771	150.44
316.001	152.44
316.23	145.44
316.46	139.44
316.689	141.44
316.919	150.44
317.148	143.44
317.377	161.44
317.607	151.44
317.836	142.44
318.065	143.44
318.295	139.44
318.524	117.44
318.753	136.44
318.983	133.44
319.212	135.44
319.441	141.44
319.67	147.44
319.9	145.44
320.129	145.44
320.358	133.44
320.587	150.44
320.816	130.44
321.046	129.44
321.275	125.44
321.504	116.44
321.733	120.44
321.962	145.44
322.191	142.44
322.42	124.44
322.649	135.44
322.878	142.44
323.108	131.44
323.337	149.44
323.566	133.44
323.795	136.44
324.024	141.44
324.253	139.44
324.482	132.44
324.71	137.44
324.939	148.44
325.168	123.44
325.397	143.44
325.626	131.44
325.855	129.44
326.084	156.44
326.313	149.44
326.542	120.44
326.77	142.44
326.999	148.44
327.228	138.44
327.457	137.44
327.686	154.44
327.914	143.44
328.143	152.44
328.372	146.44
328.6	138.44
328.829	129.44
329.058	137.44
329.287	125.44
329.515	126.44
329.744	142.44
329.972	129.44
330.201	143.44
330.43	146.44
330.658	123.44
330.887	146.44
331.115	131.44
331.344	127.44
331.572	136.44
331.801	130.44
332.03	126.44
332.258	130.44
332.486	126.44
332.715	128.44
332.943	138.44
333.172	146.44
333.4	132.44
333.629	144.44
333.857	141.44
334.085	135.44
334.314	129.44
334.542	141.44
334.771	134.44
334.999	138.44
335.227	126.44
335.455	149.44
335.684	144.44
335.912	150.44
336.14	138.44
336.369	139.44
336.597	135.44
336.825	140.44
337.053	140.44
337.281	123.44
337.51	147.44
337.738	142.44
337.966	133.44
338.194	135.44
338.422	126.44
338.65	142.44
338.878	162.44
339.106	143.44
339.334	136.44
339.562	125.44
339.79	128.44
340.018	123.44
340.246	127.44
340.474	123.44
340.702	132.44
340.93	131.44
341.158	134.44
341.386	146.44
341.614	134.44
341.842	141.44
342.07	142.44
342.298	154.44
342.526	135.44
342.754	142.44
342.981	140.44
343.209	141.44
343.437	186.44
343.665	136.44
343.893	144.44
344.12	147.44
344.348	136.44
344.576	146.44
344.804	134.44
345.031	148.44
345.259	138.44
345.487	142.44
345.714	133.44
345.942	132.44
346.17	132.44
346.397	137.44
346.625	131.44
346.853	118.44
347.08	130.44
347.308	134.44
347.535	148.44
347.763	133.44
347.99	148.44
348.218	130.44
348.445	117.44
348.673	122.44
348.9	146.44
349.128	145.44
349.355	128.44
349.583	132.44
349.81	135.44
350.037	144.44
350.265	127.44
350.492	146.44
350.72	122.44
350.947	137.44
351.174	147.44
351.402	144.44
351.629	134.44
351.856	133.44
352.083	131.44
352.311	140.44
352.538	147.44
352.765	132.44
352.992	176.44
353.22	145.44
353.447	140.44
353.674	144.44
353.901	137.44
354.128	141.44
354.355	130.44
354.583	135.44
354.81	154.44
355.037	145.44
355.264	145.44
355.491	145.44
355.718	150.44
355.945	139.44
356.172	145.44
356.399	146.44
356.626	144.44
356.853	159.44
357.08	218.44
357.307	276.44
357.534	258.44
357.761	214.44
357.988	201.44
358.215	178.44
358.441	175.44
358.668	166.44
358.895	144.44
359.122	165.44
359.349	135.44
359.576	148.44
359.802	158.44
360.029	152.44
360.256	147.44
360.483	134.44
360.709	140.44
360.936	181.44
361.163	150.44
361.39	141.44
361.616	126.44
361.843	140.44
362.07	160.44
362.296	142.44
362.523	152.44
362.749	150.44
362.976	149.44
363.203	185.44
363.429	166.44
363.656	222.44
363.882	283.44
364.109	315.44
364.335	252.44
364.562	209.44
364.788	177.44
365.015	163.44
365.241	158.44
365.468	171.44
365.694	164.44
365.92	168.44
366.147	165.44
366.373	146.44
366.599	165.44
366.826	173.44
367.052	175.44
367.278	195.44
367.505	197.44
367.731	222.44
367.957	236.44
368.184	298.44
368.41	350.44
368.636	318.44
368.862	241.44
369.089	217.44
369.315	195.44
369.541	171.44
369.767	193.44
369.993	166.44
370.219	162.44
370.445	151.44
370.672	162.44
370.898	142.44
371.124	143.44
371.35	143.44
371.576	141.44
371.802	146.44
372.028	152.44
372.254	144.44
372.48	130.44
372.706	170.44
372.932	161.44
373.158	155.44
373.384	169.44
373.61	193.44
373.835	237.44
374.061	254.44
374.287	230.44
374.513	211.44
374.739	184.44
374.965	181.44
375.191	155.44
375.416	175.44
375.642	148.44
375.868	157.44
376.094	149.44
376.319	141.44
376.545	149.44
376.771	142.44
376.997	135.44
377.222	147.44
377.448	150.44
377.674	153.44
377.899	145.44
378.125	148.44
378.35	134.44
378.576	156.44
378.802	144.44
379.027	159.44
379.253	163.44
379.478	147.44
379.704	143.44
379.929	151.44
380.155	153.44
380.38	149.44
380.606	131.44
380.831	139.44
381.057	155.44
381.282	145.44
381.507	156.44
381.733	147.44
381.958	136.44
382.184	156.44
382.409	139.44
382.634	167.44
382.86	151.44
383.085	145.44
383.31	148.44
383.535	145.44
383.761	126.44
383.986	157.44
384.211	123.44
384.436	140.44
384.662	152.44
384.887	149.44
385.112	161.44
385.337	142.44
385.562	145.44
385.787	153.44
386.013	146.44
386.238	156.44
386.463	130.44
386.688	201.44
386.913	163.44
387.138	147.44
387.363	149.44
387.588	157.44
387.813	149.44
388.038	159.44
388.263	161.44
388.488	139.44
388.713	142.44
388.938	144.44
389.163	148.44
389.387	143.44
389.612	148.44
389.837	134.44
390.062	148.44
390.287	158.44
390.512	148.44
390.736	139.44
390.961	139.44
391.186	157.44
391.411	140.44
391.636	145.44
391.86	144.44
392.085	137.44
392.31	138.44
392.534	131.44
392.759	161.44
392.984	157.44
393.208	146.44
393.433	159.44
393.658	147.44
393.882	146.44
394.107	148.44
394.331	149.44
394.556	143.44
394.78	176.44
395.005	138.44
395.229	148.44
395.454	150.44
395.678	148.44
395.903	145.44
396.127	170.44
396.352	158.44
396.576	132.44
396.801	154.44
397.025	157.44
397.249	174.44
397.474	189.44
397.698	162.44
397.922	160.44
398.147	154.44
398.371	161.44
398.595	153.44
398.82	164.44
399.044	140.44
399.268	170.44
399.492	170.44
399.717	173.44
399.941	173.44
400.165	171.44
400.389	146.44
400.613	169.44
400.837	166.44
401.062	162.44
401.286	164.44
401.51	152.44
401.734	195.44
401.958	182.44
402.182	171.44
402.406	164.44
402.63	173.44
402.854	178.44
403.078	180.44
403.302	165.44
403.526	168.44
403.75	185.44
403.974	173.44
404.198	186.44
404.422	188.44
404.645	206.44
404.869	211.44
405.093	236.44
405.317	266.44
405.541	361.44
405.765	479.44
405.988	531.44
406.212	405.44
406.436	311.44
406.66	258.44
406.883	221.44
407.107	222.44
407.331	213.44
407.555	216.44
407.778	211.44
408.002	193.44
408.226	202.44
408.449	178.44
408.673	195.44
408.896	178.44
409.12	172.44
409.344	185.44
409.567	166.44
409.791	194.44
410.014	161.44
410.238	170.44
410.461	169.44
410.685	162.44
410.908	177.44
411.132	181.44
411.355	165.44
411.578	195.44
411.802	166.44
412.025	163.44
412.249	173.44
412.472	181.44
412.695	158.44
412.919	160.44
413.142	154.44
413.365	164.44
413.589	159.44
413.812	154.44
414.035	187.44
414.258	167.44
414.482	147.44
414.705	155.44
414.928	178.44
415.151	158.44
415.374	176.44
415.597	157.44
415.821	166.44
416.044	170.44
416.267	163.44
416.49	176.44
416.713	191.44
416.936	195.44
417.159	175.44
417.382	150.44
417.605	159.44
417.828	172.44
418.051	174.44
418.274	162.44
418.497	169.44
418.72	169.44
418.943	183.44
419.166	179.44
419.389	166.44
419.611	161.44
419.834	157.44
420.057	191.44
420.28	166.44
420.503	183.44
420.726	188.44
420.948	163.44
421.171	162.44
421.394	178.44
421.617	177.44
421.839	190.44
422.062	162.44
422.285	186.44
422.507	187.44
422.73	164.44
422.953	171.44
423.175	190.44
423.398	197.44
423.621	197.44
423.843	194.44
424.066	201.44
424.288	238.44
424.511	249.44
424.733	270.44
424.956	251.44
425.178	222.44
425.401	234.44
425.623	233.44
425.846	198.44
426.068	183.44
426.291	183.44
426.513	200.44
426.735	200.44
426.958	197.44
427.18	181.44
427.402	199.44
427.625	200.44
427.847	175.44
428.069	198.44
428.292	175.44
428.514	174.44
428.736	167.44
428.958	170.44
429.181	173.44
429.403	187.44
429.625	171.44
429.847	157.44
430.069	191.44
430.292	195.44
430.514	163.44
430.736	173.44
430.958	189.44
431.18	171.44
431.402	173.44
431.624	161.44
431.846	150.44
432.068	177.44
432.29	149.44
432.512	173.44
432.734	169.44
432.956	171.44
433.178	196.44
433.4	181.44
433.622	188.44
433.844	193.44
434.066	181.44
434.287	160.44
434.509	166.44
434.731	168.44
434.953	189.44
435.175	170.44
435.397	181.44
435.618	166.44
435.84	164.44
436.062	185.44
436.284	178.44
436.505	170.44
436.727	170.44
436.949	185.44
437.17	164.44
437.392	177.44
437.614	185.44
437.835	159.44
438.057	185.44
438.278	215.44
438.5	201.44
438.721	260.44
438.943	268.44
439.165	246.44
439.386	217.44
439.608	237.44
439.829	223.44
440.05	243.44
440.272	217.44
440.493	221.44
440.715	232.44
440.936	231.44
441.158	239.44
441.379	219.44
441.6	214.44
441.822	222.44
442.043	204.44
442.264	201.44
442.486	212.44
442.707	201.44
442.928	202.44
443.149	192.44
443.371	192.44
443.592	200.44
443.813	197.44
444.034	203.44
444.255	213.44
444.476	183.44
444.698	190.44
444.919	199.44
445.14	559.44
445.361	372.44
445.582	212.44
445.803	191.44
446.024	189.44
446.245	190.44
446.466	193.44
446.687	191.44
446.908	195.44
447.129	191.44
447.35	193.44
447.571	202.44
447.792	197.44
448.013	186.44
448.234	170.44
448.455	173.44
448.675	195.44
448.896	183.44
449.117	185.44
449.338	162.44
449.559	173.44
449.779	188.44
450	182.44
450.221	165.44
450.442	177.44
450.662	159.44
450.883	187.44
451.104	175.44
451.324	169.44
451.545	162.44
451.766	179.44
451.986	165.44
452.207	170.44
452.428	173.44
452.648	165.44
452.869	171.44
453.089	162.44
453.31	156.44
453.53	169.44
453.751	157.44
453.971	157.44
454.192	159.44
454.412	172.44
454.633	169.44
454.853	197.44
455.073	165.44
455.294	170.44
455.514	169.44
455.734	156.44
455.955	151.44
456.175	162.44
456.395	158.44
456.616	163.44
456.836	155.44
457.056	156.44
457.276	144.44
457.497	157.44
457.717	156.44
457.937	150.44
458.157	166.44
458.377	157.44
458.598	158.44
458.818	155.44
459.038	156.44
459.258	138.44
459.478	159.44
459.698	160.44
459.918	138.44
460.138	160.44
460.358	162.44
460.578	174.44
460.798	160.44
461.018	171.44
461.238	152.44
461.458	175.44
461.678	187.44
461.898	176.44
462.118	179.44
462.338	167.44
462.558	172.44
462.777	150.44
462.997	169.44
463.217	171.44
463.437	176.44
463.657	148.44
463.876	175.44
464.096	179.44
464.316	158.44
464.536	172.44
464.755	182.44
464.975	172.44
465.195	175.44
465.414	164.44
465.634	162.44
465.854	162.44
466.073	160.44
466.293	165.44
466.512	162.44
466.732	174.44
466.951	182.44
467.171	166.44
467.391	168.44
467.61	138.44
467.829	162.44
468.049	165.44
468.268	171.44
468.488	187.44
468.707	159.44
468.927	165.44
469.146	147.44
469.365	158.44
469.585	172.44
469.804	170.44
470.023	171.44
470.243	165.44
470.462	180.44
470.681	173.44
470.901	176.44
471.12	170.44
471.339	175.44
471.558	160.44
471.777	171.44
471.997	159.44
472.216	156.44
472.435	150.44
472.654	160.44
472.873	171.44
473.092	154.44
473.311	170.44
473.53	175.44
473.749	173.44
473.968	189.44
474.187	164.44
474.406	159.44
474.625	169.44
474.844	169.44
475.063	155.44
475.282	181.44
475.501	149.44
475.72	169.44
475.939	153.44
476.158	173.44
476.377	153.44
476.596	156.44
476.814	169.44
477.033	166.44
477.252	171.44
477.471	166.44
477.69	162.44
477.908	181.44
478.127	199.44
478.346	179.44
478.564	184.44
478.783	186.44
479.002	189.44
479.22	179.44
479.439	177.44
479.658	167.44
479.876	167.44
480.095	175.44
480.313	155.44
480.532	167.44
480.751	167.44
480.969	165.44
481.188	155.44
481.406	181.44
481.624	158.44
481.843	164.44
482.061	153.44
482.28	169.44
482.498	169.44
482.717	156.44
482.935	187.44
483.153	212.44
483.372	211.44
483.59	188.44
483.808	169.44
484.027	182.44
484.245	201.44
484.463	183.44
484.681	199.44
484.9	187.44
485.118	201.44
485.336	174.44
485.554	161.44
485.772	170.44
485.99	165.44
486.209	185.44
486.427	163.44
486.645	172.44
486.863	179.44
487.081	184.44
487.299	192.44
487.517	195.44
487.735	197.44
487.953	214.44
488.171	193.44
488.389	209.44
488.607	190.44
488.825	176.44
489.043	185.44
489.261	199.44
489.479	196.44
489.696	198.44
489.914	190.44
490.132	197.44
490.35	200.44
490.568	191.44
490.786	197.44
491.003	200.44
491.221	210.44
491.439	195.44
491.657	204.44
491.874	212.44
492.092	222.44
492.31	226.44
492.527	206.44
492.745	209.44
492.963	225.44
493.18	219.44
493.398	206.44
493.615	194.44
493.833	207.44
494.05	210.44
494.268	205.44
494.485	217.44
494.703	192.44
494.92	206.44
495.138	199.44
495.355	241.44
495.573	211.44
495.79	212.44
496.008	214.44
496.225	196.44
496.442	204.44
496.66	217.44
496.877	209.44
497.094	211.44
497.312	210.44
497.529	198.44
497.746	193.44
497.963	198.44
498.181	199.44
498.398	202.44
498.615	181.44
498.832	206.44
499.049	211.44
499.267	221.44
499.484	207.44
499.701	227.44
499.918	233.44
500.135	227.44
500.352	259.44
500.569	264.44
500.786	291.44
501.003	241.44
501.22	242.44
501.437	225.44
501.654	220.44
501.871	223.44
502.088	219.44
502.305	221.44
502.522	211.44
502.739	217.44
502.956	211.44
503.172	218.44
503.389	207.44
503.606	185.44
503.823	221.44
