Data from TenMicroDelayPb_HRD10591_00010.txt Node
Date: Mon Nov 24 14:57:31 EST 2025
User: Yrep
Spectrometer: HR+D1059
Trigger mode: 5
Integration Time (sec): 1.000000E-1
Scans to average: 1
Electric dark correction enabled: true
Nonlinearity correction enabled: false
Boxcar width: 0
XAxis mode: Wavelengths
Number of Pixels in Spectrum: 2048
>>>>>Begin Spectral Data<<<<<
223.165	-27.75
223.4	-27.75
223.635	-27.75
223.869	-39.75
224.104	-25.75
224.338	-3.75
224.573	-3.75
224.808	-7.75
225.042	2.25
225.277	-6.75
225.511	-3.75
225.746	6.25
225.98	4.25
226.215	24.25
226.449	8.25
226.683	16.25
226.918	20.25
227.152	37.25
227.387	43.25
227.621	53.25
227.856	43.25
228.09	55.25
228.324	56.25
228.559	59.25
228.793	73.25
229.027	83.25
229.262	91.25
229.496	64.25
229.73	79.25
229.964	86.25
230.199	85.25
230.433	77.25
230.667	93.25
230.901	77.25
231.136	86.25
231.37	87.25
231.604	91.25
231.838	88.25
232.072	69.25
232.306	93.25
232.541	95.25
232.775	99.25
233.009	96.25
233.243	90.25
233.477	99.25
233.711	90.25
233.945	81.25
234.179	83.25
234.413	88.25
234.647	97.25
234.881	87.25
235.115	92.25
235.349	80.25
235.583	83.25
235.817	87.25
236.051	85.25
236.285	89.25
236.519	91.25
236.753	90.25
236.987	80.25
237.221	82.25
237.455	70.25
237.689	85.25
237.922	97.25
238.156	99.25
238.39	86.25
238.624	92.25
238.858	93.25
239.091	87.25
239.325	87.25
239.559	99.25
239.793	109.25
240.027	106.25
240.26	101.25
240.494	109.25
240.728	86.25
240.961	77.25
241.195	98.25
241.429	93.25
241.662	91.25
241.896	98.25
242.13	85.25
242.363	87.25
242.597	88.25
242.83	99.25
243.064	87.25
243.298	92.25
243.531	73.25
243.765	83.25
243.998	92.25
244.232	92.25
244.465	107.25
244.699	111.25
244.932	90.25
245.166	81.25
245.399	94.25
245.633	96.25
245.866	88.25
246.099	104.25
246.333	93.25
246.566	93.25
246.8	92.25
247.033	80.25
247.266	99.25
247.5	92.25
247.733	99.25
247.966	111.25
248.2	106.25
248.433	104.25
248.666	101.25
248.899	101.25
249.133	94.25
249.366	112.25
249.599	103.25
249.832	89.25
250.066	124.25
250.299	89.25
250.532	91.25
250.765	100.25
250.998	110.25
251.231	93.25
251.465	98.25
251.698	97.25
251.931	92.25
252.164	107.25
252.397	96.25
252.63	128.25
252.863	107.25
253.096	98.25
253.329	84.25
253.562	101.25
253.795	115.25
254.028	103.25
254.261	121.25
254.494	110.25
254.727	119.25
254.96	111.25
255.193	113.25
255.426	97.25
255.659	100.25
255.892	110.25
256.124	108.25
256.357	100.25
256.59	127.25
256.823	92.25
257.056	112.25
257.289	115.25
257.521	105.25
257.754	116.25
257.987	122.25
258.22	126.25
258.452	111.25
258.685	111.25
258.918	113.25
259.151	113.25
259.383	124.25
259.616	109.25
259.849	128.25
260.081	110.25
260.314	112.25
260.547	121.25
260.779	124.25
261.012	142.25
261.244	141.25
261.477	161.25
261.71	140.25
261.942	131.25
262.175	131.25
262.407	109.25
262.64	113.25
262.872	127.25
263.105	117.25
263.337	128.25
263.57	117.25
263.802	114.25
264.035	117.25
264.267	126.25
264.499	119.25
264.732	139.25
264.964	137.25
265.197	132.25
265.429	129.25
265.661	107.25
265.894	98.25
266.126	137.25
266.358	142.25
266.591	139.25
266.823	128.25
267.055	116.25
267.287	119.25
267.52	107.25
267.752	121.25
267.984	116.25
268.216	106.25
268.448	125.25
268.681	108.25
268.913	123.25
269.145	111.25
269.377	123.25
269.609	111.25
269.841	113.25
270.073	94.25
270.306	105.25
270.538	91.25
270.77	101.25
271.002	106.25
271.234	118.25
271.466	112.25
271.698	116.25
271.93	115.25
272.162	120.25
272.394	125.25
272.626	108.25
272.858	116.25
273.09	114.25
273.322	109.25
273.553	99.25
273.785	116.25
274.017	126.25
274.249	99.25
274.481	103.25
274.713	112.25
274.945	116.25
275.176	111.25
275.408	135.25
275.64	121.25
275.872	119.25
276.104	117.25
276.335	117.25
276.567	113.25
276.799	123.25
277.031	111.25
277.262	106.25
277.494	137.25
277.726	134.25
277.957	115.25
278.189	134.25
278.421	115.25
278.652	125.25
278.884	137.25
279.115	122.25
279.347	142.25
279.579	154.25
279.81	170.25
280.042	201.25
280.273	219.25
280.505	196.25
280.736	181.25
280.968	143.25
281.199	140.25
281.431	146.25
281.662	134.25
281.894	145.25
282.125	158.25
282.356	149.25
282.588	149.25
282.819	151.25
283.051	152.25
283.282	163.25
283.513	195.25
283.745	169.25
283.976	130.25
284.207	147.25
284.439	137.25
284.67	131.25
284.901	140.25
285.132	131.25
285.364	124.25
285.595	124.25
285.826	130.25
286.057	131.25
286.288	155.25
286.52	124.25
286.751	128.25
286.982	134.25
287.213	152.25
287.444	171.25
287.675	164.25
287.906	143.25
288.138	125.25
288.369	121.25
288.6	131.25
288.831	123.25
289.062	121.25
289.293	135.25
289.524	115.25
289.755	127.25
289.986	125.25
290.217	117.25
290.448	99.25
290.679	120.25
290.91	113.25
291.141	115.25
291.371	132.25
291.602	130.25
291.833	115.25
292.064	127.25
292.295	124.25
292.526	117.25
292.757	125.25
292.987	128.25
293.218	113.25
293.449	120.25
293.68	118.25
293.91	120.25
294.141	133.25
294.372	127.25
294.603	145.25
294.833	128.25
295.064	128.25
295.295	133.25
295.525	124.25
295.756	128.25
295.987	121.25
296.217	139.25
296.448	131.25
296.679	113.25
296.909	124.25
297.14	118.25
297.37	131.25
297.601	121.25
297.831	118.25
298.062	123.25
298.292	136.25
298.523	138.25
298.753	132.25
298.984	125.25
299.214	130.25
299.445	120.25
299.675	132.25
299.905	139.25
300.136	140.25
300.366	144.25
300.597	130.25
300.827	124.25
301.057	118.25
301.288	118.25
301.518	120.25
301.748	121.25
301.979	190.25
302.209	139.25
302.439	138.25
302.669	119.25
302.9	117.25
303.13	131.25
303.36	122.25
303.59	121.25
303.82	119.25
304.051	128.25
304.281	149.25
304.511	135.25
304.741	103.25
304.971	129.25
305.201	130.25
305.431	124.25
305.661	131.25
305.891	121.25
306.121	131.25
306.352	119.25
306.582	123.25
306.812	129.25
307.042	127.25
307.272	123.25
307.502	130.25
307.731	128.25
307.961	119.25
308.191	112.25
308.421	122.25
308.651	131.25
308.881	142.25
309.111	139.25
309.341	131.25
309.571	131.25
309.8	122.25
310.03	135.25
310.26	128.25
310.49	118.25
310.72	132.25
310.949	131.25
311.179	127.25
311.409	130.25
311.639	115.25
311.868	144.25
312.098	128.25
312.328	129.25
312.557	131.25
312.787	125.25
313.017	148.25
313.246	145.25
313.476	137.25
313.706	125.25
313.935	128.25
314.165	132.25
314.394	129.25
314.624	129.25
314.853	146.25
315.083	144.25
315.312	138.25
315.542	153.25
315.771	122.25
316.001	125.25
316.23	149.25
316.46	139.25
316.689	144.25
316.919	137.25
317.148	140.25
317.377	146.25
317.607	142.25
317.836	136.25
318.065	142.25
318.295	138.25
318.524	133.25
318.753	151.25
318.983	116.25
319.212	148.25
319.441	135.25
319.67	140.25
319.9	139.25
320.129	137.25
320.358	128.25
320.587	149.25
320.816	132.25
321.046	141.25
321.275	125.25
321.504	127.25
321.733	138.25
321.962	127.25
322.191	125.25
322.42	122.25
322.649	129.25
322.878	138.25
323.108	127.25
323.337	127.25
323.566	130.25
323.795	132.25
324.024	153.25
324.253	144.25
324.482	139.25
324.71	147.25
324.939	144.25
325.168	132.25
325.397	133.25
325.626	132.25
325.855	131.25
326.084	149.25
326.313	135.25
326.542	132.25
326.77	127.25
326.999	132.25
327.228	127.25
327.457	117.25
327.686	132.25
327.914	154.25
328.143	137.25
328.372	139.25
328.6	138.25
328.829	129.25
329.058	133.25
329.287	144.25
329.515	109.25
329.744	154.25
329.972	155.25
330.201	142.25
330.43	137.25
330.658	124.25
330.887	130.25
331.115	137.25
331.344	148.25
331.572	145.25
331.801	130.25
332.03	151.25
332.258	130.25
332.486	125.25
332.715	157.25
332.943	137.25
333.172	139.25
333.4	148.25
333.629	154.25
333.857	139.25
334.085	132.25
334.314	140.25
334.542	133.25
334.771	133.25
334.999	125.25
335.227	122.25
335.455	139.25
335.684	144.25
335.912	141.25
336.14	134.25
336.369	142.25
336.597	126.25
336.825	130.25
337.053	152.25
337.281	133.25
337.51	128.25
337.738	140.25
337.966	132.25
338.194	115.25
338.422	119.25
338.65	138.25
338.878	131.25
339.106	139.25
339.334	148.25
339.562	141.25
339.79	143.25
340.018	116.25
340.246	144.25
340.474	128.25
340.702	139.25
340.93	141.25
341.158	136.25
341.386	132.25
341.614	123.25
341.842	140.25
342.07	114.25
342.298	137.25
342.526	142.25
342.754	143.25
342.981	131.25
343.209	123.25
343.437	191.25
343.665	129.25
343.893	142.25
344.12	153.25
344.348	144.25
344.576	139.25
344.804	135.25
345.031	139.25
345.259	136.25
345.487	141.25
345.714	128.25
345.942	125.25
346.17	142.25
346.397	127.25
346.625	122.25
346.853	115.25
347.08	127.25
347.308	157.25
347.535	129.25
347.763	146.25
347.99	126.25
348.218	130.25
348.445	130.25
348.673	133.25
348.9	145.25
349.128	146.25
349.355	133.25
349.583	135.25
349.81	122.25
350.037	135.25
350.265	133.25
350.492	140.25
350.72	130.25
350.947	121.25
351.174	139.25
351.402	128.25
351.629	123.25
351.856	137.25
352.083	145.25
352.311	126.25
352.538	126.25
352.765	136.25
352.992	146.25
353.22	137.25
353.447	136.25
353.674	136.25
353.901	130.25
354.128	133.25
354.355	140.25
354.583	122.25
354.81	140.25
355.037	144.25
355.264	139.25
355.491	132.25
355.718	132.25
355.945	129.25
356.172	138.25
356.399	142.25
356.626	153.25
356.853	183.25
357.08	207.25
357.307	241.25
357.534	257.25
357.761	209.25
357.988	192.25
358.215	184.25
358.441	147.25
358.668	153.25
358.895	144.25
359.122	160.25
359.349	153.25
359.576	133.25
359.802	152.25
360.029	156.25
360.256	150.25
360.483	143.25
360.709	136.25
360.936	169.25
361.163	140.25
361.39	151.25
361.616	148.25
361.843	152.25
362.07	157.25
362.296	144.25
362.523	147.25
362.749	139.25
362.976	157.25
363.203	173.25
363.429	164.25
363.656	219.25
363.882	269.25
364.109	315.25
364.335	249.25
364.562	189.25
364.788	162.25
365.015	167.25
365.241	161.25
365.468	167.25
365.694	153.25
365.92	160.25
366.147	142.25
366.373	152.25
366.599	153.25
366.826	185.25
367.052	166.25
367.278	219.25
367.505	203.25
367.731	218.25
367.957	226.25
368.184	293.25
368.41	365.25
368.636	317.25
368.862	243.25
369.089	191.25
369.315	182.25
369.541	179.25
369.767	165.25
369.993	172.25
370.219	157.25
370.445	148.25
370.672	153.25
370.898	154.25
371.124	166.25
371.35	140.25
371.576	156.25
371.802	147.25
372.028	145.25
372.254	128.25
372.48	142.25
372.706	149.25
372.932	154.25
373.158	146.25
373.384	170.25
373.61	187.25
373.835	227.25
374.061	266.25
374.287	261.25
374.513	202.25
374.739	172.25
374.965	175.25
375.191	156.25
375.416	159.25
375.642	171.25
375.868	167.25
376.094	144.25
376.319	148.25
376.545	146.25
376.771	145.25
376.997	154.25
377.222	149.25
377.448	147.25
377.674	147.25
377.899	155.25
378.125	132.25
378.35	146.25
378.576	137.25
378.802	146.25
379.027	162.25
379.253	153.25
379.478	151.25
379.704	136.25
379.929	133.25
380.155	132.25
380.38	153.25
380.606	145.25
380.831	151.25
381.057	161.25
381.282	142.25
381.507	137.25
381.733	138.25
381.958	139.25
382.184	137.25
382.409	136.25
382.634	144.25
382.86	151.25
383.085	151.25
383.31	164.25
383.535	160.25
383.761	146.25
383.986	160.25
384.211	151.25
384.436	152.25
384.662	159.25
384.887	149.25
385.112	144.25
385.337	152.25
385.562	152.25
385.787	144.25
386.013	163.25
386.238	157.25
386.463	171.25
386.688	188.25
386.913	157.25
387.138	149.25
387.363	147.25
387.588	156.25
387.813	148.25
388.038	140.25
388.263	148.25
388.488	149.25
388.713	143.25
388.938	146.25
389.163	132.25
389.387	155.25
389.612	140.25
389.837	151.25
390.062	173.25
390.287	155.25
390.512	130.25
390.736	133.25
390.961	140.25
391.186	151.25
391.411	141.25
391.636	165.25
391.86	155.25
392.085	162.25
392.31	152.25
392.534	151.25
392.759	160.25
392.984	153.25
393.208	145.25
393.433	152.25
393.658	140.25
393.882	146.25
394.107	139.25
394.331	140.25
394.556	132.25
394.78	162.25
395.005	145.25
395.229	147.25
395.454	157.25
395.678	149.25
395.903	156.25
396.127	160.25
396.352	152.25
396.576	143.25
396.801	149.25
397.025	131.25
397.249	155.25
397.474	186.25
397.698	167.25
397.922	156.25
398.147	150.25
398.371	162.25
398.595	160.25
398.82	152.25
399.044	144.25
399.268	160.25
399.492	175.25
399.717	190.25
399.941	182.25
400.165	181.25
400.389	158.25
400.613	157.25
400.837	172.25
401.062	187.25
401.286	169.25
401.51	189.25
401.734	186.25
401.958	190.25
402.182	206.25
402.406	169.25
402.63	158.25
402.854	177.25
403.078	167.25
403.302	158.25
403.526	185.25
403.75	169.25
403.974	164.25
404.198	177.25
404.422	199.25
404.645	177.25
404.869	205.25
405.093	210.25
405.317	256.25
405.541	334.25
405.765	501.25
405.988	521.25
406.212	424.25
406.436	304.25
406.66	259.25
406.883	243.25
407.107	211.25
407.331	181.25
407.555	208.25
407.778	188.25
408.002	186.25
408.226	180.25
408.449	175.25
408.673	169.25
408.896	195.25
409.12	186.25
409.344	196.25
409.567	167.25
409.791	184.25
410.014	186.25
410.238	173.25
410.461	163.25
410.685	159.25
410.908	156.25
411.132	167.25
411.355	154.25
411.578	177.25
411.802	178.25
412.025	175.25
412.249	175.25
412.472	172.25
412.695	146.25
412.919	161.25
413.142	157.25
413.365	159.25
413.589	163.25
413.812	159.25
414.035	185.25
414.258	159.25
414.482	161.25
414.705	157.25
414.928	168.25
415.151	166.25
415.374	169.25
415.597	175.25
415.821	170.25
416.044	168.25
416.267	176.25
416.49	177.25
416.713	187.25
416.936	190.25
417.159	179.25
417.382	169.25
417.605	147.25
417.828	179.25
418.051	156.25
418.274	173.25
418.497	162.25
418.72	157.25
418.943	190.25
419.166	197.25
419.389	170.25
419.611	193.25
419.834	165.25
420.057	165.25
420.28	193.25
420.503	157.25
420.726	164.25
420.948	181.25
421.171	193.25
421.394	173.25
421.617	173.25
421.839	176.25
422.062	173.25
422.285	183.25
422.507	173.25
422.73	160.25
422.953	162.25
423.175	181.25
423.398	174.25
423.621	193.25
423.843	201.25
424.066	208.25
424.288	223.25
424.511	239.25
424.733	255.25
424.956	252.25
425.178	225.25
425.401	207.25
425.623	193.25
425.846	209.25
426.068	196.25
426.291	195.25
426.513	192.25
426.735	211.25
426.958	185.25
427.18	186.25
427.402	196.25
427.625	186.25
427.847	172.25
428.069	159.25
428.292	167.25
428.514	194.25
428.736	179.25
428.958	183.25
429.181	187.25
429.403	183.25
429.625	163.25
429.847	170.25
430.069	171.25
430.292	201.25
430.514	174.25
430.736	161.25
430.958	167.25
431.18	163.25
431.402	162.25
431.624	171.25
431.846	146.25
432.068	172.25
432.29	158.25
432.512	183.25
432.734	148.25
432.956	155.25
433.178	195.25
433.4	176.25
433.622	195.25
433.844	181.25
434.066	173.25
434.287	165.25
434.509	157.25
434.731	181.25
434.953	168.25
435.175	169.25
435.397	181.25
435.618	172.25
435.84	171.25
436.062	160.25
436.284	181.25
436.505	177.25
436.727	159.25
436.949	187.25
437.17	201.25
437.392	185.25
437.614	188.25
437.835	172.25
438.057	189.25
438.278	195.25
438.5	207.25
438.721	241.25
438.943	258.25
439.165	229.25
439.386	219.25
439.608	227.25
439.829	219.25
440.05	218.25
440.272	218.25
440.493	213.25
440.715	189.25
440.936	205.25
441.158	247.25
441.379	221.25
441.6	203.25
441.822	204.25
442.043	190.25
442.264	215.25
442.486	206.25
442.707	181.25
442.928	197.25
443.149	192.25
443.371	199.25
443.592	189.25
443.813	211.25
444.034	195.25
444.255	209.25
444.476	192.25
444.698	186.25
444.919	189.25
445.14	487.25
445.361	328.25
445.582	195.25
445.803	193.25
446.024	180.25
446.245	205.25
446.466	189.25
446.687	172.25
446.908	185.25
447.129	186.25
447.35	180.25
447.571	191.25
447.792	171.25
448.013	175.25
448.234	184.25
448.455	187.25
448.675	193.25
448.896	185.25
449.117	173.25
449.338	173.25
449.559	198.25
449.779	177.25
450	182.25
450.221	185.25
450.442	153.25
450.662	189.25
450.883	175.25
451.104	173.25
451.324	160.25
451.545	168.25
451.766	167.25
451.986	170.25
452.207	161.25
452.428	167.25
452.648	183.25
452.869	179.25
453.089	163.25
453.31	154.25
453.53	164.25
453.751	153.25
453.971	168.25
454.192	156.25
454.412	149.25
454.633	171.25
454.853	164.25
455.073	168.25
455.294	160.25
455.514	172.25
455.734	158.25
455.955	152.25
456.175	168.25
456.395	155.25
456.616	138.25
456.836	147.25
457.056	151.25
457.276	144.25
457.497	145.25
457.717	156.25
457.937	148.25
458.157	140.25
458.377	141.25
458.598	143.25
458.818	142.25
459.038	148.25
459.258	148.25
459.478	151.25
459.698	152.25
459.918	167.25
460.138	162.25
460.358	160.25
460.578	183.25
460.798	170.25
461.018	164.25
461.238	158.25
461.458	162.25
461.678	156.25
461.898	169.25
462.118	190.25
462.338	173.25
462.558	167.25
462.777	157.25
462.997	152.25
463.217	169.25
463.437	147.25
463.657	145.25
463.876	163.25
464.096	165.25
464.316	172.25
464.536	157.25
464.755	168.25
464.975	154.25
465.195	179.25
465.414	170.25
465.634	179.25
465.854	160.25
466.073	166.25
466.293	164.25
466.512	163.25
466.732	165.25
466.951	165.25
467.171	175.25
467.391	167.25
467.61	171.25
467.829	179.25
468.049	163.25
468.268	156.25
468.488	153.25
468.707	150.25
468.927	162.25
469.146	168.25
469.365	161.25
469.585	158.25
469.804	171.25
470.023	173.25
470.243	176.25
470.462	176.25
470.681	176.25
470.901	170.25
471.12	173.25
471.339	177.25
471.558	163.25
471.777	182.25
471.997	172.25
472.216	171.25
472.435	160.25
472.654	177.25
472.873	163.25
473.092	171.25
473.311	167.25
473.53	159.25
473.749	168.25
473.968	197.25
474.187	167.25
474.406	169.25
474.625	164.25
474.844	169.25
475.063	167.25
475.282	168.25
475.501	154.25
475.72	172.25
475.939	183.25
476.158	166.25
476.377	167.25
476.596	164.25
476.814	161.25
477.033	148.25
477.252	164.25
477.471	160.25
477.69	182.25
477.908	186.25
478.127	192.25
478.346	178.25
478.564	185.25
478.783	175.25
479.002	167.25
479.22	177.25
479.439	184.25
479.658	154.25
479.876	178.25
480.095	167.25
480.313	171.25
480.532	170.25
480.751	167.25
480.969	160.25
481.188	164.25
481.406	176.25
481.624	173.25
481.843	159.25
482.061	148.25
482.28	163.25
482.498	161.25
482.717	168.25
482.935	180.25
483.153	179.25
483.372	175.25
483.59	197.25
483.808	165.25
484.027	171.25
484.245	187.25
484.463	187.25
484.681	202.25
484.9	181.25
485.118	186.25
485.336	173.25
485.554	177.25
485.772	167.25
485.99	163.25
486.209	172.25
486.427	154.25
486.645	181.25
486.863	180.25
487.081	180.25
487.299	185.25
487.517	180.25
487.735	203.25
487.953	208.25
488.171	209.25
488.389	207.25
488.607	186.25
488.825	189.25
489.043	190.25
489.261	220.25
489.479	196.25
489.696	173.25
489.914	185.25
490.132	199.25
490.35	203.25
490.568	192.25
490.786	199.25
491.003	196.25
491.221	219.25
491.439	203.25
491.657	207.25
491.874	217.25
492.092	237.25
492.31	246.25
492.527	210.25
492.745	211.25
492.963	224.25
493.18	204.25
493.398	200.25
493.615	201.25
493.833	211.25
494.05	197.25
494.268	203.25
494.485	207.25
494.703	211.25
494.92	190.25
495.138	203.25
495.355	240.25
495.573	217.25
495.79	203.25
496.008	209.25
496.225	200.25
496.442	214.25
496.66	232.25
496.877	218.25
497.094	218.25
497.312	207.25
497.529	205.25
497.746	201.25
497.963	199.25
498.181	177.25
498.398	189.25
498.615	197.25
498.832	201.25
499.049	191.25
499.267	194.25
499.484	201.25
499.701	223.25
499.918	219.25
500.135	225.25
500.352	252.25
500.569	251.25
500.786	286.25
501.003	241.25
501.22	227.25
501.437	215.25
501.654	207.25
501.871	208.25
502.088	224.25
502.305	214.25
502.522	207.25
502.739	195.25
502.956	208.25
503.172	223.25
503.389	192.25
503.606	201.25
503.823	194.25
