Data from TenMicroDelayPb_HRD10591_00007.txt Node
Date: Mon Nov 24 14:57:30 EST 2025
User: Yrep
Spectrometer: HR+D1059
Trigger mode: 5
Integration Time (sec): 1.000000E-1
Scans to average: 1
Electric dark correction enabled: true
Nonlinearity correction enabled: false
Boxcar width: 0
XAxis mode: Wavelengths
Number of Pixels in Spectrum: 2048
>>>>>Begin Spectral Data<<<<<
223.165	-29.69
223.4	-29.69
223.635	-29.69
223.869	-28.69
224.104	-29.69
224.338	-14.69
224.573	-12.69
224.808	-3.69
225.042	2.31
225.277	-13.69
225.511	-6.69
225.746	1.31
225.98	6.31
226.215	6.31
226.449	30.31
226.683	23.31
226.918	26.31
227.152	43.31
227.387	46.31
227.621	42.31
227.856	38.31
228.09	43.31
228.324	61.31
228.559	64.31
228.793	77.31
229.027	80.31
229.262	71.31
229.496	75.31
229.73	77.31
229.964	79.31
230.199	80.31
230.433	67.31
230.667	99.31
230.901	75.31
231.136	91.31
231.37	92.31
231.604	93.31
231.838	98.31
232.072	73.31
232.306	77.31
232.541	94.31
232.775	82.31
233.009	107.31
233.243	94.31
233.477	89.31
233.711	93.31
233.945	97.31
234.179	101.31
234.413	102.31
234.647	93.31
234.881	98.31
235.115	97.31
235.349	90.31
235.583	96.31
235.817	96.31
236.051	98.31
236.285	79.31
236.519	78.31
236.753	75.31
236.987	83.31
237.221	73.31
237.455	86.31
237.689	85.31
237.922	77.31
238.156	80.31
238.39	89.31
238.624	76.31
238.858	103.31
239.091	79.31
239.325	94.31
239.559	87.31
239.793	97.31
240.027	102.31
240.26	95.31
240.494	90.31
240.728	91.31
240.961	92.31
241.195	92.31
241.429	76.31
241.662	83.31
241.896	102.31
242.13	85.31
242.363	86.31
242.597	89.31
242.83	93.31
243.064	98.31
243.298	89.31
243.531	79.31
243.765	70.31
243.998	97.31
244.232	105.31
244.465	110.31
244.699	97.31
244.932	90.31
245.166	106.31
245.399	90.31
245.633	93.31
245.866	97.31
246.099	105.31
246.333	88.31
246.566	96.31
246.8	110.31
247.033	108.31
247.266	99.31
247.5	100.31
247.733	102.31
247.966	101.31
248.2	92.31
248.433	101.31
248.666	95.31
248.899	114.31
249.133	82.31
249.366	117.31
249.599	99.31
249.832	110.31
250.066	117.31
250.299	94.31
250.532	92.31
250.765	89.31
250.998	105.31
251.231	100.31
251.465	92.31
251.698	86.31
251.931	94.31
252.164	103.31
252.397	108.31
252.63	101.31
252.863	113.31
253.096	92.31
253.329	86.31
253.562	112.31
253.795	113.31
254.028	114.31
254.261	111.31
254.494	87.31
254.727	117.31
254.96	120.31
255.193	115.31
255.426	110.31
255.659	106.31
255.892	124.31
256.124	97.31
256.357	115.31
256.59	103.31
256.823	106.31
257.056	120.31
257.289	104.31
257.521	116.31
257.754	101.31
257.987	121.31
258.22	144.31
258.452	112.31
258.685	107.31
258.918	96.31
259.151	116.31
259.383	107.31
259.616	118.31
259.849	109.31
260.081	109.31
260.314	119.31
260.547	109.31
260.779	127.31
261.012	146.31
261.244	145.31
261.477	190.31
261.71	166.31
261.942	117.31
262.175	124.31
262.407	99.31
262.64	124.31
262.872	106.31
263.105	104.31
263.337	125.31
263.57	104.31
263.802	117.31
264.035	125.31
264.267	114.31
264.499	104.31
264.732	137.31
264.964	124.31
265.197	133.31
265.429	129.31
265.661	120.31
265.894	112.31
266.126	130.31
266.358	130.31
266.591	151.31
266.823	139.31
267.055	114.31
267.287	104.31
267.52	112.31
267.752	115.31
267.984	110.31
268.216	120.31
268.448	125.31
268.681	120.31
268.913	128.31
269.145	115.31
269.377	121.31
269.609	119.31
269.841	125.31
270.073	105.31
270.306	115.31
270.538	109.31
270.77	117.31
271.002	110.31
271.234	120.31
271.466	118.31
271.698	111.31
271.93	113.31
272.162	131.31
272.394	113.31
272.626	110.31
272.858	109.31
273.09	123.31
273.322	129.31
273.553	119.31
273.785	125.31
274.017	123.31
274.249	124.31
274.481	113.31
274.713	92.31
274.945	118.31
275.176	103.31
275.408	122.31
275.64	126.31
275.872	130.31
276.104	128.31
276.335	122.31
276.567	113.31
276.799	110.31
277.031	110.31
277.262	120.31
277.494	138.31
277.726	127.31
277.957	112.31
278.189	142.31
278.421	126.31
278.652	125.31
278.884	140.31
279.115	157.31
279.347	133.31
279.579	160.31
279.81	170.31
280.042	215.31
280.273	229.31
280.505	193.31
280.736	185.31
280.968	156.31
281.199	139.31
281.431	135.31
281.662	143.31
281.894	153.31
282.125	139.31
282.356	167.31
282.588	143.31
282.819	139.31
283.051	146.31
283.282	171.31
283.513	216.31
283.745	178.31
283.976	147.31
284.207	141.31
284.439	152.31
284.67	128.31
284.901	123.31
285.132	143.31
285.364	123.31
285.595	144.31
285.826	140.31
286.057	137.31
286.288	127.31
286.52	154.31
286.751	134.31
286.982	137.31
287.213	145.31
287.444	179.31
287.675	168.31
287.906	129.31
288.138	126.31
288.369	130.31
288.6	118.31
288.831	121.31
289.062	133.31
289.293	117.31
289.524	121.31
289.755	107.31
289.986	111.31
290.217	126.31
290.448	126.31
290.679	131.31
290.91	129.31
291.141	110.31
291.371	133.31
291.602	136.31
291.833	124.31
292.064	123.31
292.295	128.31
292.526	119.31
292.757	140.31
292.987	123.31
293.218	116.31
293.449	108.31
293.68	129.31
293.91	124.31
294.141	137.31
294.372	137.31
294.603	126.31
294.833	107.31
295.064	112.31
295.295	123.31
295.525	125.31
295.756	127.31
295.987	142.31
296.217	125.31
296.448	126.31
296.679	120.31
296.909	122.31
297.14	120.31
297.37	136.31
297.601	145.31
297.831	130.31
298.062	130.31
298.292	114.31
298.523	128.31
298.753	115.31
298.984	137.31
299.214	106.31
299.445	145.31
299.675	124.31
299.905	121.31
300.136	134.31
300.366	126.31
300.597	118.31
300.827	128.31
301.057	129.31
301.288	133.31
301.518	125.31
301.748	122.31
301.979	182.31
302.209	133.31
302.439	117.31
302.669	129.31
302.9	121.31
303.13	125.31
303.36	112.31
303.59	123.31
303.82	134.31
304.051	134.31
304.281	149.31
304.511	142.31
304.741	129.31
304.971	134.31
305.201	141.31
305.431	117.31
305.661	139.31
305.891	129.31
306.121	126.31
306.352	131.31
306.582	113.31
306.812	123.31
307.042	109.31
307.272	134.31
307.502	118.31
307.731	107.31
307.961	127.31
308.191	125.31
308.421	132.31
308.651	137.31
308.881	127.31
309.111	118.31
309.341	128.31
309.571	128.31
309.8	120.31
310.03	130.31
310.26	134.31
310.49	122.31
310.72	123.31
310.949	118.31
311.179	131.31
311.409	120.31
311.639	128.31
311.868	143.31
312.098	135.31
312.328	132.31
312.557	147.31
312.787	136.31
313.017	141.31
313.246	138.31
313.476	144.31
313.706	131.31
313.935	132.31
314.165	152.31
314.394	143.31
314.624	139.31
314.853	161.31
315.083	156.31
315.312	145.31
315.542	161.31
315.771	143.31
316.001	146.31
316.23	151.31
316.46	132.31
316.689	140.31
316.919	144.31
317.148	136.31
317.377	149.31
317.607	145.31
317.836	143.31
318.065	144.31
318.295	135.31
318.524	123.31
318.753	137.31
318.983	146.31
319.212	151.31
319.441	123.31
319.67	149.31
319.9	132.31
320.129	141.31
320.358	136.31
320.587	129.31
320.816	137.31
321.046	127.31
321.275	150.31
321.504	130.31
321.733	137.31
321.962	122.31
322.191	144.31
322.42	136.31
322.649	127.31
322.878	139.31
323.108	130.31
323.337	131.31
323.566	154.31
323.795	125.31
324.024	143.31
324.253	141.31
324.482	132.31
324.71	136.31
324.939	145.31
325.168	134.31
325.397	131.31
325.626	143.31
325.855	130.31
326.084	137.31
326.313	126.31
326.542	155.31
326.77	142.31
326.999	133.31
327.228	132.31
327.457	156.31
327.686	144.31
327.914	136.31
328.143	142.31
328.372	112.31
328.6	141.31
328.829	122.31
329.058	135.31
329.287	123.31
329.515	144.31
329.744	132.31
329.972	124.31
330.201	138.31
330.43	128.31
330.658	128.31
330.887	142.31
331.115	146.31
331.344	134.31
331.572	149.31
331.801	135.31
332.03	128.31
332.258	144.31
332.486	146.31
332.715	124.31
332.943	141.31
333.172	142.31
333.4	135.31
333.629	145.31
333.857	132.31
334.085	136.31
334.314	126.31
334.542	139.31
334.771	146.31
334.999	140.31
335.227	128.31
335.455	137.31
335.684	137.31
335.912	145.31
336.14	137.31
336.369	127.31
336.597	131.31
336.825	137.31
337.053	123.31
337.281	137.31
337.51	139.31
337.738	149.31
337.966	126.31
338.194	133.31
338.422	144.31
338.65	127.31
338.878	157.31
339.106	131.31
339.334	147.31
339.562	139.31
339.79	147.31
340.018	130.31
340.246	121.31
340.474	122.31
340.702	143.31
340.93	141.31
341.158	130.31
341.386	139.31
341.614	126.31
341.842	145.31
342.07	129.31
342.298	145.31
342.526	135.31
342.754	134.31
342.981	129.31
343.209	135.31
343.437	191.31
343.665	138.31
343.893	126.31
344.12	135.31
344.348	138.31
344.576	111.31
344.804	128.31
345.031	129.31
345.259	145.31
345.487	126.31
345.714	125.31
345.942	125.31
346.17	120.31
346.397	134.31
346.625	137.31
346.853	136.31
347.08	125.31
347.308	131.31
347.535	125.31
347.763	144.31
347.99	132.31
348.218	143.31
348.445	137.31
348.673	130.31
348.9	137.31
349.128	150.31
349.355	119.31
349.583	129.31
349.81	119.31
350.037	145.31
350.265	147.31
350.492	129.31
350.72	118.31
350.947	123.31
351.174	127.31
351.402	130.31
351.629	156.31
351.856	150.31
352.083	122.31
352.311	146.31
352.538	127.31
352.765	128.31
352.992	152.31
353.22	131.31
353.447	130.31
353.674	146.31
353.901	148.31
354.128	159.31
354.355	114.31
354.583	137.31
354.81	147.31
355.037	138.31
355.264	143.31
355.491	135.31
355.718	133.31
355.945	162.31
356.172	135.31
356.399	148.31
356.626	135.31
356.853	182.31
357.08	209.31
357.307	269.31
357.534	284.31
357.761	216.31
357.988	204.31
358.215	178.31
358.441	163.31
358.668	167.31
358.895	160.31
359.122	166.31
359.349	155.31
359.576	140.31
359.802	130.31
360.029	140.31
360.256	143.31
360.483	140.31
360.709	141.31
360.936	178.31
361.163	154.31
361.39	139.31
361.616	131.31
361.843	159.31
362.07	144.31
362.296	152.31
362.523	144.31
362.749	138.31
362.976	150.31
363.203	176.31
363.429	181.31
363.656	231.31
363.882	267.31
364.109	320.31
364.335	247.31
364.562	207.31
364.788	167.31
365.015	182.31
365.241	168.31
365.468	164.31
365.694	156.31
365.92	159.31
366.147	146.31
366.373	162.31
366.599	142.31
366.826	182.31
367.052	192.31
367.278	222.31
367.505	210.31
367.731	226.31
367.957	237.31
368.184	309.31
368.41	389.31
368.636	358.31
368.862	251.31
369.089	210.31
369.315	199.31
369.541	199.31
369.767	163.31
369.993	163.31
370.219	151.31
370.445	159.31
370.672	129.31
370.898	154.31
371.124	167.31
371.35	160.31
371.576	153.31
371.802	143.31
372.028	149.31
372.254	162.31
372.48	149.31
372.706	147.31
372.932	152.31
373.158	169.31
373.384	184.31
373.61	193.31
373.835	251.31
374.061	272.31
374.287	261.31
374.513	211.31
374.739	177.31
374.965	161.31
375.191	146.31
375.416	167.31
375.642	155.31
375.868	154.31
376.094	157.31
376.319	146.31
376.545	146.31
376.771	149.31
376.997	149.31
377.222	132.31
377.448	157.31
377.674	139.31
377.899	155.31
378.125	135.31
378.35	156.31
378.576	125.31
378.802	160.31
379.027	145.31
379.253	158.31
379.478	141.31
379.704	141.31
379.929	156.31
380.155	131.31
380.38	149.31
380.606	145.31
380.831	148.31
381.057	165.31
381.282	151.31
381.507	149.31
381.733	141.31
381.958	151.31
382.184	128.31
382.409	142.31
382.634	157.31
382.86	146.31
383.085	146.31
383.31	139.31
383.535	153.31
383.761	146.31
383.986	142.31
384.211	146.31
384.436	148.31
384.662	128.31
384.887	146.31
385.112	143.31
385.337	131.31
385.562	134.31
385.787	121.31
386.013	157.31
386.238	141.31
386.463	155.31
386.688	193.31
386.913	138.31
387.138	143.31
387.363	147.31
387.588	146.31
387.813	139.31
388.038	154.31
388.263	150.31
388.488	142.31
388.713	156.31
388.938	137.31
389.163	160.31
389.387	139.31
389.612	148.31
389.837	141.31
390.062	158.31
390.287	156.31
390.512	144.31
390.736	146.31
390.961	139.31
391.186	147.31
391.411	134.31
391.636	158.31
391.86	158.31
392.085	167.31
392.31	154.31
392.534	146.31
392.759	155.31
392.984	145.31
393.208	134.31
393.433	146.31
393.658	158.31
393.882	144.31
394.107	144.31
394.331	153.31
394.556	153.31
394.78	160.31
395.005	141.31
395.229	150.31
395.454	164.31
395.678	137.31
395.903	152.31
396.127	162.31
396.352	155.31
396.576	137.31
396.801	149.31
397.025	142.31
397.249	151.31
397.474	169.31
397.698	141.31
397.922	178.31
398.147	158.31
398.371	154.31
398.595	145.31
398.82	150.31
399.044	153.31
399.268	149.31
399.492	156.31
399.717	168.31
399.941	169.31
400.165	160.31
400.389	154.31
400.613	156.31
400.837	179.31
401.062	179.31
401.286	176.31
401.51	173.31
401.734	167.31
401.958	196.31
402.182	191.31
402.406	163.31
402.63	168.31
402.854	159.31
403.078	154.31
403.302	155.31
403.526	156.31
403.75	184.31
403.974	177.31
404.198	176.31
404.422	201.31
404.645	189.31
404.869	202.31
405.093	226.31
405.317	265.31
405.541	362.31
405.765	511.31
405.988	546.31
406.212	445.31
406.436	312.31
406.66	258.31
406.883	224.31
407.107	219.31
407.331	220.31
407.555	200.31
407.778	208.31
408.002	194.31
408.226	189.31
408.449	187.31
408.673	185.31
408.896	184.31
409.12	168.31
409.344	167.31
409.567	158.31
409.791	184.31
410.014	179.31
410.238	177.31
410.461	173.31
410.685	157.31
410.908	172.31
411.132	179.31
411.355	174.31
411.578	162.31
411.802	173.31
412.025	162.31
412.249	171.31
412.472	182.31
412.695	147.31
412.919	181.31
413.142	165.31
413.365	167.31
413.589	157.31
413.812	155.31
414.035	187.31
414.258	177.31
414.482	183.31
414.705	163.31
414.928	176.31
415.151	160.31
415.374	169.31
415.597	162.31
415.821	159.31
416.044	175.31
416.267	178.31
416.49	175.31
416.713	179.31
416.936	189.31
417.159	169.31
417.382	161.31
417.605	152.31
417.828	177.31
418.051	152.31
418.274	189.31
418.497	161.31
418.72	160.31
418.943	181.31
419.166	186.31
419.389	157.31
419.611	175.31
419.834	166.31
420.057	184.31
420.28	184.31
420.503	191.31
420.726	167.31
420.948	163.31
421.171	158.31
421.394	184.31
421.617	174.31
421.839	160.31
422.062	173.31
422.285	179.31
422.507	192.31
422.73	174.31
422.953	170.31
423.175	185.31
423.398	186.31
423.621	185.31
423.843	185.31
424.066	222.31
424.288	226.31
424.511	256.31
424.733	262.31
424.956	249.31
425.178	242.31
425.401	233.31
425.623	214.31
425.846	205.31
426.068	201.31
426.291	206.31
426.513	192.31
426.735	193.31
426.958	201.31
427.18	190.31
427.402	181.31
427.625	184.31
427.847	184.31
428.069	183.31
428.292	169.31
428.514	185.31
428.736	187.31
428.958	170.31
429.181	185.31
429.403	172.31
429.625	176.31
429.847	175.31
430.069	191.31
430.292	191.31
430.514	172.31
430.736	186.31
430.958	176.31
431.18	163.31
431.402	168.31
431.624	172.31
431.846	148.31
432.068	174.31
432.29	173.31
432.512	183.31
432.734	152.31
432.956	185.31
433.178	197.31
433.4	165.31
433.622	194.31
433.844	196.31
434.066	187.31
434.287	189.31
434.509	173.31
434.731	159.31
434.953	170.31
435.175	184.31
435.397	182.31
435.618	166.31
435.84	168.31
436.062	179.31
436.284	178.31
436.505	185.31
436.727	168.31
436.949	188.31
437.17	191.31
437.392	191.31
437.614	182.31
437.835	192.31
438.057	183.31
438.278	193.31
438.5	248.31
438.721	260.31
438.943	274.31
439.165	237.31
439.386	224.31
439.608	243.31
439.829	225.31
440.05	222.31
440.272	221.31
440.493	205.31
440.715	232.31
440.936	255.31
441.158	242.31
441.379	217.31
441.6	219.31
441.822	221.31
442.043	215.31
442.264	200.31
442.486	189.31
442.707	191.31
442.928	199.31
443.149	193.31
443.371	199.31
443.592	190.31
443.813	189.31
444.034	185.31
444.255	189.31
444.476	197.31
444.698	187.31
444.919	202.31
445.14	491.31
445.361	322.31
445.582	208.31
445.803	183.31
446.024	177.31
446.245	219.31
446.466	198.31
446.687	186.31
446.908	201.31
447.129	194.31
447.35	185.31
447.571	193.31
447.792	182.31
448.013	183.31
448.234	190.31
448.455	191.31
448.675	184.31
448.896	193.31
449.117	184.31
449.338	177.31
449.559	186.31
449.779	168.31
450	181.31
450.221	165.31
450.442	183.31
450.662	168.31
450.883	185.31
451.104	188.31
451.324	171.31
451.545	187.31
451.766	178.31
451.986	167.31
452.207	170.31
452.428	192.31
452.648	171.31
452.869	172.31
453.089	155.31
453.31	165.31
453.53	132.31
453.751	175.31
453.971	153.31
454.192	161.31
454.412	161.31
454.633	154.31
454.853	166.31
455.073	169.31
455.294	152.31
455.514	177.31
455.734	154.31
455.955	158.31
456.175	160.31
456.395	151.31
456.616	150.31
456.836	158.31
457.056	167.31
457.276	148.31
457.497	157.31
457.717	158.31
457.937	165.31
458.157	148.31
458.377	150.31
458.598	142.31
458.818	151.31
459.038	137.31
459.258	150.31
459.478	157.31
459.698	155.31
459.918	170.31
460.138	183.31
460.358	177.31
460.578	182.31
460.798	160.31
461.018	158.31
461.238	156.31
461.458	176.31
461.678	169.31
461.898	165.31
462.118	166.31
462.338	159.31
462.558	155.31
462.777	144.31
462.997	170.31
463.217	178.31
463.437	154.31
463.657	169.31
463.876	166.31
464.096	166.31
464.316	180.31
464.536	154.31
464.755	180.31
464.975	162.31
465.195	172.31
465.414	164.31
465.634	173.31
465.854	182.31
466.073	162.31
466.293	152.31
466.512	162.31
466.732	176.31
466.951	155.31
467.171	170.31
467.391	160.31
467.61	166.31
467.829	166.31
468.049	156.31
468.268	168.31
468.488	157.31
468.707	157.31
468.927	168.31
469.146	177.31
469.365	175.31
469.585	169.31
469.804	176.31
470.023	171.31
470.243	168.31
470.462	173.31
470.681	176.31
470.901	191.31
471.12	181.31
471.339	187.31
471.558	174.31
471.777	179.31
471.997	162.31
472.216	179.31
472.435	160.31
472.654	163.31
472.873	163.31
473.092	167.31
473.311	178.31
473.53	172.31
473.749	193.31
473.968	188.31
474.187	173.31
474.406	158.31
474.625	169.31
474.844	181.31
475.063	162.31
475.282	153.31
475.501	174.31
475.72	179.31
475.939	173.31
476.158	170.31
476.377	171.31
476.596	173.31
476.814	175.31
477.033	170.31
477.252	168.31
477.471	174.31
477.69	166.31
477.908	184.31
478.127	208.31
478.346	187.31
478.564	166.31
478.783	184.31
479.002	190.31
479.22	173.31
479.439	195.31
479.658	170.31
479.876	168.31
480.095	176.31
480.313	155.31
480.532	184.31
480.751	185.31
480.969	165.31
481.188	159.31
481.406	179.31
481.624	176.31
481.843	167.31
482.061	171.31
482.28	174.31
482.498	162.31
482.717	165.31
482.935	177.31
483.153	193.31
483.372	174.31
483.59	190.31
483.808	177.31
484.027	193.31
484.245	183.31
484.463	171.31
484.681	215.31
484.9	189.31
485.118	188.31
485.336	173.31
485.554	166.31
485.772	167.31
485.99	158.31
486.209	169.31
486.427	173.31
486.645	171.31
486.863	185.31
487.081	180.31
487.299	184.31
487.517	181.31
487.735	188.31
487.953	218.31
488.171	207.31
488.389	189.31
488.607	191.31
488.825	181.31
489.043	203.31
489.261	207.31
489.479	168.31
489.696	192.31
489.914	193.31
490.132	200.31
490.35	191.31
490.568	202.31
490.786	216.31
491.003	200.31
491.221	199.31
491.439	206.31
491.657	218.31
491.874	223.31
492.092	225.31
492.31	232.31
492.527	218.31
492.745	219.31
492.963	201.31
493.18	226.31
493.398	219.31
493.615	193.31
493.833	206.31
494.05	207.31
494.268	208.31
494.485	218.31
494.703	200.31
494.92	194.31
495.138	213.31
495.355	218.31
495.573	214.31
495.79	200.31
496.008	212.31
496.225	216.31
496.442	220.31
496.66	220.31
496.877	221.31
497.094	230.31
497.312	219.31
497.529	202.31
497.746	185.31
497.963	189.31
498.181	181.31
498.398	186.31
498.615	217.31
498.832	215.31
499.049	214.31
499.267	217.31
499.484	236.31
499.701	241.31
499.918	232.31
500.135	233.31
500.352	236.31
500.569	259.31
500.786	297.31
501.003	267.31
501.22	253.31
501.437	240.31
501.654	219.31
501.871	225.31
502.088	201.31
502.305	224.31
502.522	221.31
502.739	200.31
502.956	194.31
503.172	205.31
503.389	201.31
503.606	203.31
503.823	210.31
