Data from TenMicroDelayPb_HRD10591_00003.txt Node
Date: Mon Nov 24 14:57:28 EST 2025
User: Yrep
Spectrometer: HR+D1059
Trigger mode: 5
Integration Time (sec): 1.000000E-1
Scans to average: 1
Electric dark correction enabled: true
Nonlinearity correction enabled: false
Boxcar width: 0
XAxis mode: Wavelengths
Number of Pixels in Spectrum: 2048
>>>>>Begin Spectral Data<<<<<
223.165	-16.12
223.4	-16.12
223.635	-16.12
223.869	-20.12
224.104	-30.12
224.338	-16.12
224.573	-16.12
224.808	-12.12
225.042	2.88
225.277	-2.12
225.511	-19.12
225.746	7.88
225.98	9.88
226.215	5.88
226.449	26.88
226.683	22.88
226.918	24.88
227.152	30.88
227.387	36.88
227.621	29.88
227.856	60.88
228.09	54.88
228.324	44.88
228.559	71.88
228.793	64.88
229.027	61.88
229.262	86.88
229.496	76.88
229.73	84.88
229.964	89.88
230.199	71.88
230.433	79.88
230.667	106.88
230.901	79.88
231.136	88.88
231.37	77.88
231.604	83.88
231.838	83.88
232.072	98.88
232.306	103.88
232.541	85.88
232.775	92.88
233.009	110.88
233.243	97.88
233.477	102.88
233.711	102.88
233.945	103.88
234.179	96.88
234.413	86.88
234.647	102.88
234.881	86.88
235.115	101.88
235.349	93.88
235.583	86.88
235.817	89.88
236.051	73.88
236.285	88.88
236.519	85.88
236.753	81.88
236.987	93.88
237.221	85.88
237.455	91.88
237.689	82.88
237.922	85.88
238.156	87.88
238.39	78.88
238.624	87.88
238.858	89.88
239.091	82.88
239.325	91.88
239.559	99.88
239.793	87.88
240.027	107.88
240.26	90.88
240.494	104.88
240.728	92.88
240.961	86.88
241.195	108.88
241.429	110.88
241.662	86.88
241.896	81.88
242.13	81.88
242.363	85.88
242.597	90.88
242.83	96.88
243.064	90.88
243.298	94.88
243.531	102.88
243.765	97.88
243.998	98.88
244.232	93.88
244.465	85.88
244.699	100.88
244.932	88.88
245.166	86.88
245.399	97.88
245.633	88.88
245.866	107.88
246.099	81.88
246.333	93.88
246.566	90.88
246.8	81.88
247.033	94.88
247.266	98.88
247.5	106.88
247.733	111.88
247.966	109.88
248.2	103.88
248.433	76.88
248.666	92.88
248.899	93.88
249.133	99.88
249.366	107.88
249.599	99.88
249.832	109.88
250.066	129.88
250.299	91.88
250.532	91.88
250.765	94.88
250.998	86.88
251.231	93.88
251.465	105.88
251.698	92.88
251.931	113.88
252.164	105.88
252.397	102.88
252.63	109.88
252.863	104.88
253.096	113.88
253.329	121.88
253.562	114.88
253.795	121.88
254.028	110.88
254.261	114.88
254.494	105.88
254.727	121.88
254.96	91.88
255.193	101.88
255.426	105.88
255.659	98.88
255.892	117.88
256.124	89.88
256.357	92.88
256.59	115.88
256.823	94.88
257.056	107.88
257.289	129.88
257.521	119.88
257.754	122.88
257.987	125.88
258.22	121.88
258.452	119.88
258.685	116.88
258.918	106.88
259.151	98.88
259.383	111.88
259.616	112.88
259.849	117.88
260.081	111.88
260.314	108.88
260.547	119.88
260.779	119.88
261.012	112.88
261.244	125.88
261.477	175.88
261.71	144.88
261.942	143.88
262.175	129.88
262.407	121.88
262.64	111.88
262.872	118.88
263.105	107.88
263.337	114.88
263.57	113.88
263.802	115.88
264.035	108.88
264.267	113.88
264.499	122.88
264.732	121.88
264.964	120.88
265.197	136.88
265.429	113.88
265.661	109.88
265.894	110.88
266.126	139.88
266.358	109.88
266.591	134.88
266.823	138.88
267.055	111.88
267.287	124.88
267.52	112.88
267.752	117.88
267.984	99.88
268.216	101.88
268.448	115.88
268.681	132.88
268.913	117.88
269.145	102.88
269.377	122.88
269.609	116.88
269.841	124.88
270.073	123.88
270.306	123.88
270.538	110.88
270.77	115.88
271.002	117.88
271.234	105.88
271.466	125.88
271.698	100.88
271.93	106.88
272.162	109.88
272.394	139.88
272.626	101.88
272.858	116.88
273.09	119.88
273.322	102.88
273.553	95.88
273.785	112.88
274.017	116.88
274.249	105.88
274.481	97.88
274.713	108.88
274.945	111.88
275.176	122.88
275.408	122.88
275.64	123.88
275.872	115.88
276.104	126.88
276.335	118.88
276.567	107.88
276.799	115.88
277.031	140.88
277.262	116.88
277.494	108.88
277.726	135.88
277.957	105.88
278.189	131.88
278.421	143.88
278.652	138.88
278.884	135.88
279.115	148.88
279.347	142.88
279.579	150.88
279.81	168.88
280.042	189.88
280.273	201.88
280.505	207.88
280.736	153.88
280.968	137.88
281.199	137.88
281.431	145.88
281.662	134.88
281.894	140.88
282.125	135.88
282.356	152.88
282.588	137.88
282.819	131.88
283.051	151.88
283.282	185.88
283.513	191.88
283.745	154.88
283.976	151.88
284.207	149.88
284.439	146.88
284.67	120.88
284.901	125.88
285.132	126.88
285.364	113.88
285.595	136.88
285.826	110.88
286.057	145.88
286.288	132.88
286.52	122.88
286.751	131.88
286.982	135.88
287.213	162.88
287.444	167.88
287.675	164.88
287.906	159.88
288.138	119.88
288.369	132.88
288.6	133.88
288.831	119.88
289.062	129.88
289.293	129.88
289.524	111.88
289.755	111.88
289.986	114.88
290.217	122.88
290.448	133.88
290.679	127.88
290.91	115.88
291.141	116.88
291.371	124.88
291.602	119.88
291.833	127.88
292.064	134.88
292.295	113.88
292.526	132.88
292.757	130.88
292.987	116.88
293.218	106.88
293.449	121.88
293.68	123.88
293.91	118.88
294.141	129.88
294.372	115.88
294.603	115.88
294.833	127.88
295.064	114.88
295.295	129.88
295.525	122.88
295.756	118.88
295.987	123.88
296.217	115.88
296.448	112.88
296.679	125.88
296.909	116.88
297.14	117.88
297.37	116.88
297.601	116.88
297.831	119.88
298.062	121.88
298.292	139.88
298.523	135.88
298.753	126.88
298.984	122.88
299.214	138.88
299.445	121.88
299.675	120.88
299.905	113.88
300.136	112.88
300.366	112.88
300.597	125.88
300.827	140.88
301.057	142.88
301.288	120.88
301.518	129.88
301.748	125.88
301.979	188.88
302.209	128.88
302.439	105.88
302.669	126.88
302.9	134.88
303.13	128.88
303.36	143.88
303.59	124.88
303.82	129.88
304.051	128.88
304.281	148.88
304.511	135.88
304.741	114.88
304.971	125.88
305.201	123.88
305.431	128.88
305.661	125.88
305.891	121.88
306.121	113.88
306.352	122.88
306.582	117.88
306.812	114.88
307.042	118.88
307.272	140.88
307.502	130.88
307.731	136.88
307.961	135.88
308.191	126.88
308.421	121.88
308.651	123.88
308.881	131.88
309.111	128.88
309.341	123.88
309.571	122.88
309.8	129.88
310.03	122.88
310.26	135.88
310.49	129.88
310.72	138.88
310.949	118.88
311.179	119.88
311.409	124.88
311.639	134.88
311.868	132.88
312.098	132.88
312.328	148.88
312.557	134.88
312.787	134.88
313.017	136.88
313.246	161.88
313.476	136.88
313.706	129.88
313.935	139.88
314.165	137.88
314.394	142.88
314.624	130.88
314.853	141.88
315.083	137.88
315.312	138.88
315.542	146.88
315.771	148.88
316.001	138.88
316.23	140.88
316.46	143.88
316.689	138.88
316.919	137.88
317.148	154.88
317.377	140.88
317.607	135.88
317.836	126.88
318.065	136.88
318.295	130.88
318.524	125.88
318.753	148.88
318.983	122.88
319.212	141.88
319.441	129.88
319.67	139.88
319.9	137.88
320.129	124.88
320.358	136.88
320.587	125.88
320.816	129.88
321.046	140.88
321.275	138.88
321.504	131.88
321.733	139.88
321.962	135.88
322.191	137.88
322.42	139.88
322.649	131.88
322.878	129.88
323.108	123.88
323.337	121.88
323.566	137.88
323.795	133.88
324.024	141.88
324.253	132.88
324.482	140.88
324.71	141.88
324.939	124.88
325.168	127.88
325.397	105.88
325.626	134.88
325.855	140.88
326.084	134.88
326.313	148.88
326.542	130.88
326.77	146.88
326.999	127.88
327.228	132.88
327.457	121.88
327.686	132.88
327.914	133.88
328.143	143.88
328.372	138.88
328.6	129.88
328.829	134.88
329.058	131.88
329.287	113.88
329.515	142.88
329.744	156.88
329.972	135.88
330.201	144.88
330.43	133.88
330.658	133.88
330.887	132.88
331.115	140.88
331.344	121.88
331.572	139.88
331.801	130.88
332.03	140.88
332.258	134.88
332.486	121.88
332.715	137.88
332.943	123.88
333.172	143.88
333.4	137.88
333.629	128.88
333.857	155.88
334.085	131.88
334.314	132.88
334.542	127.88
334.771	135.88
334.999	140.88
335.227	142.88
335.455	138.88
335.684	145.88
335.912	139.88
336.14	130.88
336.369	129.88
336.597	121.88
336.825	125.88
337.053	127.88
337.281	143.88
337.51	129.88
337.738	136.88
337.966	131.88
338.194	137.88
338.422	136.88
338.65	154.88
338.878	151.88
339.106	148.88
339.334	140.88
339.562	118.88
339.79	140.88
340.018	128.88
340.246	114.88
340.474	136.88
340.702	146.88
340.93	141.88
341.158	133.88
341.386	127.88
341.614	124.88
341.842	130.88
342.07	114.88
342.298	125.88
342.526	134.88
342.754	143.88
342.981	131.88
343.209	132.88
343.437	169.88
343.665	125.88
343.893	138.88
344.12	151.88
344.348	126.88
344.576	131.88
344.804	141.88
345.031	136.88
345.259	145.88
345.487	142.88
345.714	134.88
345.942	131.88
346.17	142.88
346.397	139.88
346.625	129.88
346.853	131.88
347.08	126.88
347.308	129.88
347.535	135.88
347.763	123.88
347.99	136.88
348.218	144.88
348.445	135.88
348.673	130.88
348.9	146.88
349.128	151.88
349.355	140.88
349.583	134.88
349.81	137.88
350.037	134.88
350.265	131.88
350.492	130.88
350.72	120.88
350.947	131.88
351.174	142.88
351.402	117.88
351.629	140.88
351.856	114.88
352.083	142.88
352.311	148.88
352.538	135.88
352.765	124.88
352.992	173.88
353.22	134.88
353.447	116.88
353.674	132.88
353.901	135.88
354.128	145.88
354.355	131.88
354.583	128.88
354.81	137.88
355.037	133.88
355.264	160.88
355.491	138.88
355.718	129.88
355.945	137.88
356.172	140.88
356.399	155.88
356.626	142.88
356.853	168.88
357.08	198.88
357.307	254.88
357.534	239.88
357.761	211.88
357.988	167.88
358.215	171.88
358.441	151.88
358.668	149.88
358.895	147.88
359.122	164.88
359.349	162.88
359.576	140.88
359.802	135.88
360.029	138.88
360.256	159.88
360.483	137.88
360.709	147.88
360.936	154.88
361.163	157.88
361.39	134.88
361.616	143.88
361.843	143.88
362.07	138.88
362.296	149.88
362.523	126.88
362.749	133.88
362.976	152.88
363.203	188.88
363.429	167.88
363.656	219.88
363.882	245.88
364.109	309.88
364.335	242.88
364.562	187.88
364.788	165.88
365.015	154.88
365.241	169.88
365.468	151.88
365.694	133.88
365.92	147.88
366.147	127.88
366.373	130.88
366.599	154.88
366.826	161.88
367.052	161.88
367.278	185.88
367.505	197.88
367.731	217.88
367.957	211.88
368.184	293.88
368.41	348.88
368.636	332.88
368.862	248.88
369.089	209.88
369.315	167.88
369.541	171.88
369.767	165.88
369.993	155.88
370.219	172.88
370.445	153.88
370.672	144.88
370.898	148.88
371.124	144.88
371.35	147.88
371.576	158.88
371.802	159.88
372.028	160.88
372.254	159.88
372.48	144.88
372.706	147.88
372.932	146.88
373.158	152.88
373.384	167.88
373.61	188.88
373.835	213.88
374.061	247.88
374.287	233.88
374.513	191.88
374.739	165.88
374.965	166.88
375.191	161.88
375.416	157.88
375.642	156.88
375.868	168.88
376.094	169.88
376.319	129.88
376.545	140.88
376.771	126.88
376.997	148.88
377.222	145.88
377.448	144.88
377.674	136.88
377.899	153.88
378.125	142.88
378.35	172.88
378.576	147.88
378.802	140.88
379.027	140.88
379.253	156.88
379.478	133.88
379.704	149.88
379.929	135.88
380.155	134.88
380.38	140.88
380.606	145.88
380.831	148.88
381.057	166.88
381.282	135.88
381.507	139.88
381.733	140.88
381.958	123.88
382.184	139.88
382.409	133.88
382.634	148.88
382.86	147.88
383.085	145.88
383.31	132.88
383.535	146.88
383.761	157.88
383.986	152.88
384.211	144.88
384.436	135.88
384.662	142.88
384.887	155.88
385.112	142.88
385.337	141.88
385.562	139.88
385.787	128.88
386.013	142.88
386.238	134.88
386.463	166.88
386.688	205.88
386.913	154.88
387.138	156.88
387.363	142.88
387.588	154.88
387.813	155.88
388.038	153.88
388.263	164.88
388.488	143.88
388.713	149.88
388.938	143.88
389.163	149.88
389.387	163.88
389.612	140.88
389.837	141.88
390.062	139.88
390.287	164.88
390.512	153.88
390.736	140.88
390.961	140.88
391.186	149.88
391.411	147.88
391.636	126.88
391.86	160.88
392.085	158.88
392.31	157.88
392.534	145.88
392.759	156.88
392.984	147.88
393.208	148.88
393.433	144.88
393.658	138.88
393.882	142.88
394.107	138.88
394.331	145.88
394.556	138.88
394.78	137.88
395.005	142.88
395.229	159.88
395.454	145.88
395.678	145.88
395.903	144.88
396.127	160.88
396.352	162.88
396.576	154.88
396.801	161.88
397.025	142.88
397.249	155.88
397.474	162.88
397.698	172.88
397.922	159.88
398.147	150.88
398.371	145.88
398.595	147.88
398.82	164.88
399.044	150.88
399.268	172.88
399.492	171.88
399.717	168.88
399.941	165.88
400.165	157.88
400.389	156.88
400.613	156.88
400.837	148.88
401.062	157.88
401.286	158.88
401.51	164.88
401.734	178.88
401.958	203.88
402.182	185.88
402.406	159.88
402.63	155.88
402.854	153.88
403.078	176.88
403.302	163.88
403.526	165.88
403.75	173.88
403.974	195.88
404.198	177.88
404.422	185.88
404.645	174.88
404.869	192.88
405.093	215.88
405.317	237.88
405.541	328.88
405.765	451.88
405.988	498.88
406.212	390.88
406.436	296.88
406.66	252.88
406.883	226.88
407.107	209.88
407.331	191.88
407.555	182.88
407.778	197.88
408.002	179.88
408.226	182.88
408.449	183.88
408.673	185.88
408.896	197.88
409.12	184.88
409.344	191.88
409.567	173.88
409.791	191.88
410.014	185.88
410.238	163.88
410.461	156.88
410.685	185.88
410.908	163.88
411.132	183.88
411.355	161.88
411.578	179.88
411.802	176.88
412.025	157.88
412.249	166.88
412.472	183.88
412.695	174.88
412.919	179.88
413.142	181.88
413.365	159.88
413.589	176.88
413.812	173.88
414.035	187.88
414.258	170.88
414.482	170.88
414.705	158.88
414.928	163.88
415.151	159.88
415.374	162.88
415.597	164.88
415.821	157.88
416.044	150.88
416.267	157.88
416.49	169.88
416.713	193.88
416.936	169.88
417.159	158.88
417.382	166.88
417.605	164.88
417.828	170.88
418.051	153.88
418.274	189.88
418.497	150.88
418.72	155.88
418.943	162.88
419.166	161.88
419.389	173.88
419.611	156.88
419.834	174.88
420.057	171.88
420.28	167.88
420.503	172.88
420.726	156.88
420.948	165.88
421.171	157.88
421.394	170.88
421.617	186.88
421.839	185.88
422.062	172.88
422.285	161.88
422.507	179.88
422.73	177.88
422.953	173.88
423.175	172.88
423.398	176.88
423.621	169.88
423.843	194.88
424.066	193.88
424.288	206.88
424.511	253.88
424.733	245.88
424.956	236.88
425.178	237.88
425.401	218.88
425.623	207.88
425.846	198.88
426.068	195.88
426.291	189.88
426.513	176.88
426.735	191.88
426.958	177.88
427.18	202.88
427.402	183.88
427.625	187.88
427.847	160.88
428.069	195.88
428.292	180.88
428.514	192.88
428.736	177.88
428.958	171.88
429.181	178.88
429.403	169.88
429.625	160.88
429.847	182.88
430.069	174.88
430.292	182.88
430.514	165.88
430.736	173.88
430.958	171.88
431.18	163.88
431.402	150.88
431.624	150.88
431.846	156.88
432.068	158.88
432.29	161.88
432.512	178.88
432.734	163.88
432.956	185.88
433.178	192.88
433.4	166.88
433.622	185.88
433.844	169.88
434.066	175.88
434.287	170.88
434.509	153.88
434.731	160.88
434.953	163.88
435.175	173.88
435.397	175.88
435.618	176.88
435.84	157.88
436.062	158.88
436.284	166.88
436.505	178.88
436.727	171.88
436.949	176.88
437.17	159.88
437.392	167.88
437.614	174.88
437.835	197.88
438.057	177.88
438.278	207.88
438.5	202.88
438.721	234.88
438.943	251.88
439.165	226.88
439.386	237.88
439.608	220.88
439.829	203.88
440.05	221.88
440.272	207.88
440.493	217.88
440.715	199.88
440.936	229.88
441.158	245.88
441.379	223.88
441.6	210.88
441.822	191.88
442.043	191.88
442.264	178.88
442.486	207.88
442.707	192.88
442.928	196.88
443.149	205.88
443.371	199.88
443.592	169.88
443.813	172.88
444.034	174.88
444.255	211.88
444.476	194.88
444.698	191.88
444.919	195.88
445.14	481.88
445.361	318.88
445.582	199.88
445.803	182.88
446.024	202.88
446.245	200.88
446.466	205.88
446.687	199.88
446.908	185.88
447.129	206.88
447.35	176.88
447.571	186.88
447.792	157.88
448.013	189.88
448.234	188.88
448.455	186.88
448.675	189.88
448.896	187.88
449.117	178.88
449.338	197.88
449.559	189.88
449.779	175.88
450	195.88
450.221	174.88
450.442	173.88
450.662	173.88
450.883	183.88
451.104	192.88
451.324	176.88
451.545	169.88
451.766	170.88
451.986	164.88
452.207	158.88
452.428	184.88
452.648	160.88
452.869	172.88
453.089	166.88
453.31	148.88
453.53	157.88
453.751	150.88
453.971	154.88
454.192	161.88
454.412	149.88
454.633	154.88
454.853	181.88
455.073	145.88
455.294	162.88
455.514	150.88
455.734	153.88
455.955	158.88
456.175	144.88
456.395	154.88
456.616	165.88
456.836	165.88
457.056	156.88
457.276	149.88
457.497	136.88
457.717	155.88
457.937	162.88
458.157	141.88
458.377	151.88
458.598	160.88
458.818	162.88
459.038	142.88
459.258	150.88
459.478	137.88
459.698	150.88
459.918	161.88
460.138	142.88
460.358	151.88
460.578	193.88
460.798	162.88
461.018	176.88
461.238	158.88
461.458	160.88
461.678	170.88
461.898	145.88
462.118	171.88
462.338	163.88
462.558	178.88
462.777	154.88
462.997	164.88
463.217	164.88
463.437	163.88
463.657	166.88
463.876	162.88
464.096	173.88
464.316	150.88
464.536	152.88
464.755	154.88
464.975	171.88
465.195	159.88
465.414	174.88
465.634	163.88
465.854	165.88
466.073	150.88
466.293	167.88
466.512	164.88
466.732	159.88
466.951	163.88
467.171	147.88
467.391	167.88
467.61	177.88
467.829	158.88
468.049	168.88
468.268	164.88
468.488	165.88
468.707	169.88
468.927	161.88
469.146	150.88
469.365	179.88
469.585	171.88
469.804	171.88
470.023	174.88
470.243	167.88
470.462	193.88
470.681	162.88
470.901	165.88
471.12	175.88
471.339	178.88
471.558	154.88
471.777	169.88
471.997	155.88
472.216	163.88
472.435	185.88
472.654	151.88
472.873	148.88
473.092	165.88
473.311	153.88
473.53	165.88
473.749	159.88
473.968	190.88
474.187	157.88
474.406	163.88
474.625	171.88
474.844	188.88
475.063	161.88
475.282	169.88
475.501	168.88
475.72	173.88
475.939	172.88
476.158	163.88
476.377	149.88
476.596	155.88
476.814	172.88
477.033	156.88
477.252	166.88
477.471	167.88
477.69	176.88
477.908	176.88
478.127	188.88
478.346	174.88
478.564	171.88
478.783	161.88
479.002	185.88
479.22	189.88
479.439	186.88
479.658	171.88
479.876	178.88
480.095	172.88
480.313	174.88
480.532	186.88
480.751	170.88
480.969	162.88
481.188	177.88
481.406	157.88
481.624	155.88
481.843	146.88
482.061	172.88
482.28	171.88
482.498	164.88
482.717	177.88
482.935	177.88
483.153	176.88
483.372	183.88
483.59	177.88
483.808	166.88
484.027	173.88
484.245	200.88
484.463	164.88
484.681	211.88
484.9	178.88
485.118	182.88
485.336	155.88
485.554	167.88
485.772	162.88
485.99	162.88
486.209	177.88
486.427	174.88
486.645	170.88
486.863	173.88
487.081	190.88
487.299	175.88
487.517	191.88
487.735	185.88
487.953	223.88
488.171	211.88
488.389	197.88
488.607	174.88
488.825	161.88
489.043	159.88
489.261	179.88
489.479	187.88
489.696	180.88
489.914	191.88
490.132	186.88
490.35	187.88
490.568	186.88
490.786	190.88
491.003	199.88
491.221	197.88
491.439	211.88
491.657	204.88
491.874	217.88
492.092	226.88
492.31	218.88
492.527	210.88
492.745	199.88
492.963	187.88
493.18	199.88
493.398	201.88
493.615	213.88
493.833	197.88
494.05	211.88
494.268	212.88
494.485	195.88
494.703	211.88
494.92	209.88
495.138	204.88
495.355	225.88
495.573	203.88
495.79	193.88
496.008	204.88
496.225	204.88
496.442	198.88
496.66	212.88
496.877	203.88
497.094	218.88
497.312	190.88
497.529	216.88
497.746	207.88
497.963	204.88
498.181	194.88
498.398	177.88
498.615	210.88
498.832	185.88
499.049	198.88
499.267	202.88
499.484	214.88
499.701	218.88
499.918	217.88
500.135	222.88
500.352	231.88
500.569	262.88
500.786	265.88
501.003	238.88
501.22	235.88
501.437	223.88
501.654	234.88
501.871	211.88
502.088	199.88
502.305	210.88
502.522	203.88
502.739	206.88
502.956	205.88
503.172	223.88
503.389	207.88
503.606	189.88
503.823	223.88
