Data from TenMicroDelayPb_HRD10591_00008.txt Node
Date: Mon Nov 24 14:57:30 EST 2025
User: Yrep
Spectrometer: HR+D1059
Trigger mode: 5
Integration Time (sec): 1.000000E-1
Scans to average: 1
Electric dark correction enabled: true
Nonlinearity correction enabled: false
Boxcar width: 0
XAxis mode: Wavelengths
Number of Pixels in Spectrum: 2048
>>>>>Begin Spectral Data<<<<<
223.165	-27.31
223.4	-27.31
223.635	-27.31
223.869	-29.31
224.104	-15.31
224.338	-10.31
224.573	-16.31
224.808	-30.31
225.042	-3.31
225.277	-7.31
225.511	-14.31
225.746	7.69
225.98	24.69
226.215	13.69
226.449	12.69
226.683	34.69
226.918	18.69
227.152	41.69
227.387	30.69
227.621	33.69
227.856	50.69
228.09	53.69
228.324	53.69
228.559	73.69
228.793	60.69
229.027	74.69
229.262	78.69
229.496	75.69
229.73	75.69
229.964	81.69
230.199	74.69
230.433	93.69
230.667	84.69
230.901	78.69
231.136	78.69
231.37	87.69
231.604	79.69
231.838	86.69
232.072	80.69
232.306	93.69
232.541	84.69
232.775	93.69
233.009	108.69
233.243	84.69
233.477	86.69
233.711	92.69
233.945	104.69
234.179	101.69
234.413	99.69
234.647	92.69
234.881	74.69
235.115	93.69
235.349	90.69
235.583	88.69
235.817	93.69
236.051	102.69
236.285	91.69
236.519	114.69
236.753	87.69
236.987	71.69
237.221	81.69
237.455	82.69
237.689	75.69
237.922	100.69
238.156	94.69
238.39	83.69
238.624	84.69
238.858	75.69
239.091	92.69
239.325	100.69
239.559	98.69
239.793	90.69
240.027	93.69
240.26	76.69
240.494	92.69
240.728	81.69
240.961	96.69
241.195	101.69
241.429	90.69
241.662	90.69
241.896	96.69
242.13	84.69
242.363	79.69
242.597	78.69
242.83	91.69
243.064	82.69
243.298	97.69
243.531	95.69
243.765	97.69
243.998	101.69
244.232	103.69
244.465	98.69
244.699	94.69
244.932	91.69
245.166	99.69
245.399	93.69
245.633	93.69
245.866	92.69
246.099	86.69
246.333	94.69
246.566	96.69
246.8	97.69
247.033	85.69
247.266	98.69
247.5	96.69
247.733	102.69
247.966	104.69
248.2	98.69
248.433	78.69
248.666	99.69
248.899	109.69
249.133	96.69
249.366	122.69
249.599	86.69
249.832	97.69
250.066	96.69
250.299	80.69
250.532	108.69
250.765	102.69
250.998	89.69
251.231	94.69
251.465	91.69
251.698	102.69
251.931	97.69
252.164	101.69
252.397	100.69
252.63	100.69
252.863	98.69
253.096	109.69
253.329	112.69
253.562	104.69
253.795	109.69
254.028	106.69
254.261	110.69
254.494	117.69
254.727	130.69
254.96	101.69
255.193	106.69
255.426	95.69
255.659	104.69
255.892	108.69
256.124	119.69
256.357	107.69
256.59	124.69
256.823	114.69
257.056	114.69
257.289	123.69
257.521	113.69
257.754	126.69
257.987	108.69
258.22	110.69
258.452	116.69
258.685	110.69
258.918	107.69
259.151	99.69
259.383	112.69
259.616	102.69
259.849	113.69
260.081	126.69
260.314	116.69
260.547	115.69
260.779	118.69
261.012	130.69
261.244	114.69
261.477	156.69
261.71	146.69
261.942	133.69
262.175	128.69
262.407	125.69
262.64	108.69
262.872	132.69
263.105	116.69
263.337	115.69
263.57	99.69
263.802	107.69
264.035	122.69
264.267	111.69
264.499	110.69
264.732	129.69
264.964	113.69
265.197	142.69
265.429	121.69
265.661	124.69
265.894	120.69
266.126	128.69
266.358	116.69
266.591	139.69
266.823	124.69
267.055	111.69
267.287	121.69
267.52	96.69
267.752	117.69
267.984	119.69
268.216	112.69
268.448	130.69
268.681	123.69
268.913	121.69
269.145	99.69
269.377	109.69
269.609	104.69
269.841	116.69
270.073	108.69
270.306	125.69
270.538	120.69
270.77	108.69
271.002	104.69
271.234	113.69
271.466	111.69
271.698	103.69
271.93	112.69
272.162	127.69
272.394	123.69
272.626	103.69
272.858	126.69
273.09	123.69
273.322	120.69
273.553	102.69
273.785	104.69
274.017	114.69
274.249	128.69
274.481	113.69
274.713	110.69
274.945	113.69
275.176	109.69
275.408	118.69
275.64	120.69
275.872	115.69
276.104	108.69
276.335	131.69
276.567	112.69
276.799	108.69
277.031	116.69
277.262	106.69
277.494	118.69
277.726	127.69
277.957	125.69
278.189	125.69
278.421	121.69
278.652	122.69
278.884	132.69
279.115	135.69
279.347	140.69
279.579	144.69
279.81	162.69
280.042	167.69
280.273	184.69
280.505	194.69
280.736	145.69
280.968	140.69
281.199	133.69
281.431	129.69
281.662	130.69
281.894	150.69
282.125	155.69
282.356	162.69
282.588	152.69
282.819	131.69
283.051	167.69
283.282	174.69
283.513	189.69
283.745	169.69
283.976	140.69
284.207	127.69
284.439	128.69
284.67	142.69
284.901	130.69
285.132	112.69
285.364	116.69
285.595	116.69
285.826	141.69
286.057	128.69
286.288	124.69
286.52	135.69
286.751	140.69
286.982	144.69
287.213	155.69
287.444	170.69
287.675	135.69
287.906	130.69
288.138	124.69
288.369	121.69
288.6	130.69
288.831	127.69
289.062	122.69
289.293	120.69
289.524	126.69
289.755	132.69
289.986	121.69
290.217	116.69
290.448	113.69
290.679	121.69
290.91	134.69
291.141	114.69
291.371	123.69
291.602	101.69
291.833	115.69
292.064	135.69
292.295	118.69
292.526	103.69
292.757	122.69
292.987	120.69
293.218	142.69
293.449	129.69
293.68	122.69
293.91	113.69
294.141	118.69
294.372	123.69
294.603	128.69
294.833	125.69
295.064	122.69
295.295	121.69
295.525	119.69
295.756	133.69
295.987	114.69
296.217	128.69
296.448	118.69
296.679	140.69
296.909	129.69
297.14	120.69
297.37	137.69
297.601	129.69
297.831	118.69
298.062	134.69
298.292	128.69
298.523	120.69
298.753	128.69
298.984	112.69
299.214	120.69
299.445	121.69
299.675	121.69
299.905	133.69
300.136	116.69
300.366	115.69
300.597	113.69
300.827	118.69
301.057	115.69
301.288	134.69
301.518	139.69
301.748	120.69
301.979	176.69
302.209	137.69
302.439	124.69
302.669	121.69
302.9	131.69
303.13	128.69
303.36	116.69
303.59	126.69
303.82	131.69
304.051	141.69
304.281	126.69
304.511	146.69
304.741	137.69
304.971	112.69
305.201	130.69
305.431	135.69
305.661	109.69
305.891	134.69
306.121	122.69
306.352	127.69
306.582	133.69
306.812	117.69
307.042	124.69
307.272	120.69
307.502	122.69
307.731	110.69
307.961	125.69
308.191	131.69
308.421	138.69
308.651	120.69
308.881	138.69
309.111	127.69
309.341	132.69
309.571	133.69
309.8	115.69
310.03	114.69
310.26	130.69
310.49	130.69
310.72	133.69
310.949	115.69
311.179	108.69
311.409	115.69
311.639	126.69
311.868	141.69
312.098	134.69
312.328	142.69
312.557	139.69
312.787	127.69
313.017	131.69
313.246	137.69
313.476	126.69
313.706	137.69
313.935	140.69
314.165	148.69
314.394	148.69
314.624	142.69
314.853	135.69
315.083	145.69
315.312	142.69
315.542	152.69
315.771	129.69
316.001	134.69
316.23	133.69
316.46	130.69
316.689	132.69
316.919	133.69
317.148	130.69
317.377	161.69
317.607	152.69
317.836	138.69
318.065	140.69
318.295	145.69
318.524	140.69
318.753	145.69
318.983	115.69
319.212	127.69
319.441	130.69
319.67	149.69
319.9	142.69
320.129	139.69
320.358	130.69
320.587	136.69
320.816	139.69
321.046	123.69
321.275	144.69
321.504	121.69
321.733	124.69
321.962	130.69
322.191	131.69
322.42	116.69
322.649	141.69
322.878	134.69
323.108	122.69
323.337	133.69
323.566	114.69
323.795	130.69
324.024	146.69
324.253	144.69
324.482	131.69
324.71	138.69
324.939	140.69
325.168	133.69
325.397	135.69
325.626	133.69
325.855	130.69
326.084	127.69
326.313	140.69
326.542	127.69
326.77	145.69
326.999	136.69
327.228	131.69
327.457	147.69
327.686	125.69
327.914	129.69
328.143	150.69
328.372	135.69
328.6	132.69
328.829	122.69
329.058	116.69
329.287	128.69
329.515	131.69
329.744	141.69
329.972	129.69
330.201	117.69
330.43	152.69
330.658	129.69
330.887	127.69
331.115	137.69
331.344	147.69
331.572	142.69
331.801	135.69
332.03	128.69
332.258	144.69
332.486	122.69
332.715	128.69
332.943	131.69
333.172	155.69
333.4	134.69
333.629	143.69
333.857	138.69
334.085	139.69
334.314	143.69
334.542	138.69
334.771	132.69
334.999	142.69
335.227	138.69
335.455	126.69
335.684	138.69
335.912	140.69
336.14	123.69
336.369	151.69
336.597	138.69
336.825	137.69
337.053	141.69
337.281	139.69
337.51	101.69
337.738	147.69
337.966	134.69
338.194	125.69
338.422	142.69
338.65	118.69
338.878	137.69
339.106	140.69
339.334	134.69
339.562	120.69
339.79	134.69
340.018	135.69
340.246	125.69
340.474	141.69
340.702	132.69
340.93	124.69
341.158	121.69
341.386	125.69
341.614	124.69
341.842	123.69
342.07	131.69
342.298	135.69
342.526	116.69
342.754	133.69
342.981	144.69
343.209	127.69
343.437	180.69
343.665	118.69
343.893	146.69
344.12	145.69
344.348	136.69
344.576	146.69
344.804	144.69
345.031	126.69
345.259	135.69
345.487	132.69
345.714	120.69
345.942	133.69
346.17	124.69
346.397	129.69
346.625	133.69
346.853	138.69
347.08	135.69
347.308	133.69
347.535	120.69
347.763	125.69
347.99	126.69
348.218	149.69
348.445	139.69
348.673	114.69
348.9	143.69
349.128	144.69
349.355	130.69
349.583	117.69
349.81	127.69
350.037	122.69
350.265	132.69
350.492	140.69
350.72	124.69
350.947	141.69
351.174	134.69
351.402	123.69
351.629	131.69
351.856	140.69
352.083	125.69
352.311	141.69
352.538	143.69
352.765	130.69
352.992	165.69
353.22	136.69
353.447	133.69
353.674	146.69
353.901	143.69
354.128	134.69
354.355	140.69
354.583	130.69
354.81	134.69
355.037	143.69
355.264	139.69
355.491	133.69
355.718	145.69
355.945	129.69
356.172	144.69
356.399	130.69
356.626	140.69
356.853	149.69
357.08	212.69
357.307	255.69
357.534	226.69
357.761	206.69
357.988	173.69
358.215	165.69
358.441	146.69
358.668	158.69
358.895	162.69
359.122	160.69
359.349	148.69
359.576	139.69
359.802	126.69
360.029	143.69
360.256	148.69
360.483	148.69
360.709	124.69
360.936	169.69
361.163	151.69
361.39	150.69
361.616	125.69
361.843	147.69
362.07	136.69
362.296	146.69
362.523	141.69
362.749	148.69
362.976	159.69
363.203	173.69
363.429	188.69
363.656	217.69
363.882	263.69
364.109	301.69
364.335	245.69
364.562	198.69
364.788	159.69
365.015	174.69
365.241	183.69
365.468	160.69
365.694	165.69
365.92	145.69
366.147	143.69
366.373	152.69
366.599	165.69
366.826	160.69
367.052	182.69
367.278	209.69
367.505	197.69
367.731	220.69
367.957	226.69
368.184	261.69
368.41	324.69
368.636	310.69
368.862	249.69
369.089	215.69
369.315	176.69
369.541	193.69
369.767	178.69
369.993	158.69
370.219	153.69
370.445	146.69
370.672	141.69
370.898	150.69
371.124	139.69
371.35	146.69
371.576	159.69
371.802	137.69
372.028	154.69
372.254	152.69
372.48	141.69
372.706	153.69
372.932	142.69
373.158	148.69
373.384	185.69
373.61	186.69
373.835	233.69
374.061	257.69
374.287	232.69
374.513	181.69
374.739	172.69
374.965	157.69
375.191	147.69
375.416	163.69
375.642	166.69
375.868	158.69
376.094	147.69
376.319	140.69
376.545	140.69
376.771	132.69
376.997	156.69
377.222	146.69
377.448	144.69
377.674	148.69
377.899	146.69
378.125	137.69
378.35	145.69
378.576	141.69
378.802	139.69
379.027	138.69
379.253	153.69
379.478	133.69
379.704	152.69
379.929	138.69
380.155	141.69
380.38	140.69
380.606	133.69
380.831	143.69
381.057	165.69
381.282	133.69
381.507	131.69
381.733	150.69
381.958	149.69
382.184	133.69
382.409	149.69
382.634	142.69
382.86	127.69
383.085	144.69
383.31	155.69
383.535	145.69
383.761	141.69
383.986	147.69
384.211	121.69
384.436	139.69
384.662	138.69
384.887	146.69
385.112	129.69
385.337	152.69
385.562	141.69
385.787	127.69
386.013	136.69
386.238	132.69
386.463	133.69
386.688	206.69
386.913	140.69
387.138	144.69
387.363	137.69
387.588	152.69
387.813	152.69
388.038	140.69
388.263	138.69
388.488	146.69
388.713	133.69
388.938	150.69
389.163	140.69
389.387	135.69
389.612	131.69
389.837	130.69
390.062	142.69
390.287	162.69
390.512	161.69
390.736	152.69
390.961	150.69
391.186	152.69
391.411	155.69
391.636	147.69
391.86	144.69
392.085	145.69
392.31	140.69
392.534	143.69
392.759	153.69
392.984	157.69
393.208	162.69
393.433	141.69
393.658	146.69
393.882	147.69
394.107	148.69
394.331	147.69
394.556	134.69
394.78	157.69
395.005	161.69
395.229	126.69
395.454	153.69
395.678	147.69
395.903	154.69
396.127	146.69
396.352	134.69
396.576	148.69
396.801	152.69
397.025	154.69
397.249	167.69
397.474	175.69
397.698	158.69
397.922	163.69
398.147	141.69
398.371	153.69
398.595	154.69
398.82	156.69
399.044	160.69
399.268	153.69
399.492	160.69
399.717	172.69
399.941	163.69
400.165	164.69
400.389	156.69
400.613	154.69
400.837	170.69
401.062	169.69
401.286	184.69
401.51	162.69
401.734	178.69
401.958	191.69
402.182	197.69
402.406	156.69
402.63	163.69
402.854	142.69
403.078	173.69
403.302	173.69
403.526	164.69
403.75	190.69
403.974	172.69
404.198	155.69
404.422	185.69
404.645	180.69
404.869	196.69
405.093	201.69
405.317	237.69
405.541	329.69
405.765	458.69
405.988	505.69
406.212	388.69
406.436	278.69
406.66	253.69
406.883	226.69
407.107	225.69
407.331	212.69
407.555	198.69
407.778	197.69
408.002	209.69
408.226	182.69
408.449	170.69
408.673	182.69
408.896	171.69
409.12	171.69
409.344	192.69
409.567	168.69
409.791	181.69
410.014	168.69
410.238	155.69
410.461	189.69
410.685	159.69
410.908	170.69
411.132	182.69
411.355	174.69
411.578	191.69
411.802	162.69
412.025	152.69
412.249	169.69
412.472	156.69
412.695	165.69
412.919	165.69
413.142	174.69
413.365	156.69
413.589	170.69
413.812	157.69
414.035	170.69
414.258	163.69
414.482	164.69
414.705	157.69
414.928	176.69
415.151	167.69
415.374	163.69
415.597	172.69
415.821	165.69
416.044	161.69
416.267	151.69
416.49	173.69
416.713	179.69
416.936	187.69
417.159	173.69
417.382	157.69
417.605	151.69
417.828	173.69
418.051	153.69
418.274	162.69
418.497	157.69
418.72	162.69
418.943	176.69
419.166	174.69
419.389	164.69
419.611	158.69
419.834	165.69
420.057	177.69
420.28	168.69
420.503	162.69
420.726	167.69
420.948	174.69
421.171	160.69
421.394	176.69
421.617	179.69
421.839	181.69
422.062	164.69
422.285	176.69
422.507	164.69
422.73	166.69
422.953	161.69
423.175	163.69
423.398	193.69
423.621	196.69
423.843	191.69
424.066	206.69
424.288	206.69
424.511	233.69
424.733	253.69
424.956	255.69
425.178	234.69
425.401	219.69
425.623	219.69
425.846	195.69
426.068	198.69
426.291	199.69
426.513	190.69
426.735	192.69
426.958	196.69
427.18	176.69
427.402	184.69
427.625	180.69
427.847	169.69
428.069	187.69
428.292	173.69
428.514	176.69
428.736	169.69
428.958	160.69
429.181	179.69
429.403	165.69
429.625	165.69
429.847	174.69
430.069	190.69
430.292	179.69
430.514	168.69
430.736	169.69
430.958	178.69
431.18	162.69
431.402	166.69
431.624	152.69
431.846	163.69
432.068	173.69
432.29	162.69
432.512	162.69
432.734	176.69
432.956	189.69
433.178	172.69
433.4	161.69
433.622	178.69
433.844	177.69
434.066	189.69
434.287	168.69
434.509	152.69
434.731	162.69
434.953	196.69
435.175	180.69
435.397	170.69
435.618	163.69
435.84	170.69
436.062	169.69
436.284	181.69
436.505	190.69
436.727	193.69
436.949	184.69
437.17	186.69
437.392	185.69
437.614	170.69
437.835	178.69
438.057	179.69
438.278	189.69
438.5	205.69
438.721	240.69
438.943	258.69
439.165	216.69
439.386	234.69
439.608	232.69
439.829	220.69
440.05	204.69
440.272	220.69
440.493	201.69
440.715	222.69
440.936	214.69
441.158	228.69
441.379	200.69
441.6	208.69
441.822	208.69
442.043	189.69
442.264	202.69
442.486	199.69
442.707	186.69
442.928	191.69
443.149	187.69
443.371	195.69
443.592	192.69
443.813	191.69
444.034	201.69
444.255	202.69
444.476	182.69
444.698	184.69
444.919	186.69
445.14	483.69
445.361	313.69
445.582	209.69
445.803	185.69
446.024	180.69
446.245	200.69
446.466	204.69
446.687	182.69
446.908	202.69
447.129	200.69
447.35	202.69
447.571	187.69
447.792	179.69
448.013	186.69
448.234	164.69
448.455	170.69
448.675	190.69
448.896	171.69
449.117	168.69
449.338	194.69
449.559	188.69
449.779	175.69
450	166.69
450.221	184.69
450.442	172.69
450.662	184.69
450.883	172.69
451.104	181.69
451.324	173.69
451.545	164.69
451.766	173.69
451.986	167.69
452.207	171.69
452.428	175.69
452.648	162.69
452.869	172.69
453.089	166.69
453.31	172.69
453.53	160.69
453.751	132.69
453.971	159.69
454.192	170.69
454.412	167.69
454.633	159.69
454.853	149.69
455.073	150.69
455.294	168.69
455.514	166.69
455.734	166.69
455.955	161.69
456.175	151.69
456.395	166.69
456.616	154.69
456.836	168.69
457.056	165.69
457.276	158.69
457.497	161.69
457.717	170.69
457.937	148.69
458.157	155.69
458.377	144.69
458.598	164.69
458.818	152.69
459.038	145.69
459.258	139.69
459.478	134.69
459.698	157.69
459.918	165.69
460.138	163.69
460.358	152.69
460.578	181.69
460.798	178.69
461.018	170.69
461.238	174.69
461.458	161.69
461.678	163.69
461.898	169.69
462.118	170.69
462.338	162.69
462.558	175.69
462.777	148.69
462.997	169.69
463.217	165.69
463.437	156.69
463.657	157.69
463.876	151.69
464.096	149.69
464.316	153.69
464.536	171.69
464.755	163.69
464.975	164.69
465.195	178.69
465.414	156.69
465.634	159.69
465.854	151.69
466.073	164.69
466.293	159.69
466.512	145.69
466.732	172.69
466.951	157.69
467.171	150.69
467.391	153.69
467.61	165.69
467.829	176.69
468.049	167.69
468.268	169.69
468.488	170.69
468.707	153.69
468.927	157.69
469.146	179.69
469.365	165.69
469.585	128.69
469.804	173.69
470.023	152.69
470.243	188.69
470.462	177.69
470.681	177.69
470.901	169.69
471.12	159.69
471.339	174.69
471.558	164.69
471.777	158.69
471.997	174.69
472.216	159.69
472.435	170.69
472.654	143.69
472.873	173.69
473.092	161.69
473.311	156.69
473.53	170.69
473.749	161.69
473.968	177.69
474.187	162.69
474.406	144.69
474.625	176.69
474.844	176.69
475.063	162.69
475.282	166.69
475.501	165.69
475.72	193.69
475.939	169.69
476.158	159.69
476.377	175.69
476.596	171.69
476.814	158.69
477.033	146.69
477.252	170.69
477.471	164.69
477.69	173.69
477.908	179.69
478.127	191.69
478.346	177.69
478.564	185.69
478.783	180.69
479.002	180.69
479.22	180.69
479.439	184.69
479.658	177.69
479.876	169.69
480.095	177.69
480.313	163.69
480.532	194.69
480.751	179.69
480.969	163.69
481.188	152.69
481.406	171.69
481.624	162.69
481.843	145.69
482.061	172.69
482.28	171.69
482.498	193.69
482.717	166.69
482.935	188.69
483.153	185.69
483.372	190.69
483.59	193.69
483.808	170.69
484.027	152.69
484.245	165.69
484.463	176.69
484.681	210.69
484.9	178.69
485.118	171.69
485.336	154.69
485.554	173.69
485.772	180.69
485.99	166.69
486.209	166.69
486.427	165.69
486.645	188.69
486.863	189.69
487.081	185.69
487.299	171.69
487.517	200.69
487.735	192.69
487.953	194.69
488.171	198.69
488.389	194.69
488.607	177.69
488.825	163.69
489.043	187.69
489.261	197.69
489.479	196.69
489.696	185.69
489.914	185.69
490.132	189.69
490.35	202.69
490.568	176.69
490.786	195.69
491.003	199.69
491.221	202.69
491.439	190.69
491.657	203.69
491.874	199.69
492.092	218.69
492.31	224.69
492.527	203.69
492.745	205.69
492.963	222.69
493.18	217.69
493.398	205.69
493.615	188.69
493.833	179.69
494.05	192.69
494.268	207.69
494.485	215.69
494.703	203.69
494.92	221.69
495.138	205.69
495.355	208.69
495.573	223.69
495.79	204.69
496.008	205.69
496.225	211.69
496.442	214.69
496.66	216.69
496.877	211.69
497.094	206.69
497.312	197.69
497.529	198.69
497.746	191.69
497.963	182.69
498.181	209.69
498.398	170.69
498.615	204.69
498.832	202.69
499.049	202.69
499.267	204.69
499.484	213.69
499.701	225.69
499.918	240.69
500.135	208.69
500.352	258.69
500.569	248.69
500.786	291.69
501.003	245.69
501.22	228.69
501.437	227.69
501.654	213.69
501.871	213.69
502.088	215.69
502.305	202.69
502.522	193.69
502.739	210.69
502.956	210.69
503.172	205.69
503.389	192.69
503.606	202.69
503.823	204.69
