Data from TenMicroDelayPb_HRD10591_00009.txt Node
Date: Mon Nov 24 14:57:31 EST 2025
User: Yrep
Spectrometer: HR+D1059
Trigger mode: 5
Integration Time (sec): 1.000000E-1
Scans to average: 1
Electric dark correction enabled: true
Nonlinearity correction enabled: false
Boxcar width: 0
XAxis mode: Wavelengths
Number of Pixels in Spectrum: 2048
>>>>>Begin Spectral Data<<<<<
223.165	-34.25
223.4	-34.25
223.635	-34.25
223.869	-28.25
224.104	-33.25
224.338	-1.25
224.573	-12.25
224.808	-10.25
225.042	2.75
225.277	-9.25
225.511	-1.25
225.746	3.75
225.98	6.75
226.215	11.75
226.449	24.75
226.683	27.75
226.918	26.75
227.152	25.75
227.387	34.75
227.621	53.75
227.856	57.75
228.09	32.75
228.324	65.75
228.559	74.75
228.793	65.75
229.027	67.75
229.262	55.75
229.496	73.75
229.73	71.75
229.964	88.75
230.199	73.75
230.433	76.75
230.667	86.75
230.901	89.75
231.136	82.75
231.37	83.75
231.604	89.75
231.838	94.75
232.072	85.75
232.306	82.75
232.541	84.75
232.775	89.75
233.009	93.75
233.243	83.75
233.477	83.75
233.711	93.75
233.945	93.75
234.179	92.75
234.413	101.75
234.647	90.75
234.881	89.75
235.115	85.75
235.349	96.75
235.583	96.75
235.817	81.75
236.051	67.75
236.285	80.75
236.519	90.75
236.753	104.75
236.987	91.75
237.221	103.75
237.455	98.75
237.689	78.75
237.922	95.75
238.156	82.75
238.39	85.75
238.624	89.75
238.858	91.75
239.091	90.75
239.325	105.75
239.559	89.75
239.793	93.75
240.027	103.75
240.26	103.75
240.494	95.75
240.728	78.75
240.961	73.75
241.195	95.75
241.429	96.75
241.662	97.75
241.896	94.75
242.13	80.75
242.363	81.75
242.597	87.75
242.83	103.75
243.064	91.75
243.298	104.75
243.531	74.75
243.765	86.75
243.998	104.75
244.232	95.75
244.465	107.75
244.699	92.75
244.932	85.75
245.166	101.75
245.399	77.75
245.633	100.75
245.866	95.75
246.099	84.75
246.333	74.75
246.566	98.75
246.8	97.75
247.033	97.75
247.266	88.75
247.5	102.75
247.733	104.75
247.966	113.75
248.2	104.75
248.433	84.75
248.666	86.75
248.899	90.75
249.133	99.75
249.366	113.75
249.599	96.75
249.832	97.75
250.066	105.75
250.299	114.75
250.532	108.75
250.765	107.75
250.998	103.75
251.231	93.75
251.465	98.75
251.698	98.75
251.931	111.75
252.164	109.75
252.397	90.75
252.63	125.75
252.863	106.75
253.096	95.75
253.329	104.75
253.562	124.75
253.795	118.75
254.028	119.75
254.261	103.75
254.494	94.75
254.727	105.75
254.96	125.75
255.193	107.75
255.426	110.75
255.659	119.75
255.892	117.75
256.124	109.75
256.357	116.75
256.59	99.75
256.823	87.75
257.056	103.75
257.289	108.75
257.521	103.75
257.754	105.75
257.987	108.75
258.22	127.75
258.452	117.75
258.685	112.75
258.918	97.75
259.151	124.75
259.383	116.75
259.616	95.75
259.849	117.75
260.081	131.75
260.314	103.75
260.547	123.75
260.779	111.75
261.012	124.75
261.244	131.75
261.477	175.75
261.71	173.75
261.942	137.75
262.175	130.75
262.407	109.75
262.64	119.75
262.872	119.75
263.105	118.75
263.337	129.75
263.57	117.75
263.802	110.75
264.035	117.75
264.267	108.75
264.499	127.75
264.732	134.75
264.964	128.75
265.197	134.75
265.429	129.75
265.661	114.75
265.894	112.75
266.126	125.75
266.358	107.75
266.591	139.75
266.823	125.75
267.055	103.75
267.287	103.75
267.52	115.75
267.752	121.75
267.984	115.75
268.216	113.75
268.448	120.75
268.681	117.75
268.913	132.75
269.145	111.75
269.377	123.75
269.609	120.75
269.841	122.75
270.073	119.75
270.306	119.75
270.538	120.75
270.77	113.75
271.002	117.75
271.234	104.75
271.466	113.75
271.698	103.75
271.93	111.75
272.162	110.75
272.394	120.75
272.626	118.75
272.858	93.75
273.09	120.75
273.322	121.75
273.553	105.75
273.785	115.75
274.017	125.75
274.249	112.75
274.481	121.75
274.713	114.75
274.945	126.75
275.176	109.75
275.408	118.75
275.64	126.75
275.872	112.75
276.104	123.75
276.335	120.75
276.567	124.75
276.799	118.75
277.031	122.75
277.262	117.75
277.494	132.75
277.726	124.75
277.957	118.75
278.189	124.75
278.421	120.75
278.652	130.75
278.884	128.75
279.115	140.75
279.347	140.75
279.579	149.75
279.81	172.75
280.042	193.75
280.273	214.75
280.505	175.75
280.736	176.75
280.968	146.75
281.199	135.75
281.431	132.75
281.662	137.75
281.894	131.75
282.125	159.75
282.356	155.75
282.588	149.75
282.819	155.75
283.051	161.75
283.282	187.75
283.513	206.75
283.745	169.75
283.976	122.75
284.207	135.75
284.439	129.75
284.67	135.75
284.901	125.75
285.132	126.75
285.364	121.75
285.595	143.75
285.826	130.75
286.057	129.75
286.288	134.75
286.52	147.75
286.751	143.75
286.982	130.75
287.213	151.75
287.444	176.75
287.675	162.75
287.906	144.75
288.138	132.75
288.369	139.75
288.6	137.75
288.831	113.75
289.062	125.75
289.293	110.75
289.524	103.75
289.755	127.75
289.986	111.75
290.217	130.75
290.448	120.75
290.679	121.75
290.91	133.75
291.141	120.75
291.371	131.75
291.602	129.75
291.833	112.75
292.064	131.75
292.295	129.75
292.526	105.75
292.757	115.75
292.987	117.75
293.218	111.75
293.449	141.75
293.68	118.75
293.91	135.75
294.141	129.75
294.372	132.75
294.603	128.75
294.833	129.75
295.064	122.75
295.295	110.75
295.525	113.75
295.756	119.75
295.987	123.75
296.217	117.75
296.448	126.75
296.679	132.75
296.909	128.75
297.14	129.75
297.37	133.75
297.601	108.75
297.831	103.75
298.062	129.75
298.292	126.75
298.523	137.75
298.753	128.75
298.984	138.75
299.214	133.75
299.445	117.75
299.675	120.75
299.905	115.75
300.136	107.75
300.366	112.75
300.597	122.75
300.827	118.75
301.057	137.75
301.288	135.75
301.518	121.75
301.748	126.75
301.979	182.75
302.209	136.75
302.439	124.75
302.669	131.75
302.9	121.75
303.13	134.75
303.36	117.75
303.59	131.75
303.82	136.75
304.051	126.75
304.281	139.75
304.511	138.75
304.741	122.75
304.971	131.75
305.201	153.75
305.431	121.75
305.661	140.75
305.891	125.75
306.121	128.75
306.352	119.75
306.582	124.75
306.812	110.75
307.042	117.75
307.272	137.75
307.502	128.75
307.731	135.75
307.961	132.75
308.191	128.75
308.421	129.75
308.651	139.75
308.881	136.75
309.111	128.75
309.341	134.75
309.571	121.75
309.8	105.75
310.03	122.75
310.26	121.75
310.49	122.75
310.72	120.75
310.949	127.75
311.179	121.75
311.409	118.75
311.639	124.75
311.868	144.75
312.098	140.75
312.328	128.75
312.557	143.75
312.787	122.75
313.017	158.75
313.246	155.75
313.476	142.75
313.706	128.75
313.935	131.75
314.165	138.75
314.394	137.75
314.624	125.75
314.853	146.75
315.083	147.75
315.312	146.75
315.542	145.75
315.771	132.75
316.001	138.75
316.23	144.75
316.46	153.75
316.689	130.75
316.919	141.75
317.148	141.75
317.377	169.75
317.607	162.75
317.836	150.75
318.065	130.75
318.295	143.75
318.524	133.75
318.753	126.75
318.983	139.75
319.212	143.75
319.441	133.75
319.67	144.75
319.9	131.75
320.129	127.75
320.358	131.75
320.587	122.75
320.816	115.75
321.046	140.75
321.275	138.75
321.504	134.75
321.733	146.75
321.962	131.75
322.191	126.75
322.42	131.75
322.649	139.75
322.878	137.75
323.108	135.75
323.337	136.75
323.566	149.75
323.795	137.75
324.024	122.75
324.253	135.75
324.482	140.75
324.71	126.75
324.939	139.75
325.168	130.75
325.397	143.75
325.626	135.75
325.855	144.75
326.084	143.75
326.313	134.75
326.542	144.75
326.77	129.75
326.999	145.75
327.228	132.75
327.457	134.75
327.686	142.75
327.914	132.75
328.143	143.75
328.372	128.75
328.6	128.75
328.829	130.75
329.058	126.75
329.287	120.75
329.515	129.75
329.744	142.75
329.972	137.75
330.201	123.75
330.43	128.75
330.658	121.75
330.887	135.75
331.115	157.75
331.344	142.75
331.572	156.75
331.801	129.75
332.03	143.75
332.258	129.75
332.486	134.75
332.715	135.75
332.943	127.75
333.172	127.75
333.4	141.75
333.629	150.75
333.857	133.75
334.085	131.75
334.314	137.75
334.542	116.75
334.771	121.75
334.999	136.75
335.227	133.75
335.455	136.75
335.684	146.75
335.912	154.75
336.14	146.75
336.369	137.75
336.597	123.75
336.825	129.75
337.053	122.75
337.281	136.75
337.51	127.75
337.738	132.75
337.966	119.75
338.194	139.75
338.422	134.75
338.65	140.75
338.878	147.75
339.106	141.75
339.334	168.75
339.562	137.75
339.79	135.75
340.018	129.75
340.246	130.75
340.474	133.75
340.702	117.75
340.93	153.75
341.158	129.75
341.386	130.75
341.614	129.75
341.842	138.75
342.07	121.75
342.298	135.75
342.526	141.75
342.754	137.75
342.981	142.75
343.209	138.75
343.437	181.75
343.665	135.75
343.893	157.75
344.12	159.75
344.348	162.75
344.576	137.75
344.804	131.75
345.031	142.75
345.259	141.75
345.487	141.75
345.714	131.75
345.942	141.75
346.17	137.75
346.397	140.75
346.625	129.75
346.853	122.75
347.08	147.75
347.308	143.75
347.535	130.75
347.763	126.75
347.99	134.75
348.218	140.75
348.445	122.75
348.673	142.75
348.9	141.75
349.128	131.75
349.355	117.75
349.583	135.75
349.81	130.75
350.037	135.75
350.265	145.75
350.492	133.75
350.72	133.75
350.947	125.75
351.174	128.75
351.402	123.75
351.629	122.75
351.856	128.75
352.083	130.75
352.311	151.75
352.538	119.75
352.765	126.75
352.992	159.75
353.22	138.75
353.447	131.75
353.674	145.75
353.901	145.75
354.128	134.75
354.355	137.75
354.583	134.75
354.81	152.75
355.037	153.75
355.264	143.75
355.491	134.75
355.718	145.75
355.945	153.75
356.172	147.75
356.399	147.75
356.626	145.75
356.853	178.75
357.08	218.75
357.307	258.75
357.534	251.75
357.761	213.75
357.988	199.75
358.215	190.75
358.441	169.75
358.668	164.75
358.895	149.75
359.122	145.75
359.349	143.75
359.576	143.75
359.802	133.75
360.029	151.75
360.256	147.75
360.483	143.75
360.709	138.75
360.936	167.75
361.163	145.75
361.39	130.75
361.616	168.75
361.843	153.75
362.07	169.75
362.296	154.75
362.523	151.75
362.749	146.75
362.976	139.75
363.203	191.75
363.429	180.75
363.656	216.75
363.882	260.75
364.109	306.75
364.335	253.75
364.562	201.75
364.788	171.75
365.015	181.75
365.241	165.75
365.468	171.75
365.694	151.75
365.92	174.75
366.147	137.75
366.373	153.75
366.599	146.75
366.826	173.75
367.052	203.75
367.278	193.75
367.505	181.75
367.731	223.75
367.957	218.75
368.184	297.75
368.41	358.75
368.636	327.75
368.862	266.75
369.089	203.75
369.315	186.75
369.541	186.75
369.767	165.75
369.993	167.75
370.219	166.75
370.445	144.75
370.672	148.75
370.898	135.75
371.124	155.75
371.35	164.75
371.576	145.75
371.802	144.75
372.028	147.75
372.254	145.75
372.48	163.75
372.706	155.75
372.932	143.75
373.158	168.75
373.384	172.75
373.61	187.75
373.835	226.75
374.061	256.75
374.287	254.75
374.513	191.75
374.739	173.75
374.965	166.75
375.191	171.75
375.416	162.75
375.642	151.75
375.868	154.75
376.094	137.75
376.319	131.75
376.545	148.75
376.771	142.75
376.997	160.75
377.222	131.75
377.448	144.75
377.674	146.75
377.899	132.75
378.125	141.75
378.35	149.75
378.576	151.75
378.802	138.75
379.027	137.75
379.253	147.75
379.478	135.75
379.704	144.75
379.929	158.75
380.155	136.75
380.38	147.75
380.606	127.75
380.831	152.75
381.057	174.75
381.282	127.75
381.507	138.75
381.733	150.75
381.958	131.75
382.184	125.75
382.409	152.75
382.634	167.75
382.86	145.75
383.085	144.75
383.31	142.75
383.535	155.75
383.761	140.75
383.986	154.75
384.211	145.75
384.436	137.75
384.662	152.75
384.887	141.75
385.112	143.75
385.337	147.75
385.562	137.75
385.787	154.75
386.013	150.75
386.238	136.75
386.463	145.75
386.688	204.75
386.913	149.75
387.138	141.75
387.363	131.75
387.588	152.75
387.813	154.75
388.038	144.75
388.263	159.75
388.488	142.75
388.713	160.75
388.938	141.75
389.163	145.75
389.387	151.75
389.612	137.75
389.837	144.75
390.062	139.75
390.287	154.75
390.512	151.75
390.736	145.75
390.961	152.75
391.186	145.75
391.411	155.75
391.636	139.75
391.86	152.75
392.085	144.75
392.31	133.75
392.534	155.75
392.759	163.75
392.984	155.75
393.208	138.75
393.433	157.75
393.658	154.75
393.882	122.75
394.107	160.75
394.331	152.75
394.556	144.75
394.78	154.75
395.005	141.75
395.229	153.75
395.454	149.75
395.678	134.75
395.903	143.75
396.127	154.75
396.352	150.75
396.576	145.75
396.801	130.75
397.025	162.75
397.249	153.75
397.474	155.75
397.698	163.75
397.922	166.75
398.147	130.75
398.371	161.75
398.595	181.75
398.82	154.75
399.044	153.75
399.268	158.75
399.492	165.75
399.717	179.75
399.941	158.75
400.165	171.75
400.389	173.75
400.613	170.75
400.837	151.75
401.062	161.75
401.286	178.75
401.51	179.75
401.734	168.75
401.958	201.75
402.182	194.75
402.406	171.75
402.63	169.75
402.854	161.75
403.078	167.75
403.302	150.75
403.526	182.75
403.75	154.75
403.974	181.75
404.198	174.75
404.422	179.75
404.645	194.75
404.869	201.75
405.093	222.75
405.317	276.75
405.541	330.75
405.765	481.75
405.988	518.75
406.212	395.75
406.436	299.75
406.66	255.75
406.883	237.75
407.107	224.75
407.331	189.75
407.555	185.75
407.778	194.75
408.002	184.75
408.226	181.75
408.449	187.75
408.673	175.75
408.896	184.75
409.12	183.75
409.344	176.75
409.567	193.75
409.791	183.75
410.014	187.75
410.238	165.75
410.461	173.75
410.685	179.75
410.908	167.75
411.132	171.75
411.355	166.75
411.578	181.75
411.802	181.75
412.025	176.75
412.249	162.75
412.472	163.75
412.695	160.75
412.919	179.75
413.142	168.75
413.365	158.75
413.589	171.75
413.812	155.75
414.035	176.75
414.258	170.75
414.482	174.75
414.705	155.75
414.928	179.75
415.151	176.75
415.374	151.75
415.597	165.75
415.821	175.75
416.044	156.75
416.267	181.75
416.49	193.75
416.713	189.75
416.936	190.75
417.159	149.75
417.382	153.75
417.605	158.75
417.828	160.75
418.051	160.75
418.274	168.75
418.497	156.75
418.72	162.75
418.943	169.75
419.166	177.75
419.389	181.75
419.611	173.75
419.834	151.75
420.057	169.75
420.28	183.75
420.503	175.75
420.726	162.75
420.948	153.75
421.171	175.75
421.394	165.75
421.617	169.75
421.839	168.75
422.062	175.75
422.285	164.75
422.507	165.75
422.73	162.75
422.953	160.75
423.175	185.75
423.398	189.75
423.621	195.75
423.843	199.75
424.066	209.75
424.288	240.75
424.511	250.75
424.733	267.75
424.956	242.75
425.178	242.75
425.401	212.75
425.623	213.75
425.846	209.75
426.068	192.75
426.291	175.75
426.513	189.75
426.735	191.75
426.958	190.75
427.18	181.75
427.402	189.75
427.625	173.75
427.847	184.75
428.069	175.75
428.292	181.75
428.514	181.75
428.736	173.75
428.958	167.75
429.181	172.75
429.403	167.75
429.625	181.75
429.847	172.75
430.069	185.75
430.292	187.75
430.514	170.75
430.736	165.75
430.958	172.75
431.18	166.75
431.402	157.75
431.624	167.75
431.846	168.75
432.068	147.75
432.29	166.75
432.512	201.75
432.734	166.75
432.956	181.75
433.178	190.75
433.4	166.75
433.622	191.75
433.844	183.75
434.066	177.75
434.287	161.75
434.509	167.75
434.731	157.75
434.953	183.75
435.175	177.75
435.397	188.75
435.618	175.75
435.84	172.75
436.062	172.75
436.284	176.75
436.505	175.75
436.727	192.75
436.949	193.75
437.17	166.75
437.392	185.75
437.614	179.75
437.835	171.75
438.057	186.75
438.278	217.75
438.5	218.75
438.721	235.75
438.943	256.75
439.165	241.75
439.386	214.75
439.608	221.75
439.829	213.75
440.05	222.75
440.272	200.75
440.493	220.75
440.715	210.75
440.936	235.75
441.158	229.75
441.379	214.75
441.6	212.75
441.822	195.75
442.043	189.75
442.264	211.75
442.486	207.75
442.707	213.75
442.928	200.75
443.149	193.75
443.371	198.75
443.592	181.75
443.813	189.75
444.034	198.75
444.255	213.75
444.476	186.75
444.698	195.75
444.919	195.75
445.14	488.75
445.361	321.75
445.582	207.75
445.803	186.75
446.024	183.75
446.245	220.75
446.466	206.75
446.687	196.75
446.908	185.75
447.129	189.75
447.35	191.75
447.571	194.75
447.792	186.75
448.013	185.75
448.234	207.75
448.455	192.75
448.675	168.75
448.896	193.75
449.117	173.75
449.338	179.75
449.559	194.75
449.779	176.75
450	197.75
450.221	188.75
450.442	169.75
450.662	176.75
450.883	171.75
451.104	188.75
451.324	163.75
451.545	168.75
451.766	169.75
451.986	176.75
452.207	168.75
452.428	165.75
452.648	161.75
452.869	174.75
453.089	166.75
453.31	158.75
453.53	170.75
453.751	157.75
453.971	132.75
454.192	159.75
454.412	173.75
454.633	161.75
454.853	161.75
455.073	162.75
455.294	167.75
455.514	177.75
455.734	167.75
455.955	161.75
456.175	159.75
456.395	157.75
456.616	150.75
456.836	153.75
457.056	165.75
457.276	154.75
457.497	151.75
457.717	140.75
457.937	147.75
458.157	153.75
458.377	140.75
458.598	149.75
458.818	148.75
459.038	148.75
459.258	142.75
459.478	158.75
459.698	150.75
459.918	159.75
460.138	152.75
460.358	160.75
460.578	181.75
460.798	171.75
461.018	168.75
461.238	170.75
461.458	172.75
461.678	169.75
461.898	150.75
462.118	157.75
462.338	172.75
462.558	186.75
462.777	157.75
462.997	149.75
463.217	160.75
463.437	142.75
463.657	162.75
463.876	162.75
464.096	177.75
464.316	150.75
464.536	166.75
464.755	182.75
464.975	155.75
465.195	171.75
465.414	160.75
465.634	161.75
465.854	162.75
466.073	173.75
466.293	155.75
466.512	167.75
466.732	151.75
466.951	181.75
467.171	169.75
467.391	162.75
467.61	168.75
467.829	171.75
468.049	168.75
468.268	150.75
468.488	153.75
468.707	152.75
468.927	172.75
469.146	154.75
469.365	179.75
469.585	158.75
469.804	171.75
470.023	168.75
470.243	189.75
470.462	146.75
470.681	173.75
470.901	159.75
471.12	150.75
471.339	183.75
471.558	171.75
471.777	153.75
471.997	187.75
472.216	171.75
472.435	145.75
472.654	159.75
472.873	163.75
473.092	157.75
473.311	179.75
473.53	160.75
473.749	157.75
473.968	181.75
474.187	169.75
474.406	148.75
474.625	158.75
474.844	164.75
475.063	150.75
475.282	157.75
475.501	161.75
475.72	170.75
475.939	169.75
476.158	167.75
476.377	167.75
476.596	159.75
476.814	159.75
477.033	159.75
477.252	185.75
477.471	180.75
477.69	181.75
477.908	190.75
478.127	203.75
478.346	168.75
478.564	188.75
478.783	174.75
479.002	173.75
479.22	160.75
479.439	196.75
479.658	174.75
479.876	178.75
480.095	163.75
480.313	163.75
480.532	174.75
480.751	183.75
480.969	161.75
481.188	167.75
481.406	174.75
481.624	172.75
481.843	171.75
482.061	162.75
482.28	189.75
482.498	170.75
482.717	173.75
482.935	177.75
483.153	167.75
483.372	184.75
483.59	191.75
483.808	185.75
484.027	182.75
484.245	184.75
484.463	175.75
484.681	210.75
484.9	175.75
485.118	203.75
485.336	184.75
485.554	162.75
485.772	175.75
485.99	182.75
486.209	189.75
486.427	172.75
486.645	183.75
486.863	177.75
487.081	188.75
487.299	169.75
487.517	201.75
487.735	193.75
487.953	218.75
488.171	191.75
488.389	193.75
488.607	174.75
488.825	183.75
489.043	177.75
489.261	179.75
489.479	178.75
489.696	201.75
489.914	213.75
490.132	179.75
490.35	193.75
490.568	184.75
490.786	190.75
491.003	200.75
491.221	195.75
491.439	194.75
491.657	207.75
491.874	234.75
492.092	235.75
492.31	220.75
492.527	207.75
492.745	214.75
492.963	214.75
493.18	215.75
493.398	210.75
493.615	197.75
493.833	188.75
494.05	202.75
494.268	193.75
494.485	196.75
494.703	214.75
494.92	198.75
495.138	214.75
495.355	215.75
495.573	219.75
495.79	203.75
496.008	206.75
496.225	205.75
496.442	191.75
496.66	220.75
496.877	203.75
497.094	245.75
497.312	207.75
497.529	202.75
497.746	202.75
497.963	195.75
498.181	194.75
498.398	180.75
498.615	196.75
498.832	186.75
499.049	208.75
499.267	222.75
499.484	214.75
499.701	224.75
499.918	219.75
500.135	231.75
500.352	234.75
500.569	249.75
500.786	291.75
501.003	257.75
501.22	223.75
501.437	239.75
501.654	213.75
501.871	220.75
502.088	215.75
502.305	226.75
502.522	215.75
502.739	221.75
502.956	206.75
503.172	206.75
503.389	198.75
503.606	192.75
503.823	208.75
