Data from TenMicroDelayPb_HRD10591_00002.txt Node
Date: Mon Nov 24 14:57:27 EST 2025
User: Yrep
Spectrometer: HR+D1059
Trigger mode: 5
Integration Time (sec): 1.000000E-1
Scans to average: 1
Electric dark correction enabled: true
Nonlinearity correction enabled: false
Boxcar width: 0
XAxis mode: Wavelengths
Number of Pixels in Spectrum: 2048
>>>>>Begin Spectral Data<<<<<
223.165	-24.88
223.4	-24.88
223.635	-24.88
223.869	-20.88
224.104	-42.88
224.338	-6.88
224.573	-19.88
224.808	-13.88
225.042	7.12
225.277	-6.88
225.511	-7.88
225.746	12.12
225.98	26.12
226.215	-7.88
226.449	23.12
226.683	15.12
226.918	37.12
227.152	31.12
227.387	40.12
227.621	45.12
227.856	50.12
228.09	44.12
228.324	43.12
228.559	71.12
228.793	60.12
229.027	72.12
229.262	86.12
229.496	74.12
229.73	78.12
229.964	93.12
230.199	83.12
230.433	88.12
230.667	93.12
230.901	93.12
231.136	78.12
231.37	83.12
231.604	72.12
231.838	86.12
232.072	91.12
232.306	89.12
232.541	89.12
232.775	86.12
233.009	84.12
233.243	93.12
233.477	79.12
233.711	102.12
233.945	75.12
234.179	94.12
234.413	93.12
234.647	99.12
234.881	98.12
235.115	82.12
235.349	88.12
235.583	87.12
235.817	86.12
236.051	87.12
236.285	80.12
236.519	97.12
236.753	92.12
236.987	86.12
237.221	94.12
237.455	94.12
237.689	90.12
237.922	90.12
238.156	108.12
238.39	84.12
238.624	83.12
238.858	98.12
239.091	95.12
239.325	111.12
239.559	96.12
239.793	80.12
240.027	100.12
240.26	86.12
240.494	92.12
240.728	85.12
240.961	96.12
241.195	104.12
241.429	103.12
241.662	74.12
241.896	95.12
242.13	93.12
242.363	90.12
242.597	95.12
242.83	97.12
243.064	87.12
243.298	94.12
243.531	95.12
243.765	111.12
243.998	103.12
244.232	102.12
244.465	83.12
244.699	102.12
244.932	101.12
245.166	98.12
245.399	82.12
245.633	88.12
245.866	94.12
246.099	89.12
246.333	107.12
246.566	97.12
246.8	90.12
247.033	80.12
247.266	85.12
247.5	94.12
247.733	93.12
247.966	96.12
248.2	97.12
248.433	98.12
248.666	85.12
248.899	100.12
249.133	96.12
249.366	117.12
249.599	94.12
249.832	100.12
250.066	109.12
250.299	106.12
250.532	106.12
250.765	95.12
250.998	85.12
251.231	96.12
251.465	100.12
251.698	85.12
251.931	110.12
252.164	100.12
252.397	99.12
252.63	104.12
252.863	113.12
253.096	112.12
253.329	123.12
253.562	109.12
253.795	99.12
254.028	117.12
254.261	112.12
254.494	97.12
254.727	113.12
254.96	112.12
255.193	101.12
255.426	94.12
255.659	99.12
255.892	136.12
256.124	92.12
256.357	102.12
256.59	113.12
256.823	113.12
257.056	120.12
257.289	114.12
257.521	125.12
257.754	114.12
257.987	122.12
258.22	126.12
258.452	122.12
258.685	112.12
258.918	115.12
259.151	106.12
259.383	108.12
259.616	108.12
259.849	123.12
260.081	124.12
260.314	115.12
260.547	123.12
260.779	109.12
261.012	133.12
261.244	158.12
261.477	180.12
261.71	150.12
261.942	129.12
262.175	128.12
262.407	121.12
262.64	115.12
262.872	123.12
263.105	132.12
263.337	139.12
263.57	110.12
263.802	123.12
264.035	126.12
264.267	116.12
264.499	130.12
264.732	118.12
264.964	119.12
265.197	136.12
265.429	128.12
265.661	133.12
265.894	125.12
266.126	133.12
266.358	139.12
266.591	150.12
266.823	118.12
267.055	110.12
267.287	118.12
267.52	111.12
267.752	110.12
267.984	131.12
268.216	123.12
268.448	118.12
268.681	104.12
268.913	115.12
269.145	110.12
269.377	110.12
269.609	111.12
269.841	135.12
270.073	121.12
270.306	108.12
270.538	111.12
270.77	95.12
271.002	119.12
271.234	114.12
271.466	122.12
271.698	115.12
271.93	112.12
272.162	121.12
272.394	124.12
272.626	108.12
272.858	109.12
273.09	116.12
273.322	102.12
273.553	106.12
273.785	111.12
274.017	96.12
274.249	111.12
274.481	125.12
274.713	103.12
274.945	127.12
275.176	116.12
275.408	136.12
275.64	128.12
275.872	116.12
276.104	133.12
276.335	108.12
276.567	113.12
276.799	127.12
277.031	109.12
277.262	124.12
277.494	124.12
277.726	126.12
277.957	116.12
278.189	115.12
278.421	139.12
278.652	114.12
278.884	126.12
279.115	141.12
279.347	141.12
279.579	143.12
279.81	161.12
280.042	199.12
280.273	222.12
280.505	194.12
280.736	171.12
280.968	149.12
281.199	137.12
281.431	152.12
281.662	126.12
281.894	149.12
282.125	140.12
282.356	152.12
282.588	166.12
282.819	150.12
283.051	157.12
283.282	152.12
283.513	193.12
283.745	176.12
283.976	140.12
284.207	149.12
284.439	143.12
284.67	127.12
284.901	133.12
285.132	128.12
285.364	135.12
285.595	126.12
285.826	136.12
286.057	129.12
286.288	123.12
286.52	127.12
286.751	133.12
286.982	163.12
287.213	171.12
287.444	174.12
287.675	168.12
287.906	147.12
288.138	135.12
288.369	135.12
288.6	124.12
288.831	114.12
289.062	142.12
289.293	138.12
289.524	121.12
289.755	125.12
289.986	120.12
290.217	122.12
290.448	138.12
290.679	119.12
290.91	131.12
291.141	129.12
291.371	132.12
291.602	133.12
291.833	116.12
292.064	106.12
292.295	129.12
292.526	138.12
292.757	130.12
292.987	128.12
293.218	126.12
293.449	115.12
293.68	120.12
293.91	113.12
294.141	153.12
294.372	138.12
294.603	129.12
294.833	129.12
295.064	110.12
295.295	132.12
295.525	120.12
295.756	136.12
295.987	140.12
296.217	110.12
296.448	121.12
296.679	137.12
296.909	138.12
297.14	134.12
297.37	140.12
297.601	108.12
297.831	119.12
298.062	118.12
298.292	136.12
298.523	111.12
298.753	124.12
298.984	124.12
299.214	128.12
299.445	120.12
299.675	121.12
299.905	129.12
300.136	122.12
300.366	116.12
300.597	123.12
300.827	126.12
301.057	119.12
301.288	133.12
301.518	115.12
301.748	120.12
301.979	171.12
302.209	129.12
302.439	124.12
302.669	134.12
302.9	133.12
303.13	133.12
303.36	123.12
303.59	121.12
303.82	125.12
304.051	133.12
304.281	146.12
304.511	124.12
304.741	134.12
304.971	135.12
305.201	133.12
305.431	126.12
305.661	140.12
305.891	144.12
306.121	142.12
306.352	119.12
306.582	123.12
306.812	118.12
307.042	129.12
307.272	128.12
307.502	110.12
307.731	132.12
307.961	140.12
308.191	126.12
308.421	133.12
308.651	131.12
308.881	143.12
309.111	126.12
309.341	122.12
309.571	131.12
309.8	129.12
310.03	123.12
310.26	122.12
310.49	127.12
310.72	144.12
310.949	117.12
311.179	131.12
311.409	118.12
311.639	135.12
311.868	127.12
312.098	129.12
312.328	149.12
312.557	138.12
312.787	131.12
313.017	138.12
313.246	142.12
313.476	135.12
313.706	137.12
313.935	130.12
314.165	142.12
314.394	164.12
314.624	139.12
314.853	143.12
315.083	148.12
315.312	140.12
315.542	139.12
315.771	141.12
316.001	130.12
316.23	140.12
316.46	154.12
316.689	142.12
316.919	137.12
317.148	147.12
317.377	150.12
317.607	141.12
317.836	128.12
318.065	148.12
318.295	145.12
318.524	133.12
318.753	156.12
318.983	126.12
319.212	148.12
319.441	132.12
319.67	136.12
319.9	130.12
320.129	138.12
320.358	131.12
320.587	133.12
320.816	142.12
321.046	134.12
321.275	138.12
321.504	131.12
321.733	134.12
321.962	130.12
322.191	124.12
322.42	134.12
322.649	132.12
322.878	145.12
323.108	148.12
323.337	132.12
323.566	139.12
323.795	126.12
324.024	141.12
324.253	124.12
324.482	128.12
324.71	149.12
324.939	156.12
325.168	151.12
325.397	142.12
325.626	142.12
325.855	156.12
326.084	139.12
326.313	140.12
326.542	132.12
326.77	134.12
326.999	143.12
327.228	148.12
327.457	145.12
327.686	121.12
327.914	155.12
328.143	156.12
328.372	117.12
328.6	140.12
328.829	146.12
329.058	149.12
329.287	133.12
329.515	130.12
329.744	131.12
329.972	127.12
330.201	117.12
330.43	141.12
330.658	132.12
330.887	132.12
331.115	156.12
331.344	143.12
331.572	148.12
331.801	139.12
332.03	130.12
332.258	143.12
332.486	130.12
332.715	137.12
332.943	132.12
333.172	142.12
333.4	132.12
333.629	140.12
333.857	137.12
334.085	132.12
334.314	151.12
334.542	138.12
334.771	148.12
334.999	126.12
335.227	137.12
335.455	135.12
335.684	155.12
335.912	135.12
336.14	150.12
336.369	138.12
336.597	143.12
336.825	133.12
337.053	131.12
337.281	135.12
337.51	139.12
337.738	143.12
337.966	134.12
338.194	130.12
338.422	135.12
338.65	144.12
338.878	148.12
339.106	117.12
339.334	152.12
339.562	142.12
339.79	128.12
340.018	128.12
340.246	134.12
340.474	135.12
340.702	137.12
340.93	141.12
341.158	117.12
341.386	139.12
341.614	129.12
341.842	139.12
342.07	136.12
342.298	136.12
342.526	122.12
342.754	128.12
342.981	133.12
343.209	136.12
343.437	179.12
343.665	138.12
343.893	128.12
344.12	149.12
344.348	161.12
344.576	132.12
344.804	140.12
345.031	133.12
345.259	142.12
345.487	141.12
345.714	147.12
345.942	128.12
346.17	142.12
346.397	134.12
346.625	146.12
346.853	127.12
347.08	122.12
347.308	137.12
347.535	135.12
347.763	144.12
347.99	116.12
348.218	143.12
348.445	138.12
348.673	134.12
348.9	141.12
349.128	149.12
349.355	140.12
349.583	135.12
349.81	134.12
350.037	141.12
350.265	135.12
350.492	124.12
350.72	136.12
350.947	135.12
351.174	135.12
351.402	132.12
351.629	122.12
351.856	137.12
352.083	117.12
352.311	139.12
352.538	121.12
352.765	137.12
352.992	160.12
353.22	140.12
353.447	134.12
353.674	140.12
353.901	143.12
354.128	151.12
354.355	138.12
354.583	140.12
354.81	145.12
355.037	137.12
355.264	131.12
355.491	139.12
355.718	147.12
355.945	155.12
356.172	138.12
356.399	157.12
356.626	157.12
356.853	185.12
357.08	236.12
357.307	269.12
357.534	263.12
357.761	221.12
357.988	182.12
358.215	172.12
358.441	158.12
358.668	153.12
358.895	155.12
359.122	155.12
359.349	142.12
359.576	136.12
359.802	140.12
360.029	148.12
360.256	149.12
360.483	153.12
360.709	160.12
360.936	173.12
361.163	141.12
361.39	158.12
361.616	152.12
361.843	148.12
362.07	157.12
362.296	136.12
362.523	140.12
362.749	148.12
362.976	150.12
363.203	183.12
363.429	168.12
363.656	215.12
363.882	270.12
364.109	323.12
364.335	254.12
364.562	192.12
364.788	175.12
365.015	154.12
365.241	151.12
365.468	164.12
365.694	162.12
365.92	151.12
366.147	163.12
366.373	140.12
366.599	156.12
366.826	161.12
367.052	201.12
367.278	221.12
367.505	203.12
367.731	222.12
367.957	226.12
368.184	290.12
368.41	360.12
368.636	335.12
368.862	240.12
369.089	210.12
369.315	181.12
369.541	179.12
369.767	173.12
369.993	164.12
370.219	155.12
370.445	150.12
370.672	152.12
370.898	155.12
371.124	168.12
371.35	152.12
371.576	157.12
371.802	148.12
372.028	150.12
372.254	162.12
372.48	147.12
372.706	149.12
372.932	151.12
373.158	166.12
373.384	176.12
373.61	198.12
373.835	227.12
374.061	262.12
374.287	263.12
374.513	192.12
374.739	165.12
374.965	158.12
375.191	153.12
375.416	167.12
375.642	177.12
375.868	150.12
376.094	149.12
376.319	138.12
376.545	131.12
376.771	133.12
376.997	148.12
377.222	149.12
377.448	151.12
377.674	138.12
377.899	143.12
378.125	122.12
378.35	142.12
378.576	144.12
378.802	143.12
379.027	161.12
379.253	150.12
379.478	134.12
379.704	166.12
379.929	165.12
380.155	144.12
380.38	154.12
380.606	138.12
380.831	133.12
381.057	167.12
381.282	136.12
381.507	142.12
381.733	151.12
381.958	142.12
382.184	140.12
382.409	139.12
382.634	139.12
382.86	136.12
383.085	141.12
383.31	150.12
383.535	147.12
383.761	156.12
383.986	163.12
384.211	138.12
384.436	139.12
384.662	143.12
384.887	156.12
385.112	142.12
385.337	159.12
385.562	144.12
385.787	146.12
386.013	173.12
386.238	151.12
386.463	155.12
386.688	204.12
386.913	151.12
387.138	152.12
387.363	149.12
387.588	174.12
387.813	159.12
388.038	146.12
388.263	152.12
388.488	136.12
388.713	142.12
388.938	155.12
389.163	145.12
389.387	129.12
389.612	138.12
389.837	142.12
390.062	152.12
390.287	157.12
390.512	157.12
390.736	152.12
390.961	151.12
391.186	154.12
391.411	142.12
391.636	135.12
391.86	145.12
392.085	141.12
392.31	136.12
392.534	153.12
392.759	136.12
392.984	161.12
393.208	158.12
393.433	141.12
393.658	152.12
393.882	142.12
394.107	155.12
394.331	157.12
394.556	152.12
394.78	136.12
395.005	139.12
395.229	155.12
395.454	138.12
395.678	145.12
395.903	153.12
396.127	148.12
396.352	162.12
396.576	147.12
396.801	159.12
397.025	150.12
397.249	147.12
397.474	160.12
397.698	156.12
397.922	142.12
398.147	146.12
398.371	139.12
398.595	190.12
398.82	152.12
399.044	159.12
399.268	146.12
399.492	172.12
399.717	170.12
399.941	173.12
400.165	161.12
400.389	145.12
400.613	172.12
400.837	164.12
401.062	161.12
401.286	158.12
401.51	172.12
401.734	174.12
401.958	192.12
402.182	181.12
402.406	174.12
402.63	167.12
402.854	174.12
403.078	177.12
403.302	168.12
403.526	158.12
403.75	170.12
403.974	158.12
404.198	177.12
404.422	190.12
404.645	184.12
404.869	198.12
405.093	220.12
405.317	258.12
405.541	346.12
405.765	487.12
405.988	532.12
406.212	390.12
406.436	320.12
406.66	264.12
406.883	224.12
407.107	215.12
407.331	199.12
407.555	192.12
407.778	191.12
408.002	190.12
408.226	206.12
408.449	179.12
408.673	174.12
408.896	175.12
409.12	178.12
409.344	172.12
409.567	177.12
409.791	188.12
410.014	181.12
410.238	178.12
410.461	172.12
410.685	155.12
410.908	165.12
411.132	179.12
411.355	169.12
411.578	181.12
411.802	173.12
412.025	172.12
412.249	154.12
412.472	149.12
412.695	164.12
412.919	171.12
413.142	170.12
413.365	167.12
413.589	156.12
413.812	159.12
414.035	183.12
414.258	176.12
414.482	162.12
414.705	164.12
414.928	178.12
415.151	162.12
415.374	174.12
415.597	167.12
415.821	162.12
416.044	158.12
416.267	168.12
416.49	166.12
416.713	167.12
416.936	196.12
417.159	169.12
417.382	155.12
417.605	158.12
417.828	174.12
418.051	173.12
418.274	162.12
418.497	168.12
418.72	154.12
418.943	178.12
419.166	164.12
419.389	172.12
419.611	170.12
419.834	168.12
420.057	178.12
420.28	161.12
420.503	188.12
420.726	159.12
420.948	150.12
421.171	171.12
421.394	169.12
421.617	158.12
421.839	165.12
422.062	186.12
422.285	151.12
422.507	168.12
422.73	180.12
422.953	172.12
423.175	193.12
423.398	172.12
423.621	191.12
423.843	184.12
424.066	212.12
424.288	236.12
424.511	258.12
424.733	259.12
424.956	253.12
425.178	227.12
425.401	232.12
425.623	211.12
425.846	206.12
426.068	195.12
426.291	193.12
426.513	218.12
426.735	195.12
426.958	187.12
427.18	199.12
427.402	185.12
427.625	164.12
427.847	192.12
428.069	179.12
428.292	167.12
428.514	174.12
428.736	179.12
428.958	168.12
429.181	189.12
429.403	202.12
429.625	189.12
429.847	192.12
430.069	182.12
430.292	184.12
430.514	169.12
430.736	166.12
430.958	184.12
431.18	171.12
431.402	159.12
431.624	154.12
431.846	147.12
432.068	168.12
432.29	152.12
432.512	152.12
432.734	170.12
432.956	190.12
433.178	197.12
433.4	193.12
433.622	204.12
433.844	175.12
434.066	170.12
434.287	171.12
434.509	172.12
434.731	164.12
434.953	164.12
435.175	180.12
435.397	172.12
435.618	173.12
435.84	177.12
436.062	168.12
436.284	174.12
436.505	186.12
436.727	186.12
436.949	193.12
437.17	162.12
437.392	181.12
437.614	200.12
437.835	172.12
438.057	194.12
438.278	205.12
438.5	210.12
438.721	253.12
438.943	270.12
439.165	242.12
439.386	243.12
439.608	215.12
439.829	224.12
440.05	214.12
440.272	218.12
440.493	205.12
440.715	224.12
440.936	240.12
441.158	240.12
441.379	240.12
441.6	212.12
441.822	207.12
442.043	210.12
442.264	184.12
442.486	209.12
442.707	199.12
442.928	197.12
443.149	211.12
443.371	206.12
443.592	186.12
443.813	203.12
444.034	175.12
444.255	193.12
444.476	186.12
444.698	179.12
444.919	202.12
445.14	515.12
445.361	355.12
445.582	184.12
445.803	186.12
446.024	184.12
446.245	210.12
446.466	200.12
446.687	185.12
446.908	193.12
447.129	200.12
447.35	189.12
447.571	179.12
447.792	198.12
448.013	175.12
448.234	161.12
448.455	165.12
448.675	165.12
448.896	191.12
449.117	187.12
449.338	178.12
449.559	212.12
449.779	184.12
450	173.12
450.221	171.12
450.442	178.12
450.662	198.12
450.883	172.12
451.104	179.12
451.324	163.12
451.545	173.12
451.766	154.12
451.986	158.12
452.207	164.12
452.428	164.12
452.648	163.12
452.869	175.12
453.089	155.12
453.31	161.12
453.53	154.12
453.751	154.12
453.971	171.12
454.192	143.12
454.412	150.12
454.633	173.12
454.853	162.12
455.073	150.12
455.294	157.12
455.514	155.12
455.734	159.12
455.955	162.12
456.175	157.12
456.395	174.12
456.616	168.12
456.836	143.12
457.056	157.12
457.276	157.12
457.497	145.12
457.717	149.12
457.937	148.12
458.157	156.12
458.377	149.12
458.598	139.12
458.818	143.12
459.038	147.12
459.258	139.12
459.478	146.12
459.698	155.12
459.918	156.12
460.138	167.12
460.358	160.12
460.578	175.12
460.798	162.12
461.018	169.12
461.238	164.12
461.458	153.12
461.678	159.12
461.898	166.12
462.118	168.12
462.338	180.12
462.558	158.12
462.777	167.12
462.997	173.12
463.217	165.12
463.437	172.12
463.657	150.12
463.876	166.12
464.096	169.12
464.316	151.12
464.536	171.12
464.755	174.12
464.975	166.12
465.195	163.12
465.414	167.12
465.634	171.12
465.854	170.12
466.073	162.12
466.293	162.12
466.512	163.12
466.732	156.12
466.951	173.12
467.171	182.12
467.391	183.12
467.61	169.12
467.829	164.12
468.049	176.12
468.268	167.12
468.488	162.12
468.707	159.12
468.927	177.12
469.146	148.12
469.365	172.12
469.585	177.12
469.804	172.12
470.023	165.12
470.243	187.12
470.462	198.12
470.681	184.12
470.901	155.12
471.12	167.12
471.339	175.12
471.558	180.12
471.777	163.12
471.997	173.12
472.216	174.12
472.435	156.12
472.654	155.12
472.873	172.12
473.092	167.12
473.311	165.12
473.53	174.12
473.749	169.12
473.968	165.12
474.187	161.12
474.406	151.12
474.625	157.12
474.844	165.12
475.063	153.12
475.282	157.12
475.501	158.12
475.72	184.12
475.939	157.12
476.158	164.12
476.377	171.12
476.596	155.12
476.814	170.12
477.033	165.12
477.252	158.12
477.471	180.12
477.69	165.12
477.908	181.12
478.127	190.12
478.346	185.12
478.564	181.12
478.783	178.12
479.002	179.12
479.22	176.12
479.439	189.12
479.658	190.12
479.876	162.12
480.095	160.12
480.313	182.12
480.532	178.12
480.751	176.12
480.969	165.12
481.188	176.12
481.406	167.12
481.624	173.12
481.843	158.12
482.061	175.12
482.28	192.12
482.498	190.12
482.717	192.12
482.935	162.12
483.153	200.12
483.372	189.12
483.59	192.12
483.808	174.12
484.027	176.12
484.245	185.12
484.463	198.12
484.681	205.12
484.9	190.12
485.118	184.12
485.336	157.12
485.554	163.12
485.772	148.12
485.99	151.12
486.209	176.12
486.427	156.12
486.645	176.12
486.863	168.12
487.081	163.12
487.299	186.12
487.517	204.12
487.735	202.12
487.953	201.12
488.171	218.12
488.389	202.12
488.607	175.12
488.825	166.12
489.043	178.12
489.261	207.12
489.479	184.12
489.696	178.12
489.914	204.12
490.132	196.12
490.35	205.12
490.568	209.12
490.786	212.12
491.003	204.12
491.221	194.12
491.439	206.12
491.657	210.12
491.874	210.12
492.092	225.12
492.31	236.12
492.527	218.12
492.745	211.12
492.963	191.12
493.18	201.12
493.398	202.12
493.615	204.12
493.833	210.12
494.05	213.12
494.268	209.12
494.485	201.12
494.703	215.12
494.92	202.12
495.138	198.12
495.355	214.12
495.573	232.12
495.79	199.12
496.008	209.12
496.225	207.12
496.442	205.12
496.66	222.12
496.877	218.12
497.094	226.12
497.312	194.12
497.529	214.12
497.746	207.12
497.963	184.12
498.181	188.12
498.398	194.12
498.615	200.12
498.832	192.12
499.049	211.12
499.267	208.12
499.484	187.12
499.701	223.12
499.918	222.12
500.135	244.12
500.352	243.12
500.569	262.12
500.786	296.12
501.003	264.12
501.22	203.12
501.437	204.12
501.654	214.12
501.871	206.12
502.088	209.12
502.305	224.12
502.522	221.12
502.739	200.12
502.956	207.12
503.172	198.12
503.389	202.12
503.606	198.12
503.823	208.12
