Data from TenMicroDelayPb_HRD10591_00005.txt Node
Date: Mon Nov 24 14:57:29 EST 2025
User: Yrep
Spectrometer: HR+D1059
Trigger mode: 5
Integration Time (sec): 1.000000E-1
Scans to average: 1
Electric dark correction enabled: true
Nonlinearity correction enabled: false
Boxcar width: 0
XAxis mode: Wavelengths
Number of Pixels in Spectrum: 2048
>>>>>Begin Spectral Data<<<<<
223.165	-16.12
223.4	-16.12
223.635	-16.12
223.869	-23.12
224.104	-35.12
224.338	-17.12
224.573	-13.12
224.808	-16.12
225.042	-3.12
225.277	-2.12
225.511	-6.12
225.746	17.88
225.98	11.88
226.215	10.88
226.449	11.88
226.683	18.88
226.918	25.88
227.152	34.88
227.387	39.88
227.621	25.88
227.856	48.88
228.09	44.88
228.324	55.88
228.559	59.88
228.793	60.88
229.027	70.88
229.262	75.88
229.496	79.88
229.73	79.88
229.964	88.88
230.199	77.88
230.433	82.88
230.667	84.88
230.901	85.88
231.136	81.88
231.37	85.88
231.604	94.88
231.838	98.88
232.072	95.88
232.306	95.88
232.541	95.88
232.775	70.88
233.009	90.88
233.243	95.88
233.477	91.88
233.711	80.88
233.945	93.88
234.179	89.88
234.413	90.88
234.647	87.88
234.881	84.88
235.115	96.88
235.349	101.88
235.583	85.88
235.817	92.88
236.051	71.88
236.285	93.88
236.519	94.88
236.753	105.88
236.987	96.88
237.221	86.88
237.455	75.88
237.689	87.88
237.922	85.88
238.156	92.88
238.39	78.88
238.624	83.88
238.858	94.88
239.091	81.88
239.325	79.88
239.559	100.88
239.793	101.88
240.027	108.88
240.26	89.88
240.494	96.88
240.728	100.88
240.961	76.88
241.195	103.88
241.429	98.88
241.662	67.88
241.896	73.88
242.13	76.88
242.363	87.88
242.597	90.88
242.83	97.88
243.064	93.88
243.298	94.88
243.531	86.88
243.765	91.88
243.998	96.88
244.232	107.88
244.465	89.88
244.699	99.88
244.932	97.88
245.166	93.88
245.399	97.88
245.633	95.88
245.866	82.88
246.099	94.88
246.333	95.88
246.566	96.88
246.8	79.88
247.033	108.88
247.266	90.88
247.5	94.88
247.733	92.88
247.966	95.88
248.2	105.88
248.433	88.88
248.666	95.88
248.899	93.88
249.133	106.88
249.366	123.88
249.599	87.88
249.832	104.88
250.066	116.88
250.299	100.88
250.532	99.88
250.765	82.88
250.998	111.88
251.231	105.88
251.465	103.88
251.698	92.88
251.931	99.88
252.164	104.88
252.397	106.88
252.63	103.88
252.863	104.88
253.096	112.88
253.329	106.88
253.562	113.88
253.795	117.88
254.028	106.88
254.261	122.88
254.494	93.88
254.727	130.88
254.96	92.88
255.193	105.88
255.426	96.88
255.659	109.88
255.892	103.88
256.124	112.88
256.357	106.88
256.59	117.88
256.823	107.88
257.056	125.88
257.289	125.88
257.521	128.88
257.754	123.88
257.987	129.88
258.22	120.88
258.452	117.88
258.685	114.88
258.918	112.88
259.151	123.88
259.383	116.88
259.616	89.88
259.849	116.88
260.081	104.88
260.314	119.88
260.547	119.88
260.779	127.88
261.012	132.88
261.244	147.88
261.477	185.88
261.71	161.88
261.942	135.88
262.175	138.88
262.407	127.88
262.64	118.88
262.872	112.88
263.105	117.88
263.337	141.88
263.57	117.88
263.802	112.88
264.035	112.88
264.267	121.88
264.499	141.88
264.732	124.88
264.964	112.88
265.197	138.88
265.429	127.88
265.661	125.88
265.894	126.88
266.126	130.88
266.358	150.88
266.591	150.88
266.823	126.88
267.055	103.88
267.287	125.88
267.52	96.88
267.752	129.88
267.984	117.88
268.216	115.88
268.448	110.88
268.681	123.88
268.913	123.88
269.145	108.88
269.377	114.88
269.609	105.88
269.841	123.88
270.073	111.88
270.306	114.88
270.538	128.88
270.77	109.88
271.002	107.88
271.234	106.88
271.466	111.88
271.698	105.88
271.93	109.88
272.162	94.88
272.394	137.88
272.626	93.88
272.858	124.88
273.09	137.88
273.322	128.88
273.553	104.88
273.785	114.88
274.017	125.88
274.249	123.88
274.481	123.88
274.713	106.88
274.945	127.88
275.176	116.88
275.408	106.88
275.64	116.88
275.872	109.88
276.104	119.88
276.335	121.88
276.567	115.88
276.799	117.88
277.031	108.88
277.262	121.88
277.494	124.88
277.726	119.88
277.957	135.88
278.189	138.88
278.421	117.88
278.652	115.88
278.884	124.88
279.115	148.88
279.347	149.88
279.579	129.88
279.81	172.88
280.042	204.88
280.273	211.88
280.505	197.88
280.736	160.88
280.968	149.88
281.199	145.88
281.431	143.88
281.662	136.88
281.894	149.88
282.125	168.88
282.356	164.88
282.588	144.88
282.819	147.88
283.051	164.88
283.282	184.88
283.513	212.88
283.745	174.88
283.976	139.88
284.207	139.88
284.439	145.88
284.67	153.88
284.901	131.88
285.132	127.88
285.364	126.88
285.595	126.88
285.826	127.88
286.057	141.88
286.288	125.88
286.52	138.88
286.751	139.88
286.982	159.88
287.213	152.88
287.444	181.88
287.675	154.88
287.906	139.88
288.138	124.88
288.369	126.88
288.6	140.88
288.831	111.88
289.062	141.88
289.293	122.88
289.524	123.88
289.755	116.88
289.986	123.88
290.217	124.88
290.448	123.88
290.679	115.88
290.91	122.88
291.141	121.88
291.371	131.88
291.602	126.88
291.833	114.88
292.064	117.88
292.295	119.88
292.526	118.88
292.757	134.88
292.987	128.88
293.218	125.88
293.449	115.88
293.68	128.88
293.91	118.88
294.141	130.88
294.372	122.88
294.603	113.88
294.833	113.88
295.064	128.88
295.295	115.88
295.525	128.88
295.756	129.88
295.987	120.88
296.217	123.88
296.448	122.88
296.679	124.88
296.909	127.88
297.14	134.88
297.37	123.88
297.601	132.88
297.831	135.88
298.062	136.88
298.292	136.88
298.523	133.88
298.753	122.88
298.984	136.88
299.214	131.88
299.445	126.88
299.675	127.88
299.905	125.88
300.136	131.88
300.366	127.88
300.597	129.88
300.827	117.88
301.057	120.88
301.288	125.88
301.518	142.88
301.748	119.88
301.979	189.88
302.209	126.88
302.439	119.88
302.669	132.88
302.9	135.88
303.13	134.88
303.36	127.88
303.59	141.88
303.82	149.88
304.051	117.88
304.281	125.88
304.511	154.88
304.741	130.88
304.971	126.88
305.201	128.88
305.431	126.88
305.661	141.88
305.891	132.88
306.121	136.88
306.352	125.88
306.582	124.88
306.812	128.88
307.042	118.88
307.272	130.88
307.502	120.88
307.731	126.88
307.961	137.88
308.191	126.88
308.421	123.88
308.651	124.88
308.881	113.88
309.111	120.88
309.341	115.88
309.571	132.88
309.8	122.88
310.03	130.88
310.26	128.88
310.49	129.88
310.72	123.88
310.949	109.88
311.179	134.88
311.409	118.88
311.639	128.88
311.868	155.88
312.098	135.88
312.328	160.88
312.557	131.88
312.787	120.88
313.017	159.88
313.246	131.88
313.476	141.88
313.706	137.88
313.935	136.88
314.165	131.88
314.394	146.88
314.624	131.88
314.853	149.88
315.083	140.88
315.312	149.88
315.542	129.88
315.771	152.88
316.001	156.88
316.23	163.88
316.46	143.88
316.689	152.88
316.919	143.88
317.148	136.88
317.377	159.88
317.607	145.88
317.836	148.88
318.065	137.88
318.295	128.88
318.524	144.88
318.753	131.88
318.983	130.88
319.212	152.88
319.441	136.88
319.67	154.88
319.9	144.88
320.129	130.88
320.358	141.88
320.587	132.88
320.816	121.88
321.046	125.88
321.275	133.88
321.504	134.88
321.733	128.88
321.962	142.88
322.191	132.88
322.42	132.88
322.649	140.88
322.878	140.88
323.108	154.88
323.337	138.88
323.566	140.88
323.795	141.88
324.024	149.88
324.253	124.88
324.482	138.88
324.71	142.88
324.939	139.88
325.168	144.88
325.397	132.88
325.626	128.88
325.855	141.88
326.084	148.88
326.313	141.88
326.542	136.88
326.77	144.88
326.999	127.88
327.228	121.88
327.457	144.88
327.686	137.88
327.914	124.88
328.143	139.88
328.372	143.88
328.6	132.88
328.829	158.88
329.058	123.88
329.287	109.88
329.515	136.88
329.744	149.88
329.972	131.88
330.201	152.88
330.43	134.88
330.658	131.88
330.887	131.88
331.115	138.88
331.344	138.88
331.572	147.88
331.801	130.88
332.03	125.88
332.258	136.88
332.486	141.88
332.715	139.88
332.943	129.88
333.172	154.88
333.4	130.88
333.629	129.88
333.857	140.88
334.085	145.88
334.314	129.88
334.542	143.88
334.771	144.88
334.999	131.88
335.227	133.88
335.455	130.88
335.684	143.88
335.912	148.88
336.14	154.88
336.369	124.88
336.597	136.88
336.825	139.88
337.053	133.88
337.281	138.88
337.51	134.88
337.738	123.88
337.966	144.88
338.194	130.88
338.422	133.88
338.65	145.88
338.878	145.88
339.106	152.88
339.334	161.88
339.562	136.88
339.79	132.88
340.018	142.88
340.246	125.88
340.474	127.88
340.702	151.88
340.93	113.88
341.158	151.88
341.386	134.88
341.614	136.88
341.842	131.88
342.07	153.88
342.298	147.88
342.526	157.88
342.754	142.88
342.981	140.88
343.209	147.88
343.437	180.88
343.665	138.88
343.893	153.88
344.12	153.88
344.348	143.88
344.576	131.88
344.804	114.88
345.031	148.88
345.259	133.88
345.487	133.88
345.714	135.88
345.942	131.88
346.17	141.88
346.397	135.88
346.625	140.88
346.853	148.88
347.08	146.88
347.308	146.88
347.535	135.88
347.763	134.88
347.99	130.88
348.218	137.88
348.445	148.88
348.673	123.88
348.9	142.88
349.128	140.88
349.355	137.88
349.583	132.88
349.81	127.88
350.037	121.88
350.265	145.88
350.492	142.88
350.72	120.88
350.947	141.88
351.174	129.88
351.402	145.88
351.629	137.88
351.856	151.88
352.083	130.88
352.311	156.88
352.538	131.88
352.765	147.88
352.992	162.88
353.22	140.88
353.447	136.88
353.674	139.88
353.901	143.88
354.128	154.88
354.355	144.88
354.583	122.88
354.81	128.88
355.037	169.88
355.264	152.88
355.491	135.88
355.718	126.88
355.945	146.88
356.172	175.88
356.399	164.88
356.626	172.88
356.853	173.88
357.08	225.88
357.307	273.88
357.534	245.88
357.761	216.88
357.988	194.88
358.215	173.88
358.441	159.88
358.668	175.88
358.895	167.88
359.122	132.88
359.349	148.88
359.576	137.88
359.802	142.88
360.029	139.88
360.256	148.88
360.483	132.88
360.709	153.88
360.936	162.88
361.163	141.88
361.39	150.88
361.616	162.88
361.843	148.88
362.07	155.88
362.296	142.88
362.523	125.88
362.749	164.88
362.976	161.88
363.203	171.88
363.429	191.88
363.656	216.88
363.882	280.88
364.109	313.88
364.335	256.88
364.562	183.88
364.788	164.88
365.015	167.88
365.241	160.88
365.468	181.88
365.694	152.88
365.92	167.88
366.147	138.88
366.373	152.88
366.599	146.88
366.826	193.88
367.052	177.88
367.278	209.88
367.505	211.88
367.731	224.88
367.957	245.88
368.184	315.88
368.41	389.88
368.636	338.88
368.862	263.88
369.089	214.88
369.315	187.88
369.541	159.88
369.767	184.88
369.993	178.88
370.219	163.88
370.445	157.88
370.672	168.88
370.898	151.88
371.124	157.88
371.35	148.88
371.576	144.88
371.802	152.88
372.028	149.88
372.254	147.88
372.48	151.88
372.706	146.88
372.932	163.88
373.158	172.88
373.384	186.88
373.61	187.88
373.835	244.88
374.061	267.88
374.287	272.88
374.513	191.88
374.739	174.88
374.965	175.88
375.191	164.88
375.416	172.88
375.642	167.88
375.868	171.88
376.094	154.88
376.319	145.88
376.545	151.88
376.771	153.88
376.997	136.88
377.222	143.88
377.448	148.88
377.674	150.88
377.899	146.88
378.125	134.88
378.35	145.88
378.576	151.88
378.802	148.88
379.027	149.88
379.253	144.88
379.478	159.88
379.704	144.88
379.929	153.88
380.155	151.88
380.38	168.88
380.606	143.88
380.831	142.88
381.057	158.88
381.282	147.88
381.507	154.88
381.733	150.88
381.958	129.88
382.184	146.88
382.409	146.88
382.634	152.88
382.86	144.88
383.085	156.88
383.31	149.88
383.535	151.88
383.761	144.88
383.986	166.88
384.211	137.88
384.436	135.88
384.662	141.88
384.887	143.88
385.112	157.88
385.337	161.88
385.562	143.88
385.787	144.88
386.013	152.88
386.238	150.88
386.463	152.88
386.688	216.88
386.913	146.88
387.138	146.88
387.363	146.88
387.588	146.88
387.813	162.88
388.038	146.88
388.263	145.88
388.488	167.88
388.713	151.88
388.938	140.88
389.163	144.88
389.387	136.88
389.612	142.88
389.837	162.88
390.062	172.88
390.287	148.88
390.512	153.88
390.736	150.88
390.961	151.88
391.186	156.88
391.411	141.88
391.636	145.88
391.86	153.88
392.085	170.88
392.31	156.88
392.534	156.88
392.759	159.88
392.984	164.88
393.208	153.88
393.433	163.88
393.658	152.88
393.882	155.88
394.107	158.88
394.331	163.88
394.556	155.88
394.78	143.88
395.005	153.88
395.229	144.88
395.454	160.88
395.678	160.88
395.903	161.88
396.127	153.88
396.352	153.88
396.576	156.88
396.801	149.88
397.025	174.88
397.249	160.88
397.474	167.88
397.698	154.88
397.922	141.88
398.147	155.88
398.371	151.88
398.595	164.88
398.82	160.88
399.044	154.88
399.268	156.88
399.492	175.88
399.717	163.88
399.941	156.88
400.165	173.88
400.389	181.88
400.613	184.88
400.837	181.88
401.062	164.88
401.286	175.88
401.51	166.88
401.734	200.88
401.958	191.88
402.182	187.88
402.406	169.88
402.63	160.88
402.854	172.88
403.078	177.88
403.302	174.88
403.526	187.88
403.75	175.88
403.974	170.88
404.198	179.88
404.422	175.88
404.645	211.88
404.869	195.88
405.093	237.88
405.317	264.88
405.541	353.88
405.765	493.88
405.988	543.88
406.212	424.88
406.436	298.88
406.66	263.88
406.883	233.88
407.107	220.88
407.331	219.88
407.555	196.88
407.778	175.88
408.002	204.88
408.226	192.88
408.449	178.88
408.673	193.88
408.896	199.88
409.12	179.88
409.344	188.88
409.567	200.88
409.791	184.88
410.014	188.88
410.238	183.88
410.461	171.88
410.685	191.88
410.908	174.88
411.132	191.88
411.355	172.88
411.578	194.88
411.802	174.88
412.025	174.88
412.249	175.88
412.472	171.88
412.695	173.88
412.919	176.88
413.142	166.88
413.365	180.88
413.589	185.88
413.812	157.88
414.035	187.88
414.258	161.88
414.482	179.88
414.705	171.88
414.928	193.88
415.151	174.88
415.374	171.88
415.597	169.88
415.821	175.88
416.044	166.88
416.267	172.88
416.49	167.88
416.713	172.88
416.936	190.88
417.159	186.88
417.382	178.88
417.605	162.88
417.828	157.88
418.051	176.88
418.274	167.88
418.497	169.88
418.72	187.88
418.943	188.88
419.166	162.88
419.389	160.88
419.611	164.88
419.834	164.88
420.057	191.88
420.28	173.88
420.503	152.88
420.726	164.88
420.948	182.88
421.171	177.88
421.394	179.88
421.617	184.88
421.839	158.88
422.062	187.88
422.285	185.88
422.507	182.88
422.73	182.88
422.953	168.88
423.175	171.88
423.398	205.88
423.621	199.88
423.843	208.88
424.066	209.88
424.288	231.88
424.511	248.88
424.733	269.88
424.956	280.88
425.178	231.88
425.401	221.88
425.623	228.88
425.846	206.88
426.068	201.88
426.291	189.88
426.513	201.88
426.735	191.88
426.958	205.88
427.18	198.88
427.402	198.88
427.625	176.88
427.847	168.88
428.069	191.88
428.292	193.88
428.514	172.88
428.736	176.88
428.958	193.88
429.181	183.88
429.403	174.88
429.625	178.88
429.847	173.88
430.069	190.88
430.292	179.88
430.514	176.88
430.736	188.88
430.958	196.88
431.18	176.88
431.402	174.88
431.624	175.88
431.846	160.88
432.068	157.88
432.29	168.88
432.512	189.88
432.734	182.88
432.956	186.88
433.178	167.88
433.4	172.88
433.622	185.88
433.844	175.88
434.066	181.88
434.287	170.88
434.509	168.88
434.731	160.88
434.953	170.88
435.175	181.88
435.397	173.88
435.618	172.88
435.84	178.88
436.062	189.88
436.284	176.88
436.505	173.88
436.727	175.88
436.949	191.88
437.17	189.88
437.392	175.88
437.614	205.88
437.835	176.88
438.057	199.88
438.278	211.88
438.5	217.88
438.721	262.88
438.943	284.88
439.165	254.88
439.386	235.88
439.608	232.88
439.829	221.88
440.05	241.88
440.272	239.88
440.493	213.88
440.715	232.88
440.936	245.88
441.158	251.88
441.379	219.88
441.6	196.88
441.822	213.88
442.043	197.88
442.264	195.88
442.486	211.88
442.707	196.88
442.928	199.88
443.149	194.88
443.371	196.88
443.592	179.88
443.813	182.88
444.034	201.88
444.255	212.88
444.476	196.88
444.698	183.88
444.919	191.88
445.14	506.88
445.361	353.88
445.582	201.88
445.803	168.88
446.024	188.88
446.245	196.88
446.466	193.88
446.687	180.88
446.908	194.88
447.129	179.88
447.35	200.88
447.571	202.88
447.792	178.88
448.013	188.88
448.234	195.88
448.455	178.88
448.675	167.88
448.896	172.88
449.117	186.88
449.338	184.88
449.559	192.88
449.779	164.88
450	167.88
450.221	179.88
450.442	192.88
450.662	176.88
450.883	164.88
451.104	178.88
451.324	172.88
451.545	177.88
451.766	162.88
451.986	170.88
452.207	176.88
452.428	177.88
452.648	186.88
452.869	156.88
453.089	161.88
453.31	169.88
453.53	141.88
453.751	162.88
453.971	149.88
454.192	151.88
454.412	161.88
454.633	146.88
454.853	177.88
455.073	160.88
455.294	158.88
455.514	169.88
455.734	160.88
455.955	164.88
456.175	170.88
456.395	161.88
456.616	152.88
456.836	170.88
457.056	148.88
457.276	156.88
457.497	154.88
457.717	138.88
457.937	167.88
458.157	169.88
458.377	152.88
458.598	152.88
458.818	144.88
459.038	159.88
459.258	148.88
459.478	157.88
459.698	153.88
459.918	174.88
460.138	167.88
460.358	169.88
460.578	167.88
460.798	182.88
461.018	167.88
461.238	172.88
461.458	160.88
461.678	169.88
461.898	192.88
462.118	150.88
462.338	169.88
462.558	176.88
462.777	155.88
462.997	163.88
463.217	159.88
463.437	185.88
463.657	164.88
463.876	167.88
464.096	171.88
464.316	161.88
464.536	190.88
464.755	169.88
464.975	156.88
465.195	181.88
465.414	173.88
465.634	156.88
465.854	181.88
466.073	161.88
466.293	183.88
466.512	161.88
466.732	157.88
466.951	168.88
467.171	164.88
467.391	150.88
467.61	178.88
467.829	172.88
468.049	165.88
468.268	168.88
468.488	171.88
468.707	173.88
468.927	184.88
469.146	156.88
469.365	175.88
469.585	185.88
469.804	183.88
470.023	180.88
470.243	168.88
470.462	175.88
470.681	173.88
470.901	160.88
471.12	169.88
471.339	177.88
471.558	169.88
471.777	172.88
471.997	163.88
472.216	175.88
472.435	163.88
472.654	153.88
472.873	172.88
473.092	177.88
473.311	190.88
473.53	173.88
473.749	173.88
473.968	189.88
474.187	188.88
474.406	162.88
474.625	184.88
474.844	175.88
475.063	179.88
475.282	181.88
475.501	161.88
475.72	180.88
475.939	174.88
476.158	171.88
476.377	173.88
476.596	162.88
476.814	168.88
477.033	163.88
477.252	173.88
477.471	164.88
477.69	196.88
477.908	185.88
478.127	191.88
478.346	201.88
478.564	178.88
478.783	183.88
479.002	174.88
479.22	176.88
479.439	199.88
479.658	187.88
479.876	191.88
480.095	171.88
480.313	190.88
480.532	192.88
480.751	177.88
480.969	168.88
481.188	181.88
481.406	171.88
481.624	164.88
481.843	175.88
482.061	171.88
482.28	161.88
482.498	173.88
482.717	171.88
482.935	158.88
483.153	179.88
483.372	186.88
483.59	196.88
483.808	192.88
484.027	190.88
484.245	193.88
484.463	190.88
484.681	211.88
484.9	207.88
485.118	193.88
485.336	184.88
485.554	178.88
485.772	175.88
485.99	191.88
486.209	163.88
486.427	155.88
486.645	167.88
486.863	180.88
487.081	197.88
487.299	166.88
487.517	195.88
487.735	199.88
487.953	209.88
488.171	204.88
488.389	215.88
488.607	174.88
488.825	178.88
489.043	184.88
489.261	192.88
489.479	195.88
489.696	186.88
489.914	205.88
490.132	190.88
490.35	207.88
490.568	198.88
490.786	198.88
491.003	208.88
491.221	200.88
491.439	212.88
491.657	215.88
491.874	225.88
492.092	198.88
492.31	229.88
492.527	225.88
492.745	207.88
492.963	209.88
493.18	224.88
493.398	213.88
493.615	199.88
493.833	198.88
494.05	193.88
494.268	207.88
494.485	207.88
494.703	208.88
494.92	222.88
495.138	200.88
495.355	220.88
495.573	217.88
495.79	212.88
496.008	208.88
496.225	197.88
496.442	214.88
496.66	223.88
496.877	217.88
497.094	240.88
497.312	225.88
497.529	201.88
497.746	200.88
497.963	197.88
498.181	176.88
498.398	187.88
498.615	198.88
498.832	203.88
499.049	202.88
499.267	217.88
499.484	216.88
499.701	235.88
499.918	213.88
500.135	235.88
500.352	233.88
500.569	262.88
500.786	300.88
501.003	265.88
501.22	237.88
501.437	219.88
501.654	230.88
501.871	226.88
502.088	219.88
502.305	224.88
502.522	207.88
502.739	209.88
502.956	197.88
503.172	221.88
503.389	188.88
503.606	194.88
503.823	211.88
