Data from TenMicroDelayPb_HRD10591_00002.txt Node
Date: Mon Nov 24 14:56:55 EST 2025
User: Yrep
Spectrometer: HR+D1059
Trigger mode: 5
Integration Time (sec): 3.000000E-2
Scans to average: 1
Electric dark correction enabled: true
Nonlinearity correction enabled: false
Boxcar width: 0
XAxis mode: Wavelengths
Number of Pixels in Spectrum: 2048
>>>>>Begin Spectral Data<<<<<
223.165	-30.69
223.4	-30.69
223.635	-30.69
223.869	-21.69
224.104	-21.69
224.338	-11.69
224.573	-13.69
224.808	-25.69
225.042	-13.69
225.277	-9.69
225.511	9.31
225.746	11.31
225.98	15.31
226.215	17.31
226.449	19.31
226.683	30.31
226.918	14.31
227.152	31.31
227.387	47.31
227.621	37.31
227.856	46.31
228.09	42.31
228.324	57.31
228.559	58.31
228.793	49.31
229.027	85.31
229.262	74.31
229.496	72.31
229.73	59.31
229.964	79.31
230.199	74.31
230.433	74.31
230.667	95.31
230.901	84.31
231.136	73.31
231.37	83.31
231.604	76.31
231.838	77.31
232.072	78.31
232.306	87.31
232.541	76.31
232.775	82.31
233.009	89.31
233.243	72.31
233.477	86.31
233.711	89.31
233.945	93.31
234.179	90.31
234.413	86.31
234.647	92.31
234.881	82.31
235.115	89.31
235.349	71.31
235.583	78.31
235.817	86.31
236.051	77.31
236.285	67.31
236.519	86.31
236.753	95.31
236.987	91.31
237.221	99.31
237.455	84.31
237.689	81.31
237.922	86.31
238.156	92.31
238.39	81.31
238.624	86.31
238.858	107.31
239.091	87.31
239.325	109.31
239.559	101.31
239.793	89.31
240.027	112.31
240.26	82.31
240.494	100.31
240.728	80.31
240.961	90.31
241.195	78.31
241.429	95.31
241.662	80.31
241.896	79.31
242.13	71.31
242.363	77.31
242.597	87.31
242.83	90.31
243.064	106.31
243.298	94.31
243.531	74.31
243.765	93.31
243.998	90.31
244.232	104.31
244.465	94.31
244.699	98.31
244.932	94.31
245.166	96.31
245.399	99.31
245.633	96.31
245.866	91.31
246.099	84.31
246.333	82.31
246.566	82.31
246.8	84.31
247.033	93.31
247.266	91.31
247.5	100.31
247.733	77.31
247.966	109.31
248.2	83.31
248.433	98.31
248.666	91.31
248.899	92.31
249.133	85.31
249.366	109.31
249.599	95.31
249.832	91.31
250.066	104.31
250.299	102.31
250.532	110.31
250.765	86.31
250.998	105.31
251.231	93.31
251.465	96.31
251.698	95.31
251.931	99.31
252.164	90.31
252.397	93.31
252.63	107.31
252.863	89.31
253.096	102.31
253.329	113.31
253.562	114.31
253.795	106.31
254.028	109.31
254.261	120.31
254.494	106.31
254.727	108.31
254.96	104.31
255.193	108.31
255.426	93.31
255.659	92.31
255.892	101.31
256.124	98.31
256.357	97.31
256.59	93.31
256.823	89.31
257.056	91.31
257.289	95.31
257.521	106.31
257.754	110.31
257.987	108.31
258.22	133.31
258.452	115.31
258.685	118.31
258.918	93.31
259.151	108.31
259.383	102.31
259.616	113.31
259.849	128.31
260.081	106.31
260.314	118.31
260.547	115.31
260.779	119.31
261.012	123.31
261.244	132.31
261.477	166.31
261.71	140.31
261.942	122.31
262.175	124.31
262.407	121.31
262.64	122.31
262.872	99.31
263.105	113.31
263.337	128.31
263.57	106.31
263.802	102.31
264.035	105.31
264.267	102.31
264.499	120.31
264.732	128.31
264.964	115.31
265.197	119.31
265.429	122.31
265.661	122.31
265.894	111.31
266.126	131.31
266.358	111.31
266.591	129.31
266.823	117.31
267.055	102.31
267.287	110.31
267.52	110.31
267.752	110.31
267.984	115.31
268.216	82.31
268.448	123.31
268.681	106.31
268.913	119.31
269.145	119.31
269.377	109.31
269.609	91.31
269.841	125.31
270.073	120.31
270.306	118.31
270.538	100.31
270.77	106.31
271.002	110.31
271.234	90.31
271.466	103.31
271.698	101.31
271.93	110.31
272.162	119.31
272.394	111.31
272.626	120.31
272.858	105.31
273.09	120.31
273.322	124.31
273.553	96.31
273.785	117.31
274.017	99.31
274.249	118.31
274.481	111.31
274.713	98.31
274.945	98.31
275.176	104.31
275.408	127.31
275.64	113.31
275.872	111.31
276.104	112.31
276.335	98.31
276.567	112.31
276.799	109.31
277.031	104.31
277.262	112.31
277.494	119.31
277.726	121.31
277.957	106.31
278.189	113.31
278.421	123.31
278.652	127.31
278.884	123.31
279.115	128.31
279.347	131.31
279.579	145.31
279.81	161.31
280.042	180.31
280.273	194.31
280.505	176.31
280.736	142.31
280.968	138.31
281.199	120.31
281.431	133.31
281.662	138.31
281.894	140.31
282.125	136.31
282.356	146.31
282.588	150.31
282.819	138.31
283.051	136.31
283.282	151.31
283.513	192.31
283.745	142.31
283.976	145.31
284.207	132.31
284.439	124.31
284.67	130.31
284.901	109.31
285.132	116.31
285.364	106.31
285.595	116.31
285.826	123.31
286.057	122.31
286.288	98.31
286.52	127.31
286.751	107.31
286.982	138.31
287.213	151.31
287.444	151.31
287.675	152.31
287.906	132.31
288.138	136.31
288.369	128.31
288.6	112.31
288.831	118.31
289.062	142.31
289.293	125.31
289.524	104.31
289.755	123.31
289.986	114.31
290.217	114.31
290.448	115.31
290.679	107.31
290.91	122.31
291.141	116.31
291.371	139.31
291.602	114.31
291.833	124.31
292.064	113.31
292.295	132.31
292.526	111.31
292.757	110.31
292.987	118.31
293.218	118.31
293.449	110.31
293.68	119.31
293.91	106.31
294.141	130.31
294.372	112.31
294.603	115.31
294.833	120.31
295.064	114.31
295.295	108.31
295.525	95.31
295.756	100.31
295.987	108.31
296.217	123.31
296.448	124.31
296.679	120.31
296.909	125.31
297.14	103.31
297.37	120.31
297.601	124.31
297.831	105.31
298.062	127.31
298.292	108.31
298.523	119.31
298.753	118.31
298.984	112.31
299.214	112.31
299.445	100.31
299.675	121.31
299.905	120.31
300.136	126.31
300.366	122.31
300.597	119.31
300.827	114.31
301.057	106.31
301.288	131.31
301.518	113.31
301.748	125.31
301.979	184.31
302.209	125.31
302.439	127.31
302.669	119.31
302.9	111.31
303.13	133.31
303.36	117.31
303.59	132.31
303.82	117.31
304.051	116.31
304.281	126.31
304.511	138.31
304.741	119.31
304.971	128.31
305.201	143.31
305.431	118.31
305.661	107.31
305.891	118.31
306.121	119.31
306.352	112.31
306.582	115.31
306.812	105.31
307.042	127.31
307.272	129.31
307.502	120.31
307.731	121.31
307.961	135.31
308.191	113.31
308.421	124.31
308.651	114.31
308.881	123.31
309.111	100.31
309.341	106.31
309.571	113.31
309.8	123.31
310.03	126.31
310.26	127.31
310.49	110.31
310.72	137.31
310.949	115.31
311.179	120.31
311.409	111.31
311.639	116.31
311.868	131.31
312.098	123.31
312.328	108.31
312.557	140.31
312.787	119.31
313.017	144.31
313.246	122.31
313.476	130.31
313.706	124.31
313.935	113.31
314.165	140.31
314.394	139.31
314.624	140.31
314.853	140.31
315.083	130.31
315.312	138.31
315.542	143.31
315.771	132.31
316.001	138.31
316.23	151.31
316.46	116.31
316.689	132.31
316.919	141.31
317.148	150.31
317.377	148.31
317.607	121.31
317.836	125.31
318.065	122.31
318.295	119.31
318.524	115.31
318.753	140.31
318.983	128.31
319.212	127.31
319.441	126.31
319.67	126.31
319.9	129.31
320.129	117.31
320.358	119.31
320.587	115.31
320.816	118.31
321.046	128.31
321.275	127.31
321.504	136.31
321.733	131.31
321.962	119.31
322.191	125.31
322.42	116.31
322.649	128.31
322.878	126.31
323.108	126.31
323.337	120.31
323.566	113.31
323.795	134.31
324.024	140.31
324.253	124.31
324.482	104.31
324.71	118.31
324.939	145.31
325.168	136.31
325.397	133.31
325.626	122.31
325.855	125.31
326.084	124.31
326.313	127.31
326.542	128.31
326.77	126.31
326.999	117.31
327.228	132.31
327.457	129.31
327.686	130.31
327.914	132.31
328.143	146.31
328.372	114.31
328.6	131.31
328.829	118.31
329.058	126.31
329.287	113.31
329.515	140.31
329.744	129.31
329.972	121.31
330.201	137.31
330.43	117.31
330.658	138.31
330.887	126.31
331.115	119.31
331.344	118.31
331.572	143.31
331.801	124.31
332.03	136.31
332.258	140.31
332.486	137.31
332.715	130.31
332.943	119.31
333.172	132.31
333.4	113.31
333.629	134.31
333.857	129.31
334.085	123.31
334.314	130.31
334.542	126.31
334.771	124.31
334.999	134.31
335.227	124.31
335.455	138.31
335.684	148.31
335.912	135.31
336.14	118.31
336.369	120.31
336.597	122.31
336.825	135.31
337.053	118.31
337.281	124.31
337.51	117.31
337.738	145.31
337.966	128.31
338.194	130.31
338.422	108.31
338.65	132.31
338.878	145.31
339.106	127.31
339.334	140.31
339.562	126.31
339.79	122.31
340.018	122.31
340.246	113.31
340.474	130.31
340.702	122.31
340.93	136.31
341.158	130.31
341.386	115.31
341.614	123.31
341.842	120.31
342.07	128.31
342.298	118.31
342.526	131.31
342.754	124.31
342.981	131.31
343.209	111.31
343.437	176.31
343.665	121.31
343.893	129.31
344.12	131.31
344.348	123.31
344.576	121.31
344.804	128.31
345.031	123.31
345.259	130.31
345.487	124.31
345.714	128.31
345.942	128.31
346.17	129.31
346.397	143.31
346.625	118.31
346.853	134.31
347.08	129.31
347.308	124.31
347.535	121.31
347.763	116.31
347.99	149.31
348.218	143.31
348.445	121.31
348.673	128.31
348.9	120.31
349.128	127.31
349.355	116.31
349.583	125.31
349.81	127.31
350.037	121.31
350.265	120.31
350.492	127.31
350.72	121.31
350.947	126.31
351.174	115.31
351.402	128.31
351.629	131.31
351.856	123.31
352.083	97.31
352.311	136.31
352.538	125.31
352.765	130.31
352.992	152.31
353.22	124.31
353.447	117.31
353.674	124.31
353.901	136.31
354.128	130.31
354.355	140.31
354.583	135.31
354.81	122.31
355.037	151.31
355.264	136.31
355.491	134.31
355.718	128.31
355.945	144.31
356.172	138.31
356.399	144.31
356.626	151.31
356.853	152.31
357.08	210.31
357.307	238.31
357.534	218.31
357.761	190.31
357.988	180.31
358.215	156.31
358.441	155.31
358.668	128.31
358.895	132.31
359.122	137.31
359.349	122.31
359.576	110.31
359.802	146.31
360.029	142.31
360.256	141.31
360.483	133.31
360.709	130.31
360.936	149.31
361.163	145.31
361.39	158.31
361.616	128.31
361.843	136.31
362.07	140.31
362.296	139.31
362.523	135.31
362.749	137.31
362.976	130.31
363.203	172.31
363.429	158.31
363.656	216.31
363.882	258.31
364.109	291.31
364.335	229.31
364.562	172.31
364.788	155.31
365.015	162.31
365.241	159.31
365.468	164.31
365.694	132.31
365.92	140.31
366.147	159.31
366.373	134.31
366.599	147.31
366.826	144.31
367.052	173.31
367.278	183.31
367.505	188.31
367.731	193.31
367.957	219.31
368.184	269.31
368.41	304.31
368.636	296.31
368.862	235.31
369.089	181.31
369.315	169.31
369.541	166.31
369.767	162.31
369.993	140.31
370.219	138.31
370.445	147.31
370.672	138.31
370.898	136.31
371.124	137.31
371.35	124.31
371.576	139.31
371.802	144.31
372.028	132.31
372.254	125.31
372.48	145.31
372.706	127.31
372.932	139.31
373.158	154.31
373.384	154.31
373.61	174.31
373.835	209.31
374.061	252.31
374.287	230.31
374.513	192.31
374.739	157.31
374.965	153.31
375.191	143.31
375.416	141.31
375.642	151.31
375.868	164.31
376.094	136.31
376.319	134.31
376.545	137.31
376.771	148.31
376.997	135.31
377.222	125.31
377.448	143.31
377.674	142.31
377.899	131.31
378.125	138.31
378.35	138.31
378.576	142.31
378.802	135.31
379.027	138.31
379.253	143.31
379.478	131.31
379.704	133.31
379.929	115.31
380.155	136.31
380.38	130.31
380.606	127.31
380.831	138.31
381.057	151.31
381.282	146.31
381.507	135.31
381.733	142.31
381.958	143.31
382.184	124.31
382.409	131.31
382.634	140.31
382.86	144.31
383.085	131.31
383.31	140.31
383.535	134.31
383.761	139.31
383.986	136.31
384.211	138.31
384.436	139.31
384.662	141.31
384.887	136.31
385.112	149.31
385.337	136.31
385.562	128.31
385.787	138.31
386.013	133.31
386.238	135.31
386.463	149.31
386.688	186.31
386.913	148.31
387.138	140.31
387.363	141.31
387.588	139.31
387.813	163.31
388.038	152.31
388.263	157.31
388.488	134.31
388.713	140.31
388.938	136.31
389.163	119.31
389.387	141.31
389.612	138.31
389.837	127.31
390.062	133.31
390.287	142.31
390.512	132.31
390.736	134.31
390.961	130.31
391.186	130.31
391.411	128.31
391.636	124.31
391.86	128.31
392.085	133.31
392.31	129.31
392.534	144.31
392.759	130.31
392.984	137.31
393.208	146.31
393.433	139.31
393.658	152.31
393.882	145.31
394.107	137.31
394.331	164.31
394.556	140.31
394.78	145.31
395.005	140.31
395.229	126.31
395.454	153.31
395.678	130.31
395.903	133.31
396.127	140.31
396.352	137.31
396.576	138.31
396.801	146.31
397.025	156.31
397.249	151.31
397.474	169.31
397.698	137.31
397.922	147.31
398.147	147.31
398.371	122.31
398.595	145.31
398.82	144.31
399.044	153.31
399.268	144.31
399.492	153.31
399.717	167.31
399.941	159.31
400.165	164.31
400.389	143.31
400.613	143.31
400.837	155.31
401.062	147.31
401.286	150.31
401.51	156.31
401.734	144.31
401.958	167.31
402.182	175.31
402.406	158.31
402.63	157.31
402.854	146.31
403.078	163.31
403.302	145.31
403.526	147.31
403.75	171.31
403.974	160.31
404.198	167.31
404.422	177.31
404.645	184.31
404.869	182.31
405.093	202.31
405.317	234.31
405.541	315.31
405.765	419.31
405.988	474.31
406.212	372.31
406.436	283.31
406.66	246.31
406.883	212.31
407.107	176.31
407.331	194.31
407.555	178.31
407.778	187.31
408.002	189.31
408.226	186.31
408.449	189.31
408.673	162.31
408.896	178.31
409.12	163.31
409.344	152.31
409.567	158.31
409.791	167.31
410.014	172.31
410.238	164.31
410.461	153.31
410.685	143.31
410.908	158.31
411.132	188.31
411.355	162.31
411.578	151.31
411.802	147.31
412.025	154.31
412.249	151.31
412.472	151.31
412.695	162.31
412.919	162.31
413.142	161.31
413.365	160.31
413.589	168.31
413.812	155.31
414.035	170.31
414.258	152.31
414.482	148.31
414.705	166.31
414.928	166.31
415.151	166.31
415.374	158.31
415.597	154.31
415.821	152.31
416.044	158.31
416.267	160.31
416.49	145.31
416.713	157.31
416.936	170.31
417.159	163.31
417.382	159.31
417.605	152.31
417.828	160.31
418.051	151.31
418.274	169.31
418.497	157.31
418.72	161.31
418.943	161.31
419.166	144.31
419.389	158.31
419.611	159.31
419.834	154.31
420.057	177.31
420.28	160.31
420.503	168.31
420.726	166.31
420.948	148.31
421.171	180.31
421.394	153.31
421.617	176.31
421.839	140.31
422.062	163.31
422.285	166.31
422.507	151.31
422.73	145.31
422.953	163.31
423.175	160.31
423.398	174.31
423.621	159.31
423.843	175.31
424.066	185.31
424.288	200.31
424.511	213.31
424.733	230.31
424.956	214.31
425.178	203.31
425.401	206.31
425.623	204.31
425.846	195.31
426.068	184.31
426.291	172.31
426.513	163.31
426.735	182.31
426.958	166.31
427.18	162.31
427.402	166.31
427.625	176.31
427.847	158.31
428.069	181.31
428.292	156.31
428.514	176.31
428.736	176.31
428.958	182.31
429.181	175.31
429.403	160.31
429.625	158.31
429.847	153.31
430.069	179.31
430.292	175.31
430.514	153.31
430.736	150.31
430.958	151.31
431.18	155.31
431.402	165.31
431.624	167.31
431.846	145.31
432.068	142.31
432.29	154.31
432.512	172.31
432.734	159.31
432.956	179.31
433.178	179.31
433.4	175.31
433.622	179.31
433.844	165.31
434.066	158.31
434.287	164.31
434.509	140.31
434.731	172.31
434.953	170.31
435.175	148.31
435.397	170.31
435.618	178.31
435.84	153.31
436.062	154.31
436.284	159.31
436.505	173.31
436.727	161.31
436.949	178.31
437.17	161.31
437.392	168.31
437.614	171.31
437.835	169.31
438.057	169.31
438.278	174.31
438.5	200.31
438.721	206.31
438.943	247.31
439.165	224.31
439.386	224.31
439.608	221.31
439.829	207.31
440.05	196.31
440.272	194.31
440.493	203.31
440.715	206.31
440.936	215.31
441.158	227.31
441.379	190.31
441.6	191.31
441.822	187.31
442.043	192.31
442.264	208.31
442.486	166.31
442.707	175.31
442.928	191.31
443.149	175.31
443.371	186.31
443.592	176.31
443.813	171.31
444.034	185.31
444.255	206.31
444.476	167.31
444.698	181.31
444.919	163.31
445.14	561.31
445.361	368.31
445.582	186.31
445.803	154.31
446.024	183.31
446.245	206.31
446.466	201.31
446.687	182.31
446.908	183.31
447.129	189.31
447.35	186.31
447.571	174.31
447.792	166.31
448.013	175.31
448.234	170.31
448.455	174.31
448.675	178.31
448.896	161.31
449.117	174.31
449.338	162.31
449.559	182.31
449.779	163.31
450	171.31
450.221	172.31
450.442	162.31
450.662	174.31
450.883	171.31
451.104	167.31
451.324	163.31
451.545	166.31
451.766	151.31
451.986	168.31
452.207	157.31
452.428	158.31
452.648	167.31
452.869	159.31
453.089	156.31
453.31	144.31
453.53	154.31
453.751	151.31
453.971	144.31
454.192	147.31
454.412	150.31
454.633	163.31
454.853	147.31
455.073	139.31
455.294	166.31
455.514	163.31
455.734	141.31
455.955	155.31
456.175	150.31
456.395	156.31
456.616	144.31
456.836	137.31
457.056	144.31
457.276	136.31
457.497	143.31
457.717	141.31
457.937	142.31
458.157	146.31
458.377	152.31
458.598	131.31
458.818	128.31
459.038	138.31
459.258	145.31
459.478	141.31
459.698	158.31
459.918	154.31
460.138	149.31
460.358	153.31
460.578	145.31
460.798	151.31
461.018	151.31
461.238	143.31
461.458	166.31
461.678	138.31
461.898	166.31
462.118	161.31
462.338	176.31
462.558	182.31
462.777	159.31
462.997	158.31
463.217	144.31
463.437	143.31
463.657	148.31
463.876	164.31
464.096	177.31
464.316	134.31
464.536	159.31
464.755	182.31
464.975	160.31
465.195	163.31
465.414	155.31
465.634	151.31
465.854	159.31
466.073	163.31
466.293	143.31
466.512	145.31
466.732	166.31
466.951	156.31
467.171	167.31
467.391	153.31
467.61	168.31
467.829	157.31
468.049	151.31
468.268	162.31
468.488	150.31
468.707	144.31
468.927	163.31
469.146	154.31
469.365	161.31
469.585	163.31
469.804	173.31
470.023	173.31
470.243	167.31
470.462	165.31
470.681	160.31
470.901	162.31
471.12	154.31
471.339	171.31
471.558	158.31
471.777	160.31
471.997	162.31
472.216	159.31
472.435	162.31
472.654	145.31
472.873	168.31
473.092	156.31
473.311	146.31
473.53	147.31
473.749	169.31
473.968	176.31
474.187	155.31
474.406	148.31
474.625	150.31
474.844	162.31
475.063	159.31
475.282	164.31
475.501	161.31
475.72	171.31
475.939	145.31
476.158	159.31
476.377	175.31
476.596	152.31
476.814	162.31
477.033	158.31
477.252	154.31
477.471	145.31
477.69	171.31
477.908	174.31
478.127	174.31
478.346	159.31
478.564	182.31
478.783	162.31
479.002	168.31
479.22	160.31
479.439	151.31
479.658	163.31
479.876	156.31
480.095	168.31
480.313	163.31
480.532	163.31
480.751	167.31
480.969	157.31
481.188	152.31
481.406	156.31
481.624	166.31
481.843	141.31
482.061	171.31
482.28	168.31
482.498	167.31
482.717	167.31
482.935	160.31
483.153	183.31
483.372	176.31
483.59	178.31
483.808	164.31
484.027	180.31
484.245	158.31
484.463	173.31
484.681	192.31
484.9	176.31
485.118	169.31
485.336	155.31
485.554	157.31
485.772	162.31
485.99	174.31
486.209	161.31
486.427	161.31
486.645	146.31
486.863	162.31
487.081	175.31
487.299	173.31
487.517	183.31
487.735	205.31
487.953	189.31
488.171	194.31
488.389	178.31
488.607	170.31
488.825	166.31
489.043	167.31
489.261	185.31
489.479	175.31
489.696	188.31
489.914	180.31
490.132	159.31
490.35	193.31
490.568	195.31
490.786	197.31
491.003	192.31
491.221	194.31
491.439	187.31
491.657	206.31
491.874	211.31
492.092	216.31
492.31	213.31
492.527	203.31
492.745	199.31
492.963	207.31
493.18	213.31
493.398	198.31
493.615	192.31
493.833	202.31
494.05	196.31
494.268	186.31
494.485	189.31
494.703	187.31
494.92	192.31
495.138	201.31
495.355	202.31
495.573	197.31
495.79	192.31
496.008	210.31
496.225	195.31
496.442	180.31
496.66	217.31
496.877	188.31
497.094	190.31
497.312	217.31
497.529	183.31
497.746	184.31
497.963	175.31
498.181	172.31
498.398	192.31
498.615	195.31
498.832	179.31
499.049	191.31
499.267	199.31
499.484	202.31
499.701	208.31
499.918	212.31
500.135	207.31
500.352	212.31
500.569	232.31
500.786	282.31
501.003	232.31
501.22	219.31
501.437	222.31
501.654	209.31
501.871	200.31
502.088	196.31
502.305	217.31
502.522	200.31
502.739	178.31
502.956	190.31
503.172	188.31
503.389	196.31
503.606	176.31
503.823	179.31
504.04	198.31
