Data from TenMicroDelayPb_HRD10591_00009.txt Node
Date: Mon Nov 24 14:56:59 EST 2025
User: Yrep
Spectrometer: HR+D1059
Trigger mode: 5
Integration Time (sec): 3.000000E-2
Scans to average: 1
Electric dark correction enabled: true
Nonlinearity correction enabled: false
Boxcar width: 0
XAxis mode: Wavelengths
Number of Pixels in Spectrum: 2048
>>>>>Begin Spectral Data<<<<<
223.165	-21.56
223.4	-21.56
223.635	-21.56
223.869	-38.56
224.104	-30.56
224.338	-17.56
224.573	-31.56
224.808	-25.56
225.042	-2.56
225.277	2.44
225.511	-7.56
225.746	5.44
225.98	24.44
226.215	22.44
226.449	25.44
226.683	22.44
226.918	26.44
227.152	46.44
227.387	57.44
227.621	34.44
227.856	53.44
228.09	42.44
228.324	55.44
228.559	67.44
228.793	70.44
229.027	83.44
229.262	62.44
229.496	75.44
229.73	72.44
229.964	90.44
230.199	87.44
230.433	88.44
230.667	77.44
230.901	87.44
231.136	78.44
231.37	80.44
231.604	86.44
231.838	82.44
232.072	78.44
232.306	79.44
232.541	97.44
232.775	93.44
233.009	87.44
233.243	73.44
233.477	89.44
233.711	104.44
233.945	89.44
234.179	73.44
234.413	76.44
234.647	68.44
234.881	89.44
235.115	76.44
235.349	83.44
235.583	85.44
235.817	86.44
236.051	72.44
236.285	90.44
236.519	88.44
236.753	83.44
236.987	81.44
237.221	80.44
237.455	74.44
237.689	74.44
237.922	85.44
238.156	81.44
238.39	85.44
238.624	89.44
238.858	78.44
239.091	86.44
239.325	94.44
239.559	78.44
239.793	90.44
240.027	107.44
240.26	97.44
240.494	99.44
240.728	79.44
240.961	72.44
241.195	78.44
241.429	93.44
241.662	90.44
241.896	90.44
242.13	92.44
242.363	79.44
242.597	72.44
242.83	81.44
243.064	76.44
243.298	97.44
243.531	85.44
243.765	91.44
243.998	89.44
244.232	86.44
244.465	95.44
244.699	105.44
244.932	93.44
245.166	98.44
245.399	81.44
245.633	85.44
245.866	81.44
246.099	91.44
246.333	88.44
246.566	80.44
246.8	94.44
247.033	103.44
247.266	81.44
247.5	96.44
247.733	85.44
247.966	98.44
248.2	82.44
248.433	80.44
248.666	89.44
248.899	89.44
249.133	92.44
249.366	91.44
249.599	91.44
249.832	94.44
250.066	105.44
250.299	89.44
250.532	90.44
250.765	107.44
250.998	96.44
251.231	99.44
251.465	117.44
251.698	93.44
251.931	104.44
252.164	87.44
252.397	91.44
252.63	97.44
252.863	84.44
253.096	99.44
253.329	97.44
253.562	95.44
253.795	104.44
254.028	105.44
254.261	114.44
254.494	100.44
254.727	118.44
254.96	114.44
255.193	104.44
255.426	90.44
255.659	90.44
255.892	102.44
256.124	103.44
256.357	116.44
256.59	101.44
256.823	90.44
257.056	105.44
257.289	110.44
257.521	102.44
257.754	117.44
257.987	114.44
258.22	123.44
258.452	105.44
258.685	111.44
258.918	109.44
259.151	99.44
259.383	121.44
259.616	92.44
259.849	109.44
260.081	113.44
260.314	113.44
260.547	114.44
260.779	131.44
261.012	111.44
261.244	122.44
261.477	156.44
261.71	144.44
261.942	115.44
262.175	114.44
262.407	102.44
262.64	108.44
262.872	96.44
263.105	113.44
263.337	108.44
263.57	107.44
263.802	114.44
264.035	110.44
264.267	109.44
264.499	120.44
264.732	117.44
264.964	118.44
265.197	113.44
265.429	97.44
265.661	118.44
265.894	103.44
266.126	118.44
266.358	140.44
266.591	130.44
266.823	122.44
267.055	104.44
267.287	105.44
267.52	88.44
267.752	105.44
267.984	84.44
268.216	119.44
268.448	116.44
268.681	115.44
268.913	104.44
269.145	109.44
269.377	101.44
269.609	101.44
269.841	120.44
270.073	109.44
270.306	103.44
270.538	106.44
270.77	85.44
271.002	105.44
271.234	105.44
271.466	114.44
271.698	101.44
271.93	97.44
272.162	91.44
272.394	126.44
272.626	106.44
272.858	117.44
273.09	108.44
273.322	117.44
273.553	98.44
273.785	91.44
274.017	112.44
274.249	106.44
274.481	113.44
274.713	105.44
274.945	113.44
275.176	98.44
275.408	105.44
275.64	103.44
275.872	107.44
276.104	96.44
276.335	125.44
276.567	110.44
276.799	110.44
277.031	106.44
277.262	113.44
277.494	136.44
277.726	113.44
277.957	102.44
278.189	120.44
278.421	124.44
278.652	105.44
278.884	118.44
279.115	115.44
279.347	133.44
279.579	133.44
279.81	136.44
280.042	171.44
280.273	191.44
280.505	181.44
280.736	148.44
280.968	141.44
281.199	131.44
281.431	135.44
281.662	128.44
281.894	127.44
282.125	139.44
282.356	130.44
282.588	130.44
282.819	131.44
283.051	144.44
283.282	143.44
283.513	195.44
283.745	143.44
283.976	124.44
284.207	118.44
284.439	120.44
284.67	112.44
284.901	105.44
285.132	118.44
285.364	123.44
285.595	114.44
285.826	116.44
286.057	122.44
286.288	125.44
286.52	127.44
286.751	113.44
286.982	149.44
287.213	143.44
287.444	173.44
287.675	151.44
287.906	135.44
288.138	130.44
288.369	113.44
288.6	118.44
288.831	109.44
289.062	131.44
289.293	115.44
289.524	106.44
289.755	108.44
289.986	121.44
290.217	106.44
290.448	94.44
290.679	117.44
290.91	121.44
291.141	114.44
291.371	133.44
291.602	104.44
291.833	105.44
292.064	119.44
292.295	116.44
292.526	111.44
292.757	123.44
292.987	113.44
293.218	113.44
293.449	114.44
293.68	124.44
293.91	117.44
294.141	133.44
294.372	118.44
294.603	113.44
294.833	115.44
295.064	102.44
295.295	121.44
295.525	120.44
295.756	131.44
295.987	107.44
296.217	116.44
296.448	123.44
296.679	113.44
296.909	116.44
297.14	122.44
297.37	123.44
297.601	121.44
297.831	121.44
298.062	120.44
298.292	113.44
298.523	107.44
298.753	110.44
298.984	126.44
299.214	113.44
299.445	117.44
299.675	103.44
299.905	115.44
300.136	117.44
300.366	110.44
300.597	110.44
300.827	121.44
301.057	105.44
301.288	106.44
301.518	122.44
301.748	114.44
301.979	185.44
302.209	116.44
302.439	111.44
302.669	121.44
302.9	116.44
303.13	123.44
303.36	130.44
303.59	118.44
303.82	114.44
304.051	117.44
304.281	125.44
304.511	125.44
304.741	134.44
304.971	105.44
305.201	136.44
305.431	119.44
305.661	123.44
305.891	120.44
306.121	131.44
306.352	106.44
306.582	128.44
306.812	117.44
307.042	119.44
307.272	120.44
307.502	112.44
307.731	123.44
307.961	136.44
308.191	111.44
308.421	107.44
308.651	118.44
308.881	115.44
309.111	131.44
309.341	105.44
309.571	106.44
309.8	96.44
310.03	118.44
310.26	128.44
310.49	118.44
310.72	130.44
310.949	112.44
311.179	125.44
311.409	113.44
311.639	113.44
311.868	111.44
312.098	114.44
312.328	113.44
312.557	111.44
312.787	102.44
313.017	147.44
313.246	147.44
313.476	125.44
313.706	114.44
313.935	121.44
314.165	134.44
314.394	128.44
314.624	139.44
314.853	137.44
315.083	134.44
315.312	125.44
315.542	129.44
315.771	126.44
316.001	127.44
316.23	115.44
316.46	121.44
316.689	144.44
316.919	135.44
317.148	126.44
317.377	140.44
317.607	135.44
317.836	139.44
318.065	126.44
318.295	121.44
318.524	112.44
318.753	126.44
318.983	131.44
319.212	124.44
319.441	116.44
319.67	123.44
319.9	125.44
320.129	125.44
320.358	134.44
320.587	126.44
320.816	114.44
321.046	140.44
321.275	136.44
321.504	120.44
321.733	136.44
321.962	134.44
322.191	112.44
322.42	120.44
322.649	122.44
322.878	137.44
323.108	129.44
323.337	123.44
323.566	120.44
323.795	144.44
324.024	117.44
324.253	120.44
324.482	121.44
324.71	126.44
324.939	127.44
325.168	118.44
325.397	122.44
325.626	130.44
325.855	125.44
326.084	143.44
326.313	122.44
326.542	136.44
326.77	118.44
326.999	118.44
327.228	128.44
327.457	111.44
327.686	123.44
327.914	131.44
328.143	138.44
328.372	126.44
328.6	113.44
328.829	132.44
329.058	120.44
329.287	128.44
329.515	129.44
329.744	125.44
329.972	112.44
330.201	139.44
330.43	138.44
330.658	119.44
330.887	119.44
331.115	118.44
331.344	112.44
331.572	129.44
331.801	125.44
332.03	128.44
332.258	117.44
332.486	110.44
332.715	123.44
332.943	108.44
333.172	107.44
333.4	133.44
333.629	119.44
333.857	130.44
334.085	117.44
334.314	119.44
334.542	119.44
334.771	123.44
334.999	118.44
335.227	133.44
335.455	144.44
335.684	138.44
335.912	129.44
336.14	127.44
336.369	122.44
336.597	131.44
336.825	129.44
337.053	136.44
337.281	128.44
337.51	110.44
337.738	124.44
337.966	121.44
338.194	118.44
338.422	113.44
338.65	127.44
338.878	135.44
339.106	118.44
339.334	135.44
339.562	125.44
339.79	117.44
340.018	139.44
340.246	108.44
340.474	118.44
340.702	110.44
340.93	129.44
341.158	116.44
341.386	122.44
341.614	114.44
341.842	116.44
342.07	122.44
342.298	121.44
342.526	103.44
342.754	111.44
342.981	127.44
343.209	132.44
343.437	165.44
343.665	130.44
343.893	125.44
344.12	134.44
344.348	118.44
344.576	129.44
344.804	114.44
345.031	132.44
345.259	118.44
345.487	128.44
345.714	123.44
345.942	127.44
346.17	116.44
346.397	130.44
346.625	131.44
346.853	107.44
347.08	113.44
347.308	122.44
347.535	124.44
347.763	134.44
347.99	131.44
348.218	114.44
348.445	109.44
348.673	123.44
348.9	135.44
349.128	131.44
349.355	128.44
349.583	119.44
349.81	112.44
350.037	125.44
350.265	127.44
350.492	119.44
350.72	106.44
350.947	134.44
351.174	140.44
351.402	119.44
351.629	128.44
351.856	131.44
352.083	125.44
352.311	126.44
352.538	122.44
352.765	126.44
352.992	141.44
353.22	119.44
353.447	122.44
353.674	129.44
353.901	133.44
354.128	129.44
354.355	126.44
354.583	116.44
354.81	140.44
355.037	124.44
355.264	125.44
355.491	123.44
355.718	122.44
355.945	130.44
356.172	134.44
356.399	114.44
356.626	139.44
356.853	161.44
357.08	193.44
357.307	219.44
357.534	230.44
357.761	177.44
357.988	167.44
358.215	155.44
358.441	142.44
358.668	146.44
358.895	137.44
359.122	146.44
359.349	139.44
359.576	125.44
359.802	130.44
360.029	145.44
360.256	136.44
360.483	118.44
360.709	141.44
360.936	140.44
361.163	123.44
361.39	120.44
361.616	128.44
361.843	138.44
362.07	130.44
362.296	131.44
362.523	132.44
362.749	150.44
362.976	138.44
363.203	155.44
363.429	161.44
363.656	183.44
363.882	243.44
364.109	272.44
364.335	232.44
364.562	169.44
364.788	155.44
365.015	145.44
365.241	171.44
365.468	156.44
365.694	145.44
365.92	138.44
366.147	133.44
366.373	129.44
366.599	127.44
366.826	134.44
367.052	175.44
367.278	190.44
367.505	168.44
367.731	199.44
367.957	203.44
368.184	248.44
368.41	317.44
368.636	277.44
368.862	204.44
369.089	183.44
369.315	147.44
369.541	152.44
369.767	169.44
369.993	157.44
370.219	116.44
370.445	130.44
370.672	138.44
370.898	139.44
371.124	137.44
371.35	119.44
371.576	143.44
371.802	139.44
372.028	134.44
372.254	137.44
372.48	150.44
372.706	127.44
372.932	114.44
373.158	136.44
373.384	171.44
373.61	177.44
373.835	198.44
374.061	241.44
374.287	225.44
374.513	191.44
374.739	165.44
374.965	135.44
375.191	157.44
375.416	142.44
375.642	148.44
375.868	145.44
376.094	129.44
376.319	129.44
376.545	124.44
376.771	118.44
376.997	124.44
377.222	130.44
377.448	146.44
377.674	139.44
377.899	139.44
378.125	138.44
378.35	131.44
378.576	123.44
378.802	120.44
379.027	147.44
379.253	139.44
379.478	127.44
379.704	146.44
379.929	141.44
380.155	137.44
380.38	119.44
380.606	131.44
380.831	128.44
381.057	138.44
381.282	132.44
381.507	130.44
381.733	149.44
381.958	136.44
382.184	135.44
382.409	146.44
382.634	141.44
382.86	128.44
383.085	140.44
383.31	144.44
383.535	157.44
383.761	139.44
383.986	132.44
384.211	131.44
384.436	140.44
384.662	135.44
384.887	131.44
385.112	133.44
385.337	127.44
385.562	137.44
385.787	116.44
386.013	149.44
386.238	138.44
386.463	127.44
386.688	191.44
386.913	133.44
387.138	127.44
387.363	126.44
387.588	128.44
387.813	130.44
388.038	142.44
388.263	135.44
388.488	136.44
388.713	137.44
388.938	127.44
389.163	131.44
389.387	136.44
389.612	135.44
389.837	130.44
390.062	121.44
390.287	134.44
390.512	134.44
390.736	141.44
390.961	123.44
391.186	141.44
391.411	128.44
391.636	145.44
391.86	145.44
392.085	130.44
392.31	145.44
392.534	143.44
392.759	147.44
392.984	130.44
393.208	139.44
393.433	137.44
393.658	137.44
393.882	130.44
394.107	127.44
394.331	122.44
394.556	127.44
394.78	141.44
395.005	130.44
395.229	137.44
395.454	147.44
395.678	139.44
395.903	150.44
396.127	154.44
396.352	136.44
396.576	123.44
396.801	145.44
397.025	133.44
397.249	142.44
397.474	170.44
397.698	152.44
397.922	162.44
398.147	144.44
398.371	137.44
398.595	144.44
398.82	137.44
399.044	138.44
399.268	157.44
399.492	152.44
399.717	161.44
399.941	149.44
400.165	153.44
400.389	140.44
400.613	142.44
400.837	138.44
401.062	141.44
401.286	153.44
401.51	146.44
401.734	172.44
401.958	166.44
402.182	162.44
402.406	154.44
402.63	142.44
402.854	151.44
403.078	161.44
403.302	149.44
403.526	150.44
403.75	149.44
403.974	147.44
404.198	153.44
404.422	162.44
404.645	175.44
404.869	177.44
405.093	172.44
405.317	225.44
405.541	295.44
405.765	415.44
405.988	463.44
406.212	372.44
406.436	259.44
406.66	233.44
406.883	217.44
407.107	184.44
407.331	182.44
407.555	189.44
407.778	201.44
408.002	167.44
408.226	186.44
408.449	174.44
408.673	161.44
408.896	175.44
409.12	151.44
409.344	167.44
409.567	153.44
409.791	173.44
410.014	158.44
410.238	151.44
410.461	157.44
410.685	162.44
410.908	144.44
411.132	173.44
411.355	153.44
411.578	160.44
411.802	155.44
412.025	138.44
412.249	152.44
412.472	141.44
412.695	149.44
412.919	165.44
413.142	143.44
413.365	161.44
413.589	171.44
413.812	150.44
414.035	146.44
414.258	155.44
414.482	138.44
414.705	148.44
414.928	175.44
415.151	167.44
415.374	159.44
415.597	149.44
415.821	148.44
416.044	135.44
416.267	156.44
416.49	166.44
416.713	179.44
416.936	174.44
417.159	160.44
417.382	149.44
417.605	167.44
417.828	152.44
418.051	121.44
418.274	162.44
418.497	160.44
418.72	146.44
418.943	152.44
419.166	155.44
419.389	160.44
419.611	169.44
419.834	159.44
420.057	178.44
420.28	154.44
420.503	143.44
420.726	152.44
420.948	155.44
421.171	157.44
421.394	154.44
421.617	166.44
421.839	152.44
422.062	167.44
422.285	167.44
422.507	160.44
422.73	143.44
422.953	145.44
423.175	170.44
423.398	179.44
423.621	171.44
423.843	183.44
424.066	175.44
424.288	199.44
424.511	213.44
424.733	242.44
424.956	234.44
425.178	206.44
425.401	194.44
425.623	196.44
425.846	185.44
426.068	183.44
426.291	182.44
426.513	167.44
426.735	173.44
426.958	166.44
427.18	165.44
427.402	149.44
427.625	142.44
427.847	136.44
428.069	161.44
428.292	155.44
428.514	165.44
428.736	153.44
428.958	159.44
429.181	165.44
429.403	156.44
429.625	172.44
429.847	150.44
430.069	162.44
430.292	181.44
430.514	157.44
430.736	150.44
430.958	170.44
431.18	163.44
431.402	165.44
431.624	149.44
431.846	147.44
432.068	156.44
432.29	141.44
432.512	173.44
432.734	166.44
432.956	174.44
433.178	173.44
433.4	160.44
433.622	163.44
433.844	159.44
434.066	147.44
434.287	155.44
434.509	151.44
434.731	160.44
434.953	151.44
435.175	155.44
435.397	168.44
435.618	166.44
435.84	159.44
436.062	165.44
436.284	169.44
436.505	159.44
436.727	141.44
436.949	155.44
437.17	153.44
437.392	162.44
437.614	173.44
437.835	166.44
438.057	167.44
438.278	181.44
438.5	181.44
438.721	216.44
438.943	235.44
439.165	212.44
439.386	207.44
439.608	207.44
439.829	199.44
440.05	210.44
440.272	210.44
440.493	196.44
440.715	199.44
440.936	214.44
441.158	209.44
441.379	201.44
441.6	185.44
441.822	187.44
442.043	205.44
442.264	193.44
442.486	175.44
442.707	166.44
442.928	168.44
443.149	178.44
443.371	170.44
443.592	161.44
443.813	169.44
444.034	166.44
444.255	179.44
444.476	181.44
444.698	177.44
444.919	183.44
445.14	563.44
445.361	343.44
445.582	185.44
445.803	163.44
446.024	172.44
446.245	183.44
446.466	185.44
446.687	172.44
446.908	173.44
447.129	158.44
447.35	187.44
447.571	181.44
447.792	171.44
448.013	152.44
448.234	159.44
448.455	179.44
448.675	173.44
448.896	151.44
449.117	160.44
449.338	167.44
449.559	171.44
449.779	161.44
450	159.44
450.221	156.44
450.442	161.44
450.662	141.44
450.883	159.44
451.104	164.44
451.324	143.44
451.545	164.44
451.766	160.44
451.986	168.44
452.207	157.44
452.428	153.44
452.648	166.44
452.869	153.44
453.089	137.44
453.31	143.44
453.53	149.44
453.751	150.44
453.971	143.44
454.192	153.44
454.412	145.44
454.633	141.44
454.853	164.44
455.073	146.44
455.294	136.44
455.514	160.44
455.734	139.44
455.955	141.44
456.175	155.44
456.395	140.44
456.616	133.44
456.836	131.44
457.056	137.44
457.276	136.44
457.497	137.44
457.717	145.44
457.937	144.44
458.157	141.44
458.377	138.44
458.598	139.44
458.818	134.44
459.038	129.44
459.258	137.44
459.478	153.44
459.698	145.44
459.918	143.44
460.138	130.44
460.358	146.44
460.578	156.44
460.798	150.44
461.018	150.44
461.238	160.44
461.458	162.44
461.678	154.44
461.898	161.44
462.118	154.44
462.338	143.44
462.558	151.44
462.777	186.44
462.997	167.44
463.217	144.44
463.437	153.44
463.657	157.44
463.876	146.44
464.096	155.44
464.316	152.44
464.536	142.44
464.755	147.44
464.975	154.44
465.195	153.44
465.414	158.44
465.634	151.44
465.854	144.44
466.073	157.44
466.293	154.44
466.512	151.44
466.732	162.44
466.951	178.44
467.171	144.44
467.391	149.44
467.61	147.44
467.829	152.44
468.049	165.44
468.268	153.44
468.488	149.44
468.707	163.44
468.927	151.44
469.146	132.44
469.365	167.44
469.585	176.44
469.804	160.44
470.023	156.44
470.243	151.44
470.462	171.44
470.681	145.44
470.901	144.44
471.12	144.44
471.339	166.44
471.558	158.44
471.777	161.44
471.997	151.44
472.216	162.44
472.435	155.44
472.654	138.44
472.873	144.44
473.092	150.44
473.311	151.44
473.53	132.44
473.749	162.44
473.968	169.44
474.187	161.44
474.406	151.44
474.625	156.44
474.844	166.44
475.063	148.44
475.282	168.44
475.501	143.44
475.72	174.44
475.939	153.44
476.158	159.44
476.377	163.44
476.596	173.44
476.814	145.44
477.033	146.44
477.252	142.44
477.471	158.44
477.69	165.44
477.908	171.44
478.127	183.44
478.346	155.44
478.564	174.44
478.783	158.44
479.002	175.44
479.22	174.44
479.439	174.44
479.658	170.44
479.876	142.44
480.095	135.44
480.313	167.44
480.532	162.44
480.751	165.44
480.969	147.44
481.188	165.44
481.406	154.44
481.624	144.44
481.843	145.44
482.061	157.44
482.28	151.44
482.498	151.44
482.717	154.44
482.935	185.44
483.153	170.44
483.372	169.44
483.59	166.44
483.808	153.44
484.027	165.44
484.245	181.44
484.463	182.44
484.681	190.44
484.9	162.44
485.118	166.44
485.336	152.44
485.554	157.44
485.772	160.44
485.99	163.44
486.209	145.44
486.427	149.44
486.645	161.44
486.863	169.44
487.081	167.44
487.299	173.44
487.517	187.44
487.735	180.44
487.953	192.44
488.171	176.44
488.389	193.44
488.607	172.44
488.825	143.44
489.043	160.44
489.261	193.44
489.479	192.44
489.696	184.44
489.914	172.44
490.132	167.44
490.35	185.44
490.568	205.44
490.786	183.44
491.003	187.44
491.221	200.44
491.439	168.44
491.657	171.44
491.874	210.44
492.092	194.44
492.31	219.44
492.527	193.44
492.745	188.44
492.963	201.44
493.18	203.44
493.398	188.44
493.615	183.44
493.833	184.44
494.05	178.44
494.268	186.44
494.485	193.44
494.703	194.44
494.92	195.44
495.138	194.44
495.355	195.44
495.573	206.44
495.79	185.44
496.008	191.44
496.225	187.44
496.442	174.44
496.66	197.44
496.877	191.44
497.094	207.44
497.312	165.44
497.529	190.44
497.746	192.44
497.963	159.44
498.181	170.44
498.398	195.44
498.615	190.44
498.832	175.44
499.049	190.44
499.267	194.44
499.484	193.44
499.701	208.44
499.918	222.44
500.135	210.44
500.352	221.44
500.569	242.44
500.786	254.44
501.003	219.44
501.22	205.44
501.437	205.44
501.654	206.44
501.871	197.44
502.088	192.44
502.305	211.44
502.522	189.44
502.739	198.44
502.956	198.44
503.172	202.44
503.389	176.44
503.606	164.44
503.823	180.44
504.04	193.44
504.256	202.44
