Data from TenMicroDelayPb_HRD10591_00010.txt Node
Date: Mon Nov 24 14:56:59 EST 2025
User: Yrep
Spectrometer: HR+D1059
Trigger mode: 5
Integration Time (sec): 3.000000E-2
Scans to average: 1
Electric dark correction enabled: true
Nonlinearity correction enabled: false
Boxcar width: 0
XAxis mode: Wavelengths
Number of Pixels in Spectrum: 2048
>>>>>Begin Spectral Data<<<<<
223.165	-28.62
223.4	-28.62
223.635	-28.62
223.869	-30.62
224.104	-35.62
224.338	-24.62
224.573	-7.62
224.808	-16.62
225.042	3.38
225.277	1.38
225.511	5.38
225.746	18.38
225.98	9.38
226.215	15.38
226.449	5.38
226.683	16.38
226.918	26.38
227.152	42.38
227.387	33.38
227.621	34.38
227.856	45.38
228.09	40.38
228.324	51.38
228.559	72.38
228.793	61.38
229.027	72.38
229.262	73.38
229.496	72.38
229.73	73.38
229.964	78.38
230.199	77.38
230.433	68.38
230.667	81.38
230.901	82.38
231.136	68.38
231.37	86.38
231.604	82.38
231.838	98.38
232.072	78.38
232.306	94.38
232.541	89.38
232.775	89.38
233.009	101.38
233.243	96.38
233.477	91.38
233.711	90.38
233.945	91.38
234.179	93.38
234.413	102.38
234.647	83.38
234.881	83.38
235.115	90.38
235.349	74.38
235.583	88.38
235.817	98.38
236.051	82.38
236.285	83.38
236.519	91.38
236.753	89.38
236.987	76.38
237.221	79.38
237.455	93.38
237.689	84.38
237.922	90.38
238.156	88.38
238.39	83.38
238.624	90.38
238.858	99.38
239.091	81.38
239.325	98.38
239.559	83.38
239.793	92.38
240.027	103.38
240.26	108.38
240.494	106.38
240.728	81.38
240.961	79.38
241.195	92.38
241.429	83.38
241.662	88.38
241.896	92.38
242.13	86.38
242.363	80.38
242.597	88.38
242.83	102.38
243.064	89.38
243.298	95.38
243.531	100.38
243.765	94.38
243.998	107.38
244.232	99.38
244.465	94.38
244.699	96.38
244.932	96.38
245.166	89.38
245.399	81.38
245.633	103.38
245.866	84.38
246.099	86.38
246.333	97.38
246.566	80.38
246.8	92.38
247.033	80.38
247.266	92.38
247.5	95.38
247.733	89.38
247.966	94.38
248.2	103.38
248.433	107.38
248.666	91.38
248.899	112.38
249.133	113.38
249.366	104.38
249.599	111.38
249.832	98.38
250.066	118.38
250.299	98.38
250.532	110.38
250.765	99.38
250.998	97.38
251.231	111.38
251.465	98.38
251.698	95.38
251.931	91.38
252.164	107.38
252.397	100.38
252.63	110.38
252.863	86.38
253.096	103.38
253.329	122.38
253.562	99.38
253.795	96.38
254.028	124.38
254.261	104.38
254.494	90.38
254.727	119.38
254.96	99.38
255.193	103.38
255.426	91.38
255.659	95.38
255.892	123.38
256.124	95.38
256.357	107.38
256.59	101.38
256.823	100.38
257.056	121.38
257.289	116.38
257.521	138.38
257.754	105.38
257.987	99.38
258.22	104.38
258.452	113.38
258.685	102.38
258.918	112.38
259.151	110.38
259.383	90.38
259.616	100.38
259.849	111.38
260.081	110.38
260.314	102.38
260.547	95.38
260.779	120.38
261.012	116.38
261.244	114.38
261.477	179.38
261.71	146.38
261.942	121.38
262.175	118.38
262.407	98.38
262.64	97.38
262.872	99.38
263.105	132.38
263.337	118.38
263.57	109.38
263.802	126.38
264.035	121.38
264.267	108.38
264.499	98.38
264.732	132.38
264.964	118.38
265.197	110.38
265.429	121.38
265.661	100.38
265.894	116.38
266.126	146.38
266.358	123.38
266.591	140.38
266.823	121.38
267.055	114.38
267.287	121.38
267.52	111.38
267.752	110.38
267.984	106.38
268.216	116.38
268.448	113.38
268.681	112.38
268.913	120.38
269.145	86.38
269.377	111.38
269.609	111.38
269.841	132.38
270.073	118.38
270.306	116.38
270.538	120.38
270.77	100.38
271.002	112.38
271.234	103.38
271.466	113.38
271.698	103.38
271.93	99.38
272.162	102.38
272.394	104.38
272.626	95.38
272.858	108.38
273.09	108.38
273.322	103.38
273.553	98.38
273.785	103.38
274.017	102.38
274.249	125.38
274.481	103.38
274.713	101.38
274.945	112.38
275.176	105.38
275.408	121.38
275.64	114.38
275.872	120.38
276.104	113.38
276.335	115.38
276.567	113.38
276.799	114.38
277.031	107.38
277.262	120.38
277.494	118.38
277.726	129.38
277.957	119.38
278.189	118.38
278.421	111.38
278.652	126.38
278.884	116.38
279.115	123.38
279.347	132.38
279.579	136.38
279.81	149.38
280.042	179.38
280.273	190.38
280.505	195.38
280.736	160.38
280.968	136.38
281.199	126.38
281.431	134.38
281.662	138.38
281.894	135.38
282.125	130.38
282.356	149.38
282.588	142.38
282.819	155.38
283.051	144.38
283.282	170.38
283.513	182.38
283.745	152.38
283.976	137.38
284.207	139.38
284.439	109.38
284.67	126.38
284.901	122.38
285.132	128.38
285.364	97.38
285.595	122.38
285.826	130.38
286.057	147.38
286.288	132.38
286.52	132.38
286.751	131.38
286.982	140.38
287.213	146.38
287.444	172.38
287.675	164.38
287.906	136.38
288.138	140.38
288.369	122.38
288.6	125.38
288.831	115.38
289.062	126.38
289.293	124.38
289.524	122.38
289.755	119.38
289.986	130.38
290.217	130.38
290.448	120.38
290.679	129.38
290.91	114.38
291.141	122.38
291.371	108.38
291.602	121.38
291.833	122.38
292.064	119.38
292.295	117.38
292.526	116.38
292.757	116.38
292.987	114.38
293.218	110.38
293.449	121.38
293.68	112.38
293.91	119.38
294.141	121.38
294.372	113.38
294.603	130.38
294.833	118.38
295.064	114.38
295.295	104.38
295.525	106.38
295.756	113.38
295.987	115.38
296.217	119.38
296.448	112.38
296.679	115.38
296.909	130.38
297.14	106.38
297.37	123.38
297.601	127.38
297.831	121.38
298.062	126.38
298.292	109.38
298.523	125.38
298.753	129.38
298.984	117.38
299.214	122.38
299.445	119.38
299.675	120.38
299.905	118.38
300.136	97.38
300.366	90.38
300.597	131.38
300.827	133.38
301.057	108.38
301.288	130.38
301.518	145.38
301.748	118.38
301.979	170.38
302.209	114.38
302.439	127.38
302.669	119.38
302.9	117.38
303.13	122.38
303.36	121.38
303.59	117.38
303.82	112.38
304.051	124.38
304.281	123.38
304.511	131.38
304.741	126.38
304.971	130.38
305.201	130.38
305.431	141.38
305.661	128.38
305.891	121.38
306.121	121.38
306.352	114.38
306.582	114.38
306.812	125.38
307.042	113.38
307.272	118.38
307.502	132.38
307.731	123.38
307.961	114.38
308.191	114.38
308.421	119.38
308.651	128.38
308.881	122.38
309.111	118.38
309.341	122.38
309.571	113.38
309.8	108.38
310.03	114.38
310.26	129.38
310.49	132.38
310.72	126.38
310.949	115.38
311.179	124.38
311.409	131.38
311.639	124.38
311.868	120.38
312.098	137.38
312.328	122.38
312.557	130.38
312.787	126.38
313.017	141.38
313.246	147.38
313.476	123.38
313.706	126.38
313.935	131.38
314.165	124.38
314.394	158.38
314.624	142.38
314.853	148.38
315.083	128.38
315.312	148.38
315.542	149.38
315.771	131.38
316.001	121.38
316.23	151.38
316.46	130.38
316.689	134.38
316.919	144.38
317.148	140.38
317.377	150.38
317.607	126.38
317.836	126.38
318.065	130.38
318.295	125.38
318.524	110.38
318.753	138.38
318.983	113.38
319.212	130.38
319.441	121.38
319.67	124.38
319.9	128.38
320.129	138.38
320.358	126.38
320.587	121.38
320.816	122.38
321.046	114.38
321.275	137.38
321.504	135.38
321.733	118.38
321.962	139.38
322.191	126.38
322.42	130.38
322.649	140.38
322.878	117.38
323.108	130.38
323.337	132.38
323.566	119.38
323.795	136.38
324.024	139.38
324.253	136.38
324.482	120.38
324.71	126.38
324.939	137.38
325.168	121.38
325.397	131.38
325.626	114.38
325.855	131.38
326.084	122.38
326.313	118.38
326.542	122.38
326.77	120.38
326.999	122.38
327.228	131.38
327.457	100.38
327.686	124.38
327.914	139.38
328.143	136.38
328.372	123.38
328.6	118.38
328.829	142.38
329.058	132.38
329.287	120.38
329.515	116.38
329.744	156.38
329.972	106.38
330.201	112.38
330.43	119.38
330.658	134.38
330.887	128.38
331.115	126.38
331.344	135.38
331.572	130.38
331.801	140.38
332.03	132.38
332.258	116.38
332.486	122.38
332.715	125.38
332.943	133.38
333.172	118.38
333.4	113.38
333.629	141.38
333.857	124.38
334.085	125.38
334.314	131.38
334.542	115.38
334.771	138.38
334.999	129.38
335.227	129.38
335.455	130.38
335.684	149.38
335.912	137.38
336.14	137.38
336.369	136.38
336.597	124.38
336.825	143.38
337.053	112.38
337.281	131.38
337.51	124.38
337.738	153.38
337.966	127.38
338.194	117.38
338.422	126.38
338.65	140.38
338.878	141.38
339.106	127.38
339.334	138.38
339.562	118.38
339.79	123.38
340.018	126.38
340.246	126.38
340.474	119.38
340.702	122.38
340.93	126.38
341.158	131.38
341.386	124.38
341.614	115.38
341.842	135.38
342.07	134.38
342.298	132.38
342.526	122.38
342.754	126.38
342.981	124.38
343.209	141.38
343.437	175.38
343.665	118.38
343.893	132.38
344.12	135.38
344.348	140.38
344.576	124.38
344.804	131.38
345.031	141.38
345.259	122.38
345.487	134.38
345.714	130.38
345.942	137.38
346.17	131.38
346.397	143.38
346.625	131.38
346.853	128.38
347.08	129.38
347.308	147.38
347.535	126.38
347.763	124.38
347.99	128.38
348.218	136.38
348.445	106.38
348.673	116.38
348.9	136.38
349.128	133.38
349.355	116.38
349.583	133.38
349.81	125.38
350.037	126.38
350.265	135.38
350.492	126.38
350.72	102.38
350.947	124.38
351.174	124.38
351.402	111.38
351.629	124.38
351.856	126.38
352.083	123.38
352.311	109.38
352.538	118.38
352.765	134.38
352.992	156.38
353.22	128.38
353.447	125.38
353.674	132.38
353.901	147.38
354.128	123.38
354.355	126.38
354.583	130.38
354.81	126.38
355.037	119.38
355.264	131.38
355.491	126.38
355.718	128.38
355.945	145.38
356.172	151.38
356.399	147.38
356.626	148.38
356.853	169.38
357.08	197.38
357.307	233.38
357.534	240.38
357.761	212.38
357.988	195.38
358.215	159.38
358.441	146.38
358.668	144.38
358.895	143.38
359.122	143.38
359.349	132.38
359.576	150.38
359.802	130.38
360.029	136.38
360.256	140.38
360.483	127.38
360.709	129.38
360.936	148.38
361.163	141.38
361.39	134.38
361.616	127.38
361.843	146.38
362.07	134.38
362.296	143.38
362.523	143.38
362.749	124.38
362.976	138.38
363.203	168.38
363.429	161.38
363.656	216.38
363.882	234.38
364.109	276.38
364.335	213.38
364.562	184.38
364.788	162.38
365.015	163.38
365.241	154.38
365.468	147.38
365.694	138.38
365.92	139.38
366.147	150.38
366.373	146.38
366.599	150.38
366.826	172.38
367.052	157.38
367.278	194.38
367.505	183.38
367.731	222.38
367.957	224.38
368.184	263.38
368.41	330.38
368.636	289.38
368.862	232.38
369.089	180.38
369.315	176.38
369.541	170.38
369.767	158.38
369.993	160.38
370.219	134.38
370.445	148.38
370.672	143.38
370.898	137.38
371.124	129.38
371.35	139.38
371.576	143.38
371.802	141.38
372.028	145.38
372.254	140.38
372.48	136.38
372.706	132.38
372.932	136.38
373.158	141.38
373.384	171.38
373.61	187.38
373.835	230.38
374.061	246.38
374.287	242.38
374.513	197.38
374.739	169.38
374.965	151.38
375.191	142.38
375.416	159.38
375.642	131.38
375.868	153.38
376.094	152.38
376.319	131.38
376.545	136.38
376.771	134.38
376.997	140.38
377.222	129.38
377.448	143.38
377.674	122.38
377.899	135.38
378.125	134.38
378.35	148.38
378.576	119.38
378.802	128.38
379.027	140.38
379.253	137.38
379.478	142.38
379.704	134.38
379.929	141.38
380.155	144.38
380.38	144.38
380.606	142.38
380.831	150.38
381.057	175.38
381.282	140.38
381.507	142.38
381.733	144.38
381.958	143.38
382.184	119.38
382.409	141.38
382.634	131.38
382.86	126.38
383.085	137.38
383.31	128.38
383.535	143.38
383.761	140.38
383.986	142.38
384.211	142.38
384.436	133.38
384.662	153.38
384.887	131.38
385.112	142.38
385.337	137.38
385.562	140.38
385.787	132.38
386.013	135.38
386.238	129.38
386.463	143.38
386.688	186.38
386.913	132.38
387.138	130.38
387.363	127.38
387.588	149.38
387.813	151.38
388.038	138.38
388.263	143.38
388.488	143.38
388.713	147.38
388.938	139.38
389.163	130.38
389.387	148.38
389.612	126.38
389.837	130.38
390.062	131.38
390.287	128.38
390.512	132.38
390.736	140.38
390.961	136.38
391.186	134.38
391.411	137.38
391.636	143.38
391.86	154.38
392.085	146.38
392.31	128.38
392.534	147.38
392.759	152.38
392.984	131.38
393.208	141.38
393.433	154.38
393.658	147.38
393.882	146.38
394.107	135.38
394.331	140.38
394.556	153.38
394.78	149.38
395.005	152.38
395.229	153.38
395.454	134.38
395.678	140.38
395.903	158.38
396.127	145.38
396.352	142.38
396.576	150.38
396.801	134.38
397.025	126.38
397.249	147.38
397.474	169.38
397.698	145.38
397.922	155.38
398.147	146.38
398.371	136.38
398.595	148.38
398.82	140.38
399.044	144.38
399.268	158.38
399.492	156.38
399.717	154.38
399.941	161.38
400.165	145.38
400.389	160.38
400.613	147.38
400.837	145.38
401.062	154.38
401.286	154.38
401.51	142.38
401.734	159.38
401.958	179.38
402.182	162.38
402.406	158.38
402.63	152.38
402.854	180.38
403.078	153.38
403.302	134.38
403.526	144.38
403.75	170.38
403.974	173.38
404.198	175.38
404.422	182.38
404.645	178.38
404.869	188.38
405.093	211.38
405.317	223.38
405.541	302.38
405.765	440.38
405.988	484.38
406.212	377.38
406.436	272.38
406.66	240.38
406.883	229.38
407.107	210.38
407.331	187.38
407.555	201.38
407.778	170.38
408.002	164.38
408.226	162.38
408.449	190.38
408.673	167.38
408.896	174.38
409.12	172.38
409.344	168.38
409.567	156.38
409.791	156.38
410.014	151.38
410.238	152.38
410.461	179.38
410.685	162.38
410.908	140.38
411.132	174.38
411.355	156.38
411.578	161.38
411.802	168.38
412.025	152.38
412.249	150.38
412.472	158.38
412.695	158.38
412.919	175.38
413.142	153.38
413.365	143.38
413.589	141.38
413.812	171.38
414.035	178.38
414.258	159.38
414.482	147.38
414.705	162.38
414.928	172.38
415.151	158.38
415.374	145.38
415.597	150.38
415.821	153.38
416.044	157.38
416.267	157.38
416.49	156.38
416.713	173.38
416.936	170.38
417.159	160.38
417.382	150.38
417.605	149.38
417.828	168.38
418.051	147.38
418.274	146.38
418.497	169.38
418.72	178.38
418.943	176.38
419.166	150.38
419.389	162.38
419.611	173.38
419.834	145.38
420.057	162.38
420.28	147.38
420.503	164.38
420.726	159.38
420.948	148.38
421.171	158.38
421.394	163.38
421.617	172.38
421.839	170.38
422.062	160.38
422.285	150.38
422.507	162.38
422.73	162.38
422.953	182.38
423.175	170.38
423.398	186.38
423.621	172.38
423.843	190.38
424.066	206.38
424.288	210.38
424.511	231.38
424.733	242.38
424.956	230.38
425.178	216.38
425.401	202.38
425.623	201.38
425.846	191.38
426.068	173.38
426.291	178.38
426.513	173.38
426.735	189.38
426.958	168.38
427.18	191.38
427.402	183.38
427.625	165.38
427.847	142.38
428.069	178.38
428.292	191.38
428.514	174.38
428.736	174.38
428.958	167.38
429.181	172.38
429.403	158.38
429.625	158.38
429.847	172.38
430.069	185.38
430.292	172.38
430.514	162.38
430.736	145.38
430.958	161.38
431.18	167.38
431.402	151.38
431.624	148.38
431.846	146.38
432.068	147.38
432.29	152.38
432.512	160.38
432.734	174.38
432.956	182.38
433.178	180.38
433.4	178.38
433.622	165.38
433.844	171.38
434.066	174.38
434.287	171.38
434.509	163.38
434.731	180.38
434.953	155.38
435.175	158.38
435.397	174.38
435.618	161.38
435.84	155.38
436.062	172.38
436.284	174.38
436.505	182.38
436.727	185.38
436.949	174.38
437.17	171.38
437.392	146.38
437.614	171.38
437.835	173.38
438.057	167.38
438.278	191.38
438.5	208.38
438.721	226.38
438.943	241.38
439.165	213.38
439.386	216.38
439.608	218.38
439.829	222.38
440.05	213.38
440.272	211.38
440.493	204.38
440.715	204.38
440.936	204.38
441.158	204.38
441.379	222.38
441.6	197.38
441.822	199.38
442.043	196.38
442.264	196.38
442.486	194.38
442.707	191.38
442.928	183.38
443.149	194.38
443.371	186.38
443.592	192.38
443.813	183.38
444.034	198.38
444.255	176.38
444.476	193.38
444.698	181.38
444.919	181.38
445.14	546.38
445.361	364.38
445.582	194.38
445.803	185.38
446.024	171.38
446.245	205.38
446.466	205.38
446.687	161.38
446.908	189.38
447.129	178.38
447.35	182.38
447.571	185.38
447.792	169.38
448.013	175.38
448.234	189.38
448.455	183.38
448.675	168.38
448.896	180.38
449.117	150.38
449.338	158.38
449.559	179.38
449.779	159.38
450	163.38
450.221	162.38
450.442	185.38
450.662	170.38
450.883	174.38
451.104	196.38
451.324	161.38
451.545	166.38
451.766	160.38
451.986	150.38
452.207	168.38
452.428	159.38
452.648	168.38
452.869	175.38
453.089	143.38
453.31	155.38
453.53	141.38
453.751	126.38
453.971	158.38
454.192	143.38
454.412	156.38
454.633	148.38
454.853	148.38
455.073	169.38
455.294	143.38
455.514	168.38
455.734	155.38
455.955	151.38
456.175	145.38
456.395	157.38
456.616	157.38
456.836	146.38
457.056	170.38
457.276	140.38
457.497	144.38
457.717	140.38
457.937	159.38
458.157	142.38
458.377	134.38
458.598	147.38
458.818	154.38
459.038	126.38
459.258	147.38
459.478	141.38
459.698	142.38
459.918	152.38
460.138	144.38
460.358	152.38
460.578	179.38
460.798	155.38
461.018	163.38
461.238	157.38
461.458	170.38
461.678	144.38
461.898	157.38
462.118	157.38
462.338	170.38
462.558	168.38
462.777	160.38
462.997	163.38
463.217	150.38
463.437	159.38
463.657	141.38
463.876	161.38
464.096	156.38
464.316	138.38
464.536	171.38
464.755	160.38
464.975	153.38
465.195	163.38
465.414	172.38
465.634	157.38
465.854	157.38
466.073	166.38
466.293	164.38
466.512	156.38
466.732	156.38
466.951	155.38
467.171	159.38
467.391	151.38
467.61	161.38
467.829	154.38
468.049	154.38
468.268	161.38
468.488	166.38
468.707	168.38
468.927	148.38
469.146	158.38
469.365	169.38
469.585	160.38
469.804	166.38
470.023	153.38
470.243	157.38
470.462	162.38
470.681	171.38
470.901	172.38
471.12	152.38
471.339	170.38
471.558	164.38
471.777	162.38
471.997	159.38
472.216	154.38
472.435	143.38
472.654	143.38
472.873	151.38
473.092	162.38
473.311	163.38
473.53	149.38
473.749	166.38
473.968	170.38
474.187	160.38
474.406	148.38
474.625	161.38
474.844	184.38
475.063	150.38
475.282	155.38
475.501	161.38
475.72	184.38
475.939	155.38
476.158	149.38
476.377	146.38
476.596	147.38
476.814	162.38
477.033	148.38
477.252	148.38
477.471	146.38
477.69	176.38
477.908	156.38
478.127	175.38
478.346	159.38
478.564	164.38
478.783	157.38
479.002	181.38
479.22	179.38
479.439	172.38
479.658	170.38
479.876	162.38
480.095	152.38
480.313	183.38
480.532	171.38
480.751	162.38
480.969	156.38
481.188	145.38
481.406	151.38
481.624	167.38
481.843	168.38
482.061	159.38
482.28	164.38
482.498	164.38
482.717	154.38
482.935	178.38
483.153	186.38
483.372	168.38
483.59	182.38
483.808	179.38
484.027	177.38
484.245	166.38
484.463	158.38
484.681	202.38
484.9	168.38
485.118	176.38
485.336	148.38
485.554	152.38
485.772	155.38
485.99	156.38
486.209	141.38
486.427	143.38
486.645	171.38
486.863	179.38
487.081	168.38
487.299	180.38
487.517	174.38
487.735	172.38
487.953	189.38
488.171	195.38
488.389	173.38
488.607	162.38
488.825	161.38
489.043	168.38
489.261	194.38
489.479	172.38
489.696	188.38
489.914	167.38
490.132	190.38
490.35	177.38
490.568	189.38
490.786	200.38
491.003	185.38
491.221	192.38
491.439	188.38
491.657	195.38
491.874	198.38
492.092	222.38
492.31	211.38
492.527	200.38
492.745	202.38
492.963	194.38
493.18	207.38
493.398	191.38
493.615	202.38
493.833	186.38
494.05	190.38
494.268	185.38
494.485	190.38
494.703	182.38
494.92	206.38
495.138	189.38
495.355	212.38
495.573	216.38
495.79	207.38
496.008	219.38
496.225	195.38
496.442	200.38
496.66	225.38
496.877	195.38
497.094	211.38
497.312	185.38
497.529	197.38
497.746	168.38
497.963	173.38
498.181	169.38
498.398	186.38
498.615	191.38
498.832	177.38
499.049	197.38
499.267	204.38
499.484	206.38
499.701	206.38
499.918	207.38
500.135	209.38
500.352	230.38
500.569	247.38
500.786	291.38
501.003	247.38
501.22	210.38
501.437	202.38
501.654	200.38
501.871	193.38
502.088	200.38
502.305	197.38
502.522	177.38
502.739	200.38
502.956	203.38
503.172	208.38
503.389	195.38
503.606	184.38
503.823	190.38
504.04	200.38
