Data from TenMicroDelayPb_HRD10591_00003.txt Node
Date: Mon Nov 24 14:56:56 EST 2025
User: Yrep
Spectrometer: HR+D1059
Trigger mode: 5
Integration Time (sec): 3.000000E-2
Scans to average: 1
Electric dark correction enabled: true
Nonlinearity correction enabled: false
Boxcar width: 0
XAxis mode: Wavelengths
Number of Pixels in Spectrum: 2048
>>>>>Begin Spectral Data<<<<<
223.165	-34.25
223.4	-34.25
223.635	-34.25
223.869	-24.25
224.104	-20.25
224.338	-16.25
224.573	-10.25
224.808	-11.25
225.042	-3.25
225.277	-18.25
225.511	-0.25
225.746	13.75
225.98	13.75
226.215	12.75
226.449	16.75
226.683	11.75
226.918	27.75
227.152	41.75
227.387	33.75
227.621	29.75
227.856	41.75
228.09	38.75
228.324	36.75
228.559	50.75
228.793	53.75
229.027	71.75
229.262	69.75
229.496	73.75
229.73	66.75
229.964	75.75
230.199	66.75
230.433	90.75
230.667	75.75
230.901	78.75
231.136	88.75
231.37	74.75
231.604	90.75
231.838	83.75
232.072	89.75
232.306	90.75
232.541	101.75
232.775	82.75
233.009	80.75
233.243	88.75
233.477	86.75
233.711	79.75
233.945	91.75
234.179	76.75
234.413	98.75
234.647	85.75
234.881	101.75
235.115	88.75
235.349	95.75
235.583	88.75
235.817	72.75
236.051	89.75
236.285	84.75
236.519	88.75
236.753	85.75
236.987	88.75
237.221	79.75
237.455	86.75
237.689	70.75
237.922	106.75
238.156	74.75
238.39	72.75
238.624	74.75
238.858	92.75
239.091	86.75
239.325	101.75
239.559	100.75
239.793	90.75
240.027	106.75
240.26	84.75
240.494	95.75
240.728	71.75
240.961	86.75
241.195	107.75
241.429	82.75
241.662	74.75
241.896	94.75
242.13	88.75
242.363	93.75
242.597	82.75
242.83	92.75
243.064	88.75
243.298	89.75
243.531	83.75
243.765	83.75
243.998	104.75
244.232	98.75
244.465	89.75
244.699	103.75
244.932	114.75
245.166	95.75
245.399	86.75
245.633	92.75
245.866	88.75
246.099	82.75
246.333	88.75
246.566	100.75
246.8	91.75
247.033	86.75
247.266	84.75
247.5	89.75
247.733	92.75
247.966	93.75
248.2	97.75
248.433	86.75
248.666	74.75
248.899	90.75
249.133	91.75
249.366	111.75
249.599	85.75
249.832	82.75
250.066	93.75
250.299	78.75
250.532	90.75
250.765	91.75
250.998	92.75
251.231	93.75
251.465	103.75
251.698	100.75
251.931	87.75
252.164	93.75
252.397	106.75
252.63	86.75
252.863	117.75
253.096	123.75
253.329	98.75
253.562	87.75
253.795	106.75
254.028	111.75
254.261	103.75
254.494	105.75
254.727	96.75
254.96	113.75
255.193	103.75
255.426	100.75
255.659	104.75
255.892	110.75
256.124	107.75
256.357	94.75
256.59	120.75
256.823	94.75
257.056	115.75
257.289	118.75
257.521	110.75
257.754	113.75
257.987	118.75
258.22	115.75
258.452	122.75
258.685	99.75
258.918	95.75
259.151	96.75
259.383	104.75
259.616	90.75
259.849	98.75
260.081	116.75
260.314	104.75
260.547	105.75
260.779	128.75
261.012	113.75
261.244	125.75
261.477	171.75
261.71	152.75
261.942	124.75
262.175	140.75
262.407	116.75
262.64	102.75
262.872	117.75
263.105	105.75
263.337	130.75
263.57	114.75
263.802	107.75
264.035	100.75
264.267	108.75
264.499	110.75
264.732	120.75
264.964	113.75
265.197	116.75
265.429	118.75
265.661	116.75
265.894	103.75
266.126	116.75
266.358	122.75
266.591	128.75
266.823	122.75
267.055	105.75
267.287	106.75
267.52	102.75
267.752	104.75
267.984	94.75
268.216	94.75
268.448	124.75
268.681	109.75
268.913	108.75
269.145	107.75
269.377	101.75
269.609	97.75
269.841	94.75
270.073	127.75
270.306	97.75
270.538	95.75
270.77	106.75
271.002	116.75
271.234	108.75
271.466	110.75
271.698	85.75
271.93	88.75
272.162	109.75
272.394	110.75
272.626	112.75
272.858	98.75
273.09	102.75
273.322	114.75
273.553	100.75
273.785	102.75
274.017	116.75
274.249	98.75
274.481	117.75
274.713	82.75
274.945	109.75
275.176	107.75
275.408	102.75
275.64	110.75
275.872	108.75
276.104	113.75
276.335	117.75
276.567	98.75
276.799	113.75
277.031	104.75
277.262	116.75
277.494	126.75
277.726	115.75
277.957	126.75
278.189	102.75
278.421	122.75
278.652	134.75
278.884	142.75
279.115	127.75
279.347	126.75
279.579	141.75
279.81	151.75
280.042	176.75
280.273	198.75
280.505	188.75
280.736	154.75
280.968	152.75
281.199	141.75
281.431	114.75
281.662	135.75
281.894	122.75
282.125	150.75
282.356	143.75
282.588	141.75
282.819	135.75
283.051	158.75
283.282	153.75
283.513	185.75
283.745	151.75
283.976	129.75
284.207	138.75
284.439	122.75
284.67	113.75
284.901	114.75
285.132	114.75
285.364	128.75
285.595	104.75
285.826	114.75
286.057	129.75
286.288	117.75
286.52	130.75
286.751	139.75
286.982	126.75
287.213	142.75
287.444	145.75
287.675	136.75
287.906	125.75
288.138	116.75
288.369	144.75
288.6	114.75
288.831	100.75
289.062	130.75
289.293	141.75
289.524	110.75
289.755	103.75
289.986	118.75
290.217	110.75
290.448	92.75
290.679	121.75
290.91	116.75
291.141	127.75
291.371	118.75
291.602	119.75
291.833	110.75
292.064	133.75
292.295	108.75
292.526	126.75
292.757	104.75
292.987	118.75
293.218	123.75
293.449	128.75
293.68	108.75
293.91	106.75
294.141	117.75
294.372	94.75
294.603	110.75
294.833	115.75
295.064	114.75
295.295	114.75
295.525	113.75
295.756	129.75
295.987	121.75
296.217	108.75
296.448	120.75
296.679	130.75
296.909	125.75
297.14	128.75
297.37	124.75
297.601	110.75
297.831	119.75
298.062	122.75
298.292	112.75
298.523	124.75
298.753	127.75
298.984	113.75
299.214	104.75
299.445	113.75
299.675	116.75
299.905	108.75
300.136	130.75
300.366	118.75
300.597	104.75
300.827	123.75
301.057	118.75
301.288	110.75
301.518	104.75
301.748	106.75
301.979	189.75
302.209	118.75
302.439	130.75
302.669	118.75
302.9	104.75
303.13	114.75
303.36	111.75
303.59	124.75
303.82	113.75
304.051	136.75
304.281	121.75
304.511	136.75
304.741	114.75
304.971	118.75
305.201	121.75
305.431	115.75
305.661	117.75
305.891	113.75
306.121	134.75
306.352	116.75
306.582	122.75
306.812	121.75
307.042	109.75
307.272	115.75
307.502	117.75
307.731	133.75
307.961	116.75
308.191	132.75
308.421	121.75
308.651	126.75
308.881	133.75
309.111	108.75
309.341	123.75
309.571	121.75
309.8	120.75
310.03	122.75
310.26	129.75
310.49	130.75
310.72	101.75
310.949	125.75
311.179	120.75
311.409	118.75
311.639	111.75
311.868	127.75
312.098	134.75
312.328	128.75
312.557	122.75
312.787	140.75
313.017	138.75
313.246	138.75
313.476	132.75
313.706	135.75
313.935	122.75
314.165	142.75
314.394	149.75
314.624	126.75
314.853	148.75
315.083	130.75
315.312	148.75
315.542	120.75
315.771	127.75
316.001	144.75
316.23	127.75
316.46	121.75
316.689	127.75
316.919	120.75
317.148	123.75
317.377	137.75
317.607	140.75
317.836	146.75
318.065	135.75
318.295	133.75
318.524	143.75
318.753	137.75
318.983	121.75
319.212	127.75
319.441	120.75
319.67	144.75
319.9	122.75
320.129	119.75
320.358	115.75
320.587	119.75
320.816	110.75
321.046	120.75
321.275	144.75
321.504	130.75
321.733	133.75
321.962	112.75
322.191	139.75
322.42	125.75
322.649	129.75
322.878	126.75
323.108	128.75
323.337	122.75
323.566	120.75
323.795	136.75
324.024	132.75
324.253	122.75
324.482	127.75
324.71	118.75
324.939	129.75
325.168	104.75
325.397	120.75
325.626	130.75
325.855	110.75
326.084	121.75
326.313	125.75
326.542	128.75
326.77	127.75
326.999	113.75
327.228	115.75
327.457	129.75
327.686	138.75
327.914	148.75
328.143	125.75
328.372	125.75
328.6	122.75
328.829	118.75
329.058	108.75
329.287	141.75
329.515	130.75
329.744	136.75
329.972	129.75
330.201	129.75
330.43	127.75
330.658	133.75
330.887	117.75
331.115	130.75
331.344	138.75
331.572	145.75
331.801	135.75
332.03	116.75
332.258	139.75
332.486	125.75
332.715	118.75
332.943	126.75
333.172	111.75
333.4	117.75
333.629	135.75
333.857	130.75
334.085	105.75
334.314	125.75
334.542	129.75
334.771	139.75
334.999	132.75
335.227	134.75
335.455	125.75
335.684	140.75
335.912	137.75
336.14	121.75
336.369	126.75
336.597	120.75
336.825	133.75
337.053	131.75
337.281	117.75
337.51	130.75
337.738	126.75
337.966	126.75
338.194	125.75
338.422	130.75
338.65	129.75
338.878	135.75
339.106	114.75
339.334	140.75
339.562	133.75
339.79	133.75
340.018	120.75
340.246	108.75
340.474	123.75
340.702	142.75
340.93	123.75
341.158	117.75
341.386	117.75
341.614	117.75
341.842	111.75
342.07	128.75
342.298	124.75
342.526	128.75
342.754	121.75
342.981	128.75
343.209	126.75
343.437	167.75
343.665	127.75
343.893	124.75
344.12	152.75
344.348	133.75
344.576	134.75
344.804	121.75
345.031	121.75
345.259	130.75
345.487	113.75
345.714	137.75
345.942	125.75
346.17	148.75
346.397	122.75
346.625	125.75
346.853	138.75
347.08	130.75
347.308	127.75
347.535	129.75
347.763	133.75
347.99	130.75
348.218	123.75
348.445	110.75
348.673	134.75
348.9	132.75
349.128	138.75
349.355	105.75
349.583	109.75
349.81	117.75
350.037	124.75
350.265	136.75
350.492	100.75
350.72	117.75
350.947	129.75
351.174	140.75
351.402	130.75
351.629	112.75
351.856	120.75
352.083	126.75
352.311	130.75
352.538	101.75
352.765	121.75
352.992	153.75
353.22	136.75
353.447	118.75
353.674	130.75
353.901	141.75
354.128	128.75
354.355	125.75
354.583	140.75
354.81	132.75
355.037	130.75
355.264	145.75
355.491	143.75
355.718	129.75
355.945	139.75
356.172	145.75
356.399	155.75
356.626	142.75
356.853	161.75
357.08	204.75
357.307	232.75
357.534	240.75
357.761	201.75
357.988	168.75
358.215	157.75
358.441	157.75
358.668	132.75
358.895	158.75
359.122	129.75
359.349	138.75
359.576	138.75
359.802	145.75
360.029	133.75
360.256	133.75
360.483	145.75
360.709	131.75
360.936	168.75
361.163	128.75
361.39	125.75
361.616	132.75
361.843	136.75
362.07	142.75
362.296	135.75
362.523	139.75
362.749	154.75
362.976	151.75
363.203	194.75
363.429	151.75
363.656	213.75
363.882	258.75
364.109	293.75
364.335	241.75
364.562	187.75
364.788	151.75
365.015	168.75
365.241	149.75
365.468	154.75
365.694	130.75
365.92	149.75
366.147	132.75
366.373	141.75
366.599	153.75
366.826	152.75
367.052	161.75
367.278	185.75
367.505	181.75
367.731	206.75
367.957	209.75
368.184	282.75
368.41	334.75
368.636	312.75
368.862	245.75
369.089	192.75
369.315	172.75
369.541	193.75
369.767	164.75
369.993	144.75
370.219	143.75
370.445	134.75
370.672	141.75
370.898	143.75
371.124	150.75
371.35	128.75
371.576	152.75
371.802	133.75
372.028	142.75
372.254	148.75
372.48	143.75
372.706	114.75
372.932	150.75
373.158	158.75
373.384	161.75
373.61	192.75
373.835	229.75
374.061	245.75
374.287	233.75
374.513	180.75
374.739	162.75
374.965	156.75
375.191	153.75
375.416	147.75
375.642	145.75
375.868	161.75
376.094	141.75
376.319	139.75
376.545	134.75
376.771	130.75
376.997	117.75
377.222	120.75
377.448	145.75
377.674	126.75
377.899	148.75
378.125	123.75
378.35	128.75
378.576	118.75
378.802	141.75
379.027	140.75
379.253	137.75
379.478	126.75
379.704	132.75
379.929	130.75
380.155	123.75
380.38	124.75
380.606	123.75
380.831	128.75
381.057	138.75
381.282	138.75
381.507	125.75
381.733	129.75
381.958	140.75
382.184	132.75
382.409	137.75
382.634	142.75
382.86	144.75
383.085	142.75
383.31	153.75
383.535	140.75
383.761	124.75
383.986	140.75
384.211	135.75
384.436	130.75
384.662	118.75
384.887	130.75
385.112	135.75
385.337	123.75
385.562	116.75
385.787	144.75
386.013	136.75
386.238	138.75
386.463	136.75
386.688	179.75
386.913	127.75
387.138	146.75
387.363	142.75
387.588	165.75
387.813	133.75
388.038	145.75
388.263	147.75
388.488	122.75
388.713	129.75
388.938	150.75
389.163	128.75
389.387	120.75
389.612	138.75
389.837	140.75
390.062	137.75
390.287	136.75
390.512	148.75
390.736	128.75
390.961	141.75
391.186	140.75
391.411	135.75
391.636	144.75
391.86	130.75
392.085	147.75
392.31	119.75
392.534	133.75
392.759	155.75
392.984	146.75
393.208	143.75
393.433	144.75
393.658	146.75
393.882	135.75
394.107	132.75
394.331	145.75
394.556	133.75
394.78	149.75
395.005	149.75
395.229	143.75
395.454	148.75
395.678	140.75
395.903	151.75
396.127	158.75
396.352	155.75
396.576	128.75
396.801	146.75
397.025	157.75
397.249	155.75
397.474	154.75
397.698	143.75
397.922	141.75
398.147	157.75
398.371	143.75
398.595	159.75
398.82	160.75
399.044	143.75
399.268	146.75
399.492	160.75
399.717	157.75
399.941	149.75
400.165	158.75
400.389	151.75
400.613	157.75
400.837	154.75
401.062	157.75
401.286	169.75
401.51	168.75
401.734	172.75
401.958	172.75
402.182	157.75
402.406	138.75
402.63	152.75
402.854	164.75
403.078	166.75
403.302	167.75
403.526	168.75
403.75	172.75
403.974	160.75
404.198	161.75
404.422	180.75
404.645	174.75
404.869	184.75
405.093	209.75
405.317	255.75
405.541	340.75
405.765	436.75
405.988	487.75
406.212	370.75
406.436	289.75
406.66	249.75
406.883	230.75
407.107	203.75
407.331	183.75
407.555	194.75
407.778	175.75
408.002	172.75
408.226	164.75
408.449	183.75
408.673	166.75
408.896	168.75
409.12	167.75
409.344	157.75
409.567	168.75
409.791	144.75
410.014	151.75
410.238	148.75
410.461	156.75
410.685	172.75
410.908	169.75
411.132	166.75
411.355	153.75
411.578	170.75
411.802	165.75
412.025	143.75
412.249	157.75
412.472	153.75
412.695	149.75
412.919	167.75
413.142	168.75
413.365	165.75
413.589	152.75
413.812	157.75
414.035	161.75
414.258	161.75
414.482	155.75
414.705	148.75
414.928	157.75
415.151	154.75
415.374	157.75
415.597	148.75
415.821	152.75
416.044	143.75
416.267	165.75
416.49	172.75
416.713	180.75
416.936	170.75
417.159	152.75
417.382	159.75
417.605	150.75
417.828	165.75
418.051	161.75
418.274	173.75
418.497	172.75
418.72	171.75
418.943	161.75
419.166	152.75
419.389	164.75
419.611	153.75
419.834	148.75
420.057	145.75
420.28	142.75
420.503	166.75
420.726	157.75
420.948	151.75
421.171	183.75
421.394	155.75
421.617	178.75
421.839	154.75
422.062	164.75
422.285	159.75
422.507	164.75
422.73	163.75
422.953	153.75
423.175	173.75
423.398	180.75
423.621	185.75
423.843	183.75
424.066	204.75
424.288	206.75
424.511	231.75
424.733	262.75
424.956	238.75
425.178	225.75
425.401	206.75
425.623	192.75
425.846	199.75
426.068	176.75
426.291	174.75
426.513	182.75
426.735	189.75
426.958	173.75
427.18	170.75
427.402	188.75
427.625	171.75
427.847	166.75
428.069	158.75
428.292	148.75
428.514	177.75
428.736	175.75
428.958	149.75
429.181	174.75
429.403	167.75
429.625	152.75
429.847	166.75
430.069	162.75
430.292	178.75
430.514	151.75
430.736	173.75
430.958	164.75
431.18	170.75
431.402	170.75
431.624	168.75
431.846	152.75
432.068	145.75
432.29	151.75
432.512	168.75
432.734	160.75
432.956	174.75
433.178	167.75
433.4	166.75
433.622	182.75
433.844	172.75
434.066	168.75
434.287	176.75
434.509	147.75
434.731	159.75
434.953	151.75
435.175	162.75
435.397	173.75
435.618	161.75
435.84	158.75
436.062	166.75
436.284	167.75
436.505	166.75
436.727	168.75
436.949	169.75
437.17	174.75
437.392	166.75
437.614	169.75
437.835	172.75
438.057	169.75
438.278	206.75
438.5	207.75
438.721	248.75
438.943	253.75
439.165	236.75
439.386	220.75
439.608	218.75
439.829	207.75
440.05	214.75
440.272	208.75
440.493	219.75
440.715	229.75
440.936	226.75
441.158	255.75
441.379	208.75
441.6	198.75
441.822	200.75
442.043	189.75
442.264	192.75
442.486	200.75
442.707	185.75
442.928	184.75
443.149	191.75
443.371	194.75
443.592	170.75
443.813	188.75
444.034	185.75
444.255	188.75
444.476	182.75
444.698	172.75
444.919	190.75
445.14	572.75
445.361	365.75
445.582	171.75
445.803	166.75
446.024	173.75
446.245	191.75
446.466	193.75
446.687	169.75
446.908	196.75
447.129	190.75
447.35	169.75
447.571	188.75
447.792	188.75
448.013	151.75
448.234	170.75
448.455	176.75
448.675	156.75
448.896	178.75
449.117	177.75
449.338	174.75
449.559	177.75
449.779	165.75
450	170.75
450.221	172.75
450.442	170.75
450.662	168.75
450.883	157.75
451.104	184.75
451.324	161.75
451.545	164.75
451.766	159.75
451.986	180.75
452.207	162.75
452.428	166.75
452.648	152.75
452.869	173.75
453.089	150.75
453.31	143.75
453.53	144.75
453.751	160.75
453.971	149.75
454.192	131.75
454.412	142.75
454.633	143.75
454.853	158.75
455.073	165.75
455.294	148.75
455.514	168.75
455.734	158.75
455.955	145.75
456.175	141.75
456.395	154.75
456.616	145.75
456.836	143.75
457.056	145.75
457.276	146.75
457.497	143.75
457.717	139.75
457.937	150.75
458.157	139.75
458.377	140.75
458.598	147.75
458.818	125.75
459.038	134.75
459.258	140.75
459.478	137.75
459.698	160.75
459.918	158.75
460.138	144.75
460.358	161.75
460.578	155.75
460.798	152.75
461.018	160.75
461.238	157.75
461.458	169.75
461.678	157.75
461.898	153.75
462.118	165.75
462.338	162.75
462.558	157.75
462.777	157.75
462.997	164.75
463.217	150.75
463.437	149.75
463.657	153.75
463.876	152.75
464.096	142.75
464.316	148.75
464.536	160.75
464.755	164.75
464.975	145.75
465.195	159.75
465.414	165.75
465.634	143.75
465.854	160.75
466.073	160.75
466.293	156.75
466.512	160.75
466.732	166.75
466.951	159.75
467.171	142.75
467.391	153.75
467.61	158.75
467.829	153.75
468.049	160.75
468.268	147.75
468.488	157.75
468.707	158.75
468.927	165.75
469.146	143.75
469.365	155.75
469.585	167.75
469.804	160.75
470.023	139.75
470.243	156.75
470.462	168.75
470.681	162.75
470.901	166.75
471.12	155.75
471.339	164.75
471.558	157.75
471.777	171.75
471.997	159.75
472.216	170.75
472.435	150.75
472.654	134.75
472.873	144.75
473.092	166.75
473.311	155.75
473.53	151.75
473.749	153.75
473.968	161.75
474.187	159.75
474.406	142.75
474.625	167.75
474.844	164.75
475.063	154.75
475.282	158.75
475.501	141.75
475.72	166.75
475.939	158.75
476.158	162.75
476.377	164.75
476.596	144.75
476.814	154.75
477.033	157.75
477.252	148.75
477.471	158.75
477.69	162.75
477.908	152.75
478.127	177.75
478.346	151.75
478.564	159.75
478.783	178.75
479.002	188.75
479.22	171.75
479.439	173.75
479.658	157.75
479.876	160.75
480.095	148.75
480.313	168.75
480.532	161.75
480.751	145.75
480.969	158.75
481.188	158.75
481.406	167.75
481.624	153.75
481.843	153.75
482.061	160.75
482.28	156.75
482.498	144.75
482.717	145.75
482.935	185.75
483.153	178.75
483.372	185.75
483.59	169.75
483.808	156.75
484.027	190.75
484.245	166.75
484.463	153.75
484.681	187.75
484.9	169.75
485.118	165.75
485.336	169.75
485.554	171.75
485.772	142.75
485.99	146.75
486.209	149.75
486.427	164.75
486.645	156.75
486.863	161.75
487.081	165.75
487.299	169.75
487.517	184.75
487.735	192.75
487.953	200.75
488.171	198.75
488.389	199.75
488.607	186.75
488.825	164.75
489.043	166.75
489.261	186.75
489.479	187.75
489.696	191.75
489.914	166.75
490.132	190.75
490.35	202.75
490.568	179.75
490.786	173.75
491.003	174.75
491.221	189.75
491.439	199.75
491.657	197.75
491.874	213.75
492.092	213.75
492.31	216.75
492.527	208.75
492.745	210.75
492.963	206.75
493.18	198.75
493.398	215.75
493.615	198.75
493.833	197.75
494.05	201.75
494.268	210.75
494.485	190.75
494.703	199.75
494.92	181.75
495.138	182.75
495.355	202.75
495.573	205.75
495.79	197.75
496.008	212.75
496.225	204.75
496.442	182.75
496.66	221.75
496.877	180.75
497.094	197.75
497.312	193.75
497.529	192.75
497.746	202.75
497.963	192.75
498.181	166.75
498.398	170.75
498.615	195.75
498.832	206.75
499.049	189.75
499.267	209.75
499.484	178.75
499.701	192.75
499.918	217.75
500.135	224.75
500.352	209.75
500.569	224.75
500.786	271.75
501.003	248.75
501.22	216.75
501.437	205.75
501.654	194.75
501.871	181.75
502.088	200.75
502.305	209.75
502.522	197.75
502.739	191.75
502.956	215.75
503.172	191.75
503.389	194.75
503.606	195.75
503.823	191.75
504.04	198.75
