Data from TenMicroDelayPb_HRD10591_00007.txt Node
Date: Mon Nov 24 14:56:58 EST 2025
User: Yrep
Spectrometer: HR+D1059
Trigger mode: 5
Integration Time (sec): 3.000000E-2
Scans to average: 1
Electric dark correction enabled: true
Nonlinearity correction enabled: false
Boxcar width: 0
XAxis mode: Wavelengths
Number of Pixels in Spectrum: 2048
>>>>>Begin Spectral Data<<<<<
223.165	-31.75
223.4	-31.75
223.635	-31.75
223.869	-29.75
224.104	-37.75
224.338	9.25
224.573	-17.75
224.808	-10.75
225.042	-5.75
225.277	0.25
225.511	10.25
225.746	8.25
225.98	12.25
226.215	20.25
226.449	6.25
226.683	26.25
226.918	14.25
227.152	26.25
227.387	45.25
227.621	33.25
227.856	50.25
228.09	40.25
228.324	50.25
228.559	60.25
228.793	66.25
229.027	58.25
229.262	73.25
229.496	75.25
229.73	76.25
229.964	85.25
230.199	87.25
230.433	90.25
230.667	73.25
230.901	82.25
231.136	81.25
231.37	73.25
231.604	100.25
231.838	88.25
232.072	85.25
232.306	90.25
232.541	101.25
232.775	102.25
233.009	92.25
233.243	98.25
233.477	81.25
233.711	98.25
233.945	89.25
234.179	85.25
234.413	105.25
234.647	95.25
234.881	98.25
235.115	95.25
235.349	93.25
235.583	98.25
235.817	111.25
236.051	80.25
236.285	82.25
236.519	77.25
236.753	103.25
236.987	77.25
237.221	88.25
237.455	80.25
237.689	78.25
237.922	81.25
238.156	94.25
238.39	88.25
238.624	84.25
238.858	98.25
239.091	82.25
239.325	90.25
239.559	86.25
239.793	104.25
240.027	111.25
240.26	82.25
240.494	99.25
240.728	84.25
240.961	82.25
241.195	96.25
241.429	97.25
241.662	82.25
241.896	88.25
242.13	86.25
242.363	84.25
242.597	73.25
242.83	96.25
243.064	78.25
243.298	92.25
243.531	95.25
243.765	106.25
243.998	94.25
244.232	87.25
244.465	119.25
244.699	95.25
244.932	97.25
245.166	88.25
245.399	89.25
245.633	89.25
245.866	87.25
246.099	91.25
246.333	87.25
246.566	78.25
246.8	86.25
247.033	95.25
247.266	82.25
247.5	89.25
247.733	109.25
247.966	115.25
248.2	110.25
248.433	90.25
248.666	106.25
248.899	112.25
249.133	103.25
249.366	103.25
249.599	101.25
249.832	106.25
250.066	106.25
250.299	98.25
250.532	108.25
250.765	79.25
250.998	87.25
251.231	93.25
251.465	96.25
251.698	92.25
251.931	102.25
252.164	110.25
252.397	97.25
252.63	101.25
252.863	104.25
253.096	91.25
253.329	115.25
253.562	109.25
253.795	113.25
254.028	113.25
254.261	97.25
254.494	101.25
254.727	109.25
254.96	114.25
255.193	95.25
255.426	107.25
255.659	109.25
255.892	119.25
256.124	118.25
256.357	116.25
256.59	100.25
256.823	96.25
257.056	91.25
257.289	101.25
257.521	110.25
257.754	110.25
257.987	120.25
258.22	116.25
258.452	105.25
258.685	111.25
258.918	85.25
259.151	90.25
259.383	113.25
259.616	111.25
259.849	110.25
260.081	113.25
260.314	104.25
260.547	116.25
260.779	113.25
261.012	129.25
261.244	130.25
261.477	170.25
261.71	145.25
261.942	138.25
262.175	114.25
262.407	121.25
262.64	112.25
262.872	111.25
263.105	122.25
263.337	124.25
263.57	105.25
263.802	115.25
264.035	124.25
264.267	101.25
264.499	121.25
264.732	122.25
264.964	110.25
265.197	139.25
265.429	121.25
265.661	133.25
265.894	116.25
266.126	128.25
266.358	142.25
266.591	134.25
266.823	131.25
267.055	120.25
267.287	127.25
267.52	99.25
267.752	106.25
267.984	110.25
268.216	124.25
268.448	115.25
268.681	113.25
268.913	140.25
269.145	106.25
269.377	128.25
269.609	107.25
269.841	117.25
270.073	114.25
270.306	106.25
270.538	105.25
270.77	95.25
271.002	97.25
271.234	93.25
271.466	106.25
271.698	107.25
271.93	109.25
272.162	115.25
272.394	113.25
272.626	114.25
272.858	105.25
273.09	106.25
273.322	113.25
273.553	96.25
273.785	101.25
274.017	113.25
274.249	126.25
274.481	109.25
274.713	117.25
274.945	130.25
275.176	103.25
275.408	123.25
275.64	117.25
275.872	120.25
276.104	112.25
276.335	117.25
276.567	115.25
276.799	111.25
277.031	118.25
277.262	112.25
277.494	124.25
277.726	119.25
277.957	117.25
278.189	110.25
278.421	117.25
278.652	122.25
278.884	138.25
279.115	135.25
279.347	153.25
279.579	142.25
279.81	157.25
280.042	172.25
280.273	199.25
280.505	186.25
280.736	145.25
280.968	137.25
281.199	137.25
281.431	138.25
281.662	130.25
281.894	135.25
282.125	133.25
282.356	140.25
282.588	150.25
282.819	140.25
283.051	149.25
283.282	159.25
283.513	192.25
283.745	154.25
283.976	139.25
284.207	126.25
284.439	121.25
284.67	139.25
284.901	111.25
285.132	125.25
285.364	127.25
285.595	122.25
285.826	127.25
286.057	132.25
286.288	111.25
286.52	126.25
286.751	136.25
286.982	143.25
287.213	137.25
287.444	175.25
287.675	167.25
287.906	120.25
288.138	121.25
288.369	122.25
288.6	112.25
288.831	113.25
289.062	138.25
289.293	115.25
289.524	114.25
289.755	96.25
289.986	98.25
290.217	125.25
290.448	120.25
290.679	121.25
290.91	118.25
291.141	108.25
291.371	127.25
291.602	121.25
291.833	125.25
292.064	120.25
292.295	135.25
292.526	113.25
292.757	123.25
292.987	113.25
293.218	114.25
293.449	123.25
293.68	125.25
293.91	110.25
294.141	118.25
294.372	122.25
294.603	134.25
294.833	127.25
295.064	113.25
295.295	116.25
295.525	115.25
295.756	130.25
295.987	117.25
296.217	115.25
296.448	131.25
296.679	122.25
296.909	130.25
297.14	114.25
297.37	152.25
297.601	121.25
297.831	112.25
298.062	113.25
298.292	107.25
298.523	134.25
298.753	112.25
298.984	128.25
299.214	123.25
299.445	105.25
299.675	129.25
299.905	117.25
300.136	131.25
300.366	105.25
300.597	124.25
300.827	113.25
301.057	134.25
301.288	122.25
301.518	125.25
301.748	113.25
301.979	186.25
302.209	113.25
302.439	109.25
302.669	129.25
302.9	122.25
303.13	107.25
303.36	113.25
303.59	129.25
303.82	128.25
304.051	125.25
304.281	119.25
304.511	133.25
304.741	121.25
304.971	125.25
305.201	136.25
305.431	128.25
305.661	126.25
305.891	133.25
306.121	138.25
306.352	120.25
306.582	124.25
306.812	117.25
307.042	131.25
307.272	130.25
307.502	118.25
307.731	135.25
307.961	131.25
308.191	119.25
308.421	126.25
308.651	123.25
308.881	113.25
309.111	121.25
309.341	103.25
309.571	111.25
309.8	126.25
310.03	121.25
310.26	117.25
310.49	127.25
310.72	124.25
310.949	131.25
311.179	109.25
311.409	106.25
311.639	129.25
311.868	114.25
312.098	123.25
312.328	134.25
312.557	130.25
312.787	130.25
313.017	132.25
313.246	117.25
313.476	121.25
313.706	141.25
313.935	132.25
314.165	142.25
314.394	133.25
314.624	144.25
314.853	145.25
315.083	157.25
315.312	157.25
315.542	138.25
315.771	142.25
316.001	135.25
316.23	135.25
316.46	138.25
316.689	127.25
316.919	126.25
317.148	124.25
317.377	156.25
317.607	137.25
317.836	130.25
318.065	143.25
318.295	139.25
318.524	119.25
318.753	123.25
318.983	138.25
319.212	131.25
319.441	126.25
319.67	117.25
319.9	132.25
320.129	137.25
320.358	130.25
320.587	128.25
320.816	135.25
321.046	121.25
321.275	138.25
321.504	128.25
321.733	117.25
321.962	126.25
322.191	133.25
322.42	140.25
322.649	135.25
322.878	143.25
323.108	121.25
323.337	136.25
323.566	123.25
323.795	125.25
324.024	137.25
324.253	129.25
324.482	129.25
324.71	126.25
324.939	134.25
325.168	124.25
325.397	135.25
325.626	131.25
325.855	137.25
326.084	120.25
326.313	129.25
326.542	138.25
326.77	137.25
326.999	135.25
327.228	108.25
327.457	119.25
327.686	132.25
327.914	127.25
328.143	147.25
328.372	145.25
328.6	130.25
328.829	129.25
329.058	119.25
329.287	131.25
329.515	133.25
329.744	148.25
329.972	127.25
330.201	130.25
330.43	133.25
330.658	132.25
330.887	116.25
331.115	136.25
331.344	128.25
331.572	162.25
331.801	119.25
332.03	131.25
332.258	135.25
332.486	128.25
332.715	127.25
332.943	115.25
333.172	123.25
333.4	126.25
333.629	136.25
333.857	131.25
334.085	121.25
334.314	135.25
334.542	123.25
334.771	127.25
334.999	127.25
335.227	124.25
335.455	125.25
335.684	132.25
335.912	140.25
336.14	121.25
336.369	119.25
336.597	134.25
336.825	130.25
337.053	118.25
337.281	128.25
337.51	130.25
337.738	132.25
337.966	131.25
338.194	121.25
338.422	141.25
338.65	151.25
338.878	131.25
339.106	127.25
339.334	136.25
339.562	123.25
339.79	114.25
340.018	126.25
340.246	126.25
340.474	138.25
340.702	127.25
340.93	127.25
341.158	111.25
341.386	118.25
341.614	128.25
341.842	126.25
342.07	130.25
342.298	143.25
342.526	128.25
342.754	128.25
342.981	147.25
343.209	146.25
343.437	180.25
343.665	119.25
343.893	128.25
344.12	152.25
344.348	144.25
344.576	122.25
344.804	132.25
345.031	111.25
345.259	136.25
345.487	136.25
345.714	112.25
345.942	118.25
346.17	129.25
346.397	124.25
346.625	138.25
346.853	125.25
347.08	127.25
347.308	138.25
347.535	131.25
347.763	126.25
347.99	134.25
348.218	129.25
348.445	128.25
348.673	107.25
348.9	148.25
349.128	115.25
349.355	139.25
349.583	120.25
349.81	125.25
350.037	122.25
350.265	135.25
350.492	120.25
350.72	140.25
350.947	135.25
351.174	130.25
351.402	117.25
351.629	129.25
351.856	126.25
352.083	139.25
352.311	127.25
352.538	131.25
352.765	135.25
352.992	135.25
353.22	126.25
353.447	133.25
353.674	134.25
353.901	136.25
354.128	138.25
354.355	138.25
354.583	116.25
354.81	136.25
355.037	148.25
355.264	152.25
355.491	142.25
355.718	111.25
355.945	148.25
356.172	131.25
356.399	132.25
356.626	142.25
356.853	173.25
357.08	219.25
357.307	238.25
357.534	254.25
357.761	198.25
357.988	181.25
358.215	159.25
358.441	149.25
358.668	142.25
358.895	137.25
359.122	135.25
359.349	134.25
359.576	153.25
359.802	128.25
360.029	145.25
360.256	127.25
360.483	131.25
360.709	131.25
360.936	159.25
361.163	136.25
361.39	127.25
361.616	122.25
361.843	144.25
362.07	126.25
362.296	137.25
362.523	143.25
362.749	147.25
362.976	138.25
363.203	174.25
363.429	160.25
363.656	207.25
363.882	247.25
364.109	307.25
364.335	227.25
364.562	185.25
364.788	162.25
365.015	163.25
365.241	154.25
365.468	149.25
365.694	165.25
365.92	147.25
366.147	149.25
366.373	143.25
366.599	153.25
366.826	165.25
367.052	169.25
367.278	207.25
367.505	181.25
367.731	207.25
367.957	229.25
368.184	265.25
368.41	340.25
368.636	302.25
368.862	237.25
369.089	201.25
369.315	167.25
369.541	166.25
369.767	170.25
369.993	144.25
370.219	145.25
370.445	137.25
370.672	154.25
370.898	143.25
371.124	137.25
371.35	135.25
371.576	145.25
371.802	129.25
372.028	139.25
372.254	143.25
372.48	141.25
372.706	132.25
372.932	153.25
373.158	160.25
373.384	167.25
373.61	201.25
373.835	235.25
374.061	239.25
374.287	233.25
374.513	186.25
374.739	174.25
374.965	145.25
375.191	149.25
375.416	143.25
375.642	152.25
375.868	160.25
376.094	143.25
376.319	139.25
376.545	138.25
376.771	141.25
376.997	130.25
377.222	122.25
377.448	151.25
377.674	145.25
377.899	141.25
378.125	121.25
378.35	145.25
378.576	145.25
378.802	130.25
379.027	143.25
379.253	146.25
379.478	135.25
379.704	141.25
379.929	114.25
380.155	149.25
380.38	143.25
380.606	156.25
380.831	129.25
381.057	156.25
381.282	148.25
381.507	139.25
381.733	138.25
381.958	129.25
382.184	139.25
382.409	128.25
382.634	125.25
382.86	145.25
383.085	159.25
383.31	127.25
383.535	150.25
383.761	151.25
383.986	136.25
384.211	125.25
384.436	134.25
384.662	138.25
384.887	130.25
385.112	129.25
385.337	134.25
385.562	131.25
385.787	144.25
386.013	139.25
386.238	138.25
386.463	137.25
386.688	176.25
386.913	135.25
387.138	145.25
387.363	140.25
387.588	159.25
387.813	143.25
388.038	124.25
388.263	141.25
388.488	136.25
388.713	145.25
388.938	131.25
389.163	137.25
389.387	135.25
389.612	122.25
389.837	137.25
390.062	131.25
390.287	142.25
390.512	141.25
390.736	136.25
390.961	143.25
391.186	127.25
391.411	144.25
391.636	151.25
391.86	137.25
392.085	126.25
392.31	148.25
392.534	138.25
392.759	144.25
392.984	157.25
393.208	135.25
393.433	127.25
393.658	145.25
393.882	131.25
394.107	135.25
394.331	165.25
394.556	131.25
394.78	151.25
395.005	125.25
395.229	152.25
395.454	165.25
395.678	145.25
395.903	149.25
396.127	139.25
396.352	150.25
396.576	140.25
396.801	148.25
397.025	149.25
397.249	150.25
397.474	160.25
397.698	137.25
397.922	143.25
398.147	159.25
398.371	146.25
398.595	172.25
398.82	169.25
399.044	135.25
399.268	146.25
399.492	171.25
399.717	173.25
399.941	169.25
400.165	163.25
400.389	141.25
400.613	158.25
400.837	165.25
401.062	163.25
401.286	168.25
401.51	158.25
401.734	162.25
401.958	189.25
402.182	161.25
402.406	156.25
402.63	152.25
402.854	154.25
403.078	161.25
403.302	162.25
403.526	165.25
403.75	179.25
403.974	175.25
404.198	175.25
404.422	154.25
404.645	170.25
404.869	182.25
405.093	200.25
405.317	249.25
405.541	339.25
405.765	445.25
405.988	496.25
406.212	395.25
406.436	293.25
406.66	240.25
406.883	213.25
407.107	209.25
407.331	202.25
407.555	193.25
407.778	179.25
408.002	200.25
408.226	171.25
408.449	183.25
408.673	177.25
408.896	185.25
409.12	168.25
409.344	179.25
409.567	154.25
409.791	164.25
410.014	167.25
410.238	179.25
410.461	176.25
410.685	163.25
410.908	154.25
411.132	160.25
411.355	169.25
411.578	185.25
411.802	161.25
412.025	167.25
412.249	145.25
412.472	162.25
412.695	163.25
412.919	156.25
413.142	156.25
413.365	177.25
413.589	160.25
413.812	169.25
414.035	170.25
414.258	153.25
414.482	160.25
414.705	156.25
414.928	162.25
415.151	165.25
415.374	155.25
415.597	147.25
415.821	155.25
416.044	152.25
416.267	167.25
416.49	155.25
416.713	163.25
416.936	151.25
417.159	155.25
417.382	160.25
417.605	169.25
417.828	162.25
418.051	171.25
418.274	177.25
418.497	154.25
418.72	177.25
418.943	157.25
419.166	153.25
419.389	170.25
419.611	184.25
419.834	150.25
420.057	161.25
420.28	163.25
420.503	165.25
420.726	182.25
420.948	178.25
421.171	177.25
421.394	165.25
421.617	158.25
421.839	153.25
422.062	162.25
422.285	162.25
422.507	168.25
422.73	162.25
422.953	167.25
423.175	166.25
423.398	159.25
423.621	188.25
423.843	175.25
424.066	194.25
424.288	218.25
424.511	243.25
424.733	246.25
424.956	257.25
425.178	237.25
425.401	208.25
425.623	201.25
425.846	190.25
426.068	169.25
426.291	183.25
426.513	189.25
426.735	193.25
426.958	192.25
427.18	186.25
427.402	183.25
427.625	179.25
427.847	177.25
428.069	161.25
428.292	177.25
428.514	177.25
428.736	172.25
428.958	160.25
429.181	177.25
429.403	163.25
429.625	161.25
429.847	156.25
430.069	155.25
430.292	166.25
430.514	167.25
430.736	161.25
430.958	180.25
431.18	174.25
431.402	169.25
431.624	161.25
431.846	155.25
432.068	161.25
432.29	152.25
432.512	174.25
432.734	169.25
432.956	179.25
433.178	178.25
433.4	161.25
433.622	173.25
433.844	161.25
434.066	157.25
434.287	157.25
434.509	147.25
434.731	158.25
434.953	176.25
435.175	173.25
435.397	175.25
435.618	165.25
435.84	154.25
436.062	183.25
436.284	165.25
436.505	178.25
436.727	179.25
436.949	192.25
437.17	177.25
437.392	179.25
437.614	172.25
437.835	163.25
438.057	185.25
438.278	186.25
438.5	212.25
438.721	245.25
438.943	249.25
439.165	239.25
439.386	207.25
439.608	231.25
439.829	201.25
440.05	207.25
440.272	206.25
440.493	213.25
440.715	214.25
440.936	225.25
441.158	235.25
441.379	199.25
441.6	206.25
441.822	191.25
442.043	204.25
442.264	213.25
442.486	192.25
442.707	190.25
442.928	179.25
443.149	184.25
443.371	190.25
443.592	184.25
443.813	193.25
444.034	185.25
444.255	189.25
444.476	195.25
444.698	179.25
444.919	187.25
445.14	562.25
445.361	349.25
445.582	209.25
445.803	171.25
446.024	183.25
446.245	192.25
446.466	196.25
446.687	171.25
446.908	185.25
447.129	184.25
447.35	185.25
447.571	188.25
447.792	165.25
448.013	172.25
448.234	168.25
448.455	192.25
448.675	169.25
448.896	178.25
449.117	165.25
449.338	167.25
449.559	184.25
449.779	184.25
450	174.25
450.221	151.25
450.442	175.25
450.662	166.25
450.883	167.25
451.104	171.25
451.324	176.25
451.545	171.25
451.766	151.25
451.986	158.25
452.207	182.25
452.428	152.25
452.648	178.25
452.869	167.25
453.089	161.25
453.31	142.25
453.53	150.25
453.751	138.25
453.971	151.25
454.192	139.25
454.412	157.25
454.633	143.25
454.853	167.25
455.073	136.25
455.294	151.25
455.514	162.25
455.734	160.25
455.955	169.25
456.175	166.25
456.395	146.25
456.616	154.25
456.836	153.25
457.056	153.25
457.276	152.25
457.497	153.25
457.717	138.25
457.937	158.25
458.157	150.25
458.377	144.25
458.598	136.25
458.818	160.25
459.038	136.25
459.258	145.25
459.478	149.25
459.698	155.25
459.918	167.25
460.138	162.25
460.358	170.25
460.578	191.25
460.798	156.25
461.018	153.25
461.238	163.25
461.458	153.25
461.678	162.25
461.898	174.25
462.118	152.25
462.338	155.25
462.558	174.25
462.777	165.25
462.997	158.25
463.217	177.25
463.437	165.25
463.657	161.25
463.876	156.25
464.096	150.25
464.316	158.25
464.536	170.25
464.755	167.25
464.975	146.25
465.195	165.25
465.414	158.25
465.634	151.25
465.854	152.25
466.073	152.25
466.293	160.25
466.512	175.25
466.732	157.25
466.951	165.25
467.171	158.25
467.391	158.25
467.61	161.25
467.829	143.25
468.049	167.25
468.268	162.25
468.488	154.25
468.707	168.25
468.927	160.25
469.146	165.25
469.365	157.25
469.585	170.25
469.804	165.25
470.023	170.25
470.243	167.25
470.462	148.25
470.681	180.25
470.901	145.25
471.12	156.25
471.339	182.25
471.558	184.25
471.777	167.25
471.997	157.25
472.216	159.25
472.435	153.25
472.654	156.25
472.873	165.25
473.092	154.25
473.311	165.25
473.53	141.25
473.749	157.25
473.968	182.25
474.187	158.25
474.406	153.25
474.625	165.25
474.844	171.25
475.063	161.25
475.282	165.25
475.501	156.25
475.72	185.25
475.939	153.25
476.158	154.25
476.377	161.25
476.596	153.25
476.814	147.25
477.033	155.25
477.252	167.25
477.471	162.25
477.69	191.25
477.908	173.25
478.127	173.25
478.346	190.25
478.564	177.25
478.783	162.25
479.002	181.25
479.22	182.25
479.439	173.25
479.658	192.25
479.876	155.25
480.095	159.25
480.313	182.25
480.532	183.25
480.751	178.25
480.969	168.25
481.188	157.25
481.406	166.25
481.624	153.25
481.843	161.25
482.061	154.25
482.28	162.25
482.498	168.25
482.717	157.25
482.935	172.25
483.153	186.25
483.372	167.25
483.59	187.25
483.808	182.25
484.027	184.25
484.245	170.25
484.463	172.25
484.681	198.25
484.9	167.25
485.118	162.25
485.336	150.25
485.554	156.25
485.772	152.25
485.99	169.25
486.209	167.25
486.427	170.25
486.645	162.25
486.863	165.25
487.081	158.25
487.299	181.25
487.517	189.25
487.735	197.25
487.953	201.25
488.171	205.25
488.389	224.25
488.607	179.25
488.825	183.25
489.043	170.25
489.261	185.25
489.479	185.25
489.696	176.25
489.914	179.25
490.132	184.25
490.35	193.25
490.568	167.25
490.786	209.25
491.003	206.25
491.221	203.25
491.439	208.25
491.657	187.25
491.874	212.25
492.092	227.25
492.31	237.25
492.527	199.25
492.745	204.25
492.963	201.25
493.18	199.25
493.398	204.25
493.615	204.25
493.833	185.25
494.05	200.25
494.268	195.25
494.485	183.25
494.703	194.25
494.92	196.25
495.138	197.25
495.355	207.25
495.573	223.25
495.79	194.25
496.008	203.25
496.225	185.25
496.442	210.25
496.66	209.25
496.877	201.25
497.094	206.25
497.312	209.25
497.529	203.25
497.746	185.25
497.963	170.25
498.181	189.25
498.398	177.25
498.615	190.25
498.832	183.25
499.049	187.25
499.267	199.25
499.484	198.25
499.701	222.25
499.918	226.25
500.135	238.25
500.352	219.25
500.569	241.25
500.786	273.25
501.003	238.25
501.22	216.25
501.437	216.25
501.654	211.25
501.871	207.25
502.088	207.25
502.305	203.25
502.522	207.25
502.739	193.25
502.956	180.25
503.172	207.25
503.389	201.25
503.606	193.25
503.823	194.25
