Data from TenMicroDelayPb_HRD10591_00008.txt Node
Date: Mon Nov 24 14:56:58 EST 2025
User: Yrep
Spectrometer: HR+D1059
Trigger mode: 5
Integration Time (sec): 3.000000E-2
Scans to average: 1
Electric dark correction enabled: true
Nonlinearity correction enabled: false
Boxcar width: 0
XAxis mode: Wavelengths
Number of Pixels in Spectrum: 2048
>>>>>Begin Spectral Data<<<<<
223.165	-16.62
223.4	-16.62
223.635	-16.62
223.869	-28.62
224.104	-36.62
224.338	1.38
224.573	-24.62
224.808	-9.62
225.042	-14.62
225.277	4.38
225.511	-0.62
225.746	8.38
225.98	13.38
226.215	14.38
226.449	18.38
226.683	28.38
226.918	13.38
227.152	29.38
227.387	50.38
227.621	34.38
227.856	49.38
228.09	41.38
228.324	61.38
228.559	70.38
228.793	55.38
229.027	80.38
229.262	73.38
229.496	79.38
229.73	75.38
229.964	85.38
230.199	90.38
230.433	75.38
230.667	86.38
230.901	73.38
231.136	93.38
231.37	89.38
231.604	83.38
231.838	87.38
232.072	70.38
232.306	87.38
232.541	76.38
232.775	80.38
233.009	91.38
233.243	93.38
233.477	93.38
233.711	105.38
233.945	92.38
234.179	103.38
234.413	102.38
234.647	85.38
234.881	82.38
235.115	87.38
235.349	101.38
235.583	84.38
235.817	98.38
236.051	97.38
236.285	88.38
236.519	78.38
236.753	81.38
236.987	92.38
237.221	82.38
237.455	94.38
237.689	90.38
237.922	95.38
238.156	96.38
238.39	81.38
238.624	78.38
238.858	102.38
239.091	78.38
239.325	93.38
239.559	91.38
239.793	99.38
240.027	104.38
240.26	88.38
240.494	77.38
240.728	81.38
240.961	91.38
241.195	102.38
241.429	83.38
241.662	93.38
241.896	94.38
242.13	91.38
242.363	85.38
242.597	87.38
242.83	77.38
243.064	79.38
243.298	85.38
243.531	93.38
243.765	90.38
243.998	85.38
244.232	97.38
244.465	94.38
244.699	89.38
244.932	93.38
245.166	101.38
245.399	81.38
245.633	99.38
245.866	92.38
246.099	80.38
246.333	91.38
246.566	75.38
246.8	80.38
247.033	86.38
247.266	93.38
247.5	92.38
247.733	93.38
247.966	112.38
248.2	111.38
248.433	79.38
248.666	99.38
248.899	99.38
249.133	101.38
249.366	129.38
249.599	93.38
249.832	89.38
250.066	105.38
250.299	83.38
250.532	111.38
250.765	110.38
250.998	92.38
251.231	104.38
251.465	105.38
251.698	107.38
251.931	89.38
252.164	85.38
252.397	96.38
252.63	109.38
252.863	105.38
253.096	95.38
253.329	111.38
253.562	96.38
253.795	95.38
254.028	112.38
254.261	109.38
254.494	113.38
254.727	87.38
254.96	110.38
255.193	90.38
255.426	109.38
255.659	97.38
255.892	124.38
256.124	94.38
256.357	108.38
256.59	105.38
256.823	117.38
257.056	121.38
257.289	129.38
257.521	114.38
257.754	111.38
257.987	108.38
258.22	129.38
258.452	111.38
258.685	107.38
258.918	105.38
259.151	100.38
259.383	104.38
259.616	107.38
259.849	118.38
260.081	113.38
260.314	106.38
260.547	107.38
260.779	117.38
261.012	123.38
261.244	144.38
261.477	153.38
261.71	139.38
261.942	125.38
262.175	125.38
262.407	113.38
262.64	115.38
262.872	120.38
263.105	117.38
263.337	123.38
263.57	109.38
263.802	113.38
264.035	106.38
264.267	113.38
264.499	122.38
264.732	128.38
264.964	117.38
265.197	117.38
265.429	119.38
265.661	112.38
265.894	108.38
266.126	116.38
266.358	137.38
266.591	136.38
266.823	99.38
267.055	103.38
267.287	98.38
267.52	113.38
267.752	119.38
267.984	112.38
268.216	124.38
268.448	89.38
268.681	121.38
268.913	121.38
269.145	111.38
269.377	101.38
269.609	93.38
269.841	113.38
270.073	111.38
270.306	106.38
270.538	126.38
270.77	111.38
271.002	106.38
271.234	113.38
271.466	97.38
271.698	107.38
271.93	103.38
272.162	109.38
272.394	104.38
272.626	106.38
272.858	123.38
273.09	101.38
273.322	103.38
273.553	96.38
273.785	106.38
274.017	111.38
274.249	105.38
274.481	102.38
274.713	96.38
274.945	105.38
275.176	117.38
275.408	124.38
275.64	111.38
275.872	109.38
276.104	112.38
276.335	101.38
276.567	106.38
276.799	99.38
277.031	109.38
277.262	121.38
277.494	105.38
277.726	113.38
277.957	120.38
278.189	120.38
278.421	107.38
278.652	116.38
278.884	122.38
279.115	124.38
279.347	128.38
279.579	130.38
279.81	143.38
280.042	187.38
280.273	195.38
280.505	183.38
280.736	163.38
280.968	150.38
281.199	128.38
281.431	121.38
281.662	139.38
281.894	130.38
282.125	153.38
282.356	150.38
282.588	137.38
282.819	146.38
283.051	142.38
283.282	154.38
283.513	193.38
283.745	169.38
283.976	130.38
284.207	104.38
284.439	123.38
284.67	132.38
284.901	123.38
285.132	123.38
285.364	123.38
285.595	113.38
285.826	119.38
286.057	137.38
286.288	132.38
286.52	130.38
286.751	130.38
286.982	134.38
287.213	148.38
287.444	161.38
287.675	144.38
287.906	134.38
288.138	147.38
288.369	120.38
288.6	132.38
288.831	136.38
289.062	126.38
289.293	122.38
289.524	105.38
289.755	103.38
289.986	123.38
290.217	109.38
290.448	119.38
290.679	131.38
290.91	123.38
291.141	127.38
291.371	122.38
291.602	113.38
291.833	132.38
292.064	120.38
292.295	101.38
292.526	117.38
292.757	96.38
292.987	117.38
293.218	123.38
293.449	122.38
293.68	113.38
293.91	94.38
294.141	131.38
294.372	109.38
294.603	105.38
294.833	113.38
295.064	119.38
295.295	106.38
295.525	111.38
295.756	121.38
295.987	119.38
296.217	113.38
296.448	111.38
296.679	99.38
296.909	112.38
297.14	119.38
297.37	138.38
297.601	113.38
297.831	111.38
298.062	103.38
298.292	116.38
298.523	113.38
298.753	107.38
298.984	115.38
299.214	111.38
299.445	113.38
299.675	105.38
299.905	121.38
300.136	108.38
300.366	113.38
300.597	112.38
300.827	141.38
301.057	108.38
301.288	105.38
301.518	119.38
301.748	118.38
301.979	180.38
302.209	126.38
302.439	135.38
302.669	114.38
302.9	113.38
303.13	109.38
303.36	123.38
303.59	114.38
303.82	137.38
304.051	117.38
304.281	119.38
304.511	130.38
304.741	134.38
304.971	126.38
305.201	127.38
305.431	116.38
305.661	127.38
305.891	129.38
306.121	122.38
306.352	130.38
306.582	120.38
306.812	134.38
307.042	123.38
307.272	117.38
307.502	114.38
307.731	119.38
307.961	139.38
308.191	108.38
308.421	125.38
308.651	130.38
308.881	118.38
309.111	119.38
309.341	113.38
309.571	105.38
309.8	118.38
310.03	118.38
310.26	110.38
310.49	134.38
310.72	112.38
310.949	107.38
311.179	125.38
311.409	123.38
311.639	123.38
311.868	145.38
312.098	135.38
312.328	130.38
312.557	130.38
312.787	125.38
313.017	132.38
313.246	121.38
313.476	120.38
313.706	122.38
313.935	124.38
314.165	121.38
314.394	141.38
314.624	130.38
314.853	140.38
315.083	141.38
315.312	129.38
315.542	135.38
315.771	146.38
316.001	128.38
316.23	128.38
316.46	119.38
316.689	129.38
316.919	122.38
317.148	137.38
317.377	132.38
317.607	130.38
317.836	138.38
318.065	138.38
318.295	131.38
318.524	139.38
318.753	129.38
318.983	122.38
319.212	136.38
319.441	111.38
319.67	118.38
319.9	106.38
320.129	127.38
320.358	130.38
320.587	125.38
320.816	123.38
321.046	123.38
321.275	134.38
321.504	117.38
321.733	118.38
321.962	124.38
322.191	117.38
322.42	130.38
322.649	134.38
322.878	137.38
323.108	119.38
323.337	131.38
323.566	123.38
323.795	114.38
324.024	143.38
324.253	109.38
324.482	128.38
324.71	122.38
324.939	128.38
325.168	119.38
325.397	120.38
325.626	137.38
325.855	136.38
326.084	126.38
326.313	132.38
326.542	134.38
326.77	130.38
326.999	122.38
327.228	127.38
327.457	114.38
327.686	141.38
327.914	125.38
328.143	128.38
328.372	114.38
328.6	130.38
328.829	113.38
329.058	126.38
329.287	135.38
329.515	108.38
329.744	125.38
329.972	118.38
330.201	123.38
330.43	142.38
330.658	130.38
330.887	120.38
331.115	129.38
331.344	109.38
331.572	127.38
331.801	109.38
332.03	128.38
332.258	138.38
332.486	135.38
332.715	145.38
332.943	144.38
333.172	112.38
333.4	135.38
333.629	137.38
333.857	120.38
334.085	130.38
334.314	145.38
334.542	127.38
334.771	131.38
334.999	136.38
335.227	153.38
335.455	133.38
335.684	140.38
335.912	138.38
336.14	126.38
336.369	107.38
336.597	121.38
336.825	142.38
337.053	117.38
337.281	132.38
337.51	127.38
337.738	138.38
337.966	116.38
338.194	135.38
338.422	130.38
338.65	138.38
338.878	141.38
339.106	112.38
339.334	134.38
339.562	132.38
339.79	120.38
340.018	122.38
340.246	120.38
340.474	117.38
340.702	127.38
340.93	124.38
341.158	106.38
341.386	119.38
341.614	127.38
341.842	123.38
342.07	111.38
342.298	133.38
342.526	132.38
342.754	129.38
342.981	129.38
343.209	120.38
343.437	175.38
343.665	123.38
343.893	125.38
344.12	139.38
344.348	133.38
344.576	123.38
344.804	120.38
345.031	130.38
345.259	111.38
345.487	111.38
345.714	115.38
345.942	129.38
346.17	114.38
346.397	130.38
346.625	123.38
346.853	111.38
347.08	128.38
347.308	126.38
347.535	114.38
347.763	124.38
347.99	123.38
348.218	118.38
348.445	121.38
348.673	112.38
348.9	121.38
349.128	137.38
349.355	115.38
349.583	108.38
349.81	115.38
350.037	121.38
350.265	115.38
350.492	118.38
350.72	139.38
350.947	125.38
351.174	130.38
351.402	126.38
351.629	112.38
351.856	126.38
352.083	104.38
352.311	121.38
352.538	127.38
352.765	136.38
352.992	150.38
353.22	141.38
353.447	128.38
353.674	129.38
353.901	136.38
354.128	130.38
354.355	123.38
354.583	142.38
354.81	135.38
355.037	137.38
355.264	132.38
355.491	127.38
355.718	102.38
355.945	133.38
356.172	118.38
356.399	143.38
356.626	130.38
356.853	168.38
357.08	194.38
357.307	217.38
357.534	228.38
357.761	202.38
357.988	185.38
358.215	157.38
358.441	154.38
358.668	145.38
358.895	139.38
359.122	161.38
359.349	139.38
359.576	143.38
359.802	134.38
360.029	146.38
360.256	131.38
360.483	124.38
360.709	132.38
360.936	167.38
361.163	147.38
361.39	122.38
361.616	135.38
361.843	131.38
362.07	146.38
362.296	145.38
362.523	135.38
362.749	137.38
362.976	147.38
363.203	163.38
363.429	153.38
363.656	205.38
363.882	239.38
364.109	271.38
364.335	222.38
364.562	168.38
364.788	139.38
365.015	161.38
365.241	172.38
365.468	167.38
365.694	125.38
365.92	140.38
366.147	129.38
366.373	136.38
366.599	134.38
366.826	146.38
367.052	165.38
367.278	179.38
367.505	173.38
367.731	212.38
367.957	202.38
368.184	278.38
368.41	318.38
368.636	302.38
368.862	213.38
369.089	199.38
369.315	165.38
369.541	163.38
369.767	148.38
369.993	146.38
370.219	150.38
370.445	137.38
370.672	146.38
370.898	138.38
371.124	140.38
371.35	139.38
371.576	127.38
371.802	158.38
372.028	126.38
372.254	138.38
372.48	127.38
372.706	151.38
372.932	142.38
373.158	152.38
373.384	142.38
373.61	172.38
373.835	215.38
374.061	239.38
374.287	225.38
374.513	169.38
374.739	160.38
374.965	155.38
375.191	140.38
375.416	146.38
375.642	149.38
375.868	153.38
376.094	148.38
376.319	131.38
376.545	140.38
376.771	156.38
376.997	137.38
377.222	119.38
377.448	149.38
377.674	136.38
377.899	136.38
378.125	135.38
378.35	131.38
378.576	131.38
378.802	128.38
379.027	141.38
379.253	146.38
379.478	139.38
379.704	128.38
379.929	143.38
380.155	122.38
380.38	133.38
380.606	130.38
380.831	121.38
381.057	156.38
381.282	146.38
381.507	145.38
381.733	137.38
381.958	138.38
382.184	128.38
382.409	141.38
382.634	145.38
382.86	129.38
383.085	131.38
383.31	146.38
383.535	146.38
383.761	118.38
383.986	137.38
384.211	139.38
384.436	142.38
384.662	139.38
384.887	123.38
385.112	129.38
385.337	137.38
385.562	120.38
385.787	141.38
386.013	131.38
386.238	139.38
386.463	139.38
386.688	206.38
386.913	136.38
387.138	144.38
387.363	147.38
387.588	147.38
387.813	153.38
388.038	131.38
388.263	151.38
388.488	143.38
388.713	120.38
388.938	130.38
389.163	125.38
389.387	139.38
389.612	120.38
389.837	154.38
390.062	140.38
390.287	146.38
390.512	131.38
390.736	144.38
390.961	139.38
391.186	123.38
391.411	140.38
391.636	129.38
391.86	140.38
392.085	124.38
392.31	127.38
392.534	136.38
392.759	135.38
392.984	166.38
393.208	143.38
393.433	149.38
393.658	139.38
393.882	137.38
394.107	143.38
394.331	140.38
394.556	135.38
394.78	141.38
395.005	162.38
395.229	137.38
395.454	127.38
395.678	134.38
395.903	143.38
396.127	162.38
396.352	143.38
396.576	138.38
396.801	154.38
397.025	145.38
397.249	151.38
397.474	170.38
397.698	135.38
397.922	160.38
398.147	150.38
398.371	141.38
398.595	137.38
398.82	142.38
399.044	136.38
399.268	159.38
399.492	160.38
399.717	169.38
399.941	154.38
400.165	157.38
400.389	156.38
400.613	158.38
400.837	155.38
401.062	148.38
401.286	170.38
401.51	164.38
401.734	161.38
401.958	186.38
402.182	171.38
402.406	145.38
402.63	139.38
402.854	146.38
403.078	150.38
403.302	166.38
403.526	160.38
403.75	151.38
403.974	162.38
404.198	154.38
404.422	173.38
404.645	167.38
404.869	183.38
405.093	222.38
405.317	234.38
405.541	322.38
405.765	443.38
405.988	485.38
406.212	361.38
406.436	270.38
406.66	238.38
406.883	203.38
407.107	202.38
407.331	193.38
407.555	186.38
407.778	176.38
408.002	184.38
408.226	178.38
408.449	156.38
408.673	179.38
408.896	185.38
409.12	160.38
409.344	162.38
409.567	157.38
409.791	168.38
410.014	157.38
410.238	147.38
410.461	138.38
410.685	150.38
410.908	166.38
411.132	154.38
411.355	149.38
411.578	173.38
411.802	151.38
412.025	154.38
412.249	157.38
412.472	157.38
412.695	148.38
412.919	155.38
413.142	137.38
413.365	145.38
413.589	151.38
413.812	181.38
414.035	185.38
414.258	162.38
414.482	157.38
414.705	165.38
414.928	158.38
415.151	162.38
415.374	156.38
415.597	129.38
415.821	150.38
416.044	142.38
416.267	160.38
416.49	161.38
416.713	175.38
416.936	193.38
417.159	165.38
417.382	168.38
417.605	152.38
417.828	169.38
418.051	171.38
418.274	165.38
418.497	152.38
418.72	152.38
418.943	176.38
419.166	155.38
419.389	165.38
419.611	150.38
419.834	157.38
420.057	160.38
420.28	161.38
420.503	157.38
420.726	156.38
420.948	174.38
421.171	167.38
421.394	152.38
421.617	147.38
421.839	149.38
422.062	158.38
422.285	160.38
422.507	164.38
422.73	165.38
422.953	158.38
423.175	170.38
423.398	158.38
423.621	185.38
423.843	176.38
424.066	197.38
424.288	189.38
424.511	232.38
424.733	220.38
424.956	239.38
425.178	214.38
425.401	199.38
425.623	207.38
425.846	174.38
426.068	178.38
426.291	189.38
426.513	187.38
426.735	178.38
426.958	195.38
427.18	166.38
427.402	166.38
427.625	161.38
427.847	167.38
428.069	163.38
428.292	181.38
428.514	180.38
428.736	174.38
428.958	183.38
429.181	157.38
429.403	157.38
429.625	169.38
429.847	159.38
430.069	151.38
430.292	165.38
430.514	151.38
430.736	166.38
430.958	160.38
431.18	167.38
431.402	155.38
431.624	155.38
431.846	144.38
432.068	157.38
432.29	166.38
432.512	170.38
432.734	147.38
432.956	157.38
433.178	169.38
433.4	170.38
433.622	159.38
433.844	168.38
434.066	159.38
434.287	155.38
434.509	144.38
434.731	152.38
434.953	155.38
435.175	169.38
435.397	167.38
435.618	149.38
435.84	144.38
436.062	148.38
436.284	153.38
436.505	168.38
436.727	165.38
436.949	170.38
437.17	182.38
437.392	176.38
437.614	166.38
437.835	168.38
438.057	171.38
438.278	205.38
438.5	211.38
438.721	216.38
438.943	243.38
439.165	224.38
439.386	226.38
439.608	227.38
439.829	213.38
440.05	191.38
440.272	207.38
440.493	198.38
440.715	218.38
440.936	213.38
441.158	217.38
441.379	191.38
441.6	187.38
441.822	194.38
442.043	191.38
442.264	199.38
442.486	169.38
442.707	185.38
442.928	183.38
443.149	179.38
443.371	196.38
443.592	191.38
443.813	177.38
444.034	179.38
444.255	187.38
444.476	193.38
444.698	180.38
444.919	168.38
445.14	564.38
445.361	357.38
445.582	191.38
445.803	195.38
446.024	174.38
446.245	194.38
446.466	175.38
446.687	173.38
446.908	194.38
447.129	189.38
447.35	175.38
447.571	172.38
447.792	181.38
448.013	177.38
448.234	173.38
448.455	168.38
448.675	158.38
448.896	159.38
449.117	173.38
449.338	179.38
449.559	164.38
449.779	181.38
450	183.38
450.221	149.38
450.442	158.38
450.662	162.38
450.883	159.38
451.104	176.38
451.324	171.38
451.545	160.38
451.766	162.38
451.986	145.38
452.207	168.38
452.428	153.38
452.648	172.38
452.869	159.38
453.089	146.38
453.31	152.38
453.53	158.38
453.751	163.38
453.971	154.38
454.192	124.38
454.412	152.38
454.633	145.38
454.853	157.38
455.073	160.38
455.294	132.38
455.514	149.38
455.734	157.38
455.955	154.38
456.175	155.38
456.395	152.38
456.616	141.38
456.836	137.38
457.056	155.38
457.276	141.38
457.497	135.38
457.717	136.38
457.937	151.38
458.157	147.38
458.377	150.38
458.598	148.38
458.818	144.38
459.038	136.38
459.258	136.38
459.478	139.38
459.698	141.38
459.918	146.38
460.138	159.38
460.358	148.38
460.578	147.38
460.798	145.38
461.018	159.38
461.238	176.38
461.458	142.38
461.678	151.38
461.898	143.38
462.118	148.38
462.338	169.38
462.558	164.38
462.777	157.38
462.997	157.38
463.217	160.38
463.437	130.38
463.657	149.38
463.876	151.38
464.096	154.38
464.316	151.38
464.536	160.38
464.755	161.38
464.975	149.38
465.195	162.38
465.414	154.38
465.634	155.38
465.854	139.38
466.073	160.38
466.293	157.38
466.512	158.38
466.732	145.38
466.951	158.38
467.171	144.38
467.391	167.38
467.61	159.38
467.829	153.38
468.049	154.38
468.268	134.38
468.488	161.38
468.707	173.38
468.927	155.38
469.146	147.38
469.365	149.38
469.585	150.38
469.804	179.38
470.023	153.38
470.243	157.38
470.462	166.38
470.681	153.38
470.901	159.38
471.12	158.38
471.339	180.38
471.558	166.38
471.777	165.38
471.997	162.38
472.216	154.38
472.435	136.38
472.654	135.38
472.873	159.38
473.092	157.38
473.311	162.38
473.53	161.38
473.749	150.38
473.968	167.38
474.187	154.38
474.406	146.38
474.625	160.38
474.844	167.38
475.063	141.38
475.282	158.38
475.501	138.38
475.72	149.38
475.939	146.38
476.158	160.38
476.377	154.38
476.596	161.38
476.814	146.38
477.033	168.38
477.252	154.38
477.471	169.38
477.69	157.38
477.908	166.38
478.127	181.38
478.346	188.38
478.564	178.38
478.783	192.38
479.002	165.38
479.22	171.38
479.439	169.38
479.658	178.38
479.876	155.38
480.095	150.38
480.313	161.38
480.532	181.38
480.751	162.38
480.969	147.38
481.188	169.38
481.406	164.38
481.624	149.38
481.843	149.38
482.061	161.38
482.28	171.38
482.498	175.38
482.717	163.38
482.935	175.38
483.153	177.38
483.372	174.38
483.59	160.38
483.808	181.38
484.027	165.38
484.245	185.38
484.463	165.38
484.681	193.38
484.9	176.38
485.118	186.38
485.336	146.38
485.554	154.38
485.772	158.38
485.99	158.38
486.209	186.38
486.427	144.38
486.645	145.38
486.863	163.38
487.081	183.38
487.299	180.38
487.517	178.38
487.735	187.38
487.953	194.38
488.171	198.38
488.389	185.38
488.607	170.38
488.825	174.38
489.043	168.38
489.261	184.38
489.479	182.38
489.696	181.38
489.914	177.38
490.132	187.38
490.35	185.38
490.568	182.38
490.786	188.38
491.003	181.38
491.221	184.38
491.439	190.38
491.657	197.38
491.874	214.38
492.092	213.38
492.31	208.38
492.527	195.38
492.745	201.38
492.963	183.38
493.18	199.38
493.398	186.38
493.615	188.38
493.833	198.38
494.05	193.38
494.268	187.38
494.485	193.38
494.703	190.38
494.92	197.38
495.138	191.38
495.355	208.38
495.573	198.38
495.79	181.38
496.008	189.38
496.225	182.38
496.442	189.38
496.66	210.38
496.877	205.38
497.094	227.38
497.312	199.38
497.529	200.38
497.746	200.38
497.963	198.38
498.181	175.38
498.398	198.38
498.615	191.38
498.832	178.38
499.049	191.38
499.267	199.38
499.484	200.38
499.701	222.38
499.918	212.38
500.135	217.38
500.352	225.38
500.569	227.38
500.786	269.38
501.003	253.38
501.22	230.38
501.437	223.38
501.654	207.38
501.871	214.38
502.088	172.38
502.305	205.38
502.522	198.38
502.739	189.38
502.956	190.38
503.172	202.38
503.389	175.38
503.606	182.38
503.823	189.38
504.04	186.38
