Data from TenMicroDelayPb_HRD10591_00001.txt Node
Date: Mon Nov 24 14:56:55 EST 2025
User: Yrep
Spectrometer: HR+D1059
Trigger mode: 5
Integration Time (sec): 3.000000E-2
Scans to average: 1
Electric dark correction enabled: true
Nonlinearity correction enabled: false
Boxcar width: 0
XAxis mode: Wavelengths
Number of Pixels in Spectrum: 2048
>>>>>Begin Spectral Data<<<<<
223.165	-17.06
223.4	-17.06
223.635	-17.06
223.869	-23.06
224.104	-14.06
224.338	-19.06
224.573	-23.06
224.808	-1.06
225.042	-11.06
225.277	-8.06
225.511	-7.06
225.746	-1.06
225.98	18.94
226.215	14.94
226.449	14.94
226.683	17.94
226.918	29.94
227.152	27.94
227.387	50.94
227.621	40.94
227.856	43.94
228.09	40.94
228.324	41.94
228.559	61.94
228.793	77.94
229.027	70.94
229.262	66.94
229.496	76.94
229.73	69.94
229.964	69.94
230.199	78.94
230.433	82.94
230.667	87.94
230.901	76.94
231.136	88.94
231.37	82.94
231.604	96.94
231.838	83.94
232.072	95.94
232.306	92.94
232.541	89.94
232.775	102.94
233.009	88.94
233.243	83.94
233.477	86.94
233.711	88.94
233.945	78.94
234.179	71.94
234.413	105.94
234.647	79.94
234.881	82.94
235.115	74.94
235.349	96.94
235.583	90.94
235.817	91.94
236.051	85.94
236.285	83.94
236.519	82.94
236.753	100.94
236.987	95.94
237.221	78.94
237.455	79.94
237.689	89.94
237.922	68.94
238.156	87.94
238.39	78.94
238.624	88.94
238.858	97.94
239.091	92.94
239.325	84.94
239.559	91.94
239.793	93.94
240.027	95.94
240.26	99.94
240.494	97.94
240.728	77.94
240.961	84.94
241.195	82.94
241.429	85.94
241.662	78.94
241.896	94.94
242.13	65.94
242.363	86.94
242.597	84.94
242.83	92.94
243.064	81.94
243.298	98.94
243.531	83.94
243.765	94.94
243.998	83.94
244.232	92.94
244.465	91.94
244.699	91.94
244.932	89.94
245.166	89.94
245.399	110.94
245.633	96.94
245.866	93.94
246.099	80.94
246.333	75.94
246.566	81.94
246.8	89.94
247.033	92.94
247.266	82.94
247.5	99.94
247.733	93.94
247.966	98.94
248.2	82.94
248.433	84.94
248.666	84.94
248.899	93.94
249.133	78.94
249.366	105.94
249.599	83.94
249.832	92.94
250.066	104.94
250.299	94.94
250.532	85.94
250.765	86.94
250.998	100.94
251.231	96.94
251.465	105.94
251.698	90.94
251.931	80.94
252.164	91.94
252.397	94.94
252.63	92.94
252.863	97.94
253.096	95.94
253.329	120.94
253.562	102.94
253.795	125.94
254.028	119.94
254.261	93.94
254.494	83.94
254.727	122.94
254.96	108.94
255.193	95.94
255.426	85.94
255.659	97.94
255.892	116.94
256.124	92.94
256.357	109.94
256.59	106.94
256.823	102.94
257.056	113.94
257.289	95.94
257.521	94.94
257.754	111.94
257.987	109.94
258.22	114.94
258.452	102.94
258.685	102.94
258.918	104.94
259.151	91.94
259.383	106.94
259.616	100.94
259.849	100.94
260.081	110.94
260.314	99.94
260.547	108.94
260.779	126.94
261.012	118.94
261.244	120.94
261.477	159.94
261.71	131.94
261.942	123.94
262.175	105.94
262.407	122.94
262.64	116.94
262.872	93.94
263.105	117.94
263.337	118.94
263.57	115.94
263.802	115.94
264.035	112.94
264.267	118.94
264.499	102.94
264.732	108.94
264.964	120.94
265.197	116.94
265.429	97.94
265.661	98.94
265.894	120.94
266.126	120.94
266.358	126.94
266.591	142.94
266.823	116.94
267.055	107.94
267.287	108.94
267.52	91.94
267.752	112.94
267.984	104.94
268.216	109.94
268.448	118.94
268.681	108.94
268.913	100.94
269.145	102.94
269.377	107.94
269.609	89.94
269.841	106.94
270.073	102.94
270.306	108.94
270.538	99.94
270.77	102.94
271.002	102.94
271.234	109.94
271.466	102.94
271.698	110.94
271.93	100.94
272.162	100.94
272.394	129.94
272.626	97.94
272.858	108.94
273.09	110.94
273.322	119.94
273.553	93.94
273.785	106.94
274.017	106.94
274.249	91.94
274.481	105.94
274.713	98.94
274.945	111.94
275.176	89.94
275.408	109.94
275.64	114.94
275.872	116.94
276.104	105.94
276.335	110.94
276.567	105.94
276.799	102.94
277.031	100.94
277.262	98.94
277.494	109.94
277.726	110.94
277.957	114.94
278.189	120.94
278.421	114.94
278.652	103.94
278.884	117.94
279.115	122.94
279.347	138.94
279.579	132.94
279.81	146.94
280.042	178.94
280.273	208.94
280.505	189.94
280.736	143.94
280.968	138.94
281.199	126.94
281.431	122.94
281.662	130.94
281.894	135.94
282.125	133.94
282.356	134.94
282.588	136.94
282.819	123.94
283.051	142.94
283.282	168.94
283.513	169.94
283.745	138.94
283.976	129.94
284.207	110.94
284.439	108.94
284.67	135.94
284.901	122.94
285.132	108.94
285.364	120.94
285.595	128.94
285.826	123.94
286.057	106.94
286.288	117.94
286.52	129.94
286.751	130.94
286.982	126.94
287.213	143.94
287.444	156.94
287.675	131.94
287.906	122.94
288.138	119.94
288.369	119.94
288.6	110.94
288.831	122.94
289.062	130.94
289.293	114.94
289.524	113.94
289.755	103.94
289.986	120.94
290.217	105.94
290.448	126.94
290.679	127.94
290.91	119.94
291.141	118.94
291.371	118.94
291.602	103.94
291.833	103.94
292.064	121.94
292.295	109.94
292.526	111.94
292.757	130.94
292.987	118.94
293.218	98.94
293.449	118.94
293.68	108.94
293.91	103.94
294.141	136.94
294.372	109.94
294.603	106.94
294.833	110.94
295.064	109.94
295.295	111.94
295.525	118.94
295.756	120.94
295.987	106.94
296.217	128.94
296.448	124.94
296.679	108.94
296.909	129.94
297.14	124.94
297.37	112.94
297.601	115.94
297.831	120.94
298.062	122.94
298.292	114.94
298.523	125.94
298.753	107.94
298.984	122.94
299.214	114.94
299.445	97.94
299.675	123.94
299.905	118.94
300.136	119.94
300.366	110.94
300.597	118.94
300.827	108.94
301.057	117.94
301.288	108.94
301.518	132.94
301.748	121.94
301.979	166.94
302.209	116.94
302.439	115.94
302.669	118.94
302.9	110.94
303.13	116.94
303.36	126.94
303.59	123.94
303.82	125.94
304.051	123.94
304.281	128.94
304.511	129.94
304.741	117.94
304.971	116.94
305.201	127.94
305.431	117.94
305.661	116.94
305.891	125.94
306.121	141.94
306.352	113.94
306.582	118.94
306.812	112.94
307.042	121.94
307.272	108.94
307.502	117.94
307.731	124.94
307.961	120.94
308.191	111.94
308.421	125.94
308.651	119.94
308.881	125.94
309.111	116.94
309.341	118.94
309.571	128.94
309.8	116.94
310.03	114.94
310.26	107.94
310.49	118.94
310.72	108.94
310.949	120.94
311.179	119.94
311.409	110.94
311.639	126.94
311.868	131.94
312.098	128.94
312.328	127.94
312.557	130.94
312.787	134.94
313.017	124.94
313.246	135.94
313.476	128.94
313.706	139.94
313.935	142.94
314.165	141.94
314.394	139.94
314.624	124.94
314.853	131.94
315.083	137.94
315.312	126.94
315.542	117.94
315.771	122.94
316.001	128.94
316.23	132.94
316.46	104.94
316.689	122.94
316.919	103.94
317.148	142.94
317.377	138.94
317.607	129.94
317.836	124.94
318.065	122.94
318.295	122.94
318.524	122.94
318.753	126.94
318.983	119.94
319.212	125.94
319.441	133.94
319.67	142.94
319.9	123.94
320.129	116.94
320.358	127.94
320.587	121.94
320.816	125.94
321.046	123.94
321.275	127.94
321.504	115.94
321.733	110.94
321.962	131.94
322.191	130.94
322.42	111.94
322.649	138.94
322.878	124.94
323.108	115.94
323.337	124.94
323.566	115.94
323.795	118.94
324.024	150.94
324.253	131.94
324.482	141.94
324.71	128.94
324.939	132.94
325.168	116.94
325.397	118.94
325.626	123.94
325.855	118.94
326.084	124.94
326.313	122.94
326.542	109.94
326.77	131.94
326.999	121.94
327.228	127.94
327.457	118.94
327.686	132.94
327.914	136.94
328.143	140.94
328.372	128.94
328.6	124.94
328.829	125.94
329.058	117.94
329.287	120.94
329.515	115.94
329.744	118.94
329.972	115.94
330.201	131.94
330.43	129.94
330.658	113.94
330.887	130.94
331.115	134.94
331.344	122.94
331.572	132.94
331.801	123.94
332.03	115.94
332.258	132.94
332.486	124.94
332.715	108.94
332.943	128.94
333.172	125.94
333.4	119.94
333.629	129.94
333.857	125.94
334.085	119.94
334.314	134.94
334.542	122.94
334.771	138.94
334.999	110.94
335.227	109.94
335.455	130.94
335.684	136.94
335.912	122.94
336.14	115.94
336.369	132.94
336.597	132.94
336.825	124.94
337.053	128.94
337.281	120.94
337.51	132.94
337.738	146.94
337.966	116.94
338.194	113.94
338.422	113.94
338.65	131.94
338.878	131.94
339.106	132.94
339.334	144.94
339.562	106.94
339.79	104.94
340.018	131.94
340.246	121.94
340.474	120.94
340.702	120.94
340.93	118.94
341.158	119.94
341.386	127.94
341.614	132.94
341.842	134.94
342.07	114.94
342.298	135.94
342.526	122.94
342.754	122.94
342.981	115.94
343.209	125.94
343.437	173.94
343.665	120.94
343.893	132.94
344.12	143.94
344.348	137.94
344.576	124.94
344.804	118.94
345.031	105.94
345.259	130.94
345.487	128.94
345.714	136.94
345.942	121.94
346.17	125.94
346.397	132.94
346.625	126.94
346.853	120.94
347.08	103.94
347.308	116.94
347.535	136.94
347.763	110.94
347.99	127.94
348.218	135.94
348.445	119.94
348.673	132.94
348.9	137.94
349.128	132.94
349.355	127.94
349.583	134.94
349.81	122.94
350.037	130.94
350.265	150.94
350.492	111.94
350.72	109.94
350.947	145.94
351.174	127.94
351.402	118.94
351.629	139.94
351.856	126.94
352.083	124.94
352.311	114.94
352.538	112.94
352.765	135.94
352.992	153.94
353.22	132.94
353.447	122.94
353.674	144.94
353.901	143.94
354.128	122.94
354.355	122.94
354.583	121.94
354.81	126.94
355.037	126.94
355.264	134.94
355.491	134.94
355.718	122.94
355.945	136.94
356.172	131.94
356.399	134.94
356.626	141.94
356.853	162.94
357.08	195.94
357.307	214.94
357.534	235.94
357.761	182.94
357.988	168.94
358.215	157.94
358.441	147.94
358.668	155.94
358.895	136.94
359.122	151.94
359.349	131.94
359.576	153.94
359.802	127.94
360.029	131.94
360.256	153.94
360.483	135.94
360.709	131.94
360.936	167.94
361.163	140.94
361.39	116.94
361.616	131.94
361.843	123.94
362.07	150.94
362.296	126.94
362.523	129.94
362.749	131.94
362.976	146.94
363.203	159.94
363.429	147.94
363.656	186.94
363.882	248.94
364.109	286.94
364.335	227.94
364.562	181.94
364.788	154.94
365.015	164.94
365.241	138.94
365.468	167.94
365.694	132.94
365.92	135.94
366.147	144.94
366.373	127.94
366.599	136.94
366.826	150.94
367.052	160.94
367.278	184.94
367.505	182.94
367.731	211.94
367.957	198.94
368.184	268.94
368.41	334.94
368.636	296.94
368.862	228.94
369.089	178.94
369.315	157.94
369.541	155.94
369.767	147.94
369.993	154.94
370.219	146.94
370.445	124.94
370.672	152.94
370.898	130.94
371.124	144.94
371.35	137.94
371.576	128.94
371.802	130.94
372.028	123.94
372.254	139.94
372.48	145.94
372.706	119.94
372.932	140.94
373.158	149.94
373.384	175.94
373.61	149.94
373.835	219.94
374.061	242.94
374.287	215.94
374.513	184.94
374.739	162.94
374.965	134.94
375.191	157.94
375.416	128.94
375.642	145.94
375.868	140.94
376.094	131.94
376.319	123.94
376.545	132.94
376.771	129.94
376.997	143.94
377.222	140.94
377.448	138.94
377.674	118.94
377.899	119.94
378.125	140.94
378.35	142.94
378.576	138.94
378.802	135.94
379.027	129.94
379.253	139.94
379.478	133.94
379.704	118.94
379.929	139.94
380.155	119.94
380.38	137.94
380.606	114.94
380.831	140.94
381.057	162.94
381.282	125.94
381.507	161.94
381.733	127.94
381.958	138.94
382.184	117.94
382.409	135.94
382.634	137.94
382.86	148.94
383.085	122.94
383.31	131.94
383.535	154.94
383.761	147.94
383.986	139.94
384.211	122.94
384.436	138.94
384.662	121.94
384.887	134.94
385.112	136.94
385.337	142.94
385.562	140.94
385.787	122.94
386.013	144.94
386.238	139.94
386.463	137.94
386.688	193.94
386.913	144.94
387.138	119.94
387.363	126.94
387.588	143.94
387.813	139.94
388.038	134.94
388.263	130.94
388.488	135.94
388.713	153.94
388.938	137.94
389.163	143.94
389.387	129.94
389.612	132.94
389.837	119.94
390.062	140.94
390.287	146.94
390.512	132.94
390.736	132.94
390.961	138.94
391.186	142.94
391.411	139.94
391.636	142.94
391.86	127.94
392.085	143.94
392.31	120.94
392.534	137.94
392.759	145.94
392.984	148.94
393.208	124.94
393.433	142.94
393.658	147.94
393.882	131.94
394.107	131.94
394.331	148.94
394.556	128.94
394.78	130.94
395.005	128.94
395.229	125.94
395.454	152.94
395.678	135.94
395.903	141.94
396.127	140.94
396.352	138.94
396.576	149.94
396.801	150.94
397.025	139.94
397.249	138.94
397.474	147.94
397.698	143.94
397.922	146.94
398.147	135.94
398.371	139.94
398.595	155.94
398.82	149.94
399.044	138.94
399.268	142.94
399.492	154.94
399.717	175.94
399.941	146.94
400.165	172.94
400.389	144.94
400.613	156.94
400.837	168.94
401.062	167.94
401.286	135.94
401.51	148.94
401.734	157.94
401.958	157.94
402.182	167.94
402.406	158.94
402.63	147.94
402.854	155.94
403.078	160.94
403.302	142.94
403.526	156.94
403.75	161.94
403.974	153.94
404.198	161.94
404.422	183.94
404.645	159.94
404.869	179.94
405.093	194.94
405.317	222.94
405.541	311.94
405.765	421.94
405.988	480.94
406.212	364.94
406.436	270.94
406.66	243.94
406.883	215.94
407.107	198.94
407.331	200.94
407.555	196.94
407.778	175.94
408.002	170.94
408.226	167.94
408.449	176.94
408.673	161.94
408.896	166.94
409.12	153.94
409.344	150.94
409.567	158.94
409.791	169.94
410.014	163.94
410.238	159.94
410.461	148.94
410.685	148.94
410.908	169.94
411.132	167.94
411.355	149.94
411.578	161.94
411.802	167.94
412.025	152.94
412.249	143.94
412.472	145.94
412.695	167.94
412.919	147.94
413.142	152.94
413.365	163.94
413.589	152.94
413.812	155.94
414.035	160.94
414.258	182.94
414.482	145.94
414.705	163.94
414.928	153.94
415.151	169.94
415.374	166.94
415.597	139.94
415.821	145.94
416.044	156.94
416.267	161.94
416.49	159.94
416.713	160.94
416.936	175.94
417.159	154.94
417.382	140.94
417.605	160.94
417.828	161.94
418.051	159.94
418.274	155.94
418.497	142.94
418.72	169.94
418.943	176.94
419.166	178.94
419.389	162.94
419.611	172.94
419.834	182.94
420.057	174.94
420.28	166.94
420.503	154.94
420.726	164.94
420.948	142.94
421.171	161.94
421.394	146.94
421.617	162.94
421.839	154.94
422.062	151.94
422.285	160.94
422.507	157.94
422.73	179.94
422.953	160.94
423.175	180.94
423.398	175.94
423.621	188.94
423.843	178.94
424.066	199.94
424.288	204.94
424.511	227.94
424.733	243.94
424.956	235.94
425.178	219.94
425.401	217.94
425.623	192.94
425.846	180.94
426.068	171.94
426.291	182.94
426.513	179.94
426.735	195.94
426.958	168.94
427.18	169.94
427.402	168.94
427.625	180.94
427.847	178.94
428.069	152.94
428.292	172.94
428.514	171.94
428.736	164.94
428.958	161.94
429.181	166.94
429.403	147.94
429.625	150.94
429.847	164.94
430.069	150.94
430.292	170.94
430.514	180.94
430.736	163.94
430.958	159.94
431.18	159.94
431.402	155.94
431.624	161.94
431.846	136.94
432.068	146.94
432.29	156.94
432.512	169.94
432.734	164.94
432.956	159.94
433.178	175.94
433.4	175.94
433.622	158.94
433.844	178.94
434.066	167.94
434.287	144.94
434.509	142.94
434.731	160.94
434.953	167.94
435.175	162.94
435.397	162.94
435.618	154.94
435.84	166.94
436.062	161.94
436.284	159.94
436.505	164.94
436.727	173.94
436.949	184.94
437.17	159.94
437.392	179.94
437.614	167.94
437.835	169.94
438.057	168.94
438.278	183.94
438.5	192.94
438.721	223.94
438.943	238.94
439.165	227.94
439.386	215.94
439.608	224.94
439.829	212.94
440.05	190.94
440.272	195.94
440.493	207.94
440.715	207.94
440.936	222.94
441.158	234.94
441.379	207.94
441.6	199.94
441.822	194.94
442.043	167.94
442.264	190.94
442.486	203.94
442.707	195.94
442.928	184.94
443.149	182.94
443.371	178.94
443.592	173.94
443.813	184.94
444.034	186.94
444.255	190.94
444.476	183.94
444.698	180.94
444.919	184.94
445.14	587.94
445.361	355.94
445.582	170.94
445.803	163.94
446.024	170.94
446.245	186.94
446.466	180.94
446.687	172.94
446.908	177.94
447.129	181.94
447.35	178.94
447.571	188.94
447.792	168.94
448.013	182.94
448.234	169.94
448.455	172.94
448.675	184.94
448.896	164.94
449.117	180.94
449.338	168.94
449.559	183.94
449.779	163.94
450	167.94
450.221	157.94
450.442	158.94
450.662	171.94
450.883	170.94
451.104	168.94
451.324	155.94
451.545	163.94
451.766	145.94
451.986	169.94
452.207	173.94
452.428	144.94
452.648	164.94
452.869	152.94
453.089	159.94
453.31	155.94
453.53	142.94
453.751	147.94
453.971	153.94
454.192	143.94
454.412	133.94
454.633	156.94
454.853	157.94
455.073	146.94
455.294	159.94
455.514	155.94
455.734	162.94
455.955	155.94
456.175	155.94
456.395	151.94
456.616	147.94
456.836	148.94
457.056	148.94
457.276	150.94
457.497	142.94
457.717	143.94
457.937	146.94
458.157	145.94
458.377	140.94
458.598	123.94
458.818	142.94
459.038	137.94
459.258	150.94
459.478	123.94
459.698	143.94
459.918	133.94
460.138	158.94
460.358	153.94
460.578	169.94
460.798	151.94
461.018	163.94
461.238	166.94
461.458	152.94
461.678	146.94
461.898	178.94
462.118	182.94
462.338	147.94
462.558	157.94
462.777	166.94
462.997	139.94
463.217	155.94
463.437	142.94
463.657	149.94
463.876	171.94
464.096	151.94
464.316	147.94
464.536	158.94
464.755	151.94
464.975	148.94
465.195	162.94
465.414	160.94
465.634	156.94
465.854	150.94
466.073	159.94
466.293	164.94
466.512	154.94
466.732	169.94
466.951	164.94
467.171	162.94
467.391	156.94
467.61	173.94
467.829	144.94
468.049	146.94
468.268	148.94
468.488	153.94
468.707	150.94
468.927	147.94
469.146	146.94
469.365	147.94
469.585	160.94
469.804	169.94
470.023	163.94
470.243	168.94
470.462	168.94
470.681	175.94
470.901	138.94
471.12	158.94
471.339	159.94
471.558	155.94
471.777	166.94
471.997	147.94
472.216	152.94
472.435	149.94
472.654	144.94
472.873	158.94
473.092	160.94
473.311	153.94
473.53	133.94
473.749	160.94
473.968	171.94
474.187	158.94
474.406	142.94
474.625	168.94
474.844	169.94
475.063	151.94
475.282	163.94
475.501	163.94
475.72	167.94
475.939	153.94
476.158	159.94
476.377	151.94
476.596	149.94
476.814	148.94
477.033	150.94
477.252	163.94
477.471	154.94
477.69	160.94
477.908	161.94
478.127	171.94
478.346	167.94
478.564	166.94
478.783	161.94
479.002	184.94
479.22	158.94
479.439	181.94
479.658	168.94
479.876	148.94
480.095	140.94
480.313	166.94
480.532	161.94
480.751	171.94
480.969	145.94
481.188	155.94
481.406	158.94
481.624	162.94
481.843	157.94
482.061	151.94
482.28	155.94
482.498	158.94
482.717	143.94
482.935	163.94
483.153	175.94
483.372	167.94
483.59	170.94
483.808	153.94
484.027	173.94
484.245	173.94
484.463	183.94
484.681	196.94
484.9	174.94
485.118	176.94
485.336	151.94
485.554	158.94
485.772	151.94
485.99	139.94
486.209	170.94
486.427	139.94
486.645	164.94
486.863	170.94
487.081	179.94
487.299	157.94
487.517	195.94
487.735	191.94
487.953	210.94
488.171	200.94
488.389	184.94
488.607	185.94
488.825	177.94
489.043	167.94
489.261	173.94
489.479	185.94
489.696	179.94
489.914	168.94
490.132	175.94
490.35	182.94
490.568	163.94
490.786	194.94
491.003	199.94
491.221	189.94
491.439	190.94
491.657	194.94
491.874	207.94
492.092	218.94
492.31	226.94
492.527	203.94
492.745	193.94
492.963	198.94
493.18	188.94
493.398	190.94
493.615	177.94
493.833	171.94
494.05	172.94
494.268	194.94
494.485	207.94
494.703	195.94
494.92	191.94
495.138	195.94
495.355	209.94
495.573	197.94
495.79	172.94
496.008	200.94
496.225	189.94
496.442	178.94
496.66	211.94
496.877	184.94
497.094	194.94
497.312	190.94
497.529	194.94
497.746	211.94
497.963	189.94
498.181	171.94
498.398	186.94
498.615	185.94
498.832	175.94
499.049	186.94
499.267	197.94
499.484	194.94
499.701	195.94
499.918	212.94
500.135	202.94
500.352	214.94
500.569	231.94
500.786	273.94
501.003	227.94
501.22	214.94
501.437	201.94
501.654	210.94
501.871	196.94
502.088	190.94
502.305	212.94
502.522	200.94
502.739	210.94
502.956	187.94
503.172	173.94
503.389	209.94
503.606	185.94
503.823	167.94
504.04	194.94
504.256	197.94
