Data from TenMicroDelayPb_HRD10591_00001.txt Node
Date: Mon Nov 24 14:56:10 EST 2025
User: Yrep
Spectrometer: HR+D1059
Trigger mode: 5
Integration Time (sec): 1.000000E-3
Scans to average: 1
Electric dark correction enabled: true
Nonlinearity correction enabled: false
Boxcar width: 0
XAxis mode: Wavelengths
Number of Pixels in Spectrum: 2048
>>>>>Begin Spectral Data<<<<<
223.165	-27.38
223.4	-27.38
223.635	-27.38
223.869	-32.38
224.104	-25.38
224.338	-6.38
224.573	-3.38
224.808	-19.38
225.042	6.62
225.277	-12.38
225.511	-6.38
225.746	4.62
225.98	10.62
226.215	11.62
226.449	12.62
226.683	16.62
226.918	33.62
227.152	36.62
227.387	45.62
227.621	42.62
227.856	48.62
228.09	50.62
228.324	62.62
228.559	69.62
228.793	68.62
229.027	69.62
229.262	66.62
229.496	70.62
229.73	85.62
229.964	89.62
230.199	84.62
230.433	72.62
230.667	99.62
230.901	84.62
231.136	77.62
231.37	91.62
231.604	91.62
231.838	84.62
232.072	74.62
232.306	97.62
232.541	96.62
232.775	96.62
233.009	81.62
233.243	79.62
233.477	88.62
233.711	84.62
233.945	98.62
234.179	91.62
234.413	84.62
234.647	87.62
234.881	84.62
235.115	85.62
235.349	84.62
235.583	86.62
235.817	78.62
236.051	85.62
236.285	83.62
236.519	87.62
236.753	94.62
236.987	91.62
237.221	77.62
237.455	89.62
237.689	87.62
237.922	76.62
238.156	83.62
238.39	68.62
238.624	79.62
238.858	95.62
239.091	90.62
239.325	91.62
239.559	91.62
239.793	87.62
240.027	92.62
240.26	100.62
240.494	99.62
240.728	91.62
240.961	102.62
241.195	104.62
241.429	88.62
241.662	93.62
241.896	98.62
242.13	81.62
242.363	93.62
242.597	94.62
242.83	96.62
243.064	94.62
243.298	99.62
243.531	91.62
243.765	96.62
243.998	89.62
244.232	99.62
244.465	90.62
244.699	81.62
244.932	87.62
245.166	103.62
245.399	94.62
245.633	108.62
245.866	85.62
246.099	87.62
246.333	79.62
246.566	88.62
246.8	97.62
247.033	103.62
247.266	99.62
247.5	105.62
247.733	94.62
247.966	109.62
248.2	96.62
248.433	92.62
248.666	88.62
248.899	90.62
249.133	73.62
249.366	115.62
249.599	95.62
249.832	81.62
250.066	107.62
250.299	101.62
250.532	95.62
250.765	99.62
250.998	90.62
251.231	84.62
251.465	103.62
251.698	106.62
251.931	110.62
252.164	109.62
252.397	96.62
252.63	99.62
252.863	101.62
253.096	111.62
253.329	118.62
253.562	119.62
253.795	119.62
254.028	117.62
254.261	109.62
254.494	106.62
254.727	128.62
254.96	110.62
255.193	105.62
255.426	100.62
255.659	97.62
255.892	119.62
256.124	106.62
256.357	118.62
256.59	113.62
256.823	113.62
257.056	104.62
257.289	103.62
257.521	112.62
257.754	108.62
257.987	119.62
258.22	117.62
258.452	115.62
258.685	101.62
258.918	113.62
259.151	94.62
259.383	112.62
259.616	117.62
259.849	122.62
260.081	119.62
260.314	112.62
260.547	108.62
260.779	128.62
261.012	136.62
261.244	133.62
261.477	185.62
261.71	151.62
261.942	133.62
262.175	131.62
262.407	110.62
262.64	124.62
262.872	115.62
263.105	114.62
263.337	123.62
263.57	116.62
263.802	118.62
264.035	119.62
264.267	113.62
264.499	120.62
264.732	137.62
264.964	115.62
265.197	141.62
265.429	123.62
265.661	126.62
265.894	116.62
266.126	133.62
266.358	131.62
266.591	146.62
266.823	137.62
267.055	121.62
267.287	116.62
267.52	109.62
267.752	111.62
267.984	116.62
268.216	100.62
268.448	123.62
268.681	127.62
268.913	102.62
269.145	115.62
269.377	129.62
269.609	111.62
269.841	122.62
270.073	117.62
270.306	107.62
270.538	106.62
270.77	115.62
271.002	109.62
271.234	109.62
271.466	113.62
271.698	93.62
271.93	114.62
272.162	112.62
272.394	129.62
272.626	112.62
272.858	118.62
273.09	117.62
273.322	121.62
273.553	110.62
273.785	118.62
274.017	119.62
274.249	119.62
274.481	103.62
274.713	99.62
274.945	103.62
275.176	114.62
275.408	130.62
275.64	126.62
275.872	108.62
276.104	131.62
276.335	107.62
276.567	108.62
276.799	121.62
277.031	125.62
277.262	110.62
277.494	116.62
277.726	123.62
277.957	127.62
278.189	123.62
278.421	118.62
278.652	115.62
278.884	120.62
279.115	139.62
279.347	144.62
279.579	155.62
279.81	173.62
280.042	187.62
280.273	211.62
280.505	193.62
280.736	170.62
280.968	149.62
281.199	141.62
281.431	130.62
281.662	131.62
281.894	153.62
282.125	155.62
282.356	165.62
282.588	161.62
282.819	149.62
283.051	163.62
283.282	161.62
283.513	198.62
283.745	167.62
283.976	144.62
284.207	137.62
284.439	136.62
284.67	128.62
284.901	120.62
285.132	124.62
285.364	122.62
285.595	121.62
285.826	123.62
286.057	143.62
286.288	121.62
286.52	151.62
286.751	138.62
286.982	143.62
287.213	148.62
287.444	165.62
287.675	164.62
287.906	144.62
288.138	126.62
288.369	136.62
288.6	135.62
288.831	123.62
289.062	127.62
289.293	124.62
289.524	126.62
289.755	110.62
289.986	124.62
290.217	127.62
290.448	125.62
290.679	137.62
290.91	136.62
291.141	122.62
291.371	131.62
291.602	119.62
291.833	128.62
292.064	115.62
292.295	132.62
292.526	113.62
292.757	123.62
292.987	128.62
293.218	135.62
293.449	130.62
293.68	128.62
293.91	121.62
294.141	143.62
294.372	130.62
294.603	112.62
294.833	109.62
295.064	119.62
295.295	130.62
295.525	122.62
295.756	120.62
295.987	125.62
296.217	121.62
296.448	123.62
296.679	124.62
296.909	119.62
297.14	136.62
297.37	128.62
297.601	138.62
297.831	103.62
298.062	129.62
298.292	124.62
298.523	135.62
298.753	125.62
298.984	113.62
299.214	139.62
299.445	113.62
299.675	124.62
299.905	133.62
300.136	119.62
300.366	115.62
300.597	123.62
300.827	127.62
301.057	131.62
301.288	121.62
301.518	135.62
301.748	119.62
301.979	188.62
302.209	122.62
302.439	124.62
302.669	135.62
302.9	134.62
303.13	139.62
303.36	141.62
303.59	138.62
303.82	133.62
304.051	143.62
304.281	134.62
304.511	134.62
304.741	130.62
304.971	130.62
305.201	157.62
305.431	141.62
305.661	143.62
305.891	139.62
306.121	130.62
306.352	132.62
306.582	131.62
306.812	133.62
307.042	124.62
307.272	131.62
307.502	123.62
307.731	138.62
307.961	131.62
308.191	134.62
308.421	121.62
308.651	132.62
308.881	127.62
309.111	135.62
309.341	126.62
309.571	140.62
309.8	128.62
310.03	122.62
310.26	134.62
310.49	135.62
310.72	126.62
310.949	128.62
311.179	146.62
311.409	135.62
311.639	121.62
311.868	122.62
312.098	127.62
312.328	148.62
312.557	144.62
312.787	139.62
313.017	114.62
313.246	127.62
313.476	123.62
313.706	139.62
313.935	137.62
314.165	158.62
314.394	141.62
314.624	148.62
314.853	136.62
315.083	154.62
315.312	150.62
315.542	139.62
315.771	154.62
316.001	139.62
316.23	133.62
316.46	127.62
316.689	133.62
316.919	142.62
317.148	161.62
317.377	165.62
317.607	149.62
317.836	142.62
318.065	143.62
318.295	148.62
318.524	137.62
318.753	137.62
318.983	137.62
319.212	136.62
319.441	125.62
319.67	130.62
319.9	139.62
320.129	142.62
320.358	122.62
320.587	132.62
320.816	124.62
321.046	133.62
321.275	145.62
321.504	134.62
321.733	137.62
321.962	131.62
322.191	124.62
322.42	139.62
322.649	141.62
322.878	136.62
323.108	140.62
323.337	135.62
323.566	138.62
323.795	135.62
324.024	133.62
324.253	129.62
324.482	119.62
324.71	128.62
324.939	143.62
325.168	131.62
325.397	146.62
325.626	144.62
325.855	120.62
326.084	143.62
326.313	141.62
326.542	140.62
326.77	148.62
326.999	149.62
327.228	129.62
327.457	140.62
327.686	133.62
327.914	140.62
328.143	155.62
328.372	141.62
328.6	134.62
328.829	123.62
329.058	139.62
329.287	122.62
329.515	135.62
329.744	140.62
329.972	151.62
330.201	141.62
330.43	132.62
330.658	120.62
330.887	131.62
331.115	143.62
331.344	136.62
331.572	131.62
331.801	126.62
332.03	127.62
332.258	132.62
332.486	139.62
332.715	138.62
332.943	132.62
333.172	140.62
333.4	138.62
333.629	147.62
333.857	121.62
334.085	131.62
334.314	146.62
334.542	126.62
334.771	137.62
334.999	126.62
335.227	132.62
335.455	128.62
335.684	131.62
335.912	127.62
336.14	145.62
336.369	137.62
336.597	134.62
336.825	124.62
337.053	142.62
337.281	134.62
337.51	135.62
337.738	147.62
337.966	131.62
338.194	125.62
338.422	143.62
338.65	133.62
338.878	152.62
339.106	128.62
339.334	138.62
339.562	132.62
339.79	136.62
340.018	123.62
340.246	133.62
340.474	132.62
340.702	135.62
340.93	123.62
341.158	109.62
341.386	119.62
341.614	123.62
341.842	131.62
342.07	137.62
342.298	127.62
342.526	132.62
342.754	120.62
342.981	125.62
343.209	135.62
343.437	195.62
343.665	123.62
343.893	131.62
344.12	145.62
344.348	146.62
344.576	142.62
344.804	129.62
345.031	122.62
345.259	128.62
345.487	143.62
345.714	145.62
345.942	137.62
346.17	140.62
346.397	127.62
346.625	137.62
346.853	149.62
347.08	138.62
347.308	130.62
347.535	119.62
347.763	124.62
347.99	142.62
348.218	136.62
348.445	138.62
348.673	133.62
348.9	126.62
349.128	132.62
349.355	132.62
349.583	138.62
349.81	132.62
350.037	139.62
350.265	127.62
350.492	119.62
350.72	136.62
350.947	137.62
351.174	128.62
351.402	144.62
351.629	138.62
351.856	135.62
352.083	138.62
352.311	144.62
352.538	125.62
352.765	148.62
352.992	154.62
353.22	129.62
353.447	132.62
353.674	151.62
353.901	135.62
354.128	131.62
354.355	122.62
354.583	130.62
354.81	142.62
355.037	145.62
355.264	146.62
355.491	168.62
355.718	144.62
355.945	123.62
356.172	139.62
356.399	145.62
356.626	167.62
356.853	189.62
357.08	227.62
357.307	248.62
357.534	249.62
357.761	205.62
357.988	199.62
358.215	173.62
358.441	152.62
358.668	149.62
358.895	165.62
359.122	160.62
359.349	158.62
359.576	155.62
359.802	146.62
360.029	147.62
360.256	159.62
360.483	142.62
360.709	139.62
360.936	167.62
361.163	159.62
361.39	139.62
361.616	149.62
361.843	140.62
362.07	155.62
362.296	160.62
362.523	140.62
362.749	143.62
362.976	153.62
363.203	187.62
363.429	167.62
363.656	222.62
363.882	273.62
364.109	288.62
364.335	249.62
364.562	189.62
364.788	175.62
365.015	169.62
365.241	159.62
365.468	175.62
365.694	148.62
365.92	160.62
366.147	161.62
366.373	169.62
366.599	147.62
366.826	183.62
367.052	181.62
367.278	193.62
367.505	195.62
367.731	219.62
367.957	219.62
368.184	282.62
368.41	353.62
368.636	309.62
368.862	257.62
369.089	200.62
369.315	189.62
369.541	173.62
369.767	168.62
369.993	156.62
370.219	156.62
370.445	164.62
370.672	146.62
370.898	153.62
371.124	168.62
371.35	152.62
371.576	148.62
371.802	146.62
372.028	149.62
372.254	155.62
372.48	152.62
372.706	146.62
372.932	153.62
373.158	156.62
373.384	170.62
373.61	187.62
373.835	224.62
374.061	256.62
374.287	247.62
374.513	211.62
374.739	177.62
374.965	171.62
375.191	159.62
375.416	174.62
375.642	156.62
375.868	164.62
376.094	155.62
376.319	145.62
376.545	144.62
376.771	149.62
376.997	153.62
377.222	144.62
377.448	139.62
377.674	133.62
377.899	143.62
378.125	136.62
378.35	131.62
378.576	141.62
378.802	146.62
379.027	150.62
379.253	139.62
379.478	148.62
379.704	142.62
379.929	157.62
380.155	145.62
380.38	132.62
380.606	134.62
380.831	152.62
381.057	167.62
381.282	152.62
381.507	133.62
381.733	142.62
381.958	134.62
382.184	152.62
382.409	148.62
382.634	158.62
382.86	142.62
383.085	151.62
383.31	149.62
383.535	142.62
383.761	153.62
383.986	159.62
384.211	130.62
384.436	140.62
384.662	146.62
384.887	154.62
385.112	145.62
385.337	148.62
385.562	157.62
385.787	132.62
386.013	147.62
386.238	151.62
386.463	148.62
386.688	200.62
386.913	145.62
387.138	128.62
387.363	146.62
387.588	146.62
387.813	170.62
388.038	147.62
388.263	143.62
388.488	136.62
388.713	143.62
388.938	137.62
389.163	141.62
389.387	137.62
389.612	153.62
389.837	143.62
390.062	150.62
390.287	142.62
390.512	140.62
390.736	150.62
390.961	145.62
391.186	148.62
391.411	145.62
391.636	151.62
391.86	156.62
392.085	163.62
392.31	167.62
392.534	165.62
392.759	148.62
392.984	151.62
393.208	150.62
393.433	148.62
393.658	133.62
393.882	154.62
394.107	150.62
394.331	149.62
394.556	148.62
394.78	154.62
395.005	155.62
395.229	136.62
395.454	153.62
395.678	154.62
395.903	160.62
396.127	148.62
396.352	156.62
396.576	151.62
396.801	153.62
397.025	148.62
397.249	175.62
397.474	156.62
397.698	157.62
397.922	161.62
398.147	153.62
398.371	148.62
398.595	171.62
398.82	160.62
399.044	168.62
399.268	146.62
399.492	143.62
399.717	173.62
399.941	159.62
400.165	157.62
400.389	161.62
400.613	171.62
400.837	170.62
401.062	183.62
401.286	168.62
401.51	170.62
401.734	176.62
401.958	185.62
402.182	191.62
402.406	162.62
402.63	165.62
402.854	171.62
403.078	164.62
403.302	165.62
403.526	169.62
403.75	164.62
403.974	180.62
404.198	178.62
404.422	173.62
404.645	175.62
404.869	201.62
405.093	204.62
405.317	256.62
405.541	337.62
405.765	492.62
405.988	499.62
406.212	401.62
406.436	314.62
406.66	266.62
406.883	245.62
407.107	211.62
407.331	202.62
407.555	200.62
407.778	206.62
408.002	176.62
408.226	175.62
408.449	175.62
408.673	192.62
408.896	183.62
409.12	179.62
409.344	186.62
409.567	169.62
409.791	174.62
410.014	173.62
410.238	168.62
410.461	168.62
410.685	162.62
410.908	179.62
411.132	171.62
411.355	160.62
411.578	159.62
411.802	164.62
412.025	155.62
412.249	157.62
412.472	162.62
412.695	171.62
412.919	168.62
413.142	158.62
413.365	185.62
413.589	179.62
413.812	176.62
414.035	168.62
414.258	170.62
414.482	162.62
414.705	159.62
414.928	199.62
415.151	188.62
415.374	155.62
415.597	172.62
415.821	161.62
416.044	173.62
416.267	172.62
416.49	170.62
416.713	175.62
416.936	188.62
417.159	170.62
417.382	176.62
417.605	151.62
417.828	169.62
418.051	172.62
418.274	185.62
418.497	175.62
418.72	158.62
418.943	176.62
419.166	175.62
419.389	167.62
419.611	174.62
419.834	161.62
420.057	172.62
420.28	165.62
420.503	185.62
420.726	162.62
420.948	156.62
421.171	170.62
421.394	162.62
421.617	171.62
421.839	174.62
422.062	160.62
422.285	192.62
422.507	184.62
422.73	169.62
422.953	181.62
423.175	198.62
423.398	188.62
423.621	198.62
423.843	194.62
424.066	217.62
424.288	232.62
424.511	257.62
424.733	279.62
424.956	265.62
425.178	262.62
425.401	232.62
425.623	220.62
425.846	202.62
426.068	197.62
426.291	205.62
426.513	203.62
426.735	196.62
426.958	196.62
427.18	185.62
427.402	184.62
427.625	184.62
427.847	171.62
428.069	188.62
428.292	189.62
428.514	192.62
428.736	185.62
428.958	186.62
429.181	179.62
429.403	170.62
429.625	169.62
429.847	165.62
430.069	183.62
430.292	177.62
430.514	173.62
430.736	163.62
430.958	169.62
431.18	151.62
431.402	162.62
431.624	175.62
431.846	158.62
432.068	179.62
432.29	163.62
432.512	177.62
432.734	170.62
432.956	174.62
433.178	174.62
433.4	183.62
433.622	187.62
433.844	180.62
434.066	191.62
434.287	173.62
434.509	157.62
434.731	146.62
434.953	162.62
435.175	175.62
435.397	178.62
435.618	171.62
435.84	175.62
436.062	188.62
436.284	188.62
436.505	194.62
436.727	181.62
436.949	204.62
437.17	191.62
437.392	186.62
437.614	177.62
437.835	167.62
438.057	189.62
438.278	201.62
438.5	225.62
438.721	266.62
438.943	298.62
439.165	257.62
439.386	237.62
439.608	235.62
439.829	235.62
440.05	233.62
440.272	222.62
440.493	231.62
440.715	235.62
440.936	237.62
441.158	232.62
441.379	216.62
441.6	220.62
441.822	213.62
442.043	205.62
442.264	199.62
442.486	196.62
442.707	194.62
442.928	201.62
443.149	209.62
443.371	200.62
443.592	170.62
443.813	194.62
444.034	198.62
444.255	215.62
444.476	201.62
444.698	189.62
444.919	191.62
445.14	498.62
445.361	324.62
445.582	218.62
445.803	191.62
446.024	202.62
446.245	205.62
446.466	194.62
446.687	194.62
446.908	199.62
447.129	191.62
447.35	168.62
447.571	181.62
447.792	196.62
448.013	169.62
448.234	187.62
448.455	174.62
448.675	193.62
448.896	171.62
449.117	180.62
449.338	155.62
449.559	185.62
449.779	184.62
450	174.62
450.221	188.62
450.442	175.62
450.662	176.62
450.883	184.62
451.104	171.62
451.324	172.62
451.545	170.62
451.766	165.62
451.986	171.62
452.207	167.62
452.428	192.62
452.648	182.62
452.869	164.62
453.089	162.62
453.31	169.62
453.53	164.62
453.751	160.62
453.971	159.62
454.192	155.62
454.412	162.62
454.633	175.62
454.853	160.62
455.073	161.62
455.294	152.62
455.514	164.62
455.734	166.62
455.955	162.62
456.175	164.62
456.395	154.62
456.616	150.62
456.836	154.62
457.056	145.62
457.276	149.62
457.497	147.62
457.717	169.62
457.937	147.62
458.157	168.62
458.377	154.62
458.598	159.62
458.818	154.62
459.038	138.62
459.258	143.62
459.478	144.62
459.698	153.62
459.918	167.62
460.138	173.62
460.358	152.62
460.578	175.62
460.798	155.62
461.018	167.62
461.238	171.62
461.458	175.62
461.678	168.62
461.898	180.62
462.118	163.62
462.338	145.62
462.558	167.62
462.777	167.62
462.997	171.62
463.217	166.62
463.437	168.62
463.657	149.62
463.876	173.62
464.096	180.62
464.316	158.62
464.536	163.62
464.755	186.62
464.975	155.62
465.195	170.62
465.414	161.62
465.634	162.62
465.854	157.62
466.073	185.62
466.293	167.62
466.512	160.62
466.732	148.62
466.951	172.62
467.171	159.62
467.391	158.62
467.61	154.62
467.829	171.62
468.049	159.62
468.268	183.62
468.488	174.62
468.707	173.62
468.927	164.62
469.146	158.62
469.365	182.62
469.585	169.62
469.804	173.62
470.023	201.62
470.243	188.62
470.462	184.62
470.681	195.62
470.901	163.62
471.12	183.62
471.339	169.62
471.558	169.62
471.777	164.62
471.997	175.62
472.216	170.62
472.435	157.62
472.654	153.62
472.873	156.62
473.092	163.62
473.311	159.62
473.53	170.62
473.749	162.62
473.968	185.62
474.187	158.62
474.406	159.62
474.625	175.62
474.844	169.62
475.063	162.62
475.282	167.62
475.501	173.62
475.72	185.62
475.939	163.62
476.158	173.62
476.377	159.62
476.596	161.62
476.814	162.62
477.033	156.62
477.252	169.62
477.471	172.62
477.69	177.62
477.908	188.62
478.127	199.62
478.346	180.62
478.564	171.62
478.783	164.62
479.002	183.62
479.22	164.62
479.439	177.62
479.658	167.62
479.876	171.62
480.095	168.62
480.313	185.62
480.532	179.62
480.751	157.62
480.969	154.62
481.188	169.62
481.406	181.62
481.624	162.62
481.843	183.62
482.061	155.62
482.28	191.62
482.498	186.62
482.717	168.62
482.935	167.62
483.153	188.62
483.372	203.62
483.59	192.62
483.808	172.62
484.027	190.62
484.245	190.62
484.463	175.62
484.681	203.62
484.9	191.62
485.118	203.62
485.336	175.62
485.554	190.62
485.772	159.62
485.99	171.62
486.209	168.62
486.427	176.62
486.645	179.62
486.863	187.62
487.081	179.62
487.299	171.62
487.517	207.62
487.735	208.62
487.953	205.62
488.171	210.62
488.389	204.62
488.607	173.62
488.825	176.62
489.043	186.62
489.261	211.62
489.479	183.62
489.696	207.62
489.914	177.62
490.132	190.62
490.35	217.62
490.568	198.62
490.786	200.62
491.003	202.62
491.221	204.62
491.439	222.62
491.657	221.62
491.874	226.62
492.092	227.62
492.31	233.62
492.527	193.62
492.745	216.62
492.963	220.62
493.18	211.62
493.398	207.62
493.615	195.62
493.833	209.62
494.05	188.62
494.268	191.62
494.485	205.62
494.703	214.62
494.92	201.62
495.138	195.62
495.355	217.62
495.573	225.62
495.79	204.62
496.008	215.62
496.225	212.62
496.442	204.62
496.66	233.62
496.877	223.62
497.094	213.62
497.312	200.62
497.529	199.62
497.746	221.62
497.963	194.62
498.181	209.62
498.398	189.62
498.615	201.62
498.832	200.62
499.049	210.62
499.267	203.62
499.484	209.62
499.701	224.62
499.918	236.62
500.135	224.62
500.352	215.62
500.569	246.62
500.786	294.62
501.003	251.62
501.22	220.62
501.437	246.62
501.654	220.62
501.871	225.62
502.088	216.62
502.305	212.62
502.522	194.62
502.739	204.62
502.956	214.62
503.172	211.62
503.389	192.62
503.606	216.62
503.823	228.62
