Data from TenMicroDelayPb_HRD10591_00009.txt Node
Date: Mon Nov 24 14:56:14 EST 2025
User: Yrep
Spectrometer: HR+D1059
Trigger mode: 5
Integration Time (sec): 1.000000E-3
Scans to average: 1
Electric dark correction enabled: true
Nonlinearity correction enabled: false
Boxcar width: 0
XAxis mode: Wavelengths
Number of Pixels in Spectrum: 2048
>>>>>Begin Spectral Data<<<<<
223.165	-16.19
223.4	-16.19
223.635	-16.19
223.869	-30.19
224.104	-34.19
224.338	-28.19
224.573	-10.19
224.808	-18.19
225.042	0.81
225.277	-9.19
225.511	-6.19
225.746	16.81
225.98	8.81
226.215	25.81
226.449	15.81
226.683	23.81
226.918	25.81
227.152	34.81
227.387	37.81
227.621	22.81
227.856	43.81
228.09	57.81
228.324	45.81
228.559	56.81
228.793	55.81
229.027	71.81
229.262	54.81
229.496	76.81
229.73	62.81
229.964	98.81
230.199	87.81
230.433	58.81
230.667	87.81
230.901	90.81
231.136	85.81
231.37	85.81
231.604	81.81
231.838	66.81
232.072	84.81
232.306	87.81
232.541	79.81
232.775	89.81
233.009	88.81
233.243	84.81
233.477	78.81
233.711	87.81
233.945	92.81
234.179	81.81
234.413	84.81
234.647	89.81
234.881	78.81
235.115	88.81
235.349	90.81
235.583	93.81
235.817	99.81
236.051	89.81
236.285	79.81
236.519	87.81
236.753	99.81
236.987	93.81
237.221	89.81
237.455	86.81
237.689	95.81
237.922	75.81
238.156	65.81
238.39	84.81
238.624	83.81
238.858	89.81
239.091	90.81
239.325	79.81
239.559	77.81
239.793	88.81
240.027	101.81
240.26	84.81
240.494	101.81
240.728	97.81
240.961	99.81
241.195	91.81
241.429	99.81
241.662	93.81
241.896	62.81
242.13	86.81
242.363	100.81
242.597	75.81
242.83	85.81
243.064	84.81
243.298	93.81
243.531	86.81
243.765	84.81
243.998	92.81
244.232	102.81
244.465	105.81
244.699	89.81
244.932	101.81
245.166	103.81
245.399	97.81
245.633	103.81
245.866	92.81
246.099	78.81
246.333	91.81
246.566	90.81
246.8	98.81
247.033	91.81
247.266	98.81
247.5	78.81
247.733	93.81
247.966	85.81
248.2	103.81
248.433	81.81
248.666	81.81
248.899	88.81
249.133	95.81
249.366	103.81
249.599	83.81
249.832	83.81
250.066	114.81
250.299	88.81
250.532	109.81
250.765	101.81
250.998	96.81
251.231	98.81
251.465	80.81
251.698	108.81
251.931	109.81
252.164	83.81
252.397	92.81
252.63	110.81
252.863	111.81
253.096	118.81
253.329	105.81
253.562	97.81
253.795	103.81
254.028	123.81
254.261	117.81
254.494	109.81
254.727	125.81
254.96	118.81
255.193	95.81
255.426	98.81
255.659	104.81
255.892	107.81
256.124	106.81
256.357	102.81
256.59	115.81
256.823	101.81
257.056	121.81
257.289	118.81
257.521	110.81
257.754	122.81
257.987	117.81
258.22	112.81
258.452	90.81
258.685	94.81
258.918	100.81
259.151	101.81
259.383	123.81
259.616	108.81
259.849	100.81
260.081	103.81
260.314	105.81
260.547	106.81
260.779	124.81
261.012	122.81
261.244	134.81
261.477	170.81
261.71	123.81
261.942	117.81
262.175	115.81
262.407	107.81
262.64	107.81
262.872	125.81
263.105	129.81
263.337	111.81
263.57	103.81
263.802	116.81
264.035	119.81
264.267	101.81
264.499	114.81
264.732	129.81
264.964	125.81
265.197	121.81
265.429	126.81
265.661	117.81
265.894	109.81
266.126	130.81
266.358	129.81
266.591	126.81
266.823	125.81
267.055	114.81
267.287	112.81
267.52	105.81
267.752	107.81
267.984	110.81
268.216	107.81
268.448	113.81
268.681	116.81
268.913	108.81
269.145	107.81
269.377	112.81
269.609	120.81
269.841	118.81
270.073	113.81
270.306	107.81
270.538	108.81
270.77	101.81
271.002	107.81
271.234	115.81
271.466	122.81
271.698	118.81
271.93	127.81
272.162	113.81
272.394	112.81
272.626	91.81
272.858	109.81
273.09	111.81
273.322	97.81
273.553	95.81
273.785	104.81
274.017	106.81
274.249	116.81
274.481	117.81
274.713	86.81
274.945	115.81
275.176	94.81
275.408	115.81
275.64	120.81
275.872	100.81
276.104	119.81
276.335	115.81
276.567	121.81
276.799	92.81
277.031	104.81
277.262	110.81
277.494	130.81
277.726	123.81
277.957	106.81
278.189	106.81
278.421	112.81
278.652	117.81
278.884	122.81
279.115	135.81
279.347	156.81
279.579	142.81
279.81	150.81
280.042	197.81
280.273	209.81
280.505	195.81
280.736	157.81
280.968	141.81
281.199	156.81
281.431	131.81
281.662	142.81
281.894	134.81
282.125	151.81
282.356	148.81
282.588	151.81
282.819	132.81
283.051	137.81
283.282	161.81
283.513	187.81
283.745	156.81
283.976	151.81
284.207	134.81
284.439	137.81
284.67	127.81
284.901	132.81
285.132	105.81
285.364	118.81
285.595	135.81
285.826	117.81
286.057	127.81
286.288	113.81
286.52	124.81
286.751	134.81
286.982	138.81
287.213	137.81
287.444	161.81
287.675	148.81
287.906	137.81
288.138	137.81
288.369	126.81
288.6	128.81
288.831	141.81
289.062	114.81
289.293	117.81
289.524	126.81
289.755	110.81
289.986	126.81
290.217	125.81
290.448	124.81
290.679	113.81
290.91	116.81
291.141	106.81
291.371	122.81
291.602	111.81
291.833	107.81
292.064	120.81
292.295	114.81
292.526	117.81
292.757	122.81
292.987	115.81
293.218	118.81
293.449	119.81
293.68	124.81
293.91	108.81
294.141	132.81
294.372	120.81
294.603	108.81
294.833	121.81
295.064	106.81
295.295	121.81
295.525	133.81
295.756	127.81
295.987	130.81
296.217	131.81
296.448	113.81
296.679	109.81
296.909	120.81
297.14	132.81
297.37	143.81
297.601	120.81
297.831	132.81
298.062	141.81
298.292	134.81
298.523	127.81
298.753	126.81
298.984	130.81
299.214	108.81
299.445	119.81
299.675	134.81
299.905	122.81
300.136	117.81
300.366	119.81
300.597	117.81
300.827	122.81
301.057	124.81
301.288	124.81
301.518	116.81
301.748	128.81
301.979	189.81
302.209	126.81
302.439	124.81
302.669	129.81
302.9	132.81
303.13	113.81
303.36	121.81
303.59	125.81
303.82	129.81
304.051	132.81
304.281	137.81
304.511	119.81
304.741	118.81
304.971	102.81
305.201	143.81
305.431	119.81
305.661	139.81
305.891	114.81
306.121	123.81
306.352	121.81
306.582	120.81
306.812	133.81
307.042	113.81
307.272	130.81
307.502	129.81
307.731	129.81
307.961	119.81
308.191	116.81
308.421	119.81
308.651	124.81
308.881	124.81
309.111	119.81
309.341	127.81
309.571	116.81
309.8	128.81
310.03	119.81
310.26	121.81
310.49	124.81
310.72	118.81
310.949	112.81
311.179	116.81
311.409	133.81
311.639	122.81
311.868	120.81
312.098	137.81
312.328	135.81
312.557	130.81
312.787	129.81
313.017	126.81
313.246	141.81
313.476	120.81
313.706	122.81
313.935	139.81
314.165	134.81
314.394	147.81
314.624	133.81
314.853	150.81
315.083	136.81
315.312	148.81
315.542	136.81
315.771	143.81
316.001	140.81
316.23	143.81
316.46	145.81
316.689	142.81
316.919	122.81
317.148	145.81
317.377	142.81
317.607	131.81
317.836	122.81
318.065	119.81
318.295	126.81
318.524	138.81
318.753	138.81
318.983	123.81
319.212	138.81
319.441	133.81
319.67	129.81
319.9	153.81
320.129	128.81
320.358	135.81
320.587	123.81
320.816	116.81
321.046	127.81
321.275	129.81
321.504	127.81
321.733	129.81
321.962	121.81
322.191	126.81
322.42	130.81
322.649	145.81
322.878	131.81
323.108	138.81
323.337	136.81
323.566	134.81
323.795	136.81
324.024	126.81
324.253	129.81
324.482	128.81
324.71	126.81
324.939	135.81
325.168	150.81
325.397	124.81
325.626	132.81
325.855	125.81
326.084	113.81
326.313	130.81
326.542	126.81
326.77	145.81
326.999	137.81
327.228	126.81
327.457	141.81
327.686	148.81
327.914	142.81
328.143	142.81
328.372	121.81
328.6	133.81
328.829	135.81
329.058	127.81
329.287	121.81
329.515	132.81
329.744	127.81
329.972	113.81
330.201	130.81
330.43	134.81
330.658	114.81
330.887	147.81
331.115	132.81
331.344	139.81
331.572	157.81
331.801	157.81
332.03	140.81
332.258	137.81
332.486	131.81
332.715	132.81
332.943	136.81
333.172	119.81
333.4	127.81
333.629	123.81
333.857	132.81
334.085	113.81
334.314	140.81
334.542	127.81
334.771	132.81
334.999	130.81
335.227	154.81
335.455	129.81
335.684	139.81
335.912	138.81
336.14	131.81
336.369	131.81
336.597	123.81
336.825	126.81
337.053	140.81
337.281	140.81
337.51	139.81
337.738	122.81
337.966	139.81
338.194	123.81
338.422	121.81
338.65	134.81
338.878	147.81
339.106	145.81
339.334	151.81
339.562	125.81
339.79	130.81
340.018	128.81
340.246	139.81
340.474	114.81
340.702	137.81
340.93	121.81
341.158	122.81
341.386	135.81
341.614	135.81
341.842	122.81
342.07	138.81
342.298	149.81
342.526	150.81
342.754	118.81
342.981	141.81
343.209	140.81
343.437	184.81
343.665	131.81
343.893	140.81
344.12	157.81
344.348	143.81
344.576	129.81
344.804	123.81
345.031	127.81
345.259	134.81
345.487	133.81
345.714	137.81
345.942	129.81
346.17	134.81
346.397	110.81
346.625	110.81
346.853	138.81
347.08	109.81
347.308	151.81
347.535	138.81
347.763	128.81
347.99	129.81
348.218	147.81
348.445	135.81
348.673	117.81
348.9	135.81
349.128	136.81
349.355	131.81
349.583	128.81
349.81	137.81
350.037	118.81
350.265	129.81
350.492	139.81
350.72	127.81
350.947	147.81
351.174	128.81
351.402	127.81
351.629	131.81
351.856	136.81
352.083	122.81
352.311	121.81
352.538	126.81
352.765	129.81
352.992	175.81
353.22	129.81
353.447	130.81
353.674	122.81
353.901	133.81
354.128	132.81
354.355	132.81
354.583	141.81
354.81	125.81
355.037	146.81
355.264	147.81
355.491	140.81
355.718	124.81
355.945	148.81
356.172	139.81
356.399	163.81
356.626	145.81
356.853	167.81
357.08	215.81
357.307	240.81
357.534	241.81
357.761	229.81
357.988	206.81
358.215	171.81
358.441	140.81
358.668	154.81
358.895	161.81
359.122	143.81
359.349	145.81
359.576	163.81
359.802	138.81
360.029	154.81
360.256	145.81
360.483	137.81
360.709	130.81
360.936	162.81
361.163	139.81
361.39	151.81
361.616	138.81
361.843	139.81
362.07	150.81
362.296	163.81
362.523	137.81
362.749	145.81
362.976	166.81
363.203	183.81
363.429	168.81
363.656	217.81
363.882	266.81
364.109	301.81
364.335	248.81
364.562	192.81
364.788	152.81
365.015	149.81
365.241	152.81
365.468	166.81
365.694	142.81
365.92	158.81
366.147	149.81
366.373	148.81
366.599	155.81
366.826	158.81
367.052	171.81
367.278	191.81
367.505	193.81
367.731	211.81
367.957	209.81
368.184	279.81
368.41	354.81
368.636	317.81
368.862	255.81
369.089	188.81
369.315	178.81
369.541	185.81
369.767	170.81
369.993	173.81
370.219	151.81
370.445	150.81
370.672	153.81
370.898	165.81
371.124	147.81
371.35	149.81
371.576	153.81
371.802	150.81
372.028	137.81
372.254	170.81
372.48	157.81
372.706	150.81
372.932	151.81
373.158	160.81
373.384	159.81
373.61	190.81
373.835	231.81
374.061	259.81
374.287	234.81
374.513	189.81
374.739	179.81
374.965	151.81
375.191	152.81
375.416	166.81
375.642	151.81
375.868	156.81
376.094	137.81
376.319	148.81
376.545	136.81
376.771	143.81
376.997	141.81
377.222	130.81
377.448	144.81
377.674	119.81
377.899	145.81
378.125	138.81
378.35	157.81
378.576	140.81
378.802	124.81
379.027	143.81
379.253	155.81
379.478	142.81
379.704	135.81
379.929	136.81
380.155	148.81
380.38	153.81
380.606	134.81
380.831	126.81
381.057	164.81
381.282	148.81
381.507	137.81
381.733	144.81
381.958	134.81
382.184	137.81
382.409	143.81
382.634	162.81
382.86	135.81
383.085	141.81
383.31	148.81
383.535	158.81
383.761	147.81
383.986	137.81
384.211	126.81
384.436	133.81
384.662	141.81
384.887	142.81
385.112	138.81
385.337	147.81
385.562	131.81
385.787	115.81
386.013	161.81
386.238	144.81
386.463	127.81
386.688	185.81
386.913	127.81
387.138	146.81
387.363	148.81
387.588	149.81
387.813	149.81
388.038	132.81
388.263	149.81
388.488	140.81
388.713	141.81
388.938	144.81
389.163	142.81
389.387	146.81
389.612	124.81
389.837	147.81
390.062	158.81
390.287	131.81
390.512	139.81
390.736	140.81
390.961	139.81
391.186	141.81
391.411	130.81
391.636	142.81
391.86	151.81
392.085	151.81
392.31	143.81
392.534	145.81
392.759	161.81
392.984	145.81
393.208	133.81
393.433	127.81
393.658	143.81
393.882	147.81
394.107	153.81
394.331	150.81
394.556	133.81
394.78	148.81
395.005	137.81
395.229	139.81
395.454	147.81
395.678	140.81
395.903	154.81
396.127	163.81
396.352	146.81
396.576	156.81
396.801	148.81
397.025	154.81
397.249	158.81
397.474	154.81
397.698	149.81
397.922	166.81
398.147	151.81
398.371	160.81
398.595	154.81
398.82	139.81
399.044	137.81
399.268	173.81
399.492	156.81
399.717	173.81
399.941	158.81
400.165	163.81
400.389	146.81
400.613	162.81
400.837	152.81
401.062	157.81
401.286	164.81
401.51	163.81
401.734	183.81
401.958	177.81
402.182	185.81
402.406	161.81
402.63	157.81
402.854	161.81
403.078	155.81
403.302	168.81
403.526	150.81
403.75	166.81
403.974	177.81
404.198	177.81
404.422	157.81
404.645	188.81
404.869	217.81
405.093	220.81
405.317	252.81
405.541	320.81
405.765	469.81
405.988	506.81
406.212	398.81
406.436	308.81
406.66	258.81
406.883	227.81
407.107	199.81
407.331	204.81
407.555	204.81
407.778	203.81
408.002	186.81
408.226	200.81
408.449	169.81
408.673	178.81
408.896	179.81
409.12	180.81
409.344	178.81
409.567	173.81
409.791	179.81
410.014	192.81
410.238	177.81
410.461	159.81
410.685	179.81
410.908	150.81
411.132	173.81
411.355	166.81
411.578	165.81
411.802	157.81
412.025	161.81
412.249	154.81
412.472	158.81
412.695	170.81
412.919	158.81
413.142	144.81
413.365	145.81
413.589	180.81
413.812	148.81
414.035	172.81
414.258	165.81
414.482	151.81
414.705	165.81
414.928	177.81
415.151	150.81
415.374	169.81
415.597	152.81
415.821	159.81
416.044	163.81
416.267	168.81
416.49	154.81
416.713	189.81
416.936	177.81
417.159	163.81
417.382	152.81
417.605	144.81
417.828	170.81
418.051	165.81
418.274	172.81
418.497	168.81
418.72	153.81
418.943	158.81
419.166	167.81
419.389	162.81
419.611	168.81
419.834	155.81
420.057	174.81
420.28	150.81
420.503	161.81
420.726	183.81
420.948	148.81
421.171	166.81
421.394	190.81
421.617	178.81
421.839	180.81
422.062	172.81
422.285	171.81
422.507	169.81
422.73	185.81
422.953	172.81
423.175	183.81
423.398	179.81
423.621	198.81
423.843	202.81
424.066	206.81
424.288	223.81
424.511	252.81
424.733	260.81
424.956	255.81
425.178	223.81
425.401	220.81
425.623	220.81
425.846	211.81
426.068	186.81
426.291	185.81
426.513	191.81
426.735	187.81
426.958	191.81
427.18	170.81
427.402	182.81
427.625	169.81
427.847	174.81
428.069	191.81
428.292	165.81
428.514	161.81
428.736	175.81
428.958	167.81
429.181	178.81
429.403	170.81
429.625	182.81
429.847	189.81
430.069	175.81
430.292	191.81
430.514	166.81
430.736	158.81
430.958	181.81
431.18	162.81
431.402	179.81
431.624	163.81
431.846	156.81
432.068	167.81
432.29	182.81
432.512	186.81
432.734	181.81
432.956	175.81
433.178	181.81
433.4	172.81
433.622	186.81
433.844	174.81
434.066	184.81
434.287	169.81
434.509	167.81
434.731	152.81
434.953	145.81
435.175	173.81
435.397	173.81
435.618	148.81
435.84	156.81
436.062	188.81
436.284	175.81
436.505	165.81
436.727	166.81
436.949	179.81
437.17	180.81
437.392	186.81
437.614	199.81
437.835	175.81
438.057	194.81
438.278	207.81
438.5	241.81
438.721	251.81
438.943	276.81
439.165	234.81
439.386	227.81
439.608	235.81
439.829	210.81
440.05	225.81
440.272	218.81
440.493	215.81
440.715	209.81
440.936	245.81
441.158	243.81
441.379	222.81
441.6	231.81
441.822	199.81
442.043	195.81
442.264	197.81
442.486	184.81
442.707	185.81
442.928	192.81
443.149	193.81
443.371	200.81
443.592	166.81
443.813	187.81
444.034	175.81
444.255	192.81
444.476	184.81
444.698	191.81
444.919	203.81
445.14	497.81
445.361	306.81
445.582	205.81
445.803	183.81
446.024	183.81
446.245	205.81
446.466	198.81
446.687	183.81
446.908	187.81
447.129	189.81
447.35	181.81
447.571	189.81
447.792	188.81
448.013	169.81
448.234	179.81
448.455	168.81
448.675	169.81
448.896	165.81
449.117	183.81
449.338	175.81
449.559	183.81
449.779	165.81
450	172.81
450.221	194.81
450.442	175.81
450.662	183.81
450.883	161.81
451.104	168.81
451.324	181.81
451.545	177.81
451.766	167.81
451.986	165.81
452.207	187.81
452.428	158.81
452.648	169.81
452.869	181.81
453.089	155.81
453.31	166.81
453.53	140.81
453.751	167.81
453.971	158.81
454.192	143.81
454.412	148.81
454.633	148.81
454.853	147.81
455.073	158.81
455.294	154.81
455.514	181.81
455.734	151.81
455.955	167.81
456.175	172.81
456.395	147.81
456.616	173.81
456.836	152.81
457.056	149.81
457.276	153.81
457.497	151.81
457.717	152.81
457.937	150.81
458.157	144.81
458.377	162.81
458.598	138.81
458.818	141.81
459.038	132.81
459.258	141.81
459.478	154.81
459.698	155.81
459.918	148.81
460.138	157.81
460.358	149.81
460.578	163.81
460.798	168.81
461.018	161.81
461.238	146.81
461.458	153.81
461.678	164.81
461.898	163.81
462.118	175.81
462.338	166.81
462.558	177.81
462.777	166.81
462.997	163.81
463.217	157.81
463.437	158.81
463.657	149.81
463.876	154.81
464.096	174.81
464.316	147.81
464.536	159.81
464.755	161.81
464.975	159.81
465.195	152.81
465.414	170.81
465.634	182.81
465.854	169.81
466.073	153.81
466.293	163.81
466.512	150.81
466.732	156.81
466.951	170.81
467.171	177.81
467.391	149.81
467.61	162.81
467.829	163.81
468.049	181.81
468.268	152.81
468.488	151.81
468.707	166.81
468.927	163.81
469.146	154.81
469.365	150.81
469.585	162.81
469.804	159.81
470.023	152.81
470.243	180.81
470.462	166.81
470.681	180.81
470.901	166.81
471.12	162.81
471.339	183.81
471.558	149.81
471.777	157.81
471.997	178.81
472.216	170.81
472.435	134.81
472.654	154.81
472.873	160.81
473.092	148.81
473.311	161.81
473.53	158.81
473.749	161.81
473.968	144.81
474.187	158.81
474.406	156.81
474.625	166.81
474.844	171.81
475.063	153.81
475.282	178.81
475.501	171.81
475.72	192.81
475.939	179.81
476.158	169.81
476.377	149.81
476.596	150.81
476.814	158.81
477.033	166.81
477.252	170.81
477.471	172.81
477.69	181.81
477.908	179.81
478.127	170.81
478.346	180.81
478.564	178.81
478.783	164.81
479.002	188.81
479.22	201.81
479.439	186.81
479.658	188.81
479.876	185.81
480.095	175.81
480.313	164.81
480.532	175.81
480.751	156.81
480.969	169.81
481.188	156.81
481.406	177.81
481.624	170.81
481.843	171.81
482.061	177.81
482.28	145.81
482.498	162.81
482.717	149.81
482.935	183.81
483.153	170.81
483.372	181.81
483.59	178.81
483.808	181.81
484.027	174.81
484.245	159.81
484.463	172.81
484.681	197.81
484.9	166.81
485.118	176.81
485.336	162.81
485.554	172.81
485.772	173.81
485.99	169.81
486.209	150.81
486.427	177.81
486.645	173.81
486.863	172.81
487.081	164.81
487.299	170.81
487.517	179.81
487.735	187.81
487.953	212.81
488.171	176.81
488.389	181.81
488.607	172.81
488.825	173.81
489.043	151.81
489.261	184.81
489.479	174.81
489.696	180.81
489.914	174.81
490.132	191.81
490.35	218.81
490.568	185.81
490.786	205.81
491.003	188.81
491.221	204.81
491.439	199.81
491.657	191.81
491.874	205.81
492.092	223.81
492.31	229.81
492.527	209.81
492.745	221.81
492.963	218.81
493.18	211.81
493.398	192.81
493.615	201.81
493.833	185.81
494.05	193.81
494.268	182.81
494.485	202.81
494.703	205.81
494.92	205.81
495.138	203.81
495.355	217.81
495.573	213.81
495.79	200.81
496.008	209.81
496.225	210.81
496.442	203.81
496.66	209.81
496.877	215.81
497.094	221.81
497.312	200.81
497.529	216.81
497.746	225.81
497.963	187.81
498.181	189.81
498.398	202.81
498.615	191.81
498.832	187.81
499.049	179.81
499.267	207.81
499.484	197.81
499.701	233.81
499.918	229.81
500.135	216.81
500.352	225.81
500.569	277.81
500.786	278.81
501.003	253.81
501.22	239.81
501.437	238.81
501.654	210.81
501.871	204.81
502.088	207.81
502.305	215.81
502.522	200.81
502.739	201.81
502.956	219.81
503.172	201.81
503.389	192.81
503.606	198.81
503.823	204.81
