Data from TenMicroDelayPb_HRD10591_00007.txt Node
Date: Mon Nov 24 14:56:13 EST 2025
User: Yrep
Spectrometer: HR+D1059
Trigger mode: 5
Integration Time (sec): 1.000000E-3
Scans to average: 1
Electric dark correction enabled: true
Nonlinearity correction enabled: false
Boxcar width: 0
XAxis mode: Wavelengths
Number of Pixels in Spectrum: 2048
>>>>>Begin Spectral Data<<<<<
223.165	-35.94
223.4	-35.94
223.635	-35.94
223.869	-19.94
224.104	-27.94
224.338	-11.94
224.573	-17.94
224.808	-16.94
225.042	3.06
225.277	3.06
225.511	0.06
225.746	7.06
225.98	6.06
226.215	3.06
226.449	27.06
226.683	18.06
226.918	32.06
227.152	31.06
227.387	49.06
227.621	59.06
227.856	56.06
228.09	41.06
228.324	56.06
228.559	69.06
228.793	58.06
229.027	69.06
229.262	78.06
229.496	81.06
229.73	86.06
229.964	102.06
230.199	77.06
230.433	73.06
230.667	96.06
230.901	86.06
231.136	82.06
231.37	79.06
231.604	73.06
231.838	93.06
232.072	82.06
232.306	104.06
232.541	81.06
232.775	78.06
233.009	87.06
233.243	99.06
233.477	91.06
233.711	98.06
233.945	89.06
234.179	95.06
234.413	88.06
234.647	84.06
234.881	93.06
235.115	92.06
235.349	87.06
235.583	94.06
235.817	88.06
236.051	84.06
236.285	82.06
236.519	87.06
236.753	80.06
236.987	95.06
237.221	81.06
237.455	83.06
237.689	92.06
237.922	96.06
238.156	81.06
238.39	80.06
238.624	76.06
238.858	88.06
239.091	88.06
239.325	82.06
239.559	86.06
239.793	96.06
240.027	97.06
240.26	76.06
240.494	101.06
240.728	104.06
240.961	88.06
241.195	90.06
241.429	91.06
241.662	88.06
241.896	92.06
242.13	94.06
242.363	91.06
242.597	80.06
242.83	93.06
243.064	82.06
243.298	91.06
243.531	80.06
243.765	101.06
243.998	90.06
244.232	90.06
244.465	80.06
244.699	95.06
244.932	95.06
245.166	94.06
245.399	95.06
245.633	95.06
245.866	103.06
246.099	81.06
246.333	95.06
246.566	93.06
246.8	89.06
247.033	95.06
247.266	87.06
247.5	100.06
247.733	98.06
247.966	105.06
248.2	90.06
248.433	87.06
248.666	99.06
248.899	102.06
249.133	97.06
249.366	109.06
249.599	91.06
249.832	87.06
250.066	101.06
250.299	110.06
250.532	96.06
250.765	80.06
250.998	94.06
251.231	103.06
251.465	108.06
251.698	99.06
251.931	97.06
252.164	102.06
252.397	96.06
252.63	99.06
252.863	88.06
253.096	107.06
253.329	103.06
253.562	112.06
253.795	120.06
254.028	123.06
254.261	100.06
254.494	95.06
254.727	119.06
254.96	98.06
255.193	108.06
255.426	102.06
255.659	102.06
255.892	126.06
256.124	94.06
256.357	97.06
256.59	103.06
256.823	111.06
257.056	100.06
257.289	115.06
257.521	127.06
257.754	115.06
257.987	122.06
258.22	127.06
258.452	135.06
258.685	120.06
258.918	95.06
259.151	114.06
259.383	125.06
259.616	100.06
259.849	123.06
260.081	112.06
260.314	110.06
260.547	105.06
260.779	122.06
261.012	126.06
261.244	137.06
261.477	178.06
261.71	142.06
261.942	139.06
262.175	133.06
262.407	111.06
262.64	115.06
262.872	128.06
263.105	103.06
263.337	126.06
263.57	119.06
263.802	106.06
264.035	123.06
264.267	114.06
264.499	114.06
264.732	136.06
264.964	143.06
265.197	124.06
265.429	115.06
265.661	123.06
265.894	111.06
266.126	134.06
266.358	138.06
266.591	126.06
266.823	143.06
267.055	97.06
267.287	122.06
267.52	115.06
267.752	115.06
267.984	111.06
268.216	123.06
268.448	125.06
268.681	121.06
268.913	124.06
269.145	115.06
269.377	119.06
269.609	106.06
269.841	118.06
270.073	123.06
270.306	111.06
270.538	113.06
270.77	112.06
271.002	110.06
271.234	111.06
271.466	136.06
271.698	119.06
271.93	96.06
272.162	98.06
272.394	120.06
272.626	123.06
272.858	123.06
273.09	110.06
273.322	105.06
273.553	108.06
273.785	121.06
274.017	106.06
274.249	123.06
274.481	108.06
274.713	109.06
274.945	102.06
275.176	102.06
275.408	119.06
275.64	104.06
275.872	109.06
276.104	119.06
276.335	132.06
276.567	121.06
276.799	111.06
277.031	107.06
277.262	126.06
277.494	125.06
277.726	119.06
277.957	103.06
278.189	110.06
278.421	135.06
278.652	136.06
278.884	134.06
279.115	146.06
279.347	152.06
279.579	163.06
279.81	163.06
280.042	179.06
280.273	214.06
280.505	200.06
280.736	154.06
280.968	148.06
281.199	125.06
281.431	134.06
281.662	127.06
281.894	136.06
282.125	140.06
282.356	160.06
282.588	167.06
282.819	144.06
283.051	164.06
283.282	180.06
283.513	206.06
283.745	181.06
283.976	134.06
284.207	139.06
284.439	128.06
284.67	155.06
284.901	123.06
285.132	127.06
285.364	121.06
285.595	112.06
285.826	122.06
286.057	132.06
286.288	135.06
286.52	142.06
286.751	117.06
286.982	142.06
287.213	145.06
287.444	176.06
287.675	166.06
287.906	141.06
288.138	130.06
288.369	135.06
288.6	129.06
288.831	119.06
289.062	132.06
289.293	123.06
289.524	124.06
289.755	124.06
289.986	125.06
290.217	129.06
290.448	125.06
290.679	119.06
290.91	149.06
291.141	122.06
291.371	135.06
291.602	120.06
291.833	119.06
292.064	114.06
292.295	121.06
292.526	125.06
292.757	121.06
292.987	111.06
293.218	125.06
293.449	127.06
293.68	120.06
293.91	137.06
294.141	132.06
294.372	133.06
294.603	108.06
294.833	116.06
295.064	128.06
295.295	122.06
295.525	126.06
295.756	127.06
295.987	135.06
296.217	127.06
296.448	129.06
296.679	122.06
296.909	129.06
297.14	145.06
297.37	135.06
297.601	122.06
297.831	122.06
298.062	119.06
298.292	124.06
298.523	127.06
298.753	115.06
298.984	116.06
299.214	136.06
299.445	114.06
299.675	135.06
299.905	138.06
300.136	120.06
300.366	96.06
300.597	121.06
300.827	118.06
301.057	128.06
301.288	122.06
301.518	142.06
301.748	121.06
301.979	191.06
302.209	132.06
302.439	152.06
302.669	115.06
302.9	130.06
303.13	131.06
303.36	124.06
303.59	122.06
303.82	130.06
304.051	147.06
304.281	124.06
304.511	151.06
304.741	125.06
304.971	114.06
305.201	124.06
305.431	125.06
305.661	135.06
305.891	134.06
306.121	141.06
306.352	139.06
306.582	110.06
306.812	132.06
307.042	127.06
307.272	126.06
307.502	121.06
307.731	115.06
307.961	133.06
308.191	134.06
308.421	135.06
308.651	130.06
308.881	120.06
309.111	109.06
309.341	121.06
309.571	150.06
309.8	130.06
310.03	126.06
310.26	137.06
310.49	130.06
310.72	124.06
310.949	129.06
311.179	136.06
311.409	137.06
311.639	131.06
311.868	135.06
312.098	138.06
312.328	148.06
312.557	147.06
312.787	128.06
313.017	148.06
313.246	138.06
313.476	142.06
313.706	149.06
313.935	138.06
314.165	139.06
314.394	148.06
314.624	163.06
314.853	159.06
315.083	137.06
315.312	139.06
315.542	157.06
315.771	143.06
316.001	152.06
316.23	150.06
316.46	138.06
316.689	128.06
316.919	136.06
317.148	131.06
317.377	158.06
317.607	143.06
317.836	138.06
318.065	136.06
318.295	154.06
318.524	150.06
318.753	138.06
318.983	140.06
319.212	126.06
319.441	146.06
319.67	131.06
319.9	136.06
320.129	131.06
320.358	126.06
320.587	144.06
320.816	127.06
321.046	128.06
321.275	141.06
321.504	126.06
321.733	123.06
321.962	128.06
322.191	128.06
322.42	136.06
322.649	110.06
322.878	143.06
323.108	127.06
323.337	141.06
323.566	123.06
323.795	130.06
324.024	145.06
324.253	151.06
324.482	136.06
324.71	133.06
324.939	135.06
325.168	126.06
325.397	150.06
325.626	137.06
325.855	139.06
326.084	137.06
326.313	125.06
326.542	126.06
326.77	133.06
326.999	132.06
327.228	127.06
327.457	139.06
327.686	135.06
327.914	148.06
328.143	152.06
328.372	136.06
328.6	135.06
328.829	124.06
329.058	103.06
329.287	128.06
329.515	124.06
329.744	137.06
329.972	126.06
330.201	138.06
330.43	142.06
330.658	123.06
330.887	146.06
331.115	147.06
331.344	132.06
331.572	140.06
331.801	133.06
332.03	157.06
332.258	147.06
332.486	146.06
332.715	124.06
332.943	118.06
333.172	114.06
333.4	140.06
333.629	150.06
333.857	124.06
334.085	136.06
334.314	142.06
334.542	135.06
334.771	131.06
334.999	138.06
335.227	144.06
335.455	149.06
335.684	157.06
335.912	147.06
336.14	144.06
336.369	138.06
336.597	121.06
336.825	131.06
337.053	131.06
337.281	142.06
337.51	139.06
337.738	144.06
337.966	135.06
338.194	123.06
338.422	144.06
338.65	137.06
338.878	138.06
339.106	131.06
339.334	138.06
339.562	118.06
339.79	122.06
340.018	128.06
340.246	144.06
340.474	142.06
340.702	129.06
340.93	138.06
341.158	122.06
341.386	119.06
341.614	130.06
341.842	126.06
342.07	142.06
342.298	125.06
342.526	115.06
342.754	115.06
342.981	119.06
343.209	139.06
343.437	182.06
343.665	144.06
343.893	144.06
344.12	147.06
344.348	129.06
344.576	145.06
344.804	135.06
345.031	132.06
345.259	144.06
345.487	136.06
345.714	141.06
345.942	113.06
346.17	136.06
346.397	124.06
346.625	134.06
346.853	135.06
347.08	129.06
347.308	151.06
347.535	133.06
347.763	135.06
347.99	140.06
348.218	148.06
348.445	137.06
348.673	132.06
348.9	138.06
349.128	142.06
349.355	127.06
349.583	124.06
349.81	138.06
350.037	141.06
350.265	142.06
350.492	136.06
350.72	144.06
350.947	124.06
351.174	140.06
351.402	122.06
351.629	144.06
351.856	131.06
352.083	120.06
352.311	138.06
352.538	126.06
352.765	143.06
352.992	160.06
353.22	145.06
353.447	126.06
353.674	130.06
353.901	140.06
354.128	133.06
354.355	133.06
354.583	118.06
354.81	146.06
355.037	155.06
355.264	137.06
355.491	149.06
355.718	127.06
355.945	132.06
356.172	137.06
356.399	159.06
356.626	136.06
356.853	163.06
357.08	220.06
357.307	253.06
357.534	250.06
357.761	210.06
357.988	200.06
358.215	174.06
358.441	144.06
358.668	147.06
358.895	150.06
359.122	151.06
359.349	153.06
359.576	164.06
359.802	133.06
360.029	150.06
360.256	153.06
360.483	146.06
360.709	137.06
360.936	176.06
361.163	146.06
361.39	140.06
361.616	141.06
361.843	144.06
362.07	150.06
362.296	146.06
362.523	144.06
362.749	145.06
362.976	153.06
363.203	184.06
363.429	168.06
363.656	223.06
363.882	258.06
364.109	324.06
364.335	263.06
364.562	198.06
364.788	182.06
365.015	161.06
365.241	175.06
365.468	173.06
365.694	162.06
365.92	173.06
366.147	136.06
366.373	154.06
366.599	166.06
366.826	158.06
367.052	182.06
367.278	193.06
367.505	197.06
367.731	221.06
367.957	218.06
368.184	301.06
368.41	376.06
368.636	338.06
368.862	244.06
369.089	192.06
369.315	185.06
369.541	176.06
369.767	171.06
369.993	158.06
370.219	145.06
370.445	142.06
370.672	151.06
370.898	147.06
371.124	166.06
371.35	130.06
371.576	139.06
371.802	150.06
372.028	142.06
372.254	163.06
372.48	161.06
372.706	163.06
372.932	147.06
373.158	155.06
373.384	168.06
373.61	191.06
373.835	245.06
374.061	266.06
374.287	249.06
374.513	197.06
374.739	176.06
374.965	165.06
375.191	153.06
375.416	158.06
375.642	155.06
375.868	164.06
376.094	144.06
376.319	154.06
376.545	139.06
376.771	154.06
376.997	131.06
377.222	142.06
377.448	148.06
377.674	145.06
377.899	149.06
378.125	147.06
378.35	124.06
378.576	132.06
378.802	144.06
379.027	148.06
379.253	152.06
379.478	159.06
379.704	126.06
379.929	144.06
380.155	129.06
380.38	137.06
380.606	140.06
380.831	136.06
381.057	168.06
381.282	147.06
381.507	131.06
381.733	149.06
381.958	137.06
382.184	143.06
382.409	147.06
382.634	160.06
382.86	142.06
383.085	155.06
383.31	142.06
383.535	142.06
383.761	149.06
383.986	149.06
384.211	135.06
384.436	144.06
384.662	157.06
384.887	158.06
385.112	147.06
385.337	143.06
385.562	151.06
385.787	140.06
386.013	150.06
386.238	154.06
386.463	148.06
386.688	207.06
386.913	156.06
387.138	144.06
387.363	151.06
387.588	163.06
387.813	153.06
388.038	161.06
388.263	147.06
388.488	164.06
388.713	138.06
388.938	134.06
389.163	134.06
389.387	147.06
389.612	147.06
389.837	141.06
390.062	157.06
390.287	130.06
390.512	154.06
390.736	152.06
390.961	131.06
391.186	155.06
391.411	146.06
391.636	150.06
391.86	145.06
392.085	143.06
392.31	152.06
392.534	149.06
392.759	146.06
392.984	170.06
393.208	147.06
393.433	163.06
393.658	162.06
393.882	137.06
394.107	162.06
394.331	139.06
394.556	132.06
394.78	154.06
395.005	147.06
395.229	138.06
395.454	148.06
395.678	150.06
395.903	163.06
396.127	164.06
396.352	167.06
396.576	139.06
396.801	147.06
397.025	144.06
397.249	140.06
397.474	159.06
397.698	149.06
397.922	174.06
398.147	152.06
398.371	168.06
398.595	163.06
398.82	158.06
399.044	146.06
399.268	152.06
399.492	156.06
399.717	172.06
399.941	177.06
400.165	143.06
400.389	151.06
400.613	169.06
400.837	162.06
401.062	166.06
401.286	172.06
401.51	154.06
401.734	152.06
401.958	202.06
402.182	188.06
402.406	179.06
402.63	145.06
402.854	163.06
403.078	172.06
403.302	159.06
403.526	168.06
403.75	179.06
403.974	162.06
404.198	164.06
404.422	197.06
404.645	184.06
404.869	197.06
405.093	210.06
405.317	272.06
405.541	339.06
405.765	493.06
405.988	523.06
406.212	424.06
406.436	309.06
406.66	266.06
406.883	236.06
407.107	212.06
407.331	202.06
407.555	198.06
407.778	191.06
408.002	191.06
408.226	184.06
408.449	191.06
408.673	159.06
408.896	191.06
409.12	184.06
409.344	180.06
409.567	173.06
409.791	186.06
410.014	180.06
410.238	174.06
410.461	176.06
410.685	155.06
410.908	172.06
411.132	168.06
411.355	167.06
411.578	167.06
411.802	170.06
412.025	144.06
412.249	149.06
412.472	171.06
412.695	172.06
412.919	167.06
413.142	162.06
413.365	174.06
413.589	169.06
413.812	152.06
414.035	176.06
414.258	173.06
414.482	154.06
414.705	176.06
414.928	169.06
415.151	159.06
415.374	156.06
415.597	152.06
415.821	155.06
416.044	143.06
416.267	174.06
416.49	155.06
416.713	169.06
416.936	180.06
417.159	173.06
417.382	155.06
417.605	168.06
417.828	162.06
418.051	143.06
418.274	184.06
418.497	173.06
418.72	166.06
418.943	171.06
419.166	164.06
419.389	170.06
419.611	159.06
419.834	176.06
420.057	178.06
420.28	180.06
420.503	185.06
420.726	158.06
420.948	171.06
421.171	170.06
421.394	183.06
421.617	194.06
421.839	169.06
422.062	186.06
422.285	180.06
422.507	187.06
422.73	164.06
422.953	173.06
423.175	182.06
423.398	200.06
423.621	195.06
423.843	200.06
424.066	211.06
424.288	223.06
424.511	249.06
424.733	291.06
424.956	251.06
425.178	239.06
425.401	221.06
425.623	225.06
425.846	203.06
426.068	195.06
426.291	189.06
426.513	188.06
426.735	199.06
426.958	186.06
427.18	192.06
427.402	191.06
427.625	172.06
427.847	174.06
428.069	196.06
428.292	178.06
428.514	184.06
428.736	182.06
428.958	179.06
429.181	194.06
429.403	169.06
429.625	166.06
429.847	174.06
430.069	189.06
430.292	184.06
430.514	158.06
430.736	173.06
430.958	169.06
431.18	161.06
431.402	172.06
431.624	167.06
431.846	154.06
432.068	171.06
432.29	159.06
432.512	187.06
432.734	176.06
432.956	191.06
433.178	177.06
433.4	179.06
433.622	170.06
433.844	174.06
434.066	172.06
434.287	159.06
434.509	166.06
434.731	170.06
434.953	183.06
435.175	177.06
435.397	202.06
435.618	176.06
435.84	170.06
436.062	180.06
436.284	176.06
436.505	174.06
436.727	180.06
436.949	186.06
437.17	186.06
437.392	187.06
437.614	182.06
437.835	175.06
438.057	196.06
438.278	220.06
438.5	231.06
438.721	251.06
438.943	277.06
439.165	256.06
439.386	225.06
439.608	242.06
439.829	232.06
440.05	220.06
440.272	234.06
440.493	214.06
440.715	230.06
440.936	240.06
441.158	243.06
441.379	222.06
441.6	208.06
441.822	203.06
442.043	205.06
442.264	191.06
442.486	205.06
442.707	185.06
442.928	194.06
443.149	197.06
443.371	192.06
443.592	176.06
443.813	199.06
444.034	186.06
444.255	213.06
444.476	208.06
444.698	186.06
444.919	187.06
445.14	491.06
445.361	305.06
445.582	207.06
445.803	191.06
446.024	190.06
446.245	211.06
446.466	184.06
446.687	187.06
446.908	184.06
447.129	196.06
447.35	197.06
447.571	195.06
447.792	180.06
448.013	164.06
448.234	179.06
448.455	200.06
448.675	170.06
448.896	190.06
449.117	189.06
449.338	187.06
449.559	188.06
449.779	179.06
450	170.06
450.221	163.06
450.442	186.06
450.662	162.06
450.883	182.06
451.104	184.06
451.324	169.06
451.545	176.06
451.766	174.06
451.986	189.06
452.207	157.06
452.428	170.06
452.648	167.06
452.869	168.06
453.089	171.06
453.31	142.06
453.53	150.06
453.751	158.06
453.971	152.06
454.192	146.06
454.412	168.06
454.633	161.06
454.853	160.06
455.073	162.06
455.294	167.06
455.514	166.06
455.734	179.06
455.955	167.06
456.175	169.06
456.395	157.06
456.616	150.06
456.836	166.06
457.056	164.06
457.276	152.06
457.497	145.06
457.717	157.06
457.937	145.06
458.157	139.06
458.377	156.06
458.598	150.06
458.818	144.06
459.038	140.06
459.258	135.06
459.478	159.06
459.698	152.06
459.918	163.06
460.138	151.06
460.358	163.06
460.578	155.06
460.798	168.06
461.018	161.06
461.238	174.06
461.458	150.06
461.678	169.06
461.898	172.06
462.118	159.06
462.338	169.06
462.558	182.06
462.777	146.06
462.997	169.06
463.217	170.06
463.437	153.06
463.657	144.06
463.876	164.06
464.096	158.06
464.316	182.06
464.536	171.06
464.755	160.06
464.975	178.06
465.195	171.06
465.414	154.06
465.634	166.06
465.854	158.06
466.073	167.06
466.293	162.06
466.512	161.06
466.732	157.06
466.951	161.06
467.171	175.06
467.391	183.06
467.61	186.06
467.829	153.06
468.049	159.06
468.268	163.06
468.488	154.06
468.707	163.06
468.927	172.06
469.146	152.06
469.365	165.06
469.585	160.06
469.804	175.06
470.023	161.06
470.243	192.06
470.462	177.06
470.681	170.06
470.901	169.06
471.12	183.06
471.339	180.06
471.558	175.06
471.777	170.06
471.997	179.06
472.216	175.06
472.435	163.06
472.654	147.06
472.873	155.06
473.092	161.06
473.311	185.06
473.53	169.06
473.749	164.06
473.968	175.06
474.187	151.06
474.406	172.06
474.625	160.06
474.844	162.06
475.063	170.06
475.282	166.06
475.501	148.06
475.72	176.06
475.939	162.06
476.158	167.06
476.377	156.06
476.596	158.06
476.814	162.06
477.033	167.06
477.252	167.06
477.471	172.06
477.69	187.06
477.908	184.06
478.127	195.06
478.346	179.06
478.564	164.06
478.783	185.06
479.002	193.06
479.22	186.06
479.439	181.06
479.658	175.06
479.876	171.06
480.095	182.06
480.313	190.06
480.532	185.06
480.751	187.06
480.969	159.06
481.188	163.06
481.406	183.06
481.624	174.06
481.843	164.06
482.061	143.06
482.28	178.06
482.498	176.06
482.717	188.06
482.935	174.06
483.153	189.06
483.372	197.06
483.59	191.06
483.808	166.06
484.027	198.06
484.245	190.06
484.463	190.06
484.681	202.06
484.9	174.06
485.118	185.06
485.336	164.06
485.554	166.06
485.772	155.06
485.99	184.06
486.209	175.06
486.427	159.06
486.645	180.06
486.863	196.06
487.081	186.06
487.299	184.06
487.517	199.06
487.735	192.06
487.953	204.06
488.171	228.06
488.389	197.06
488.607	207.06
488.825	179.06
489.043	175.06
489.261	205.06
489.479	191.06
489.696	197.06
489.914	191.06
490.132	184.06
490.35	214.06
490.568	219.06
490.786	211.06
491.003	205.06
491.221	195.06
491.439	213.06
491.657	205.06
491.874	215.06
492.092	236.06
492.31	238.06
492.527	226.06
492.745	206.06
492.963	214.06
493.18	209.06
493.398	201.06
493.615	178.06
493.833	208.06
494.05	207.06
494.268	200.06
494.485	193.06
494.703	210.06
494.92	210.06
495.138	205.06
495.355	215.06
495.573	217.06
495.79	206.06
496.008	212.06
496.225	219.06
496.442	206.06
496.66	225.06
496.877	180.06
497.094	227.06
497.312	209.06
497.529	195.06
497.746	211.06
497.963	182.06
498.181	186.06
498.398	202.06
498.615	208.06
498.832	194.06
499.049	192.06
499.267	207.06
499.484	204.06
499.701	207.06
499.918	236.06
500.135	236.06
500.352	234.06
500.569	243.06
500.786	276.06
501.003	260.06
501.22	235.06
501.437	218.06
501.654	205.06
501.871	204.06
502.088	211.06
502.305	213.06
502.522	221.06
502.739	201.06
502.956	202.06
503.172	197.06
503.389	194.06
503.606	186.06
503.823	207.06
504.04	195.06
