Data from TenMicroDelayPb_HRD10591_00002.txt Node
Date: Mon Nov 24 14:56:11 EST 2025
User: Yrep
Spectrometer: HR+D1059
Trigger mode: 5
Integration Time (sec): 1.000000E-3
Scans to average: 1
Electric dark correction enabled: true
Nonlinearity correction enabled: false
Boxcar width: 0
XAxis mode: Wavelengths
Number of Pixels in Spectrum: 2048
>>>>>Begin Spectral Data<<<<<
223.165	-24.69
223.4	-24.69
223.635	-24.69
223.869	-46.69
224.104	-31.69
224.338	-6.69
224.573	6.31
224.808	-30.69
225.042	-2.69
225.277	4.31
225.511	5.31
225.746	8.31
225.98	-4.69
226.215	12.31
226.449	17.31
226.683	24.31
226.918	22.31
227.152	47.31
227.387	44.31
227.621	30.31
227.856	49.31
228.09	49.31
228.324	67.31
228.559	66.31
228.793	52.31
229.027	73.31
229.262	67.31
229.496	63.31
229.73	81.31
229.964	74.31
230.199	74.31
230.433	83.31
230.667	82.31
230.901	81.31
231.136	70.31
231.37	95.31
231.604	85.31
231.838	77.31
232.072	81.31
232.306	96.31
232.541	94.31
232.775	89.31
233.009	91.31
233.243	99.31
233.477	89.31
233.711	87.31
233.945	79.31
234.179	71.31
234.413	89.31
234.647	85.31
234.881	88.31
235.115	85.31
235.349	85.31
235.583	102.31
235.817	76.31
236.051	87.31
236.285	78.31
236.519	96.31
236.753	82.31
236.987	76.31
237.221	66.31
237.455	88.31
237.689	90.31
237.922	79.31
238.156	79.31
238.39	85.31
238.624	84.31
238.858	80.31
239.091	106.31
239.325	101.31
239.559	95.31
239.793	98.31
240.027	109.31
240.26	87.31
240.494	95.31
240.728	94.31
240.961	80.31
241.195	107.31
241.429	95.31
241.662	92.31
241.896	80.31
242.13	77.31
242.363	87.31
242.597	87.31
242.83	107.31
243.064	92.31
243.298	98.31
243.531	87.31
243.765	91.31
243.998	95.31
244.232	90.31
244.465	93.31
244.699	89.31
244.932	98.31
245.166	94.31
245.399	90.31
245.633	87.31
245.866	65.31
246.099	88.31
246.333	81.31
246.566	90.31
246.8	82.31
247.033	82.31
247.266	83.31
247.5	104.31
247.733	95.31
247.966	97.31
248.2	102.31
248.433	98.31
248.666	85.31
248.899	110.31
249.133	101.31
249.366	106.31
249.599	82.31
249.832	104.31
250.066	102.31
250.299	86.31
250.532	105.31
250.765	92.31
250.998	92.31
251.231	110.31
251.465	91.31
251.698	108.31
251.931	104.31
252.164	104.31
252.397	96.31
252.63	93.31
252.863	88.31
253.096	94.31
253.329	119.31
253.562	121.31
253.795	113.31
254.028	109.31
254.261	96.31
254.494	104.31
254.727	124.31
254.96	106.31
255.193	105.31
255.426	108.31
255.659	98.31
255.892	116.31
256.124	91.31
256.357	123.31
256.59	108.31
256.823	103.31
257.056	113.31
257.289	108.31
257.521	113.31
257.754	109.31
257.987	95.31
258.22	129.31
258.452	122.31
258.685	110.31
258.918	102.31
259.151	104.31
259.383	114.31
259.616	99.31
259.849	104.31
260.081	113.31
260.314	119.31
260.547	111.31
260.779	118.31
261.012	144.31
261.244	147.31
261.477	166.31
261.71	165.31
261.942	144.31
262.175	113.31
262.407	111.31
262.64	130.31
262.872	110.31
263.105	112.31
263.337	128.31
263.57	114.31
263.802	122.31
264.035	114.31
264.267	123.31
264.499	113.31
264.732	122.31
264.964	121.31
265.197	127.31
265.429	126.31
265.661	137.31
265.894	121.31
266.126	136.31
266.358	129.31
266.591	127.31
266.823	135.31
267.055	121.31
267.287	115.31
267.52	110.31
267.752	117.31
267.984	97.31
268.216	101.31
268.448	133.31
268.681	113.31
268.913	123.31
269.145	124.31
269.377	125.31
269.609	109.31
269.841	122.31
270.073	114.31
270.306	119.31
270.538	101.31
270.77	101.31
271.002	110.31
271.234	98.31
271.466	115.31
271.698	120.31
271.93	96.31
272.162	121.31
272.394	121.31
272.626	99.31
272.858	101.31
273.09	123.31
273.322	121.31
273.553	106.31
273.785	114.31
274.017	109.31
274.249	125.31
274.481	120.31
274.713	109.31
274.945	117.31
275.176	105.31
275.408	122.31
275.64	115.31
275.872	119.31
276.104	128.31
276.335	114.31
276.567	121.31
276.799	109.31
277.031	117.31
277.262	123.31
277.494	113.31
277.726	129.31
277.957	123.31
278.189	122.31
278.421	114.31
278.652	126.31
278.884	124.31
279.115	138.31
279.347	144.31
279.579	162.31
279.81	173.31
280.042	204.31
280.273	204.31
280.505	211.31
280.736	165.31
280.968	147.31
281.199	149.31
281.431	133.31
281.662	125.31
281.894	152.31
282.125	144.31
282.356	154.31
282.588	160.31
282.819	159.31
283.051	153.31
283.282	181.31
283.513	192.31
283.745	156.31
283.976	136.31
284.207	149.31
284.439	142.31
284.67	122.31
284.901	139.31
285.132	133.31
285.364	127.31
285.595	142.31
285.826	122.31
286.057	142.31
286.288	137.31
286.52	147.31
286.751	131.31
286.982	144.31
287.213	165.31
287.444	181.31
287.675	154.31
287.906	142.31
288.138	117.31
288.369	134.31
288.6	139.31
288.831	121.31
289.062	137.31
289.293	128.31
289.524	125.31
289.755	127.31
289.986	120.31
290.217	127.31
290.448	126.31
290.679	121.31
290.91	140.31
291.141	120.31
291.371	114.31
291.602	125.31
291.833	120.31
292.064	111.31
292.295	128.31
292.526	129.31
292.757	121.31
292.987	110.31
293.218	109.31
293.449	113.31
293.68	134.31
293.91	128.31
294.141	146.31
294.372	119.31
294.603	134.31
294.833	106.31
295.064	126.31
295.295	126.31
295.525	114.31
295.756	124.31
295.987	130.31
296.217	126.31
296.448	134.31
296.679	135.31
296.909	144.31
297.14	133.31
297.37	144.31
297.601	122.31
297.831	129.31
298.062	137.31
298.292	128.31
298.523	133.31
298.753	117.31
298.984	119.31
299.214	139.31
299.445	130.31
299.675	124.31
299.905	128.31
300.136	113.31
300.366	124.31
300.597	128.31
300.827	116.31
301.057	138.31
301.288	131.31
301.518	135.31
301.748	115.31
301.979	191.31
302.209	117.31
302.439	121.31
302.669	122.31
302.9	121.31
303.13	123.31
303.36	123.31
303.59	128.31
303.82	140.31
304.051	130.31
304.281	136.31
304.511	141.31
304.741	138.31
304.971	127.31
305.201	146.31
305.431	142.31
305.661	129.31
305.891	130.31
306.121	140.31
306.352	127.31
306.582	124.31
306.812	127.31
307.042	126.31
307.272	120.31
307.502	130.31
307.731	133.31
307.961	106.31
308.191	127.31
308.421	133.31
308.651	133.31
308.881	127.31
309.111	135.31
309.341	115.31
309.571	135.31
309.8	128.31
310.03	108.31
310.26	131.31
310.49	130.31
310.72	124.31
310.949	130.31
311.179	121.31
311.409	139.31
311.639	135.31
311.868	131.31
312.098	131.31
312.328	143.31
312.557	153.31
312.787	124.31
313.017	119.31
313.246	141.31
313.476	146.31
313.706	135.31
313.935	146.31
314.165	144.31
314.394	154.31
314.624	143.31
314.853	143.31
315.083	144.31
315.312	155.31
315.542	154.31
315.771	130.31
316.001	157.31
316.23	139.31
316.46	139.31
316.689	137.31
316.919	150.31
317.148	145.31
317.377	154.31
317.607	144.31
317.836	138.31
318.065	124.31
318.295	160.31
318.524	138.31
318.753	137.31
318.983	146.31
319.212	134.31
319.441	133.31
319.67	151.31
319.9	142.31
320.129	132.31
320.358	130.31
320.587	130.31
320.816	126.31
321.046	120.31
321.275	155.31
321.504	128.31
321.733	131.31
321.962	138.31
322.191	139.31
322.42	123.31
322.649	139.31
322.878	145.31
323.108	150.31
323.337	129.31
323.566	153.31
323.795	141.31
324.024	139.31
324.253	138.31
324.482	127.31
324.71	134.31
324.939	150.31
325.168	147.31
325.397	134.31
325.626	144.31
325.855	135.31
326.084	121.31
326.313	134.31
326.542	127.31
326.77	132.31
326.999	122.31
327.228	128.31
327.457	134.31
327.686	154.31
327.914	138.31
328.143	152.31
328.372	147.31
328.6	143.31
328.829	125.31
329.058	120.31
329.287	124.31
329.515	132.31
329.744	144.31
329.972	141.31
330.201	141.31
330.43	130.31
330.658	131.31
330.887	129.31
331.115	144.31
331.344	141.31
331.572	153.31
331.801	152.31
332.03	144.31
332.258	151.31
332.486	128.31
332.715	134.31
332.943	130.31
333.172	141.31
333.4	132.31
333.629	149.31
333.857	133.31
334.085	125.31
334.314	144.31
334.542	141.31
334.771	141.31
334.999	129.31
335.227	132.31
335.455	134.31
335.684	128.31
335.912	154.31
336.14	134.31
336.369	139.31
336.597	147.31
336.825	150.31
337.053	123.31
337.281	145.31
337.51	153.31
337.738	154.31
337.966	138.31
338.194	142.31
338.422	118.31
338.65	138.31
338.878	145.31
339.106	155.31
339.334	143.31
339.562	146.31
339.79	140.31
340.018	126.31
340.246	123.31
340.474	146.31
340.702	129.31
340.93	125.31
341.158	126.31
341.386	119.31
341.614	129.31
341.842	138.31
342.07	130.31
342.298	147.31
342.526	133.31
342.754	125.31
342.981	140.31
343.209	139.31
343.437	189.31
343.665	147.31
343.893	130.31
344.12	152.31
344.348	152.31
344.576	153.31
344.804	133.31
345.031	127.31
345.259	139.31
345.487	132.31
345.714	151.31
345.942	129.31
346.17	133.31
346.397	126.31
346.625	146.31
346.853	145.31
347.08	135.31
347.308	131.31
347.535	141.31
347.763	138.31
347.99	141.31
348.218	145.31
348.445	129.31
348.673	137.31
348.9	137.31
349.128	142.31
349.355	121.31
349.583	143.31
349.81	125.31
350.037	138.31
350.265	153.31
350.492	139.31
350.72	135.31
350.947	141.31
351.174	133.31
351.402	139.31
351.629	122.31
351.856	160.31
352.083	130.31
352.311	143.31
352.538	137.31
352.765	125.31
352.992	168.31
353.22	160.31
353.447	144.31
353.674	144.31
353.901	154.31
354.128	135.31
354.355	133.31
354.583	146.31
354.81	145.31
355.037	142.31
355.264	138.31
355.491	128.31
355.718	150.31
355.945	144.31
356.172	143.31
356.399	168.31
356.626	169.31
356.853	191.31
357.08	213.31
357.307	262.31
357.534	267.31
357.761	210.31
357.988	203.31
358.215	186.31
358.441	156.31
358.668	154.31
358.895	152.31
359.122	154.31
359.349	145.31
359.576	142.31
359.802	141.31
360.029	141.31
360.256	154.31
360.483	137.31
360.709	148.31
360.936	154.31
361.163	154.31
361.39	141.31
361.616	132.31
361.843	141.31
362.07	158.31
362.296	160.31
362.523	146.31
362.749	135.31
362.976	157.31
363.203	190.31
363.429	168.31
363.656	221.31
363.882	264.31
364.109	311.31
364.335	255.31
364.562	205.31
364.788	175.31
365.015	179.31
365.241	177.31
365.468	156.31
365.694	142.31
365.92	150.31
366.147	160.31
366.373	162.31
366.599	176.31
366.826	176.31
367.052	206.31
367.278	206.31
367.505	197.31
367.731	239.31
367.957	232.31
368.184	289.31
368.41	375.31
368.636	325.31
368.862	233.31
369.089	209.31
369.315	194.31
369.541	190.31
369.767	175.31
369.993	160.31
370.219	169.31
370.445	144.31
370.672	165.31
370.898	141.31
371.124	141.31
371.35	138.31
371.576	151.31
371.802	144.31
372.028	137.31
372.254	168.31
372.48	157.31
372.706	152.31
372.932	161.31
373.158	142.31
373.384	176.31
373.61	204.31
373.835	231.31
374.061	274.31
374.287	249.31
374.513	208.31
374.739	201.31
374.965	175.31
375.191	156.31
375.416	160.31
375.642	149.31
375.868	164.31
376.094	158.31
376.319	159.31
376.545	143.31
376.771	156.31
376.997	143.31
377.222	150.31
377.448	169.31
377.674	141.31
377.899	153.31
378.125	155.31
378.35	170.31
378.576	146.31
378.802	149.31
379.027	151.31
379.253	155.31
379.478	131.31
379.704	146.31
379.929	147.31
380.155	146.31
380.38	151.31
380.606	130.31
380.831	147.31
381.057	169.31
381.282	150.31
381.507	144.31
381.733	146.31
381.958	146.31
382.184	146.31
382.409	140.31
382.634	163.31
382.86	153.31
383.085	142.31
383.31	139.31
383.535	151.31
383.761	151.31
383.986	140.31
384.211	135.31
384.436	154.31
384.662	156.31
384.887	150.31
385.112	152.31
385.337	138.31
385.562	157.31
385.787	156.31
386.013	148.31
386.238	155.31
386.463	154.31
386.688	207.31
386.913	153.31
387.138	145.31
387.363	135.31
387.588	157.31
387.813	154.31
388.038	148.31
388.263	166.31
388.488	146.31
388.713	153.31
388.938	152.31
389.163	139.31
389.387	142.31
389.612	134.31
389.837	143.31
390.062	143.31
390.287	152.31
390.512	147.31
390.736	154.31
390.961	149.31
391.186	154.31
391.411	162.31
391.636	158.31
391.86	142.31
392.085	149.31
392.31	157.31
392.534	159.31
392.759	155.31
392.984	145.31
393.208	157.31
393.433	156.31
393.658	146.31
393.882	146.31
394.107	150.31
394.331	152.31
394.556	162.31
394.78	160.31
395.005	155.31
395.229	145.31
395.454	165.31
395.678	149.31
395.903	132.31
396.127	172.31
396.352	154.31
396.576	133.31
396.801	153.31
397.025	158.31
397.249	158.31
397.474	180.31
397.698	149.31
397.922	168.31
398.147	161.31
398.371	160.31
398.595	170.31
398.82	168.31
399.044	148.31
399.268	160.31
399.492	171.31
399.717	181.31
399.941	150.31
400.165	175.31
400.389	165.31
400.613	167.31
400.837	180.31
401.062	167.31
401.286	158.31
401.51	174.31
401.734	169.31
401.958	199.31
402.182	187.31
402.406	181.31
402.63	170.31
402.854	161.31
403.078	157.31
403.302	166.31
403.526	197.31
403.75	158.31
403.974	174.31
404.198	186.31
404.422	190.31
404.645	184.31
404.869	202.31
405.093	220.31
405.317	259.31
405.541	363.31
405.765	489.31
405.988	544.31
406.212	422.31
406.436	309.31
406.66	259.31
406.883	229.31
407.107	213.31
407.331	204.31
407.555	194.31
407.778	201.31
408.002	183.31
408.226	192.31
408.449	198.31
408.673	177.31
408.896	187.31
409.12	168.31
409.344	183.31
409.567	175.31
409.791	180.31
410.014	173.31
410.238	170.31
410.461	198.31
410.685	177.31
410.908	173.31
411.132	184.31
411.355	175.31
411.578	178.31
411.802	174.31
412.025	169.31
412.249	172.31
412.472	168.31
412.695	154.31
412.919	169.31
413.142	160.31
413.365	167.31
413.589	156.31
413.812	171.31
414.035	194.31
414.258	183.31
414.482	159.31
414.705	160.31
414.928	158.31
415.151	172.31
415.374	175.31
415.597	169.31
415.821	142.31
416.044	153.31
416.267	167.31
416.49	172.31
416.713	170.31
416.936	183.31
417.159	177.31
417.382	173.31
417.605	160.31
417.828	177.31
418.051	166.31
418.274	165.31
418.497	167.31
418.72	176.31
418.943	186.31
419.166	162.31
419.389	190.31
419.611	172.31
419.834	157.31
420.057	158.31
420.28	180.31
420.503	183.31
420.726	171.31
420.948	176.31
421.171	190.31
421.394	168.31
421.617	162.31
421.839	177.31
422.062	189.31
422.285	160.31
422.507	171.31
422.73	181.31
422.953	184.31
423.175	186.31
423.398	191.31
423.621	205.31
423.843	208.31
424.066	227.31
424.288	226.31
424.511	262.31
424.733	281.31
424.956	283.31
425.178	253.31
425.401	223.31
425.623	231.31
425.846	217.31
426.068	212.31
426.291	208.31
426.513	201.31
426.735	203.31
426.958	217.31
427.18	198.31
427.402	186.31
427.625	205.31
427.847	167.31
428.069	180.31
428.292	185.31
428.514	172.31
428.736	172.31
428.958	173.31
429.181	161.31
429.403	182.31
429.625	173.31
429.847	173.31
430.069	191.31
430.292	186.31
430.514	168.31
430.736	184.31
430.958	179.31
431.18	168.31
431.402	192.31
431.624	161.31
431.846	166.31
432.068	163.31
432.29	173.31
432.512	173.31
432.734	171.31
432.956	193.31
433.178	190.31
433.4	194.31
433.622	191.31
433.844	170.31
434.066	175.31
434.287	165.31
434.509	174.31
434.731	162.31
434.953	177.31
435.175	183.31
435.397	186.31
435.618	177.31
435.84	169.31
436.062	189.31
436.284	188.31
436.505	194.31
436.727	181.31
436.949	185.31
437.17	191.31
437.392	192.31
437.614	200.31
437.835	195.31
438.057	187.31
438.278	185.31
438.5	225.31
438.721	266.31
438.943	283.31
439.165	264.31
439.386	263.31
439.608	253.31
439.829	233.31
440.05	246.31
440.272	224.31
440.493	215.31
440.715	231.31
440.936	257.31
441.158	256.31
441.379	230.31
441.6	225.31
441.822	221.31
442.043	215.31
442.264	195.31
442.486	188.31
442.707	213.31
442.928	204.31
443.149	205.31
443.371	216.31
443.592	197.31
443.813	211.31
444.034	192.31
444.255	209.31
444.476	190.31
444.698	195.31
444.919	184.31
445.14	528.31
445.361	335.31
445.582	208.31
445.803	183.31
446.024	220.31
446.245	211.31
446.466	199.31
446.687	179.31
446.908	190.31
447.129	205.31
447.35	195.31
447.571	213.31
447.792	186.31
448.013	193.31
448.234	181.31
448.455	193.31
448.675	182.31
448.896	191.31
449.117	190.31
449.338	192.31
449.559	211.31
449.779	183.31
450	189.31
450.221	181.31
450.442	184.31
450.662	180.31
450.883	195.31
451.104	184.31
451.324	175.31
451.545	182.31
451.766	186.31
451.986	181.31
452.207	193.31
452.428	186.31
452.648	189.31
452.869	178.31
453.089	165.31
453.31	140.31
453.53	149.31
453.751	151.31
453.971	173.31
454.192	178.31
454.412	159.31
454.633	166.31
454.853	166.31
455.073	174.31
455.294	156.31
455.514	171.31
455.734	178.31
455.955	161.31
456.175	151.31
456.395	152.31
456.616	165.31
456.836	171.31
457.056	170.31
457.276	138.31
457.497	142.31
457.717	150.31
457.937	171.31
458.157	154.31
458.377	157.31
458.598	140.31
458.818	153.31
459.038	150.31
459.258	141.31
459.478	153.31
459.698	159.31
459.918	165.31
460.138	162.31
460.358	163.31
460.578	179.31
460.798	185.31
461.018	165.31
461.238	167.31
461.458	165.31
461.678	162.31
461.898	188.31
462.118	168.31
462.338	177.31
462.558	159.31
462.777	163.31
462.997	184.31
463.217	159.31
463.437	170.31
463.657	174.31
463.876	153.31
464.096	151.31
464.316	161.31
464.536	165.31
464.755	187.31
464.975	148.31
465.195	173.31
465.414	160.31
465.634	178.31
465.854	162.31
466.073	175.31
466.293	173.31
466.512	161.31
466.732	177.31
466.951	159.31
467.171	169.31
467.391	173.31
467.61	189.31
467.829	169.31
468.049	160.31
468.268	164.31
468.488	166.31
468.707	170.31
468.927	181.31
469.146	173.31
469.365	159.31
469.585	179.31
469.804	169.31
470.023	163.31
470.243	181.31
470.462	168.31
470.681	177.31
470.901	181.31
471.12	169.31
471.339	181.31
471.558	162.31
471.777	181.31
471.997	155.31
472.216	179.31
472.435	176.31
472.654	164.31
472.873	178.31
473.092	171.31
473.311	156.31
473.53	176.31
473.749	193.31
473.968	189.31
474.187	184.31
474.406	159.31
474.625	185.31
474.844	173.31
475.063	183.31
475.282	174.31
475.501	177.31
475.72	190.31
475.939	174.31
476.158	154.31
476.377	170.31
476.596	158.31
476.814	162.31
477.033	177.31
477.252	162.31
477.471	161.31
477.69	173.31
477.908	190.31
478.127	209.31
478.346	195.31
478.564	190.31
478.783	188.31
479.002	199.31
479.22	183.31
479.439	199.31
479.658	170.31
479.876	169.31
480.095	183.31
480.313	177.31
480.532	186.31
480.751	169.31
480.969	158.31
481.188	181.31
481.406	169.31
481.624	162.31
481.843	162.31
482.061	178.31
482.28	169.31
482.498	167.31
482.717	155.31
482.935	176.31
483.153	187.31
483.372	197.31
483.59	209.31
483.808	185.31
484.027	192.31
484.245	188.31
484.463	192.31
484.681	232.31
484.9	190.31
485.118	198.31
485.336	169.31
485.554	183.31
485.772	185.31
485.99	173.31
486.209	180.31
486.427	169.31
486.645	175.31
486.863	204.31
487.081	187.31
487.299	176.31
487.517	197.31
487.735	196.31
487.953	208.31
488.171	200.31
488.389	186.31
488.607	168.31
488.825	155.31
489.043	182.31
489.261	194.31
489.479	200.31
489.696	196.31
489.914	196.31
490.132	191.31
490.35	196.31
490.568	197.31
490.786	212.31
491.003	206.31
491.221	202.31
491.439	210.31
491.657	228.31
491.874	229.31
492.092	224.31
492.31	231.31
492.527	211.31
492.745	207.31
492.963	214.31
493.18	218.31
493.398	218.31
493.615	206.31
493.833	221.31
494.05	214.31
494.268	190.31
494.485	218.31
494.703	205.31
494.92	196.31
495.138	198.31
495.355	208.31
495.573	209.31
495.79	201.31
496.008	226.31
496.225	218.31
496.442	214.31
496.66	224.31
496.877	206.31
497.094	222.31
497.312	210.31
497.529	201.31
497.746	207.31
497.963	200.31
498.181	196.31
498.398	182.31
498.615	207.31
498.832	190.31
499.049	211.31
499.267	222.31
499.484	223.31
499.701	217.31
499.918	227.31
500.135	232.31
500.352	239.31
500.569	248.31
500.786	290.31
501.003	262.31
501.22	249.31
501.437	249.31
501.654	216.31
501.871	233.31
502.088	219.31
502.305	201.31
502.522	227.31
502.739	197.31
502.956	211.31
503.172	232.31
503.389	212.31
503.606	201.31
503.823	203.31
504.04	218.31
