Data from TenMicroDelayPb_HRD10591_00019.txt Node
Date: Mon Nov 24 14:56:28 EST 2025
User: Yrep
Spectrometer: HR+D1059
Trigger mode: 5
Integration Time (sec): 3.000000E-3
Scans to average: 1
Electric dark correction enabled: true
Nonlinearity correction enabled: false
Boxcar width: 0
XAxis mode: Wavelengths
Number of Pixels in Spectrum: 2048
>>>>>Begin Spectral Data<<<<<
223.165	-20.44
223.4	-20.44
223.635	-20.44
223.869	-28.44
224.104	-27.44
224.338	-7.44
224.573	-7.44
224.808	-15.44
225.042	-8.44
225.277	-7.44
225.511	-2.44
225.746	11.56
225.98	24.56
226.215	8.56
226.449	12.56
226.683	21.56
226.918	21.56
227.152	24.56
227.387	41.56
227.621	29.56
227.856	47.56
228.09	45.56
228.324	48.56
228.559	52.56
228.793	63.56
229.027	77.56
229.262	69.56
229.496	80.56
229.73	93.56
229.964	87.56
230.199	74.56
230.433	72.56
230.667	79.56
230.901	72.56
231.136	97.56
231.37	80.56
231.604	77.56
231.838	99.56
232.072	88.56
232.306	88.56
232.541	88.56
232.775	79.56
233.009	78.56
233.243	77.56
233.477	79.56
233.711	86.56
233.945	95.56
234.179	90.56
234.413	96.56
234.647	86.56
234.881	89.56
235.115	84.56
235.349	83.56
235.583	88.56
235.817	83.56
236.051	93.56
236.285	85.56
236.519	88.56
236.753	95.56
236.987	85.56
237.221	84.56
237.455	84.56
237.689	82.56
237.922	92.56
238.156	85.56
238.39	77.56
238.624	89.56
238.858	105.56
239.091	88.56
239.325	85.56
239.559	99.56
239.793	95.56
240.027	90.56
240.26	85.56
240.494	103.56
240.728	94.56
240.961	81.56
241.195	95.56
241.429	72.56
241.662	102.56
241.896	102.56
242.13	108.56
242.363	101.56
242.597	94.56
242.83	89.56
243.064	81.56
243.298	89.56
243.531	84.56
243.765	97.56
243.998	99.56
244.232	94.56
244.465	87.56
244.699	92.56
244.932	101.56
245.166	96.56
245.399	93.56
245.633	92.56
245.866	86.56
246.099	96.56
246.333	90.56
246.566	84.56
246.8	80.56
247.033	85.56
247.266	86.56
247.5	89.56
247.733	94.56
247.966	113.56
248.2	89.56
248.433	83.56
248.666	100.56
248.899	91.56
249.133	94.56
249.366	114.56
249.599	85.56
249.832	92.56
250.066	112.56
250.299	99.56
250.532	111.56
250.765	103.56
250.998	111.56
251.231	82.56
251.465	95.56
251.698	81.56
251.931	105.56
252.164	102.56
252.397	111.56
252.63	107.56
252.863	94.56
253.096	94.56
253.329	124.56
253.562	110.56
253.795	97.56
254.028	119.56
254.261	110.56
254.494	118.56
254.727	117.56
254.96	91.56
255.193	107.56
255.426	86.56
255.659	106.56
255.892	111.56
256.124	108.56
256.357	113.56
256.59	116.56
256.823	102.56
257.056	118.56
257.289	112.56
257.521	111.56
257.754	100.56
257.987	105.56
258.22	129.56
258.452	125.56
258.685	103.56
258.918	96.56
259.151	125.56
259.383	119.56
259.616	94.56
259.849	112.56
260.081	124.56
260.314	110.56
260.547	107.56
260.779	109.56
261.012	128.56
261.244	138.56
261.477	163.56
261.71	139.56
261.942	120.56
262.175	128.56
262.407	138.56
262.64	118.56
262.872	115.56
263.105	124.56
263.337	123.56
263.57	114.56
263.802	114.56
264.035	114.56
264.267	116.56
264.499	117.56
264.732	106.56
264.964	131.56
265.197	106.56
265.429	124.56
265.661	113.56
265.894	128.56
266.126	148.56
266.358	124.56
266.591	129.56
266.823	127.56
267.055	112.56
267.287	131.56
267.52	114.56
267.752	93.56
267.984	94.56
268.216	115.56
268.448	101.56
268.681	131.56
268.913	115.56
269.145	94.56
269.377	87.56
269.609	105.56
269.841	124.56
270.073	110.56
270.306	97.56
270.538	115.56
270.77	95.56
271.002	116.56
271.234	112.56
271.466	128.56
271.698	104.56
271.93	115.56
272.162	94.56
272.394	126.56
272.626	111.56
272.858	112.56
273.09	113.56
273.322	115.56
273.553	117.56
273.785	116.56
274.017	108.56
274.249	103.56
274.481	104.56
274.713	108.56
274.945	116.56
275.176	118.56
275.408	113.56
275.64	128.56
275.872	112.56
276.104	129.56
276.335	95.56
276.567	109.56
276.799	112.56
277.031	114.56
277.262	116.56
277.494	113.56
277.726	129.56
277.957	109.56
278.189	96.56
278.421	124.56
278.652	122.56
278.884	141.56
279.115	137.56
279.347	132.56
279.579	148.56
279.81	183.56
280.042	191.56
280.273	217.56
280.505	177.56
280.736	165.56
280.968	148.56
281.199	140.56
281.431	146.56
281.662	114.56
281.894	139.56
282.125	159.56
282.356	153.56
282.588	137.56
282.819	140.56
283.051	159.56
283.282	158.56
283.513	193.56
283.745	171.56
283.976	150.56
284.207	134.56
284.439	124.56
284.67	119.56
284.901	116.56
285.132	112.56
285.364	135.56
285.595	117.56
285.826	131.56
286.057	143.56
286.288	140.56
286.52	124.56
286.751	129.56
286.982	146.56
287.213	135.56
287.444	171.56
287.675	157.56
287.906	136.56
288.138	108.56
288.369	116.56
288.6	113.56
288.831	100.56
289.062	139.56
289.293	128.56
289.524	138.56
289.755	122.56
289.986	122.56
290.217	109.56
290.448	107.56
290.679	110.56
290.91	110.56
291.141	116.56
291.371	114.56
291.602	127.56
291.833	125.56
292.064	126.56
292.295	101.56
292.526	120.56
292.757	124.56
292.987	135.56
293.218	105.56
293.449	99.56
293.68	118.56
293.91	127.56
294.141	116.56
294.372	117.56
294.603	114.56
294.833	128.56
295.064	120.56
295.295	121.56
295.525	117.56
295.756	133.56
295.987	118.56
296.217	123.56
296.448	123.56
296.679	126.56
296.909	121.56
297.14	125.56
297.37	135.56
297.601	120.56
297.831	123.56
298.062	107.56
298.292	125.56
298.523	142.56
298.753	131.56
298.984	121.56
299.214	114.56
299.445	107.56
299.675	107.56
299.905	123.56
300.136	113.56
300.366	120.56
300.597	116.56
300.827	120.56
301.057	134.56
301.288	121.56
301.518	129.56
301.748	118.56
301.979	187.56
302.209	124.56
302.439	135.56
302.669	125.56
302.9	111.56
303.13	118.56
303.36	116.56
303.59	117.56
303.82	138.56
304.051	113.56
304.281	125.56
304.511	146.56
304.741	123.56
304.971	113.56
305.201	132.56
305.431	115.56
305.661	132.56
305.891	129.56
306.121	128.56
306.352	128.56
306.582	127.56
306.812	129.56
307.042	117.56
307.272	136.56
307.502	122.56
307.731	135.56
307.961	126.56
308.191	123.56
308.421	118.56
308.651	119.56
308.881	133.56
309.111	112.56
309.341	127.56
309.571	115.56
309.8	134.56
310.03	122.56
310.26	126.56
310.49	131.56
310.72	127.56
310.949	137.56
311.179	116.56
311.409	135.56
311.639	139.56
311.868	144.56
312.098	128.56
312.328	143.56
312.557	125.56
312.787	143.56
313.017	149.56
313.246	139.56
313.476	132.56
313.706	145.56
313.935	150.56
314.165	145.56
314.394	154.56
314.624	129.56
314.853	144.56
315.083	128.56
315.312	154.56
315.542	132.56
315.771	138.56
316.001	146.56
316.23	129.56
316.46	114.56
316.689	148.56
316.919	149.56
317.148	129.56
317.377	148.56
317.607	138.56
317.836	143.56
318.065	129.56
318.295	130.56
318.524	124.56
318.753	129.56
318.983	131.56
319.212	130.56
319.441	125.56
319.67	139.56
319.9	115.56
320.129	136.56
320.358	109.56
320.587	131.56
320.816	122.56
321.046	135.56
321.275	153.56
321.504	135.56
321.733	140.56
321.962	149.56
322.191	142.56
322.42	137.56
322.649	132.56
322.878	150.56
323.108	150.56
323.337	139.56
323.566	125.56
323.795	117.56
324.024	140.56
324.253	126.56
324.482	130.56
324.71	129.56
324.939	139.56
325.168	148.56
325.397	131.56
325.626	135.56
325.855	127.56
326.084	152.56
326.313	136.56
326.542	135.56
326.77	135.56
326.999	129.56
327.228	119.56
327.457	134.56
327.686	131.56
327.914	136.56
328.143	142.56
328.372	126.56
328.6	131.56
328.829	137.56
329.058	133.56
329.287	125.56
329.515	117.56
329.744	123.56
329.972	130.56
330.201	131.56
330.43	140.56
330.658	138.56
330.887	143.56
331.115	148.56
331.344	138.56
331.572	128.56
331.801	115.56
332.03	122.56
332.258	120.56
332.486	143.56
332.715	129.56
332.943	117.56
333.172	126.56
333.4	125.56
333.629	140.56
333.857	130.56
334.085	128.56
334.314	135.56
334.542	132.56
334.771	129.56
334.999	126.56
335.227	134.56
335.455	147.56
335.684	135.56
335.912	119.56
336.14	116.56
336.369	137.56
336.597	131.56
336.825	116.56
337.053	119.56
337.281	127.56
337.51	138.56
337.738	120.56
337.966	124.56
338.194	124.56
338.422	141.56
338.65	148.56
338.878	141.56
339.106	139.56
339.334	155.56
339.562	135.56
339.79	125.56
340.018	119.56
340.246	129.56
340.474	142.56
340.702	124.56
340.93	139.56
341.158	128.56
341.386	129.56
341.614	129.56
341.842	126.56
342.07	118.56
342.298	121.56
342.526	132.56
342.754	133.56
342.981	143.56
343.209	135.56
343.437	188.56
343.665	135.56
343.893	133.56
344.12	149.56
344.348	128.56
344.576	123.56
344.804	122.56
345.031	134.56
345.259	140.56
345.487	133.56
345.714	121.56
345.942	135.56
346.17	141.56
346.397	141.56
346.625	125.56
346.853	119.56
347.08	135.56
347.308	127.56
347.535	140.56
347.763	123.56
347.99	149.56
348.218	120.56
348.445	114.56
348.673	123.56
348.9	143.56
349.128	135.56
349.355	128.56
349.583	126.56
349.81	131.56
350.037	122.56
350.265	119.56
350.492	116.56
350.72	123.56
350.947	154.56
351.174	139.56
351.402	147.56
351.629	133.56
351.856	131.56
352.083	132.56
352.311	142.56
352.538	111.56
352.765	119.56
352.992	135.56
353.22	119.56
353.447	143.56
353.674	132.56
353.901	151.56
354.128	125.56
354.355	131.56
354.583	110.56
354.81	149.56
355.037	124.56
355.264	133.56
355.491	141.56
355.718	148.56
355.945	153.56
356.172	136.56
356.399	133.56
356.626	143.56
356.853	183.56
357.08	201.56
357.307	243.56
357.534	246.56
357.761	195.56
357.988	178.56
358.215	155.56
358.441	167.56
358.668	159.56
358.895	166.56
359.122	142.56
359.349	142.56
359.576	138.56
359.802	145.56
360.029	143.56
360.256	157.56
360.483	125.56
360.709	122.56
360.936	163.56
361.163	138.56
361.39	143.56
361.616	141.56
361.843	126.56
362.07	154.56
362.296	139.56
362.523	124.56
362.749	145.56
362.976	151.56
363.203	177.56
363.429	169.56
363.656	211.56
363.882	250.56
364.109	296.56
364.335	254.56
364.562	192.56
364.788	162.56
365.015	176.56
365.241	157.56
365.468	171.56
365.694	166.56
365.92	155.56
366.147	153.56
366.373	162.56
366.599	142.56
366.826	171.56
367.052	166.56
367.278	210.56
367.505	177.56
367.731	215.56
367.957	234.56
368.184	296.56
368.41	343.56
368.636	307.56
368.862	244.56
369.089	197.56
369.315	185.56
369.541	186.56
369.767	179.56
369.993	165.56
370.219	166.56
370.445	145.56
370.672	151.56
370.898	157.56
371.124	135.56
371.35	148.56
371.576	152.56
371.802	141.56
372.028	134.56
372.254	145.56
372.48	141.56
372.706	135.56
372.932	142.56
373.158	147.56
373.384	171.56
373.61	205.56
373.835	223.56
374.061	245.56
374.287	239.56
374.513	181.56
374.739	161.56
374.965	158.56
375.191	153.56
375.416	164.56
375.642	148.56
375.868	160.56
376.094	140.56
376.319	138.56
376.545	136.56
376.771	126.56
376.997	146.56
377.222	135.56
377.448	148.56
377.674	152.56
377.899	145.56
378.125	153.56
378.35	140.56
378.576	132.56
378.802	147.56
379.027	151.56
379.253	162.56
379.478	141.56
379.704	133.56
379.929	121.56
380.155	138.56
380.38	128.56
380.606	129.56
380.831	143.56
381.057	178.56
381.282	142.56
381.507	161.56
381.733	143.56
381.958	139.56
382.184	149.56
382.409	155.56
382.634	167.56
382.86	154.56
383.085	146.56
383.31	137.56
383.535	155.56
383.761	147.56
383.986	134.56
384.211	141.56
384.436	129.56
384.662	138.56
384.887	124.56
385.112	138.56
385.337	151.56
385.562	158.56
385.787	153.56
386.013	160.56
386.238	142.56
386.463	136.56
386.688	180.56
386.913	132.56
387.138	128.56
387.363	143.56
387.588	150.56
387.813	169.56
388.038	147.56
388.263	172.56
388.488	154.56
388.713	141.56
388.938	137.56
389.163	139.56
389.387	149.56
389.612	142.56
389.837	147.56
390.062	134.56
390.287	144.56
390.512	135.56
390.736	144.56
390.961	144.56
391.186	166.56
391.411	142.56
391.636	151.56
391.86	153.56
392.085	150.56
392.31	137.56
392.534	150.56
392.759	143.56
392.984	165.56
393.208	148.56
393.433	147.56
393.658	144.56
393.882	140.56
394.107	141.56
394.331	145.56
394.556	131.56
394.78	144.56
395.005	130.56
395.229	150.56
395.454	139.56
395.678	145.56
395.903	169.56
396.127	158.56
396.352	147.56
396.576	138.56
396.801	148.56
397.025	135.56
397.249	149.56
397.474	171.56
397.698	165.56
397.922	160.56
398.147	166.56
398.371	150.56
398.595	160.56
398.82	143.56
399.044	150.56
399.268	160.56
399.492	161.56
399.717	160.56
399.941	152.56
400.165	166.56
400.389	162.56
400.613	165.56
400.837	157.56
401.062	150.56
401.286	157.56
401.51	189.56
401.734	175.56
401.958	193.56
402.182	193.56
402.406	167.56
402.63	161.56
402.854	161.56
403.078	159.56
403.302	152.56
403.526	170.56
403.75	167.56
403.974	180.56
404.198	184.56
404.422	178.56
404.645	185.56
404.869	196.56
405.093	209.56
405.317	242.56
405.541	333.56
405.765	448.56
405.988	499.56
406.212	412.56
406.436	313.56
406.66	266.56
406.883	238.56
407.107	203.56
407.331	191.56
407.555	189.56
407.778	210.56
408.002	179.56
408.226	206.56
408.449	167.56
408.673	170.56
408.896	172.56
409.12	171.56
409.344	155.56
409.567	168.56
409.791	167.56
410.014	165.56
410.238	183.56
410.461	179.56
410.685	151.56
410.908	168.56
411.132	183.56
411.355	159.56
411.578	159.56
411.802	172.56
412.025	172.56
412.249	171.56
412.472	170.56
412.695	159.56
412.919	152.56
413.142	157.56
413.365	176.56
413.589	158.56
413.812	161.56
414.035	175.56
414.258	177.56
414.482	155.56
414.705	148.56
414.928	147.56
415.151	161.56
415.374	157.56
415.597	166.56
415.821	176.56
416.044	140.56
416.267	173.56
416.49	181.56
416.713	158.56
416.936	169.56
417.159	164.56
417.382	157.56
417.605	171.56
417.828	159.56
418.051	177.56
418.274	170.56
418.497	169.56
418.72	168.56
418.943	179.56
419.166	161.56
419.389	170.56
419.611	183.56
419.834	166.56
420.057	172.56
420.28	166.56
420.503	183.56
420.726	165.56
420.948	159.56
421.171	167.56
421.394	171.56
421.617	174.56
421.839	187.56
422.062	170.56
422.285	173.56
422.507	169.56
422.73	169.56
422.953	176.56
423.175	181.56
423.398	182.56
423.621	204.56
423.843	207.56
424.066	204.56
424.288	221.56
424.511	233.56
424.733	259.56
424.956	233.56
425.178	253.56
425.401	204.56
425.623	229.56
425.846	213.56
426.068	181.56
426.291	202.56
426.513	201.56
426.735	199.56
426.958	209.56
427.18	189.56
427.402	196.56
427.625	190.56
427.847	182.56
428.069	184.56
428.292	161.56
428.514	172.56
428.736	173.56
428.958	183.56
429.181	171.56
429.403	165.56
429.625	163.56
429.847	176.56
430.069	159.56
430.292	169.56
430.514	189.56
430.736	177.56
430.958	179.56
431.18	157.56
431.402	163.56
431.624	157.56
431.846	159.56
432.068	156.56
432.29	157.56
432.512	186.56
432.734	170.56
432.956	164.56
433.178	176.56
433.4	172.56
433.622	173.56
433.844	177.56
434.066	184.56
434.287	183.56
434.509	172.56
434.731	163.56
434.953	161.56
435.175	168.56
435.397	172.56
435.618	167.56
435.84	164.56
436.062	176.56
436.284	164.56
436.505	184.56
436.727	175.56
436.949	180.56
437.17	189.56
437.392	161.56
437.614	186.56
437.835	167.56
438.057	191.56
438.278	206.56
438.5	205.56
438.721	244.56
438.943	255.56
439.165	245.56
439.386	223.56
439.608	259.56
439.829	231.56
440.05	232.56
440.272	197.56
440.493	224.56
440.715	222.56
440.936	242.56
441.158	244.56
441.379	216.56
441.6	216.56
441.822	206.56
442.043	201.56
442.264	200.56
442.486	194.56
442.707	180.56
442.928	181.56
443.149	195.56
443.371	200.56
443.592	190.56
443.813	196.56
444.034	195.56
444.255	199.56
444.476	190.56
444.698	191.56
444.919	192.56
445.14	512.56
445.361	339.56
445.582	211.56
445.803	193.56
446.024	193.56
446.245	205.56
446.466	212.56
446.687	198.56
446.908	189.56
447.129	199.56
447.35	183.56
447.571	182.56
447.792	169.56
448.013	173.56
448.234	161.56
448.455	187.56
448.675	175.56
448.896	183.56
449.117	182.56
449.338	158.56
449.559	181.56
449.779	176.56
450	156.56
450.221	169.56
450.442	180.56
450.662	177.56
450.883	163.56
451.104	175.56
451.324	164.56
451.545	169.56
451.766	188.56
451.986	153.56
452.207	168.56
452.428	169.56
452.648	167.56
452.869	160.56
453.089	170.56
453.31	157.56
453.53	153.56
453.751	154.56
453.971	154.56
454.192	154.56
454.412	154.56
454.633	148.56
454.853	184.56
455.073	147.56
455.294	158.56
455.514	161.56
455.734	158.56
455.955	161.56
456.175	157.56
456.395	155.56
456.616	159.56
456.836	149.56
457.056	167.56
457.276	133.56
457.497	134.56
457.717	142.56
457.937	153.56
458.157	142.56
458.377	150.56
458.598	157.56
458.818	143.56
459.038	156.56
459.258	151.56
459.478	146.56
459.698	160.56
459.918	156.56
460.138	147.56
460.358	158.56
460.578	171.56
460.798	185.56
461.018	156.56
461.238	170.56
461.458	163.56
461.678	168.56
461.898	163.56
462.118	167.56
462.338	152.56
462.558	169.56
462.777	152.56
462.997	167.56
463.217	160.56
463.437	185.56
463.657	167.56
463.876	175.56
464.096	158.56
464.316	149.56
464.536	165.56
464.755	178.56
464.975	158.56
465.195	157.56
465.414	160.56
465.634	152.56
465.854	165.56
466.073	155.56
466.293	156.56
466.512	174.56
466.732	167.56
466.951	186.56
467.171	172.56
467.391	167.56
467.61	178.56
467.829	176.56
468.049	148.56
468.268	167.56
468.488	152.56
468.707	164.56
468.927	158.56
469.146	154.56
469.365	150.56
469.585	165.56
469.804	169.56
470.023	160.56
470.243	168.56
470.462	179.56
470.681	179.56
470.901	183.56
471.12	160.56
471.339	175.56
471.558	174.56
471.777	182.56
471.997	172.56
472.216	157.56
472.435	148.56
472.654	157.56
472.873	183.56
473.092	173.56
473.311	150.56
473.53	163.56
473.749	193.56
473.968	172.56
474.187	171.56
474.406	157.56
474.625	166.56
474.844	193.56
475.063	200.56
475.282	166.56
475.501	155.56
475.72	181.56
475.939	175.56
476.158	151.56
476.377	183.56
476.596	156.56
476.814	147.56
477.033	164.56
477.252	154.56
477.471	183.56
477.69	168.56
477.908	178.56
478.127	189.56
478.346	177.56
478.564	177.56
478.783	181.56
479.002	188.56
479.22	184.56
479.439	192.56
479.658	177.56
479.876	180.56
480.095	163.56
480.313	183.56
480.532	161.56
480.751	175.56
480.969	156.56
481.188	153.56
481.406	189.56
481.624	163.56
481.843	158.56
482.061	169.56
482.28	171.56
482.498	158.56
482.717	172.56
482.935	187.56
483.153	176.56
483.372	195.56
483.59	193.56
483.808	177.56
484.027	187.56
484.245	172.56
484.463	166.56
484.681	210.56
484.9	182.56
485.118	189.56
485.336	166.56
485.554	168.56
485.772	157.56
485.99	173.56
486.209	183.56
486.427	165.56
486.645	183.56
486.863	197.56
487.081	183.56
487.299	174.56
487.517	191.56
487.735	188.56
487.953	210.56
488.171	202.56
488.389	187.56
488.607	192.56
488.825	186.56
489.043	182.56
489.261	197.56
489.479	177.56
489.696	194.56
489.914	189.56
490.132	183.56
490.35	196.56
490.568	208.56
490.786	189.56
491.003	199.56
491.221	195.56
491.439	200.56
491.657	186.56
491.874	231.56
492.092	233.56
492.31	235.56
492.527	215.56
492.745	203.56
492.963	219.56
493.18	205.56
493.398	202.56
493.615	206.56
493.833	199.56
494.05	224.56
494.268	192.56
494.485	211.56
494.703	217.56
494.92	197.56
495.138	204.56
495.355	205.56
495.573	202.56
495.79	207.56
496.008	217.56
496.225	199.56
496.442	188.56
496.66	213.56
496.877	205.56
497.094	212.56
497.312	200.56
497.529	202.56
497.746	203.56
497.963	212.56
498.181	176.56
498.398	182.56
498.615	201.56
498.832	183.56
499.049	197.56
499.267	200.56
499.484	174.56
499.701	226.56
499.918	227.56
500.135	209.56
500.352	233.56
500.569	243.56
500.786	303.56
501.003	235.56
501.22	231.56
501.437	207.56
501.654	224.56
501.871	195.56
502.088	216.56
502.305	213.56
502.522	204.56
502.739	200.56
502.956	204.56
503.172	218.56
503.389	181.56
503.606	193.56
503.823	203.56
504.04	209.56
