Data from TenMicroDelayPb_HRD10591_00013.txt Node
Date: Mon Nov 24 14:56:25 EST 2025
User: Yrep
Spectrometer: HR+D1059
Trigger mode: 5
Integration Time (sec): 3.000000E-3
Scans to average: 1
Electric dark correction enabled: true
Nonlinearity correction enabled: false
Boxcar width: 0
XAxis mode: Wavelengths
Number of Pixels in Spectrum: 2048
>>>>>Begin Spectral Data<<<<<
223.165	-26.69
223.4	-26.69
223.635	-26.69
223.869	-20.69
224.104	-9.69
224.338	-0.69
224.573	-24.69
224.808	-14.69
225.042	-14.69
225.277	5.31
225.511	-2.69
225.746	2.31
225.98	4.31
226.215	17.31
226.449	28.31
226.683	7.31
226.918	12.31
227.152	37.31
227.387	37.31
227.621	29.31
227.856	48.31
228.09	49.31
228.324	52.31
228.559	51.31
228.793	68.31
229.027	86.31
229.262	72.31
229.496	71.31
229.73	70.31
229.964	64.31
230.199	83.31
230.433	76.31
230.667	79.31
230.901	78.31
231.136	88.31
231.37	88.31
231.604	79.31
231.838	89.31
232.072	101.31
232.306	95.31
232.541	84.31
232.775	92.31
233.009	93.31
233.243	82.31
233.477	106.31
233.711	84.31
233.945	97.31
234.179	99.31
234.413	97.31
234.647	102.31
234.881	103.31
235.115	96.31
235.349	81.31
235.583	77.31
235.817	93.31
236.051	92.31
236.285	88.31
236.519	94.31
236.753	101.31
236.987	81.31
237.221	87.31
237.455	87.31
237.689	90.31
237.922	93.31
238.156	95.31
238.39	96.31
238.624	76.31
238.858	94.31
239.091	103.31
239.325	87.31
239.559	90.31
239.793	97.31
240.027	103.31
240.26	105.31
240.494	89.31
240.728	90.31
240.961	80.31
241.195	111.31
241.429	99.31
241.662	86.31
241.896	105.31
242.13	95.31
242.363	82.31
242.597	81.31
242.83	82.31
243.064	84.31
243.298	94.31
243.531	84.31
243.765	83.31
243.998	94.31
244.232	75.31
244.465	75.31
244.699	90.31
244.932	97.31
245.166	81.31
245.399	107.31
245.633	103.31
245.866	97.31
246.099	77.31
246.333	97.31
246.566	70.31
246.8	101.31
247.033	91.31
247.266	79.31
247.5	82.31
247.733	97.31
247.966	110.31
248.2	105.31
248.433	93.31
248.666	103.31
248.899	105.31
249.133	99.31
249.366	125.31
249.599	101.31
249.832	96.31
250.066	117.31
250.299	102.31
250.532	105.31
250.765	92.31
250.998	96.31
251.231	101.31
251.465	98.31
251.698	98.31
251.931	101.31
252.164	91.31
252.397	107.31
252.63	103.31
252.863	93.31
253.096	97.31
253.329	110.31
253.562	105.31
253.795	120.31
254.028	103.31
254.261	113.31
254.494	102.31
254.727	129.31
254.96	101.31
255.193	97.31
255.426	101.31
255.659	88.31
255.892	122.31
256.124	103.31
256.357	118.31
256.59	103.31
256.823	120.31
257.056	111.31
257.289	96.31
257.521	108.31
257.754	101.31
257.987	108.31
258.22	127.31
258.452	125.31
258.685	102.31
258.918	107.31
259.151	99.31
259.383	117.31
259.616	104.31
259.849	106.31
260.081	119.31
260.314	117.31
260.547	101.31
260.779	126.31
261.012	121.31
261.244	162.31
261.477	189.31
261.71	143.31
261.942	146.31
262.175	125.31
262.407	117.31
262.64	127.31
262.872	120.31
263.105	111.31
263.337	130.31
263.57	113.31
263.802	116.31
264.035	115.31
264.267	107.31
264.499	125.31
264.732	136.31
264.964	128.31
265.197	105.31
265.429	128.31
265.661	131.31
265.894	117.31
266.126	113.31
266.358	134.31
266.591	144.31
266.823	126.31
267.055	109.31
267.287	103.31
267.52	117.31
267.752	131.31
267.984	119.31
268.216	112.31
268.448	114.31
268.681	115.31
268.913	129.31
269.145	119.31
269.377	124.31
269.609	125.31
269.841	131.31
270.073	115.31
270.306	118.31
270.538	109.31
270.77	112.31
271.002	124.31
271.234	118.31
271.466	131.31
271.698	106.31
271.93	115.31
272.162	127.31
272.394	129.31
272.626	119.31
272.858	130.31
273.09	116.31
273.322	107.31
273.553	108.31
273.785	121.31
274.017	103.31
274.249	119.31
274.481	113.31
274.713	103.31
274.945	122.31
275.176	95.31
275.408	109.31
275.64	117.31
275.872	120.31
276.104	131.31
276.335	135.31
276.567	111.31
276.799	114.31
277.031	115.31
277.262	130.31
277.494	128.31
277.726	126.31
277.957	114.31
278.189	109.31
278.421	118.31
278.652	123.31
278.884	139.31
279.115	153.31
279.347	156.31
279.579	153.31
279.81	170.31
280.042	199.31
280.273	198.31
280.505	198.31
280.736	167.31
280.968	137.31
281.199	127.31
281.431	121.31
281.662	135.31
281.894	150.31
282.125	150.31
282.356	142.31
282.588	154.31
282.819	136.31
283.051	146.31
283.282	181.31
283.513	185.31
283.745	173.31
283.976	142.31
284.207	127.31
284.439	135.31
284.67	136.31
284.901	118.31
285.132	127.31
285.364	120.31
285.595	123.31
285.826	118.31
286.057	139.31
286.288	134.31
286.52	141.31
286.751	149.31
286.982	139.31
287.213	158.31
287.444	169.31
287.675	155.31
287.906	148.31
288.138	131.31
288.369	145.31
288.6	131.31
288.831	109.31
289.062	132.31
289.293	113.31
289.524	115.31
289.755	122.31
289.986	115.31
290.217	136.31
290.448	139.31
290.679	115.31
290.91	137.31
291.141	109.31
291.371	111.31
291.602	120.31
291.833	120.31
292.064	123.31
292.295	124.31
292.526	105.31
292.757	133.31
292.987	131.31
293.218	127.31
293.449	126.31
293.68	133.31
293.91	125.31
294.141	135.31
294.372	124.31
294.603	139.31
294.833	117.31
295.064	130.31
295.295	118.31
295.525	104.31
295.756	128.31
295.987	134.31
296.217	113.31
296.448	130.31
296.679	116.31
296.909	132.31
297.14	132.31
297.37	130.31
297.601	127.31
297.831	122.31
298.062	127.31
298.292	128.31
298.523	127.31
298.753	110.31
298.984	132.31
299.214	135.31
299.445	113.31
299.675	129.31
299.905	123.31
300.136	125.31
300.366	122.31
300.597	117.31
300.827	128.31
301.057	133.31
301.288	138.31
301.518	144.31
301.748	131.31
301.979	182.31
302.209	128.31
302.439	126.31
302.669	118.31
302.9	120.31
303.13	126.31
303.36	129.31
303.59	138.31
303.82	133.31
304.051	148.31
304.281	137.31
304.511	137.31
304.741	125.31
304.971	119.31
305.201	139.31
305.431	127.31
305.661	125.31
305.891	129.31
306.121	154.31
306.352	127.31
306.582	123.31
306.812	132.31
307.042	135.31
307.272	111.31
307.502	119.31
307.731	110.31
307.961	120.31
308.191	128.31
308.421	124.31
308.651	128.31
308.881	129.31
309.111	113.31
309.341	129.31
309.571	128.31
309.8	123.31
310.03	134.31
310.26	143.31
310.49	140.31
310.72	131.31
310.949	130.31
311.179	138.31
311.409	118.31
311.639	137.31
311.868	130.31
312.098	131.31
312.328	135.31
312.557	128.31
312.787	123.31
313.017	153.31
313.246	137.31
313.476	134.31
313.706	136.31
313.935	137.31
314.165	130.31
314.394	149.31
314.624	148.31
314.853	145.31
315.083	146.31
315.312	128.31
315.542	139.31
315.771	145.31
316.001	133.31
316.23	135.31
316.46	140.31
316.689	136.31
316.919	130.31
317.148	144.31
317.377	133.31
317.607	146.31
317.836	138.31
318.065	123.31
318.295	149.31
318.524	149.31
318.753	139.31
318.983	119.31
319.212	141.31
319.441	136.31
319.67	140.31
319.9	134.31
320.129	137.31
320.358	145.31
320.587	138.31
320.816	137.31
321.046	120.31
321.275	134.31
321.504	121.31
321.733	128.31
321.962	117.31
322.191	131.31
322.42	128.31
322.649	144.31
322.878	128.31
323.108	137.31
323.337	126.31
323.566	128.31
323.795	139.31
324.024	137.31
324.253	138.31
324.482	125.31
324.71	141.31
324.939	134.31
325.168	135.31
325.397	121.31
325.626	128.31
325.855	121.31
326.084	122.31
326.313	137.31
326.542	124.31
326.77	134.31
326.999	141.31
327.228	122.31
327.457	129.31
327.686	145.31
327.914	145.31
328.143	166.31
328.372	127.31
328.6	141.31
328.829	139.31
329.058	141.31
329.287	144.31
329.515	135.31
329.744	135.31
329.972	134.31
330.201	127.31
330.43	138.31
330.658	145.31
330.887	136.31
331.115	119.31
331.344	124.31
331.572	152.31
331.801	127.31
332.03	120.31
332.258	141.31
332.486	130.31
332.715	124.31
332.943	128.31
333.172	132.31
333.4	124.31
333.629	141.31
333.857	133.31
334.085	124.31
334.314	137.31
334.542	131.31
334.771	132.31
334.999	151.31
335.227	129.31
335.455	138.31
335.684	146.31
335.912	131.31
336.14	123.31
336.369	151.31
336.597	150.31
336.825	142.31
337.053	125.31
337.281	130.31
337.51	131.31
337.738	143.31
337.966	123.31
338.194	121.31
338.422	112.31
338.65	143.31
338.878	128.31
339.106	129.31
339.334	135.31
339.562	134.31
339.79	140.31
340.018	137.31
340.246	134.31
340.474	147.31
340.702	129.31
340.93	143.31
341.158	143.31
341.386	141.31
341.614	122.31
341.842	112.31
342.07	130.31
342.298	127.31
342.526	135.31
342.754	135.31
342.981	130.31
343.209	129.31
343.437	178.31
343.665	123.31
343.893	142.31
344.12	144.31
344.348	150.31
344.576	145.31
344.804	134.31
345.031	126.31
345.259	145.31
345.487	145.31
345.714	140.31
345.942	142.31
346.17	146.31
346.397	125.31
346.625	130.31
346.853	134.31
347.08	118.31
347.308	121.31
347.535	142.31
347.763	129.31
347.99	144.31
348.218	145.31
348.445	133.31
348.673	138.31
348.9	141.31
349.128	154.31
349.355	129.31
349.583	143.31
349.81	142.31
350.037	125.31
350.265	124.31
350.492	133.31
350.72	126.31
350.947	144.31
351.174	133.31
351.402	120.31
351.629	135.31
351.856	140.31
352.083	133.31
352.311	131.31
352.538	118.31
352.765	149.31
352.992	158.31
353.22	145.31
353.447	117.31
353.674	147.31
353.901	156.31
354.128	146.31
354.355	135.31
354.583	133.31
354.81	135.31
355.037	146.31
355.264	147.31
355.491	147.31
355.718	152.31
355.945	146.31
356.172	145.31
356.399	154.31
356.626	149.31
356.853	181.31
357.08	211.31
357.307	252.31
357.534	251.31
357.761	224.31
357.988	188.31
358.215	166.31
358.441	147.31
358.668	149.31
358.895	168.31
359.122	165.31
359.349	158.31
359.576	155.31
359.802	148.31
360.029	144.31
360.256	159.31
360.483	146.31
360.709	136.31
360.936	170.31
361.163	141.31
361.39	153.31
361.616	134.31
361.843	139.31
362.07	136.31
362.296	153.31
362.523	155.31
362.749	159.31
362.976	151.31
363.203	190.31
363.429	193.31
363.656	236.31
363.882	251.31
364.109	305.31
364.335	255.31
364.562	195.31
364.788	182.31
365.015	162.31
365.241	165.31
365.468	154.31
365.694	159.31
365.92	166.31
366.147	152.31
366.373	162.31
366.599	157.31
366.826	145.31
367.052	187.31
367.278	201.31
367.505	198.31
367.731	218.31
367.957	233.31
368.184	299.31
368.41	350.31
368.636	329.31
368.862	253.31
369.089	222.31
369.315	189.31
369.541	172.31
369.767	167.31
369.993	150.31
370.219	161.31
370.445	159.31
370.672	132.31
370.898	159.31
371.124	158.31
371.35	133.31
371.576	174.31
371.802	161.31
372.028	146.31
372.254	152.31
372.48	161.31
372.706	157.31
372.932	157.31
373.158	160.31
373.384	175.31
373.61	201.31
373.835	250.31
374.061	274.31
374.287	251.31
374.513	188.31
374.739	172.31
374.965	167.31
375.191	168.31
375.416	162.31
375.642	165.31
375.868	170.31
376.094	157.31
376.319	166.31
376.545	142.31
376.771	134.31
376.997	152.31
377.222	142.31
377.448	141.31
377.674	149.31
377.899	152.31
378.125	144.31
378.35	146.31
378.576	152.31
378.802	137.31
379.027	153.31
379.253	154.31
379.478	155.31
379.704	138.31
379.929	142.31
380.155	125.31
380.38	140.31
380.606	144.31
380.831	150.31
381.057	154.31
381.282	151.31
381.507	149.31
381.733	150.31
381.958	146.31
382.184	129.31
382.409	134.31
382.634	163.31
382.86	140.31
383.085	149.31
383.31	160.31
383.535	147.31
383.761	155.31
383.986	150.31
384.211	139.31
384.436	147.31
384.662	130.31
384.887	141.31
385.112	138.31
385.337	135.31
385.562	144.31
385.787	147.31
386.013	151.31
386.238	145.31
386.463	147.31
386.688	186.31
386.913	138.31
387.138	140.31
387.363	152.31
387.588	161.31
387.813	142.31
388.038	159.31
388.263	150.31
388.488	131.31
388.713	147.31
388.938	164.31
389.163	150.31
389.387	158.31
389.612	144.31
389.837	144.31
390.062	148.31
390.287	143.31
390.512	138.31
390.736	143.31
390.961	135.31
391.186	142.31
391.411	155.31
391.636	146.31
391.86	158.31
392.085	146.31
392.31	142.31
392.534	145.31
392.759	151.31
392.984	149.31
393.208	137.31
393.433	150.31
393.658	160.31
393.882	139.31
394.107	151.31
394.331	153.31
394.556	143.31
394.78	150.31
395.005	162.31
395.229	128.31
395.454	147.31
395.678	135.31
395.903	156.31
396.127	146.31
396.352	155.31
396.576	151.31
396.801	141.31
397.025	137.31
397.249	146.31
397.474	156.31
397.698	166.31
397.922	161.31
398.147	158.31
398.371	144.31
398.595	158.31
398.82	145.31
399.044	160.31
399.268	151.31
399.492	173.31
399.717	173.31
399.941	165.31
400.165	177.31
400.389	155.31
400.613	174.31
400.837	146.31
401.062	183.31
401.286	183.31
401.51	172.31
401.734	177.31
401.958	201.31
402.182	166.31
402.406	158.31
402.63	167.31
402.854	167.31
403.078	175.31
403.302	170.31
403.526	162.31
403.75	168.31
403.974	177.31
404.198	187.31
404.422	178.31
404.645	191.31
404.869	191.31
405.093	213.31
405.317	255.31
405.541	325.31
405.765	464.31
405.988	505.31
406.212	409.31
406.436	294.31
406.66	275.31
406.883	242.31
407.107	209.31
407.331	212.31
407.555	205.31
407.778	199.31
408.002	205.31
408.226	201.31
408.449	182.31
408.673	158.31
408.896	170.31
409.12	182.31
409.344	170.31
409.567	165.31
409.791	179.31
410.014	184.31
410.238	176.31
410.461	157.31
410.685	183.31
410.908	148.31
411.132	184.31
411.355	155.31
411.578	174.31
411.802	160.31
412.025	143.31
412.249	152.31
412.472	154.31
412.695	169.31
412.919	156.31
413.142	159.31
413.365	165.31
413.589	165.31
413.812	160.31
414.035	177.31
414.258	152.31
414.482	147.31
414.705	173.31
414.928	169.31
415.151	168.31
415.374	165.31
415.597	155.31
415.821	161.31
416.044	171.31
416.267	168.31
416.49	153.31
416.713	177.31
416.936	162.31
417.159	154.31
417.382	161.31
417.605	178.31
417.828	165.31
418.051	174.31
418.274	166.31
418.497	179.31
418.72	181.31
418.943	177.31
419.166	181.31
419.389	175.31
419.611	173.31
419.834	174.31
420.057	176.31
420.28	169.31
420.503	167.31
420.726	176.31
420.948	155.31
421.171	167.31
421.394	179.31
421.617	168.31
421.839	173.31
422.062	162.31
422.285	174.31
422.507	168.31
422.73	187.31
422.953	178.31
423.175	183.31
423.398	186.31
423.621	211.31
423.843	221.31
424.066	202.31
424.288	245.31
424.511	263.31
424.733	269.31
424.956	254.31
425.178	231.31
425.401	222.31
425.623	220.31
425.846	214.31
426.068	195.31
426.291	201.31
426.513	197.31
426.735	201.31
426.958	185.31
427.18	184.31
427.402	186.31
427.625	191.31
427.847	157.31
428.069	181.31
428.292	188.31
428.514	193.31
428.736	194.31
428.958	179.31
429.181	184.31
429.403	183.31
429.625	171.31
429.847	166.31
430.069	166.31
430.292	172.31
430.514	171.31
430.736	174.31
430.958	175.31
431.18	157.31
431.402	169.31
431.624	167.31
431.846	144.31
432.068	166.31
432.29	161.31
432.512	178.31
432.734	166.31
432.956	173.31
433.178	187.31
433.4	191.31
433.622	190.31
433.844	175.31
434.066	187.31
434.287	175.31
434.509	168.31
434.731	197.31
434.953	170.31
435.175	169.31
435.397	163.31
435.618	175.31
435.84	176.31
436.062	177.31
436.284	167.31
436.505	174.31
436.727	180.31
436.949	191.31
437.17	186.31
437.392	174.31
437.614	192.31
437.835	199.31
438.057	207.31
438.278	207.31
438.5	236.31
438.721	246.31
438.943	265.31
439.165	243.31
439.386	243.31
439.608	246.31
439.829	226.31
440.05	232.31
440.272	233.31
440.493	221.31
440.715	238.31
440.936	215.31
441.158	240.31
441.379	215.31
441.6	217.31
441.822	230.31
442.043	214.31
442.264	201.31
442.486	188.31
442.707	188.31
442.928	197.31
443.149	188.31
443.371	210.31
443.592	180.31
443.813	182.31
444.034	186.31
444.255	200.31
444.476	175.31
444.698	201.31
444.919	194.31
445.14	521.31
445.361	349.31
445.582	214.31
445.803	174.31
446.024	190.31
446.245	197.31
446.466	204.31
446.687	186.31
446.908	170.31
447.129	207.31
447.35	185.31
447.571	194.31
447.792	187.31
448.013	192.31
448.234	170.31
448.455	178.31
448.675	178.31
448.896	170.31
449.117	183.31
449.338	171.31
449.559	175.31
449.779	183.31
450	174.31
450.221	171.31
450.442	171.31
450.662	179.31
450.883	183.31
451.104	177.31
451.324	170.31
451.545	152.31
451.766	167.31
451.986	170.31
452.207	182.31
452.428	184.31
452.648	184.31
452.869	176.31
453.089	161.31
453.31	154.31
453.53	153.31
453.751	148.31
453.971	159.31
454.192	155.31
454.412	152.31
454.633	179.31
454.853	165.31
455.073	170.31
455.294	163.31
455.514	155.31
455.734	144.31
455.955	171.31
456.175	147.31
456.395	138.31
456.616	161.31
456.836	165.31
457.056	147.31
457.276	150.31
457.497	154.31
457.717	153.31
457.937	147.31
458.157	150.31
458.377	149.31
458.598	157.31
458.818	138.31
459.038	146.31
459.258	147.31
459.478	139.31
459.698	149.31
459.918	159.31
460.138	157.31
460.358	151.31
460.578	174.31
460.798	152.31
461.018	152.31
461.238	169.31
461.458	161.31
461.678	165.31
461.898	177.31
462.118	169.31
462.338	179.31
462.558	163.31
462.777	166.31
462.997	177.31
463.217	145.31
463.437	156.31
463.657	159.31
463.876	160.31
464.096	184.31
464.316	162.31
464.536	163.31
464.755	175.31
464.975	174.31
465.195	158.31
465.414	175.31
465.634	154.31
465.854	151.31
466.073	157.31
466.293	149.31
466.512	166.31
466.732	165.31
466.951	160.31
467.171	149.31
467.391	170.31
467.61	171.31
467.829	151.31
468.049	165.31
468.268	166.31
468.488	160.31
468.707	156.31
468.927	160.31
469.146	152.31
469.365	160.31
469.585	182.31
469.804	189.31
470.023	159.31
470.243	181.31
470.462	175.31
470.681	184.31
470.901	183.31
471.12	170.31
471.339	177.31
471.558	165.31
471.777	181.31
471.997	175.31
472.216	165.31
472.435	152.31
472.654	150.31
472.873	172.31
473.092	157.31
473.311	166.31
473.53	183.31
473.749	181.31
473.968	177.31
474.187	167.31
474.406	154.31
474.625	171.31
474.844	167.31
475.063	170.31
475.282	176.31
475.501	166.31
475.72	178.31
475.939	161.31
476.158	157.31
476.377	177.31
476.596	172.31
476.814	160.31
477.033	184.31
477.252	178.31
477.471	173.31
477.69	167.31
477.908	183.31
478.127	181.31
478.346	187.31
478.564	176.31
478.783	159.31
479.002	183.31
479.22	169.31
479.439	177.31
479.658	160.31
479.876	165.31
480.095	159.31
480.313	190.31
480.532	167.31
480.751	176.31
480.969	163.31
481.188	182.31
481.406	174.31
481.624	159.31
481.843	167.31
482.061	173.31
482.28	173.31
482.498	188.31
482.717	171.31
482.935	174.31
483.153	185.31
483.372	188.31
483.59	185.31
483.808	173.31
484.027	195.31
484.245	179.31
484.463	190.31
484.681	201.31
484.9	195.31
485.118	221.31
485.336	185.31
485.554	175.31
485.772	172.31
485.99	172.31
486.209	177.31
486.427	173.31
486.645	187.31
486.863	190.31
487.081	200.31
487.299	191.31
487.517	185.31
487.735	202.31
487.953	199.31
488.171	197.31
488.389	213.31
488.607	185.31
488.825	190.31
489.043	207.31
489.261	199.31
489.479	201.31
489.696	193.31
489.914	194.31
490.132	193.31
490.35	194.31
490.568	204.31
490.786	184.31
491.003	203.31
491.221	212.31
491.439	210.31
491.657	217.31
491.874	209.31
492.092	241.31
492.31	230.31
492.527	226.31
492.745	213.31
492.963	221.31
493.18	204.31
493.398	217.31
493.615	214.31
493.833	194.31
494.05	192.31
494.268	209.31
494.485	202.31
494.703	208.31
494.92	205.31
495.138	217.31
495.355	206.31
495.573	230.31
495.79	217.31
496.008	205.31
496.225	214.31
496.442	208.31
496.66	231.31
496.877	203.31
497.094	222.31
497.312	212.31
497.529	210.31
497.746	194.31
497.963	192.31
498.181	189.31
498.398	186.31
498.615	200.31
498.832	198.31
499.049	213.31
499.267	222.31
499.484	210.31
499.701	214.31
499.918	223.31
500.135	229.31
500.352	225.31
500.569	237.31
500.786	301.31
501.003	250.31
501.22	237.31
501.437	235.31
501.654	232.31
501.871	217.31
502.088	220.31
502.305	221.31
502.522	221.31
502.739	208.31
502.956	208.31
503.172	215.31
503.389	202.31
503.606	198.31
503.823	211.31
