Data from TenMicroDelayPb_HRD10591_00011.txt Node
Date: Mon Nov 24 14:56:24 EST 2025
User: Yrep
Spectrometer: HR+D1059
Trigger mode: 5
Integration Time (sec): 3.000000E-3
Scans to average: 1
Electric dark correction enabled: true
Nonlinearity correction enabled: false
Boxcar width: 0
XAxis mode: Wavelengths
Number of Pixels in Spectrum: 2048
>>>>>Begin Spectral Data<<<<<
223.165	-26.62
223.4	-26.62
223.635	-26.62
223.869	-25.62
224.104	-26.62
224.338	-10.62
224.573	-3.62
224.808	-8.62
225.042	0.38
225.277	8.38
225.511	-0.62
225.746	11.38
225.98	-2.62
226.215	5.38
226.449	21.38
226.683	7.38
226.918	28.38
227.152	22.38
227.387	43.38
227.621	42.38
227.856	51.38
228.09	37.38
228.324	45.38
228.559	64.38
228.793	63.38
229.027	73.38
229.262	81.38
229.496	65.38
229.73	71.38
229.964	95.38
230.199	82.38
230.433	76.38
230.667	89.38
230.901	85.38
231.136	80.38
231.37	77.38
231.604	79.38
231.838	89.38
232.072	82.38
232.306	90.38
232.541	94.38
232.775	91.38
233.009	90.38
233.243	93.38
233.477	87.38
233.711	104.38
233.945	86.38
234.179	103.38
234.413	106.38
234.647	78.38
234.881	91.38
235.115	73.38
235.349	90.38
235.583	82.38
235.817	83.38
236.051	91.38
236.285	87.38
236.519	94.38
236.753	85.38
236.987	99.38
237.221	89.38
237.455	84.38
237.689	98.38
237.922	99.38
238.156	80.38
238.39	86.38
238.624	86.38
238.858	86.38
239.091	106.38
239.325	77.38
239.559	93.38
239.793	95.38
240.027	118.38
240.26	96.38
240.494	91.38
240.728	94.38
240.961	103.38
241.195	113.38
241.429	86.38
241.662	83.38
241.896	87.38
242.13	90.38
242.363	86.38
242.597	88.38
242.83	88.38
243.064	88.38
243.298	87.38
243.531	88.38
243.765	113.38
243.998	107.38
244.232	105.38
244.465	89.38
244.699	74.38
244.932	92.38
245.166	84.38
245.399	97.38
245.633	102.38
245.866	90.38
246.099	98.38
246.333	95.38
246.566	87.38
246.8	89.38
247.033	83.38
247.266	84.38
247.5	97.38
247.733	111.38
247.966	107.38
248.2	101.38
248.433	92.38
248.666	82.38
248.899	115.38
249.133	93.38
249.366	104.38
249.599	107.38
249.832	91.38
250.066	101.38
250.299	97.38
250.532	107.38
250.765	106.38
250.998	83.38
251.231	106.38
251.465	121.38
251.698	101.38
251.931	104.38
252.164	102.38
252.397	101.38
252.63	100.38
252.863	100.38
253.096	97.38
253.329	103.38
253.562	113.38
253.795	120.38
254.028	101.38
254.261	102.38
254.494	112.38
254.727	123.38
254.96	109.38
255.193	106.38
255.426	82.38
255.659	94.38
255.892	127.38
256.124	111.38
256.357	96.38
256.59	114.38
256.823	111.38
257.056	114.38
257.289	98.38
257.521	96.38
257.754	107.38
257.987	106.38
258.22	128.38
258.452	112.38
258.685	94.38
258.918	109.38
259.151	105.38
259.383	112.38
259.616	113.38
259.849	116.38
260.081	129.38
260.314	120.38
260.547	125.38
260.779	124.38
261.012	129.38
261.244	138.38
261.477	162.38
261.71	146.38
261.942	139.38
262.175	135.38
262.407	112.38
262.64	105.38
262.872	117.38
263.105	119.38
263.337	138.38
263.57	110.38
263.802	116.38
264.035	121.38
264.267	113.38
264.499	111.38
264.732	121.38
264.964	115.38
265.197	124.38
265.429	122.38
265.661	104.38
265.894	127.38
266.126	131.38
266.358	149.38
266.591	146.38
266.823	125.38
267.055	101.38
267.287	125.38
267.52	105.38
267.752	97.38
267.984	106.38
268.216	115.38
268.448	117.38
268.681	122.38
268.913	135.38
269.145	104.38
269.377	112.38
269.609	130.38
269.841	119.38
270.073	109.38
270.306	120.38
270.538	107.38
270.77	118.38
271.002	94.38
271.234	118.38
271.466	130.38
271.698	106.38
271.93	103.38
272.162	126.38
272.394	129.38
272.626	115.38
272.858	111.38
273.09	129.38
273.322	118.38
273.553	85.38
273.785	124.38
274.017	114.38
274.249	110.38
274.481	123.38
274.713	113.38
274.945	121.38
275.176	114.38
275.408	122.38
275.64	128.38
275.872	119.38
276.104	111.38
276.335	116.38
276.567	121.38
276.799	130.38
277.031	103.38
277.262	124.38
277.494	113.38
277.726	136.38
277.957	128.38
278.189	129.38
278.421	126.38
278.652	134.38
278.884	130.38
279.115	141.38
279.347	145.38
279.579	159.38
279.81	166.38
280.042	189.38
280.273	221.38
280.505	201.38
280.736	176.38
280.968	144.38
281.199	153.38
281.431	137.38
281.662	139.38
281.894	151.38
282.125	135.38
282.356	165.38
282.588	157.38
282.819	152.38
283.051	151.38
283.282	187.38
283.513	196.38
283.745	183.38
283.976	155.38
284.207	135.38
284.439	148.38
284.67	127.38
284.901	133.38
285.132	127.38
285.364	123.38
285.595	137.38
285.826	129.38
286.057	148.38
286.288	117.38
286.52	146.38
286.751	146.38
286.982	146.38
287.213	179.38
287.444	162.38
287.675	152.38
287.906	155.38
288.138	139.38
288.369	131.38
288.6	121.38
288.831	112.38
289.062	144.38
289.293	116.38
289.524	125.38
289.755	119.38
289.986	125.38
290.217	121.38
290.448	127.38
290.679	129.38
290.91	125.38
291.141	115.38
291.371	131.38
291.602	126.38
291.833	121.38
292.064	131.38
292.295	123.38
292.526	134.38
292.757	129.38
292.987	129.38
293.218	118.38
293.449	123.38
293.68	122.38
293.91	126.38
294.141	133.38
294.372	119.38
294.603	114.38
294.833	135.38
295.064	129.38
295.295	115.38
295.525	124.38
295.756	129.38
295.987	122.38
296.217	116.38
296.448	135.38
296.679	112.38
296.909	141.38
297.14	135.38
297.37	129.38
297.601	126.38
297.831	127.38
298.062	121.38
298.292	122.38
298.523	126.38
298.753	130.38
298.984	121.38
299.214	127.38
299.445	128.38
299.675	133.38
299.905	121.38
300.136	128.38
300.366	129.38
300.597	122.38
300.827	123.38
301.057	120.38
301.288	116.38
301.518	131.38
301.748	115.38
301.979	206.38
302.209	130.38
302.439	117.38
302.669	117.38
302.9	122.38
303.13	129.38
303.36	133.38
303.59	121.38
303.82	135.38
304.051	128.38
304.281	126.38
304.511	147.38
304.741	130.38
304.971	121.38
305.201	139.38
305.431	139.38
305.661	150.38
305.891	125.38
306.121	132.38
306.352	142.38
306.582	122.38
306.812	123.38
307.042	119.38
307.272	134.38
307.502	125.38
307.731	143.38
307.961	129.38
308.191	135.38
308.421	128.38
308.651	126.38
308.881	128.38
309.111	133.38
309.341	114.38
309.571	123.38
309.8	121.38
310.03	132.38
310.26	126.38
310.49	120.38
310.72	131.38
310.949	109.38
311.179	117.38
311.409	110.38
311.639	117.38
311.868	140.38
312.098	137.38
312.328	128.38
312.557	151.38
312.787	140.38
313.017	138.38
313.246	130.38
313.476	118.38
313.706	141.38
313.935	145.38
314.165	145.38
314.394	142.38
314.624	144.38
314.853	138.38
315.083	131.38
315.312	145.38
315.542	141.38
315.771	130.38
316.001	134.38
316.23	130.38
316.46	136.38
316.689	126.38
316.919	138.38
317.148	138.38
317.377	160.38
317.607	143.38
317.836	144.38
318.065	125.38
318.295	129.38
318.524	146.38
318.753	138.38
318.983	153.38
319.212	141.38
319.441	137.38
319.67	140.38
319.9	114.38
320.129	117.38
320.358	127.38
320.587	140.38
320.816	141.38
321.046	158.38
321.275	132.38
321.504	132.38
321.733	133.38
321.962	128.38
322.191	136.38
322.42	138.38
322.649	151.38
322.878	143.38
323.108	132.38
323.337	144.38
323.566	125.38
323.795	130.38
324.024	134.38
324.253	129.38
324.482	156.38
324.71	141.38
324.939	154.38
325.168	135.38
325.397	127.38
325.626	125.38
325.855	126.38
326.084	144.38
326.313	131.38
326.542	114.38
326.77	133.38
326.999	127.38
327.228	141.38
327.457	134.38
327.686	115.38
327.914	140.38
328.143	144.38
328.372	150.38
328.6	134.38
328.829	131.38
329.058	137.38
329.287	117.38
329.515	127.38
329.744	118.38
329.972	122.38
330.201	125.38
330.43	131.38
330.658	132.38
330.887	136.38
331.115	140.38
331.344	141.38
331.572	151.38
331.801	117.38
332.03	124.38
332.258	127.38
332.486	130.38
332.715	133.38
332.943	148.38
333.172	132.38
333.4	125.38
333.629	126.38
333.857	141.38
334.085	135.38
334.314	143.38
334.542	143.38
334.771	130.38
334.999	146.38
335.227	146.38
335.455	134.38
335.684	152.38
335.912	134.38
336.14	129.38
336.369	125.38
336.597	120.38
336.825	129.38
337.053	135.38
337.281	130.38
337.51	128.38
337.738	136.38
337.966	131.38
338.194	129.38
338.422	131.38
338.65	122.38
338.878	152.38
339.106	128.38
339.334	147.38
339.562	144.38
339.79	133.38
340.018	142.38
340.246	134.38
340.474	145.38
340.702	134.38
340.93	131.38
341.158	134.38
341.386	131.38
341.614	127.38
341.842	138.38
342.07	133.38
342.298	149.38
342.526	136.38
342.754	129.38
342.981	131.38
343.209	138.38
343.437	183.38
343.665	137.38
343.893	141.38
344.12	138.38
344.348	129.38
344.576	143.38
344.804	157.38
345.031	138.38
345.259	136.38
345.487	131.38
345.714	135.38
345.942	135.38
346.17	134.38
346.397	130.38
346.625	138.38
346.853	127.38
347.08	131.38
347.308	137.38
347.535	135.38
347.763	127.38
347.99	150.38
348.218	134.38
348.445	139.38
348.673	140.38
348.9	154.38
349.128	133.38
349.355	132.38
349.583	131.38
349.81	129.38
350.037	130.38
350.265	135.38
350.492	129.38
350.72	125.38
350.947	130.38
351.174	130.38
351.402	118.38
351.629	129.38
351.856	128.38
352.083	136.38
352.311	158.38
352.538	133.38
352.765	148.38
352.992	162.38
353.22	136.38
353.447	139.38
353.674	141.38
353.901	158.38
354.128	143.38
354.355	120.38
354.583	155.38
354.81	151.38
355.037	144.38
355.264	153.38
355.491	150.38
355.718	129.38
355.945	136.38
356.172	138.38
356.399	141.38
356.626	146.38
356.853	181.38
357.08	213.38
357.307	263.38
357.534	252.38
357.761	223.38
357.988	188.38
358.215	182.38
358.441	141.38
358.668	149.38
358.895	143.38
359.122	151.38
359.349	141.38
359.576	156.38
359.802	133.38
360.029	135.38
360.256	144.38
360.483	135.38
360.709	132.38
360.936	162.38
361.163	172.38
361.39	154.38
361.616	155.38
361.843	160.38
362.07	151.38
362.296	143.38
362.523	152.38
362.749	159.38
362.976	150.38
363.203	179.38
363.429	175.38
363.656	219.38
363.882	255.38
364.109	293.38
364.335	253.38
364.562	207.38
364.788	179.38
365.015	171.38
365.241	171.38
365.468	182.38
365.694	149.38
365.92	166.38
366.147	137.38
366.373	158.38
366.599	140.38
366.826	150.38
367.052	173.38
367.278	210.38
367.505	201.38
367.731	230.38
367.957	225.38
368.184	286.38
368.41	360.38
368.636	322.38
368.862	250.38
369.089	214.38
369.315	181.38
369.541	177.38
369.767	163.38
369.993	157.38
370.219	143.38
370.445	170.38
370.672	142.38
370.898	144.38
371.124	169.38
371.35	158.38
371.576	137.38
371.802	142.38
372.028	137.38
372.254	160.38
372.48	153.38
372.706	156.38
372.932	158.38
373.158	168.38
373.384	193.38
373.61	204.38
373.835	223.38
374.061	287.38
374.287	249.38
374.513	213.38
374.739	171.38
374.965	155.38
375.191	152.38
375.416	148.38
375.642	154.38
375.868	165.38
376.094	161.38
376.319	137.38
376.545	137.38
376.771	149.38
376.997	154.38
377.222	146.38
377.448	150.38
377.674	162.38
377.899	144.38
378.125	141.38
378.35	131.38
378.576	145.38
378.802	147.38
379.027	154.38
379.253	167.38
379.478	155.38
379.704	142.38
379.929	159.38
380.155	140.38
380.38	129.38
380.606	157.38
380.831	151.38
381.057	182.38
381.282	146.38
381.507	147.38
381.733	161.38
381.958	133.38
382.184	145.38
382.409	138.38
382.634	154.38
382.86	157.38
383.085	163.38
383.31	143.38
383.535	147.38
383.761	143.38
383.986	161.38
384.211	151.38
384.436	151.38
384.662	158.38
384.887	149.38
385.112	155.38
385.337	147.38
385.562	141.38
385.787	160.38
386.013	134.38
386.238	147.38
386.463	140.38
386.688	211.38
386.913	166.38
387.138	142.38
387.363	156.38
387.588	151.38
387.813	153.38
388.038	145.38
388.263	147.38
388.488	125.38
388.713	139.38
388.938	143.38
389.163	159.38
389.387	143.38
389.612	175.38
389.837	162.38
390.062	136.38
390.287	147.38
390.512	142.38
390.736	156.38
390.961	137.38
391.186	143.38
391.411	144.38
391.636	154.38
391.86	139.38
392.085	173.38
392.31	161.38
392.534	147.38
392.759	148.38
392.984	144.38
393.208	159.38
393.433	159.38
393.658	166.38
393.882	162.38
394.107	146.38
394.331	155.38
394.556	148.38
394.78	154.38
395.005	147.38
395.229	161.38
395.454	159.38
395.678	167.38
395.903	156.38
396.127	158.38
396.352	156.38
396.576	146.38
396.801	165.38
397.025	167.38
397.249	155.38
397.474	166.38
397.698	165.38
397.922	170.38
398.147	156.38
398.371	144.38
398.595	172.38
398.82	145.38
399.044	142.38
399.268	164.38
399.492	172.38
399.717	163.38
399.941	162.38
400.165	172.38
400.389	158.38
400.613	164.38
400.837	162.38
401.062	157.38
401.286	171.38
401.51	163.38
401.734	200.38
401.958	203.38
402.182	178.38
402.406	159.38
402.63	163.38
402.854	185.38
403.078	169.38
403.302	159.38
403.526	165.38
403.75	189.38
403.974	184.38
404.198	162.38
404.422	193.38
404.645	192.38
404.869	205.38
405.093	230.38
405.317	269.38
405.541	356.38
405.765	463.38
405.988	531.38
406.212	404.38
406.436	316.38
406.66	280.38
406.883	245.38
407.107	209.38
407.331	213.38
407.555	207.38
407.778	193.38
408.002	184.38
408.226	191.38
408.449	160.38
408.673	179.38
408.896	186.38
409.12	183.38
409.344	186.38
409.567	167.38
409.791	173.38
410.014	198.38
410.238	191.38
410.461	167.38
410.685	173.38
410.908	171.38
411.132	184.38
411.355	186.38
411.578	169.38
411.802	174.38
412.025	168.38
412.249	167.38
412.472	161.38
412.695	162.38
412.919	178.38
413.142	159.38
413.365	179.38
413.589	150.38
413.812	178.38
414.035	184.38
414.258	170.38
414.482	169.38
414.705	170.38
414.928	167.38
415.151	181.38
415.374	174.38
415.597	150.38
415.821	166.38
416.044	167.38
416.267	166.38
416.49	174.38
416.713	171.38
416.936	177.38
417.159	173.38
417.382	165.38
417.605	176.38
417.828	157.38
418.051	170.38
418.274	157.38
418.497	165.38
418.72	165.38
418.943	165.38
419.166	172.38
419.389	191.38
419.611	155.38
419.834	169.38
420.057	187.38
420.28	172.38
420.503	168.38
420.726	170.38
420.948	195.38
421.171	190.38
421.394	178.38
421.617	156.38
421.839	181.38
422.062	177.38
422.285	195.38
422.507	178.38
422.73	196.38
422.953	174.38
423.175	190.38
423.398	196.38
423.621	203.38
423.843	198.38
424.066	209.38
424.288	229.38
424.511	253.38
424.733	269.38
424.956	248.38
425.178	226.38
425.401	227.38
425.623	208.38
425.846	199.38
426.068	206.38
426.291	185.38
426.513	192.38
426.735	203.38
426.958	199.38
427.18	188.38
427.402	197.38
427.625	171.38
427.847	189.38
428.069	187.38
428.292	191.38
428.514	171.38
428.736	170.38
428.958	182.38
429.181	185.38
429.403	178.38
429.625	166.38
429.847	171.38
430.069	178.38
430.292	192.38
430.514	188.38
430.736	189.38
430.958	187.38
431.18	167.38
431.402	160.38
431.624	175.38
431.846	167.38
432.068	166.38
432.29	154.38
432.512	194.38
432.734	162.38
432.956	177.38
433.178	185.38
433.4	199.38
433.622	191.38
433.844	186.38
434.066	185.38
434.287	164.38
434.509	158.38
434.731	167.38
434.953	164.38
435.175	193.38
435.397	201.38
435.618	171.38
435.84	166.38
436.062	164.38
436.284	172.38
436.505	178.38
436.727	193.38
436.949	184.38
437.17	201.38
437.392	187.38
437.614	182.38
437.835	188.38
438.057	194.38
438.278	199.38
438.5	213.38
438.721	261.38
438.943	255.38
439.165	259.38
439.386	248.38
439.608	239.38
439.829	230.38
440.05	235.38
440.272	218.38
440.493	235.38
440.715	239.38
440.936	235.38
441.158	237.38
441.379	213.38
441.6	219.38
441.822	226.38
442.043	203.38
442.264	190.38
442.486	181.38
442.707	188.38
442.928	201.38
443.149	193.38
443.371	193.38
443.592	186.38
443.813	183.38
444.034	186.38
444.255	186.38
444.476	205.38
444.698	196.38
444.919	196.38
445.14	503.38
445.361	345.38
445.582	202.38
445.803	179.38
446.024	174.38
446.245	215.38
446.466	202.38
446.687	187.38
446.908	195.38
447.129	194.38
447.35	193.38
447.571	181.38
447.792	168.38
448.013	167.38
448.234	167.38
448.455	176.38
448.675	165.38
448.896	178.38
449.117	190.38
449.338	170.38
449.559	173.38
449.779	182.38
450	191.38
450.221	192.38
450.442	176.38
450.662	185.38
450.883	178.38
451.104	189.38
451.324	176.38
451.545	161.38
451.766	181.38
451.986	173.38
452.207	169.38
452.428	171.38
452.648	182.38
452.869	172.38
453.089	154.38
453.31	157.38
453.53	143.38
453.751	159.38
453.971	173.38
454.192	158.38
454.412	169.38
454.633	164.38
454.853	185.38
455.073	165.38
455.294	178.38
455.514	173.38
455.734	167.38
455.955	175.38
456.175	157.38
456.395	154.38
456.616	167.38
456.836	168.38
457.056	156.38
457.276	162.38
457.497	158.38
457.717	154.38
457.937	173.38
458.157	154.38
458.377	154.38
458.598	154.38
458.818	149.38
459.038	147.38
459.258	138.38
459.478	153.38
459.698	149.38
459.918	158.38
460.138	147.38
460.358	154.38
460.578	181.38
460.798	162.38
461.018	171.38
461.238	177.38
461.458	187.38
461.678	165.38
461.898	163.38
462.118	174.38
462.338	167.38
462.558	173.38
462.777	163.38
462.997	164.38
463.217	171.38
463.437	165.38
463.657	150.38
463.876	167.38
464.096	158.38
464.316	162.38
464.536	164.38
464.755	170.38
464.975	158.38
465.195	157.38
465.414	169.38
465.634	162.38
465.854	149.38
466.073	154.38
466.293	182.38
466.512	166.38
466.732	169.38
466.951	183.38
467.171	161.38
467.391	176.38
467.61	160.38
467.829	165.38
468.049	169.38
468.268	177.38
468.488	171.38
468.707	165.38
468.927	171.38
469.146	177.38
469.365	162.38
469.585	162.38
469.804	167.38
470.023	165.38
470.243	176.38
470.462	186.38
470.681	168.38
470.901	162.38
471.12	167.38
471.339	165.38
471.558	167.38
471.777	161.38
471.997	169.38
472.216	172.38
472.435	152.38
472.654	161.38
472.873	167.38
473.092	167.38
473.311	168.38
473.53	161.38
473.749	165.38
473.968	177.38
474.187	160.38
474.406	175.38
474.625	176.38
474.844	175.38
475.063	167.38
475.282	180.38
475.501	159.38
475.72	178.38
475.939	173.38
476.158	163.38
476.377	167.38
476.596	164.38
476.814	177.38
477.033	161.38
477.252	175.38
477.471	156.38
477.69	177.38
477.908	181.38
478.127	187.38
478.346	195.38
478.564	195.38
478.783	187.38
479.002	178.38
479.22	199.38
479.439	200.38
479.658	184.38
479.876	180.38
480.095	169.38
480.313	183.38
480.532	193.38
480.751	194.38
480.969	159.38
481.188	166.38
481.406	163.38
481.624	157.38
481.843	156.38
482.061	178.38
482.28	190.38
482.498	163.38
482.717	167.38
482.935	189.38
483.153	177.38
483.372	188.38
483.59	183.38
483.808	181.38
484.027	186.38
484.245	207.38
484.463	196.38
484.681	220.38
484.9	185.38
485.118	182.38
485.336	165.38
485.554	179.38
485.772	166.38
485.99	185.38
486.209	191.38
486.427	177.38
486.645	174.38
486.863	195.38
487.081	193.38
487.299	187.38
487.517	207.38
487.735	207.38
487.953	216.38
488.171	192.38
488.389	215.38
488.607	173.38
488.825	189.38
489.043	186.38
489.261	198.38
489.479	199.38
489.696	207.38
489.914	190.38
490.132	190.38
490.35	200.38
490.568	192.38
490.786	193.38
491.003	215.38
491.221	196.38
491.439	191.38
491.657	217.38
491.874	212.38
492.092	231.38
492.31	229.38
492.527	209.38
492.745	213.38
492.963	217.38
493.18	213.38
493.398	220.38
493.615	205.38
493.833	213.38
494.05	201.38
494.268	215.38
494.485	203.38
494.703	214.38
494.92	217.38
495.138	239.38
495.355	214.38
495.573	216.38
495.79	208.38
496.008	224.38
496.225	222.38
496.442	213.38
496.66	230.38
496.877	189.38
497.094	217.38
497.312	215.38
497.529	202.38
497.746	211.38
497.963	205.38
498.181	194.38
498.398	186.38
498.615	192.38
498.832	204.38
499.049	202.38
499.267	210.38
499.484	217.38
499.701	223.38
499.918	224.38
500.135	224.38
500.352	229.38
500.569	273.38
500.786	284.38
501.003	255.38
501.22	238.38
501.437	250.38
501.654	224.38
501.871	209.38
502.088	210.38
502.305	205.38
502.522	213.38
502.739	209.38
502.956	213.38
503.172	193.38
503.389	218.38
503.606	208.38
503.823	209.38
