Data from TenMicroDelayPb_HRD10591_00010.txt Node
Date: Mon Nov 24 14:56:15 EST 2025
User: Yrep
Spectrometer: HR+D1059
Trigger mode: 5
Integration Time (sec): 1.000000E-3
Scans to average: 1
Electric dark correction enabled: true
Nonlinearity correction enabled: false
Boxcar width: 0
XAxis mode: Wavelengths
Number of Pixels in Spectrum: 2048
>>>>>Begin Spectral Data<<<<<
223.165	-21.69
223.4	-21.69
223.635	-21.69
223.869	-26.69
224.104	-36.69
224.338	-12.69
224.573	-13.69
224.808	-13.69
225.042	-2.69
225.277	-0.69
225.511	12.31
225.746	4.31
225.98	12.31
226.215	7.31
226.449	19.31
226.683	11.31
226.918	25.31
227.152	36.31
227.387	43.31
227.621	51.31
227.856	61.31
228.09	41.31
228.324	52.31
228.559	71.31
228.793	65.31
229.027	83.31
229.262	68.31
229.496	75.31
229.73	75.31
229.964	86.31
230.199	87.31
230.433	97.31
230.667	98.31
230.901	84.31
231.136	95.31
231.37	89.31
231.604	104.31
231.838	92.31
232.072	77.31
232.306	75.31
232.541	90.31
232.775	87.31
233.009	100.31
233.243	91.31
233.477	82.31
233.711	96.31
233.945	94.31
234.179	106.31
234.413	96.31
234.647	80.31
234.881	97.31
235.115	90.31
235.349	109.31
235.583	107.31
235.817	78.31
236.051	84.31
236.285	93.31
236.519	90.31
236.753	96.31
236.987	90.31
237.221	68.31
237.455	89.31
237.689	88.31
237.922	88.31
238.156	84.31
238.39	64.31
238.624	77.31
238.858	102.31
239.091	94.31
239.325	81.31
239.559	95.31
239.793	93.31
240.027	109.31
240.26	89.31
240.494	92.31
240.728	97.31
240.961	90.31
241.195	87.31
241.429	85.31
241.662	91.31
241.896	101.31
242.13	88.31
242.363	75.31
242.597	91.31
242.83	84.31
243.064	96.31
243.298	87.31
243.531	84.31
243.765	87.31
243.998	97.31
244.232	94.31
244.465	76.31
244.699	107.31
244.932	94.31
245.166	105.31
245.399	101.31
245.633	103.31
245.866	103.31
246.099	95.31
246.333	88.31
246.566	93.31
246.8	87.31
247.033	96.31
247.266	102.31
247.5	100.31
247.733	93.31
247.966	116.31
248.2	83.31
248.433	103.31
248.666	92.31
248.899	101.31
249.133	116.31
249.366	107.31
249.599	88.31
249.832	109.31
250.066	103.31
250.299	92.31
250.532	100.31
250.765	104.31
250.998	99.31
251.231	102.31
251.465	111.31
251.698	98.31
251.931	85.31
252.164	91.31
252.397	107.31
252.63	116.31
252.863	95.31
253.096	94.31
253.329	127.31
253.562	120.31
253.795	111.31
254.028	111.31
254.261	106.31
254.494	100.31
254.727	100.31
254.96	104.31
255.193	111.31
255.426	107.31
255.659	93.31
255.892	127.31
256.124	99.31
256.357	109.31
256.59	124.31
256.823	121.31
257.056	99.31
257.289	127.31
257.521	126.31
257.754	121.31
257.987	108.31
258.22	127.31
258.452	123.31
258.685	121.31
258.918	113.31
259.151	120.31
259.383	124.31
259.616	123.31
259.849	107.31
260.081	123.31
260.314	116.31
260.547	129.31
260.779	136.31
261.012	135.31
261.244	137.31
261.477	171.31
261.71	154.31
261.942	151.31
262.175	118.31
262.407	108.31
262.64	123.31
262.872	123.31
263.105	128.31
263.337	125.31
263.57	127.31
263.802	107.31
264.035	120.31
264.267	117.31
264.499	128.31
264.732	124.31
264.964	120.31
265.197	131.31
265.429	131.31
265.661	136.31
265.894	115.31
266.126	126.31
266.358	135.31
266.591	133.31
266.823	126.31
267.055	121.31
267.287	107.31
267.52	119.31
267.752	132.31
267.984	125.31
268.216	122.31
268.448	130.31
268.681	111.31
268.913	121.31
269.145	110.31
269.377	103.31
269.609	106.31
269.841	122.31
270.073	119.31
270.306	111.31
270.538	114.31
270.77	103.31
271.002	112.31
271.234	115.31
271.466	107.31
271.698	107.31
271.93	114.31
272.162	124.31
272.394	117.31
272.626	127.31
272.858	111.31
273.09	108.31
273.322	107.31
273.553	109.31
273.785	115.31
274.017	108.31
274.249	121.31
274.481	112.31
274.713	126.31
274.945	123.31
275.176	121.31
275.408	124.31
275.64	118.31
275.872	98.31
276.104	105.31
276.335	121.31
276.567	111.31
276.799	109.31
277.031	114.31
277.262	131.31
277.494	132.31
277.726	127.31
277.957	130.31
278.189	127.31
278.421	120.31
278.652	134.31
278.884	137.31
279.115	125.31
279.347	136.31
279.579	155.31
279.81	151.31
280.042	193.31
280.273	213.31
280.505	191.31
280.736	160.31
280.968	146.31
281.199	126.31
281.431	128.31
281.662	125.31
281.894	143.31
282.125	160.31
282.356	156.31
282.588	155.31
282.819	137.31
283.051	159.31
283.282	153.31
283.513	197.31
283.745	163.31
283.976	154.31
284.207	133.31
284.439	144.31
284.67	124.31
284.901	129.31
285.132	121.31
285.364	120.31
285.595	114.31
285.826	135.31
286.057	130.31
286.288	123.31
286.52	136.31
286.751	139.31
286.982	139.31
287.213	163.31
287.444	189.31
287.675	159.31
287.906	137.31
288.138	126.31
288.369	111.31
288.6	119.31
288.831	125.31
289.062	141.31
289.293	138.31
289.524	119.31
289.755	127.31
289.986	115.31
290.217	129.31
290.448	113.31
290.679	139.31
290.91	118.31
291.141	121.31
291.371	129.31
291.602	128.31
291.833	134.31
292.064	123.31
292.295	124.31
292.526	131.31
292.757	140.31
292.987	132.31
293.218	128.31
293.449	123.31
293.68	118.31
293.91	107.31
294.141	127.31
294.372	119.31
294.603	132.31
294.833	126.31
295.064	124.31
295.295	128.31
295.525	124.31
295.756	148.31
295.987	123.31
296.217	117.31
296.448	120.31
296.679	117.31
296.909	123.31
297.14	130.31
297.37	143.31
297.601	131.31
297.831	135.31
298.062	120.31
298.292	115.31
298.523	127.31
298.753	130.31
298.984	122.31
299.214	114.31
299.445	141.31
299.675	137.31
299.905	109.31
300.136	129.31
300.366	122.31
300.597	135.31
300.827	109.31
301.057	137.31
301.288	122.31
301.518	127.31
301.748	111.31
301.979	191.31
302.209	141.31
302.439	117.31
302.669	108.31
302.9	123.31
303.13	132.31
303.36	144.31
303.59	125.31
303.82	121.31
304.051	139.31
304.281	129.31
304.511	153.31
304.741	127.31
304.971	114.31
305.201	142.31
305.431	130.31
305.661	141.31
305.891	122.31
306.121	120.31
306.352	131.31
306.582	130.31
306.812	128.31
307.042	120.31
307.272	121.31
307.502	146.31
307.731	153.31
307.961	130.31
308.191	132.31
308.421	135.31
308.651	133.31
308.881	128.31
309.111	120.31
309.341	117.31
309.571	139.31
309.8	136.31
310.03	133.31
310.26	132.31
310.49	128.31
310.72	133.31
310.949	136.31
311.179	116.31
311.409	136.31
311.639	116.31
311.868	141.31
312.098	131.31
312.328	140.31
312.557	135.31
312.787	119.31
313.017	147.31
313.246	146.31
313.476	130.31
313.706	151.31
313.935	145.31
314.165	141.31
314.394	153.31
314.624	148.31
314.853	149.31
315.083	152.31
315.312	143.31
315.542	137.31
315.771	140.31
316.001	154.31
316.23	144.31
316.46	149.31
316.689	145.31
316.919	137.31
317.148	151.31
317.377	129.31
317.607	148.31
317.836	137.31
318.065	124.31
318.295	143.31
318.524	152.31
318.753	135.31
318.983	125.31
319.212	130.31
319.441	139.31
319.67	137.31
319.9	136.31
320.129	124.31
320.358	139.31
320.587	129.31
320.816	138.31
321.046	139.31
321.275	140.31
321.504	132.31
321.733	145.31
321.962	142.31
322.191	153.31
322.42	139.31
322.649	134.31
322.878	139.31
323.108	130.31
323.337	137.31
323.566	131.31
323.795	158.31
324.024	131.31
324.253	145.31
324.482	138.31
324.71	143.31
324.939	150.31
325.168	139.31
325.397	126.31
325.626	112.31
325.855	131.31
326.084	134.31
326.313	150.31
326.542	138.31
326.77	142.31
326.999	134.31
327.228	127.31
327.457	124.31
327.686	126.31
327.914	129.31
328.143	153.31
328.372	143.31
328.6	141.31
328.829	130.31
329.058	136.31
329.287	143.31
329.515	118.31
329.744	134.31
329.972	139.31
330.201	132.31
330.43	143.31
330.658	135.31
330.887	143.31
331.115	141.31
331.344	143.31
331.572	145.31
331.801	131.31
332.03	147.31
332.258	140.31
332.486	141.31
332.715	131.31
332.943	131.31
333.172	148.31
333.4	127.31
333.629	139.31
333.857	146.31
334.085	140.31
334.314	145.31
334.542	143.31
334.771	131.31
334.999	129.31
335.227	136.31
335.455	131.31
335.684	139.31
335.912	132.31
336.14	128.31
336.369	146.31
336.597	140.31
336.825	138.31
337.053	120.31
337.281	125.31
337.51	136.31
337.738	141.31
337.966	142.31
338.194	136.31
338.422	133.31
338.65	152.31
338.878	145.31
339.106	131.31
339.334	161.31
339.562	135.31
339.79	141.31
340.018	127.31
340.246	137.31
340.474	139.31
340.702	157.31
340.93	153.31
341.158	133.31
341.386	146.31
341.614	137.31
341.842	131.31
342.07	130.31
342.298	141.31
342.526	144.31
342.754	161.31
342.981	136.31
343.209	144.31
343.437	181.31
343.665	140.31
343.893	132.31
344.12	159.31
344.348	146.31
344.576	133.31
344.804	137.31
345.031	141.31
345.259	140.31
345.487	140.31
345.714	124.31
345.942	137.31
346.17	143.31
346.397	143.31
346.625	130.31
346.853	123.31
347.08	144.31
347.308	139.31
347.535	129.31
347.763	147.31
347.99	144.31
348.218	154.31
348.445	127.31
348.673	142.31
348.9	156.31
349.128	140.31
349.355	141.31
349.583	128.31
349.81	130.31
350.037	127.31
350.265	125.31
350.492	123.31
350.72	140.31
350.947	142.31
351.174	144.31
351.402	124.31
351.629	137.31
351.856	135.31
352.083	135.31
352.311	137.31
352.538	145.31
352.765	142.31
352.992	175.31
353.22	149.31
353.447	143.31
353.674	139.31
353.901	151.31
354.128	142.31
354.355	120.31
354.583	131.31
354.81	156.31
355.037	145.31
355.264	138.31
355.491	142.31
355.718	138.31
355.945	140.31
356.172	144.31
356.399	156.31
356.626	172.31
356.853	178.31
357.08	205.31
357.307	254.31
357.534	253.31
357.761	215.31
357.988	191.31
358.215	170.31
358.441	158.31
358.668	170.31
358.895	158.31
359.122	145.31
359.349	159.31
359.576	135.31
359.802	145.31
360.029	154.31
360.256	143.31
360.483	152.31
360.709	139.31
360.936	170.31
361.163	155.31
361.39	142.31
361.616	150.31
361.843	150.31
362.07	150.31
362.296	148.31
362.523	145.31
362.749	143.31
362.976	162.31
363.203	182.31
363.429	187.31
363.656	205.31
363.882	277.31
364.109	303.31
364.335	253.31
364.562	202.31
364.788	167.31
365.015	188.31
365.241	162.31
365.468	169.31
365.694	148.31
365.92	164.31
366.147	152.31
366.373	162.31
366.599	168.31
366.826	183.31
367.052	191.31
367.278	207.31
367.505	193.31
367.731	235.31
367.957	256.31
368.184	262.31
368.41	344.31
368.636	309.31
368.862	246.31
369.089	203.31
369.315	177.31
369.541	179.31
369.767	174.31
369.993	156.31
370.219	157.31
370.445	158.31
370.672	146.31
370.898	157.31
371.124	160.31
371.35	157.31
371.576	155.31
371.802	149.31
372.028	149.31
372.254	131.31
372.48	137.31
372.706	141.31
372.932	157.31
373.158	153.31
373.384	202.31
373.61	209.31
373.835	247.31
374.061	256.31
374.287	255.31
374.513	210.31
374.739	176.31
374.965	154.31
375.191	160.31
375.416	155.31
375.642	160.31
375.868	162.31
376.094	144.31
376.319	140.31
376.545	154.31
376.771	139.31
376.997	144.31
377.222	162.31
377.448	149.31
377.674	133.31
377.899	169.31
378.125	153.31
378.35	149.31
378.576	149.31
378.802	142.31
379.027	143.31
379.253	150.31
379.478	151.31
379.704	145.31
379.929	150.31
380.155	143.31
380.38	132.31
380.606	147.31
380.831	147.31
381.057	164.31
381.282	154.31
381.507	163.31
381.733	148.31
381.958	153.31
382.184	153.31
382.409	146.31
382.634	155.31
382.86	150.31
383.085	140.31
383.31	140.31
383.535	155.31
383.761	148.31
383.986	147.31
384.211	135.31
384.436	142.31
384.662	161.31
384.887	134.31
385.112	145.31
385.337	163.31
385.562	152.31
385.787	143.31
386.013	146.31
386.238	144.31
386.463	145.31
386.688	201.31
386.913	152.31
387.138	140.31
387.363	145.31
387.588	169.31
387.813	168.31
388.038	139.31
388.263	156.31
388.488	142.31
388.713	151.31
388.938	146.31
389.163	155.31
389.387	136.31
389.612	129.31
389.837	148.31
390.062	164.31
390.287	142.31
390.512	147.31
390.736	160.31
390.961	144.31
391.186	147.31
391.411	163.31
391.636	155.31
391.86	146.31
392.085	164.31
392.31	153.31
392.534	144.31
392.759	148.31
392.984	161.31
393.208	169.31
393.433	181.31
393.658	148.31
393.882	180.31
394.107	157.31
394.331	161.31
394.556	167.31
394.78	162.31
395.005	163.31
395.229	163.31
395.454	167.31
395.678	164.31
395.903	173.31
396.127	153.31
396.352	146.31
396.576	137.31
396.801	148.31
397.025	152.31
397.249	148.31
397.474	170.31
397.698	146.31
397.922	166.31
398.147	153.31
398.371	160.31
398.595	156.31
398.82	162.31
399.044	168.31
399.268	156.31
399.492	158.31
399.717	153.31
399.941	182.31
400.165	163.31
400.389	164.31
400.613	158.31
400.837	161.31
401.062	169.31
401.286	155.31
401.51	166.31
401.734	160.31
401.958	189.31
402.182	187.31
402.406	163.31
402.63	179.31
402.854	177.31
403.078	187.31
403.302	176.31
403.526	168.31
403.75	195.31
403.974	171.31
404.198	191.31
404.422	189.31
404.645	195.31
404.869	208.31
405.093	212.31
405.317	245.31
405.541	318.31
405.765	445.31
405.988	510.31
406.212	407.31
406.436	309.31
406.66	252.31
406.883	239.31
407.107	218.31
407.331	214.31
407.555	198.31
407.778	194.31
408.002	185.31
408.226	192.31
408.449	184.31
408.673	179.31
408.896	178.31
409.12	190.31
409.344	188.31
409.567	173.31
409.791	174.31
410.014	176.31
410.238	175.31
410.461	167.31
410.685	167.31
410.908	174.31
411.132	187.31
411.355	171.31
411.578	175.31
411.802	192.31
412.025	172.31
412.249	168.31
412.472	164.31
412.695	163.31
412.919	169.31
413.142	173.31
413.365	170.31
413.589	183.31
413.812	163.31
414.035	179.31
414.258	159.31
414.482	160.31
414.705	164.31
414.928	172.31
415.151	165.31
415.374	177.31
415.597	160.31
415.821	169.31
416.044	151.31
416.267	172.31
416.49	171.31
416.713	167.31
416.936	187.31
417.159	181.31
417.382	164.31
417.605	162.31
417.828	172.31
418.051	179.31
418.274	169.31
418.497	179.31
418.72	157.31
418.943	168.31
419.166	183.31
419.389	174.31
419.611	177.31
419.834	185.31
420.057	171.31
420.28	172.31
420.503	164.31
420.726	169.31
420.948	193.31
421.171	177.31
421.394	179.31
421.617	169.31
421.839	170.31
422.062	175.31
422.285	176.31
422.507	167.31
422.73	172.31
422.953	177.31
423.175	190.31
423.398	196.31
423.621	208.31
423.843	205.31
424.066	203.31
424.288	223.31
424.511	266.31
424.733	276.31
424.956	251.31
425.178	240.31
425.401	227.31
425.623	204.31
425.846	201.31
426.068	208.31
426.291	188.31
426.513	204.31
426.735	197.31
426.958	191.31
427.18	198.31
427.402	187.31
427.625	176.31
427.847	178.31
428.069	188.31
428.292	179.31
428.514	175.31
428.736	183.31
428.958	155.31
429.181	192.31
429.403	193.31
429.625	156.31
429.847	181.31
430.069	187.31
430.292	182.31
430.514	166.31
430.736	168.31
430.958	175.31
431.18	187.31
431.402	185.31
431.624	182.31
431.846	156.31
432.068	171.31
432.29	176.31
432.512	183.31
432.734	157.31
432.956	188.31
433.178	213.31
433.4	187.31
433.622	207.31
433.844	197.31
434.066	176.31
434.287	155.31
434.509	155.31
434.731	172.31
434.953	183.31
435.175	195.31
435.397	185.31
435.618	169.31
435.84	185.31
436.062	165.31
436.284	171.31
436.505	186.31
436.727	160.31
436.949	171.31
437.17	167.31
437.392	180.31
437.614	193.31
437.835	185.31
438.057	195.31
438.278	201.31
438.5	235.31
438.721	245.31
438.943	278.31
439.165	267.31
439.386	244.31
439.608	247.31
439.829	226.31
440.05	238.31
440.272	216.31
440.493	231.31
440.715	235.31
440.936	237.31
441.158	232.31
441.379	224.31
441.6	212.31
441.822	218.31
442.043	210.31
442.264	204.31
442.486	228.31
442.707	197.31
442.928	187.31
443.149	195.31
443.371	207.31
443.592	185.31
443.813	205.31
444.034	188.31
444.255	187.31
444.476	195.31
444.698	201.31
444.919	203.31
445.14	514.31
445.361	323.31
445.582	207.31
445.803	195.31
446.024	194.31
446.245	210.31
446.466	201.31
446.687	188.31
446.908	190.31
447.129	173.31
447.35	185.31
447.571	185.31
447.792	180.31
448.013	173.31
448.234	192.31
448.455	194.31
448.675	180.31
448.896	194.31
449.117	194.31
449.338	174.31
449.559	203.31
449.779	164.31
450	191.31
450.221	203.31
450.442	169.31
450.662	186.31
450.883	183.31
451.104	200.31
451.324	172.31
451.545	169.31
451.766	191.31
451.986	174.31
452.207	160.31
452.428	173.31
452.648	171.31
452.869	177.31
453.089	169.31
453.31	164.31
453.53	175.31
453.751	169.31
453.971	153.31
454.192	152.31
454.412	159.31
454.633	159.31
454.853	190.31
455.073	193.31
455.294	160.31
455.514	163.31
455.734	162.31
455.955	185.31
456.175	159.31
456.395	151.31
456.616	174.31
456.836	159.31
457.056	156.31
457.276	169.31
457.497	173.31
457.717	155.31
457.937	172.31
458.157	165.31
458.377	154.31
458.598	154.31
458.818	154.31
459.038	152.31
459.258	145.31
459.478	154.31
459.698	153.31
459.918	176.31
460.138	159.31
460.358	163.31
460.578	187.31
460.798	156.31
461.018	157.31
461.238	166.31
461.458	174.31
461.678	159.31
461.898	172.31
462.118	169.31
462.338	157.31
462.558	160.31
462.777	160.31
462.997	173.31
463.217	178.31
463.437	168.31
463.657	176.31
463.876	158.31
464.096	169.31
464.316	161.31
464.536	175.31
464.755	181.31
464.975	183.31
465.195	183.31
465.414	172.31
465.634	173.31
465.854	168.31
466.073	167.31
466.293	160.31
466.512	169.31
466.732	166.31
466.951	163.31
467.171	181.31
467.391	163.31
467.61	163.31
467.829	157.31
468.049	184.31
468.268	173.31
468.488	169.31
468.707	168.31
468.927	161.31
469.146	172.31
469.365	164.31
469.585	173.31
469.804	181.31
470.023	146.31
470.243	173.31
470.462	167.31
470.681	185.31
470.901	172.31
471.12	180.31
471.339	187.31
471.558	156.31
471.777	173.31
471.997	183.31
472.216	181.31
472.435	148.31
472.654	170.31
472.873	173.31
473.092	159.31
473.311	159.31
473.53	163.31
473.749	188.31
473.968	173.31
474.187	147.31
474.406	165.31
474.625	174.31
474.844	171.31
475.063	176.31
475.282	171.31
475.501	154.31
475.72	192.31
475.939	167.31
476.158	177.31
476.377	178.31
476.596	156.31
476.814	149.31
477.033	172.31
477.252	158.31
477.471	183.31
477.69	183.31
477.908	175.31
478.127	193.31
478.346	192.31
478.564	186.31
478.783	184.31
479.002	194.31
479.22	187.31
479.439	198.31
479.658	175.31
479.876	178.31
480.095	172.31
480.313	176.31
480.532	177.31
480.751	186.31
480.969	170.31
481.188	167.31
481.406	167.31
481.624	158.31
481.843	171.31
482.061	179.31
482.28	196.31
482.498	180.31
482.717	160.31
482.935	183.31
483.153	175.31
483.372	193.31
483.59	176.31
483.808	195.31
484.027	187.31
484.245	196.31
484.463	174.31
484.681	194.31
484.9	183.31
485.118	193.31
485.336	170.31
485.554	180.31
485.772	171.31
485.99	179.31
486.209	184.31
486.427	183.31
486.645	187.31
486.863	184.31
487.081	190.31
487.299	173.31
487.517	190.31
487.735	208.31
487.953	219.31
488.171	212.31
488.389	195.31
488.607	188.31
488.825	173.31
489.043	194.31
489.261	180.31
489.479	194.31
489.696	196.31
489.914	191.31
490.132	191.31
490.35	196.31
490.568	203.31
490.786	199.31
491.003	205.31
491.221	199.31
491.439	218.31
491.657	219.31
491.874	225.31
492.092	233.31
492.31	228.31
492.527	224.31
492.745	226.31
492.963	212.31
493.18	212.31
493.398	206.31
493.615	202.31
493.833	208.31
494.05	216.31
494.268	210.31
494.485	213.31
494.703	210.31
494.92	209.31
495.138	176.31
495.355	217.31
495.573	202.31
495.79	213.31
496.008	210.31
496.225	226.31
496.442	216.31
496.66	211.31
496.877	228.31
497.094	217.31
497.312	205.31
497.529	193.31
497.746	211.31
497.963	202.31
498.181	201.31
498.398	203.31
498.615	188.31
498.832	197.31
499.049	187.31
499.267	215.31
499.484	207.31
499.701	209.31
499.918	238.31
500.135	216.31
500.352	239.31
500.569	247.31
500.786	292.31
501.003	259.31
501.22	236.31
501.437	245.31
501.654	224.31
501.871	227.31
502.088	218.31
502.305	226.31
502.522	233.31
502.739	217.31
502.956	212.31
503.172	203.31
503.389	207.31
503.606	206.31
