Data from TenMicroDelayPb_HRD10591_00016.txt Node
Date: Mon Nov 24 14:56:26 EST 2025
User: Yrep
Spectrometer: HR+D1059
Trigger mode: 5
Integration Time (sec): 3.000000E-3
Scans to average: 1
Electric dark correction enabled: true
Nonlinearity correction enabled: false
Boxcar width: 0
XAxis mode: Wavelengths
Number of Pixels in Spectrum: 2048
>>>>>Begin Spectral Data<<<<<
223.165	-21.31
223.4	-21.31
223.635	-21.31
223.869	-32.31
224.104	-27.31
224.338	-15.31
224.573	-3.31
224.808	-11.31
225.042	2.69
225.277	-1.31
225.511	-2.31
225.746	15.69
225.98	3.69
226.215	9.69
226.449	5.69
226.683	15.69
226.918	23.69
227.152	37.69
227.387	26.69
227.621	37.69
227.856	60.69
228.09	47.69
228.324	47.69
228.559	79.69
228.793	54.69
229.027	67.69
229.262	85.69
229.496	73.69
229.73	67.69
229.964	81.69
230.199	84.69
230.433	69.69
230.667	82.69
230.901	89.69
231.136	85.69
231.37	82.69
231.604	98.69
231.838	88.69
232.072	91.69
232.306	106.69
232.541	83.69
232.775	82.69
233.009	89.69
233.243	82.69
233.477	95.69
233.711	86.69
233.945	92.69
234.179	91.69
234.413	101.69
234.647	96.69
234.881	83.69
235.115	83.69
235.349	69.69
235.583	89.69
235.817	90.69
236.051	98.69
236.285	79.69
236.519	81.69
236.753	98.69
236.987	98.69
237.221	99.69
237.455	74.69
237.689	87.69
237.922	83.69
238.156	81.69
238.39	79.69
238.624	77.69
238.858	90.69
239.091	104.69
239.325	95.69
239.559	93.69
239.793	72.69
240.027	112.69
240.26	99.69
240.494	112.69
240.728	89.69
240.961	87.69
241.195	103.69
241.429	95.69
241.662	76.69
241.896	90.69
242.13	84.69
242.363	92.69
242.597	91.69
242.83	100.69
243.064	80.69
243.298	96.69
243.531	91.69
243.765	104.69
243.998	93.69
244.232	102.69
244.465	90.69
244.699	96.69
244.932	97.69
245.166	88.69
245.399	99.69
245.633	80.69
245.866	103.69
246.099	103.69
246.333	111.69
246.566	100.69
246.8	106.69
247.033	95.69
247.266	87.69
247.5	95.69
247.733	94.69
247.966	104.69
248.2	88.69
248.433	97.69
248.666	88.69
248.899	104.69
249.133	89.69
249.366	108.69
249.599	110.69
249.832	96.69
250.066	108.69
250.299	95.69
250.532	103.69
250.765	104.69
250.998	94.69
251.231	91.69
251.465	103.69
251.698	91.69
251.931	97.69
252.164	76.69
252.397	94.69
252.63	96.69
252.863	92.69
253.096	116.69
253.329	98.69
253.562	107.69
253.795	116.69
254.028	115.69
254.261	111.69
254.494	108.69
254.727	123.69
254.96	107.69
255.193	98.69
255.426	105.69
255.659	112.69
255.892	125.69
256.124	105.69
256.357	109.69
256.59	116.69
256.823	107.69
257.056	111.69
257.289	112.69
257.521	106.69
257.754	105.69
257.987	128.69
258.22	122.69
258.452	112.69
258.685	107.69
258.918	111.69
259.151	108.69
259.383	108.69
259.616	106.69
259.849	105.69
260.081	113.69
260.314	111.69
260.547	110.69
260.779	119.69
261.012	128.69
261.244	133.69
261.477	155.69
261.71	156.69
261.942	124.69
262.175	136.69
262.407	94.69
262.64	113.69
262.872	122.69
263.105	134.69
263.337	133.69
263.57	117.69
263.802	114.69
264.035	113.69
264.267	117.69
264.499	122.69
264.732	121.69
264.964	109.69
265.197	127.69
265.429	147.69
265.661	122.69
265.894	105.69
266.126	146.69
266.358	126.69
266.591	129.69
266.823	130.69
267.055	119.69
267.287	122.69
267.52	96.69
267.752	113.69
267.984	105.69
268.216	116.69
268.448	120.69
268.681	111.69
268.913	117.69
269.145	129.69
269.377	123.69
269.609	108.69
269.841	121.69
270.073	124.69
270.306	99.69
270.538	121.69
270.77	115.69
271.002	117.69
271.234	119.69
271.466	128.69
271.698	109.69
271.93	117.69
272.162	111.69
272.394	123.69
272.626	108.69
272.858	117.69
273.09	109.69
273.322	122.69
273.553	97.69
273.785	123.69
274.017	103.69
274.249	129.69
274.481	111.69
274.713	125.69
274.945	114.69
275.176	99.69
275.408	115.69
275.64	117.69
275.872	124.69
276.104	91.69
276.335	111.69
276.567	111.69
276.799	118.69
277.031	115.69
277.262	115.69
277.494	129.69
277.726	122.69
277.957	134.69
278.189	115.69
278.421	107.69
278.652	122.69
278.884	124.69
279.115	140.69
279.347	156.69
279.579	138.69
279.81	162.69
280.042	201.69
280.273	191.69
280.505	178.69
280.736	152.69
280.968	160.69
281.199	128.69
281.431	146.69
281.662	145.69
281.894	140.69
282.125	154.69
282.356	151.69
282.588	143.69
282.819	147.69
283.051	148.69
283.282	165.69
283.513	188.69
283.745	183.69
283.976	149.69
284.207	131.69
284.439	146.69
284.67	137.69
284.901	126.69
285.132	124.69
285.364	125.69
285.595	113.69
285.826	122.69
286.057	130.69
286.288	132.69
286.52	133.69
286.751	117.69
286.982	138.69
287.213	136.69
287.444	156.69
287.675	159.69
287.906	165.69
288.138	124.69
288.369	120.69
288.6	133.69
288.831	128.69
289.062	136.69
289.293	124.69
289.524	125.69
289.755	127.69
289.986	117.69
290.217	123.69
290.448	114.69
290.679	127.69
290.91	141.69
291.141	113.69
291.371	113.69
291.602	113.69
291.833	124.69
292.064	130.69
292.295	130.69
292.526	111.69
292.757	136.69
292.987	119.69
293.218	113.69
293.449	110.69
293.68	127.69
293.91	115.69
294.141	134.69
294.372	116.69
294.603	123.69
294.833	125.69
295.064	129.69
295.295	115.69
295.525	128.69
295.756	123.69
295.987	121.69
296.217	124.69
296.448	115.69
296.679	104.69
296.909	130.69
297.14	132.69
297.37	127.69
297.601	126.69
297.831	116.69
298.062	122.69
298.292	126.69
298.523	147.69
298.753	120.69
298.984	124.69
299.214	135.69
299.445	135.69
299.675	129.69
299.905	119.69
300.136	124.69
300.366	107.69
300.597	123.69
300.827	136.69
301.057	123.69
301.288	112.69
301.518	112.69
301.748	125.69
301.979	184.69
302.209	117.69
302.439	115.69
302.669	143.69
302.9	123.69
303.13	125.69
303.36	125.69
303.59	118.69
303.82	118.69
304.051	124.69
304.281	132.69
304.511	148.69
304.741	129.69
304.971	132.69
305.201	130.69
305.431	131.69
305.661	118.69
305.891	129.69
306.121	130.69
306.352	118.69
306.582	129.69
306.812	121.69
307.042	128.69
307.272	137.69
307.502	137.69
307.731	133.69
307.961	98.69
308.191	131.69
308.421	137.69
308.651	114.69
308.881	140.69
309.111	126.69
309.341	128.69
309.571	126.69
309.8	124.69
310.03	123.69
310.26	117.69
310.49	122.69
310.72	129.69
310.949	120.69
311.179	122.69
311.409	140.69
311.639	126.69
311.868	143.69
312.098	137.69
312.328	127.69
312.557	138.69
312.787	133.69
313.017	141.69
313.246	146.69
313.476	142.69
313.706	117.69
313.935	133.69
314.165	152.69
314.394	143.69
314.624	146.69
314.853	133.69
315.083	140.69
315.312	148.69
315.542	140.69
315.771	144.69
316.001	143.69
316.23	144.69
316.46	133.69
316.689	129.69
316.919	139.69
317.148	137.69
317.377	158.69
317.607	152.69
317.836	119.69
318.065	137.69
318.295	127.69
318.524	154.69
318.753	128.69
318.983	140.69
319.212	146.69
319.441	141.69
319.67	142.69
319.9	128.69
320.129	141.69
320.358	111.69
320.587	138.69
320.816	144.69
321.046	124.69
321.275	137.69
321.504	146.69
321.733	137.69
321.962	114.69
322.191	155.69
322.42	134.69
322.649	120.69
322.878	133.69
323.108	137.69
323.337	145.69
323.566	123.69
323.795	144.69
324.024	144.69
324.253	121.69
324.482	114.69
324.71	136.69
324.939	140.69
325.168	145.69
325.397	140.69
325.626	124.69
325.855	127.69
326.084	130.69
326.313	146.69
326.542	130.69
326.77	132.69
326.999	131.69
327.228	127.69
327.457	116.69
327.686	139.69
327.914	139.69
328.143	157.69
328.372	144.69
328.6	127.69
328.829	130.69
329.058	141.69
329.287	140.69
329.515	138.69
329.744	137.69
329.972	138.69
330.201	140.69
330.43	130.69
330.658	128.69
330.887	143.69
331.115	128.69
331.344	138.69
331.572	149.69
331.801	124.69
332.03	144.69
332.258	141.69
332.486	126.69
332.715	131.69
332.943	139.69
333.172	129.69
333.4	133.69
333.629	129.69
333.857	145.69
334.085	129.69
334.314	132.69
334.542	120.69
334.771	140.69
334.999	132.69
335.227	144.69
335.455	139.69
335.684	134.69
335.912	136.69
336.14	134.69
336.369	125.69
336.597	136.69
336.825	134.69
337.053	136.69
337.281	136.69
337.51	143.69
337.738	141.69
337.966	133.69
338.194	140.69
338.422	132.69
338.65	131.69
338.878	139.69
339.106	124.69
339.334	143.69
339.562	139.69
339.79	123.69
340.018	119.69
340.246	125.69
340.474	127.69
340.702	135.69
340.93	128.69
341.158	128.69
341.386	139.69
341.614	135.69
341.842	153.69
342.07	129.69
342.298	147.69
342.526	133.69
342.754	130.69
342.981	137.69
343.209	146.69
343.437	174.69
343.665	125.69
343.893	131.69
344.12	143.69
344.348	132.69
344.576	143.69
344.804	136.69
345.031	127.69
345.259	129.69
345.487	125.69
345.714	134.69
345.942	131.69
346.17	159.69
346.397	129.69
346.625	138.69
346.853	116.69
347.08	128.69
347.308	123.69
347.535	128.69
347.763	134.69
347.99	139.69
348.218	138.69
348.445	137.69
348.673	133.69
348.9	144.69
349.128	147.69
349.355	121.69
349.583	149.69
349.81	134.69
350.037	131.69
350.265	135.69
350.492	126.69
350.72	127.69
350.947	136.69
351.174	133.69
351.402	117.69
351.629	129.69
351.856	140.69
352.083	126.69
352.311	138.69
352.538	128.69
352.765	121.69
352.992	152.69
353.22	128.69
353.447	120.69
353.674	137.69
353.901	138.69
354.128	142.69
354.355	139.69
354.583	140.69
354.81	133.69
355.037	142.69
355.264	154.69
355.491	140.69
355.718	141.69
355.945	164.69
356.172	148.69
356.399	134.69
356.626	159.69
356.853	183.69
357.08	213.69
357.307	233.69
357.534	254.69
357.761	208.69
357.988	177.69
358.215	183.69
358.441	160.69
358.668	145.69
358.895	147.69
359.122	153.69
359.349	146.69
359.576	146.69
359.802	142.69
360.029	138.69
360.256	133.69
360.483	141.69
360.709	140.69
360.936	168.69
361.163	146.69
361.39	150.69
361.616	131.69
361.843	128.69
362.07	145.69
362.296	145.69
362.523	137.69
362.749	143.69
362.976	140.69
363.203	181.69
363.429	172.69
363.656	213.69
363.882	257.69
364.109	295.69
364.335	245.69
364.562	203.69
364.788	168.69
365.015	161.69
365.241	172.69
365.468	157.69
365.694	154.69
365.92	173.69
366.147	155.69
366.373	151.69
366.599	169.69
366.826	167.69
367.052	173.69
367.278	190.69
367.505	179.69
367.731	225.69
367.957	218.69
368.184	273.69
368.41	344.69
368.636	305.69
368.862	253.69
369.089	209.69
369.315	194.69
369.541	189.69
369.767	158.69
369.993	167.69
370.219	156.69
370.445	158.69
370.672	153.69
370.898	151.69
371.124	135.69
371.35	146.69
371.576	154.69
371.802	125.69
372.028	146.69
372.254	162.69
372.48	161.69
372.706	167.69
372.932	160.69
373.158	153.69
373.384	183.69
373.61	184.69
373.835	228.69
374.061	284.69
374.287	254.69
374.513	201.69
374.739	163.69
374.965	151.69
375.191	141.69
375.416	160.69
375.642	160.69
375.868	167.69
376.094	154.69
376.319	162.69
376.545	145.69
376.771	134.69
376.997	140.69
377.222	135.69
377.448	153.69
377.674	144.69
377.899	133.69
378.125	148.69
378.35	163.69
378.576	154.69
378.802	144.69
379.027	143.69
379.253	140.69
379.478	136.69
379.704	127.69
379.929	154.69
380.155	150.69
380.38	148.69
380.606	129.69
380.831	117.69
381.057	172.69
381.282	154.69
381.507	139.69
381.733	153.69
381.958	142.69
382.184	119.69
382.409	151.69
382.634	152.69
382.86	138.69
383.085	152.69
383.31	134.69
383.535	156.69
383.761	151.69
383.986	156.69
384.211	141.69
384.436	143.69
384.662	136.69
384.887	158.69
385.112	132.69
385.337	139.69
385.562	136.69
385.787	136.69
386.013	140.69
386.238	139.69
386.463	149.69
386.688	204.69
386.913	135.69
387.138	141.69
387.363	149.69
387.588	174.69
387.813	155.69
388.038	137.69
388.263	159.69
388.488	163.69
388.713	143.69
388.938	148.69
389.163	140.69
389.387	142.69
389.612	131.69
389.837	150.69
390.062	133.69
390.287	160.69
390.512	151.69
390.736	140.69
390.961	144.69
391.186	152.69
391.411	141.69
391.636	131.69
391.86	139.69
392.085	161.69
392.31	143.69
392.534	159.69
392.759	164.69
392.984	145.69
393.208	148.69
393.433	140.69
393.658	138.69
393.882	160.69
394.107	147.69
394.331	144.69
394.556	139.69
394.78	157.69
395.005	152.69
395.229	139.69
395.454	148.69
395.678	133.69
395.903	147.69
396.127	167.69
396.352	153.69
396.576	153.69
396.801	146.69
397.025	148.69
397.249	161.69
397.474	158.69
397.698	135.69
397.922	153.69
398.147	151.69
398.371	144.69
398.595	151.69
398.82	141.69
399.044	153.69
399.268	164.69
399.492	164.69
399.717	162.69
399.941	162.69
400.165	173.69
400.389	169.69
400.613	167.69
400.837	161.69
401.062	159.69
401.286	180.69
401.51	169.69
401.734	183.69
401.958	184.69
402.182	174.69
402.406	166.69
402.63	171.69
402.854	162.69
403.078	164.69
403.302	159.69
403.526	181.69
403.75	194.69
403.974	158.69
404.198	176.69
404.422	186.69
404.645	172.69
404.869	184.69
405.093	216.69
405.317	253.69
405.541	319.69
405.765	459.69
405.988	511.69
406.212	386.69
406.436	310.69
406.66	267.69
406.883	225.69
407.107	217.69
407.331	195.69
407.555	203.69
407.778	197.69
408.002	183.69
408.226	168.69
408.449	175.69
408.673	195.69
408.896	177.69
409.12	182.69
409.344	185.69
409.567	181.69
409.791	186.69
410.014	184.69
410.238	175.69
410.461	167.69
410.685	173.69
410.908	178.69
411.132	186.69
411.355	167.69
411.578	185.69
411.802	169.69
412.025	156.69
412.249	157.69
412.472	170.69
412.695	167.69
412.919	175.69
413.142	173.69
413.365	167.69
413.589	168.69
413.812	157.69
414.035	169.69
414.258	157.69
414.482	163.69
414.705	163.69
414.928	159.69
415.151	160.69
415.374	170.69
415.597	179.69
415.821	161.69
416.044	155.69
416.267	165.69
416.49	163.69
416.713	178.69
416.936	195.69
417.159	164.69
417.382	155.69
417.605	151.69
417.828	180.69
418.051	162.69
418.274	156.69
418.497	171.69
418.72	171.69
418.943	162.69
419.166	171.69
419.389	189.69
419.611	163.69
419.834	151.69
420.057	187.69
420.28	167.69
420.503	167.69
420.726	166.69
420.948	162.69
421.171	153.69
421.394	158.69
421.617	167.69
421.839	170.69
422.062	177.69
422.285	170.69
422.507	164.69
422.73	170.69
422.953	185.69
423.175	191.69
423.398	176.69
423.621	194.69
423.843	193.69
424.066	213.69
424.288	226.69
424.511	253.69
424.733	277.69
424.956	252.69
425.178	237.69
425.401	219.69
425.623	209.69
425.846	197.69
426.068	200.69
426.291	225.69
426.513	171.69
426.735	185.69
426.958	179.69
427.18	179.69
427.402	185.69
427.625	184.69
427.847	175.69
428.069	193.69
428.292	171.69
428.514	168.69
428.736	194.69
428.958	170.69
429.181	173.69
429.403	179.69
429.625	169.69
429.847	167.69
430.069	189.69
430.292	187.69
430.514	173.69
430.736	169.69
430.958	162.69
431.18	164.69
431.402	178.69
431.624	161.69
431.846	146.69
432.068	154.69
432.29	179.69
432.512	189.69
432.734	169.69
432.956	165.69
433.178	192.69
433.4	178.69
433.622	177.69
433.844	176.69
434.066	189.69
434.287	155.69
434.509	163.69
434.731	178.69
434.953	162.69
435.175	155.69
435.397	189.69
435.618	160.69
435.84	157.69
436.062	179.69
436.284	162.69
436.505	183.69
436.727	183.69
436.949	180.69
437.17	187.69
437.392	188.69
437.614	203.69
437.835	169.69
438.057	187.69
438.278	193.69
438.5	223.69
438.721	252.69
438.943	257.69
439.165	251.69
439.386	225.69
439.608	244.69
439.829	205.69
440.05	225.69
440.272	197.69
440.493	221.69
440.715	230.69
440.936	227.69
441.158	242.69
441.379	212.69
441.6	215.69
441.822	209.69
442.043	197.69
442.264	201.69
442.486	201.69
442.707	203.69
442.928	197.69
443.149	197.69
443.371	201.69
443.592	189.69
443.813	192.69
444.034	189.69
444.255	192.69
444.476	198.69
444.698	212.69
444.919	203.69
445.14	575.69
445.361	373.69
445.582	209.69
445.803	185.69
446.024	207.69
446.245	209.69
446.466	208.69
446.687	172.69
446.908	169.69
447.129	188.69
447.35	203.69
447.571	190.69
447.792	180.69
448.013	172.69
448.234	189.69
448.455	194.69
448.675	195.69
448.896	169.69
449.117	163.69
449.338	181.69
449.559	199.69
449.779	157.69
450	179.69
450.221	171.69
450.442	158.69
450.662	170.69
450.883	174.69
451.104	186.69
451.324	178.69
451.545	165.69
451.766	173.69
451.986	160.69
452.207	167.69
452.428	157.69
452.648	164.69
452.869	173.69
453.089	150.69
453.31	153.69
453.53	162.69
453.751	157.69
453.971	158.69
454.192	158.69
454.412	143.69
454.633	146.69
454.853	160.69
455.073	158.69
455.294	162.69
455.514	163.69
455.734	164.69
455.955	160.69
456.175	156.69
456.395	155.69
456.616	173.69
456.836	162.69
457.056	160.69
457.276	155.69
457.497	158.69
457.717	150.69
457.937	151.69
458.157	157.69
458.377	154.69
458.598	142.69
458.818	159.69
459.038	134.69
459.258	136.69
459.478	136.69
459.698	154.69
459.918	170.69
460.138	153.69
460.358	154.69
460.578	171.69
460.798	171.69
461.018	162.69
461.238	167.69
461.458	170.69
461.678	158.69
461.898	172.69
462.118	168.69
462.338	167.69
462.558	169.69
462.777	150.69
462.997	167.69
463.217	161.69
463.437	162.69
463.657	157.69
463.876	165.69
464.096	154.69
464.316	152.69
464.536	145.69
464.755	182.69
464.975	174.69
465.195	172.69
465.414	174.69
465.634	150.69
465.854	172.69
466.073	158.69
466.293	155.69
466.512	160.69
466.732	148.69
466.951	188.69
467.171	173.69
467.391	175.69
467.61	167.69
467.829	164.69
468.049	170.69
468.268	162.69
468.488	150.69
468.707	166.69
468.927	171.69
469.146	160.69
469.365	170.69
469.585	157.69
469.804	170.69
470.023	162.69
470.243	187.69
470.462	180.69
470.681	171.69
470.901	171.69
471.12	165.69
471.339	180.69
471.558	159.69
471.777	173.69
471.997	178.69
472.216	167.69
472.435	156.69
472.654	167.69
472.873	173.69
473.092	167.69
473.311	175.69
473.53	157.69
473.749	171.69
473.968	158.69
474.187	147.69
474.406	167.69
474.625	178.69
474.844	155.69
475.063	162.69
475.282	160.69
475.501	162.69
475.72	203.69
475.939	174.69
476.158	162.69
476.377	173.69
476.596	187.69
476.814	163.69
477.033	159.69
477.252	178.69
477.471	167.69
477.69	178.69
477.908	193.69
478.127	191.69
478.346	172.69
478.564	176.69
478.783	163.69
479.002	181.69
479.22	171.69
479.439	200.69
479.658	169.69
479.876	185.69
480.095	162.69
480.313	165.69
480.532	164.69
480.751	175.69
480.969	154.69
481.188	157.69
481.406	170.69
481.624	173.69
481.843	165.69
482.061	155.69
482.28	171.69
482.498	179.69
482.717	160.69
482.935	176.69
483.153	185.69
483.372	192.69
483.59	191.69
483.808	169.69
484.027	185.69
484.245	190.69
484.463	186.69
484.681	210.69
484.9	175.69
485.118	176.69
485.336	177.69
485.554	181.69
485.772	157.69
485.99	167.69
486.209	181.69
486.427	163.69
486.645	163.69
486.863	193.69
487.081	185.69
487.299	165.69
487.517	211.69
487.735	196.69
487.953	189.69
488.171	206.69
488.389	196.69
488.607	175.69
488.825	194.69
489.043	183.69
489.261	176.69
489.479	173.69
489.696	207.69
489.914	178.69
490.132	193.69
490.35	206.69
490.568	187.69
490.786	203.69
491.003	189.69
491.221	193.69
491.439	211.69
491.657	208.69
491.874	223.69
492.092	237.69
492.31	231.69
492.527	199.69
492.745	197.69
492.963	213.69
493.18	191.69
493.398	209.69
493.615	191.69
493.833	220.69
494.05	191.69
494.268	198.69
494.485	203.69
494.703	203.69
494.92	208.69
495.138	205.69
495.355	200.69
495.573	236.69
495.79	212.69
496.008	213.69
496.225	205.69
496.442	191.69
496.66	231.69
496.877	185.69
497.094	240.69
497.312	197.69
497.529	195.69
497.746	207.69
497.963	188.69
498.181	189.69
498.398	193.69
498.615	206.69
498.832	187.69
499.049	205.69
499.267	208.69
499.484	221.69
499.701	208.69
499.918	219.69
500.135	212.69
500.352	221.69
500.569	239.69
500.786	289.69
501.003	273.69
501.22	250.69
501.437	219.69
501.654	204.69
501.871	226.69
502.088	201.69
502.305	207.69
502.522	204.69
502.739	191.69
502.956	218.69
503.172	201.69
503.389	197.69
503.606	185.69
503.823	202.69
