Data from TenMicroDelayPb_HRD10591_00008.txt Node
Date: Mon Nov 24 14:56:14 EST 2025
User: Yrep
Spectrometer: HR+D1059
Trigger mode: 5
Integration Time (sec): 1.000000E-3
Scans to average: 1
Electric dark correction enabled: true
Nonlinearity correction enabled: false
Boxcar width: 0
XAxis mode: Wavelengths
Number of Pixels in Spectrum: 2048
>>>>>Begin Spectral Data<<<<<
223.165	-30.25
223.4	-30.25
223.635	-30.25
223.869	-15.25
224.104	-31.25
224.338	-12.25
224.573	-16.25
224.808	-6.25
225.042	-12.25
225.277	0.75
225.511	-9.25
225.746	14.75
225.98	13.75
226.215	11.75
226.449	5.75
226.683	20.75
226.918	37.75
227.152	27.75
227.387	34.75
227.621	42.75
227.856	48.75
228.09	45.75
228.324	52.75
228.559	61.75
228.793	48.75
229.027	79.75
229.262	79.75
229.496	81.75
229.73	79.75
229.964	93.75
230.199	79.75
230.433	75.75
230.667	95.75
230.901	83.75
231.136	85.75
231.37	89.75
231.604	69.75
231.838	84.75
232.072	92.75
232.306	99.75
232.541	89.75
232.775	95.75
233.009	76.75
233.243	98.75
233.477	84.75
233.711	83.75
233.945	83.75
234.179	87.75
234.413	91.75
234.647	84.75
234.881	81.75
235.115	88.75
235.349	86.75
235.583	87.75
235.817	72.75
236.051	83.75
236.285	84.75
236.519	98.75
236.753	95.75
236.987	99.75
237.221	94.75
237.455	92.75
237.689	86.75
237.922	77.75
238.156	88.75
238.39	89.75
238.624	93.75
238.858	91.75
239.091	93.75
239.325	107.75
239.559	111.75
239.793	83.75
240.027	105.75
240.26	99.75
240.494	77.75
240.728	93.75
240.961	95.75
241.195	89.75
241.429	91.75
241.662	103.75
241.896	90.75
242.13	94.75
242.363	85.75
242.597	95.75
242.83	103.75
243.064	91.75
243.298	85.75
243.531	86.75
243.765	99.75
243.998	98.75
244.232	103.75
244.465	110.75
244.699	100.75
244.932	103.75
245.166	107.75
245.399	101.75
245.633	96.75
245.866	87.75
246.099	83.75
246.333	89.75
246.566	105.75
246.8	96.75
247.033	100.75
247.266	95.75
247.5	83.75
247.733	98.75
247.966	95.75
248.2	93.75
248.433	98.75
248.666	88.75
248.899	105.75
249.133	102.75
249.366	119.75
249.599	85.75
249.832	83.75
250.066	96.75
250.299	104.75
250.532	113.75
250.765	94.75
250.998	93.75
251.231	102.75
251.465	103.75
251.698	88.75
251.931	98.75
252.164	112.75
252.397	119.75
252.63	111.75
252.863	115.75
253.096	116.75
253.329	115.75
253.562	126.75
253.795	107.75
254.028	113.75
254.261	111.75
254.494	98.75
254.727	104.75
254.96	111.75
255.193	116.75
255.426	104.75
255.659	104.75
255.892	125.75
256.124	111.75
256.357	111.75
256.59	112.75
256.823	108.75
257.056	123.75
257.289	100.75
257.521	108.75
257.754	111.75
257.987	114.75
258.22	124.75
258.452	120.75
258.685	112.75
258.918	97.75
259.151	101.75
259.383	128.75
259.616	116.75
259.849	114.75
260.081	124.75
260.314	103.75
260.547	131.75
260.779	131.75
261.012	137.75
261.244	143.75
261.477	182.75
261.71	146.75
261.942	137.75
262.175	142.75
262.407	119.75
262.64	111.75
262.872	125.75
263.105	120.75
263.337	142.75
263.57	123.75
263.802	122.75
264.035	113.75
264.267	99.75
264.499	120.75
264.732	133.75
264.964	120.75
265.197	137.75
265.429	121.75
265.661	133.75
265.894	122.75
266.126	144.75
266.358	143.75
266.591	140.75
266.823	129.75
267.055	122.75
267.287	129.75
267.52	126.75
267.752	121.75
267.984	108.75
268.216	115.75
268.448	118.75
268.681	112.75
268.913	111.75
269.145	115.75
269.377	109.75
269.609	116.75
269.841	129.75
270.073	137.75
270.306	112.75
270.538	116.75
270.77	110.75
271.002	103.75
271.234	124.75
271.466	115.75
271.698	117.75
271.93	111.75
272.162	102.75
272.394	124.75
272.626	118.75
272.858	105.75
273.09	129.75
273.322	112.75
273.553	108.75
273.785	123.75
274.017	101.75
274.249	124.75
274.481	113.75
274.713	124.75
274.945	118.75
275.176	116.75
275.408	121.75
275.64	126.75
275.872	118.75
276.104	110.75
276.335	114.75
276.567	120.75
276.799	122.75
277.031	116.75
277.262	118.75
277.494	130.75
277.726	113.75
277.957	129.75
278.189	131.75
278.421	122.75
278.652	126.75
278.884	138.75
279.115	130.75
279.347	148.75
279.579	153.75
279.81	171.75
280.042	197.75
280.273	211.75
280.505	192.75
280.736	165.75
280.968	147.75
281.199	145.75
281.431	132.75
281.662	147.75
281.894	153.75
282.125	143.75
282.356	146.75
282.588	180.75
282.819	144.75
283.051	158.75
283.282	176.75
283.513	201.75
283.745	204.75
283.976	140.75
284.207	145.75
284.439	147.75
284.67	156.75
284.901	132.75
285.132	121.75
285.364	126.75
285.595	122.75
285.826	126.75
286.057	136.75
286.288	127.75
286.52	153.75
286.751	143.75
286.982	164.75
287.213	163.75
287.444	202.75
287.675	151.75
287.906	142.75
288.138	130.75
288.369	125.75
288.6	140.75
288.831	113.75
289.062	128.75
289.293	146.75
289.524	113.75
289.755	134.75
289.986	119.75
290.217	133.75
290.448	117.75
290.679	121.75
290.91	131.75
291.141	130.75
291.371	127.75
291.602	133.75
291.833	105.75
292.064	125.75
292.295	116.75
292.526	129.75
292.757	119.75
292.987	133.75
293.218	127.75
293.449	125.75
293.68	122.75
293.91	113.75
294.141	142.75
294.372	125.75
294.603	124.75
294.833	136.75
295.064	124.75
295.295	109.75
295.525	126.75
295.756	131.75
295.987	126.75
296.217	123.75
296.448	124.75
296.679	128.75
296.909	137.75
297.14	139.75
297.37	136.75
297.601	130.75
297.831	115.75
298.062	127.75
298.292	141.75
298.523	123.75
298.753	117.75
298.984	136.75
299.214	137.75
299.445	130.75
299.675	148.75
299.905	147.75
300.136	131.75
300.366	129.75
300.597	143.75
300.827	133.75
301.057	128.75
301.288	115.75
301.518	129.75
301.748	122.75
301.979	174.75
302.209	125.75
302.439	121.75
302.669	119.75
302.9	124.75
303.13	127.75
303.36	119.75
303.59	144.75
303.82	135.75
304.051	117.75
304.281	132.75
304.511	134.75
304.741	146.75
304.971	134.75
305.201	130.75
305.431	119.75
305.661	141.75
305.891	133.75
306.121	134.75
306.352	132.75
306.582	124.75
306.812	128.75
307.042	132.75
307.272	128.75
307.502	144.75
307.731	147.75
307.961	128.75
308.191	131.75
308.421	127.75
308.651	127.75
308.881	138.75
309.111	121.75
309.341	119.75
309.571	123.75
309.8	132.75
310.03	144.75
310.26	135.75
310.49	142.75
310.72	129.75
310.949	131.75
311.179	140.75
311.409	127.75
311.639	138.75
311.868	131.75
312.098	139.75
312.328	136.75
312.557	137.75
312.787	118.75
313.017	137.75
313.246	144.75
313.476	130.75
313.706	149.75
313.935	150.75
314.165	142.75
314.394	150.75
314.624	147.75
314.853	151.75
315.083	160.75
315.312	155.75
315.542	147.75
315.771	159.75
316.001	150.75
316.23	155.75
316.46	159.75
316.689	151.75
316.919	152.75
317.148	127.75
317.377	144.75
317.607	140.75
317.836	142.75
318.065	144.75
318.295	145.75
318.524	119.75
318.753	144.75
318.983	137.75
319.212	150.75
319.441	127.75
319.67	139.75
319.9	147.75
320.129	156.75
320.358	135.75
320.587	136.75
320.816	122.75
321.046	132.75
321.275	165.75
321.504	142.75
321.733	134.75
321.962	138.75
322.191	139.75
322.42	136.75
322.649	143.75
322.878	151.75
323.108	144.75
323.337	151.75
323.566	125.75
323.795	156.75
324.024	141.75
324.253	129.75
324.482	139.75
324.71	140.75
324.939	144.75
325.168	156.75
325.397	140.75
325.626	138.75
325.855	140.75
326.084	143.75
326.313	134.75
326.542	118.75
326.77	151.75
326.999	128.75
327.228	142.75
327.457	133.75
327.686	160.75
327.914	125.75
328.143	146.75
328.372	132.75
328.6	142.75
328.829	116.75
329.058	132.75
329.287	136.75
329.515	124.75
329.744	154.75
329.972	149.75
330.201	143.75
330.43	145.75
330.658	138.75
330.887	148.75
331.115	136.75
331.344	140.75
331.572	162.75
331.801	128.75
332.03	129.75
332.258	132.75
332.486	128.75
332.715	146.75
332.943	135.75
333.172	146.75
333.4	146.75
333.629	134.75
333.857	140.75
334.085	132.75
334.314	155.75
334.542	133.75
334.771	140.75
334.999	153.75
335.227	125.75
335.455	121.75
335.684	144.75
335.912	152.75
336.14	140.75
336.369	139.75
336.597	144.75
336.825	133.75
337.053	130.75
337.281	155.75
337.51	140.75
337.738	127.75
337.966	125.75
338.194	131.75
338.422	146.75
338.65	141.75
338.878	144.75
339.106	137.75
339.334	142.75
339.562	133.75
339.79	140.75
340.018	131.75
340.246	130.75
340.474	130.75
340.702	128.75
340.93	139.75
341.158	128.75
341.386	129.75
341.614	128.75
341.842	153.75
342.07	151.75
342.298	145.75
342.526	133.75
342.754	113.75
342.981	140.75
343.209	129.75
343.437	194.75
343.665	130.75
343.893	138.75
344.12	135.75
344.348	133.75
344.576	148.75
344.804	145.75
345.031	145.75
345.259	140.75
345.487	141.75
345.714	124.75
345.942	127.75
346.17	133.75
346.397	152.75
346.625	133.75
346.853	139.75
347.08	137.75
347.308	141.75
347.535	124.75
347.763	124.75
347.99	142.75
348.218	154.75
348.445	134.75
348.673	133.75
348.9	139.75
349.128	150.75
349.355	132.75
349.583	138.75
349.81	140.75
350.037	144.75
350.265	140.75
350.492	145.75
350.72	137.75
350.947	136.75
351.174	133.75
351.402	116.75
351.629	125.75
351.856	139.75
352.083	135.75
352.311	132.75
352.538	123.75
352.765	155.75
352.992	161.75
353.22	147.75
353.447	141.75
353.674	151.75
353.901	143.75
354.128	136.75
354.355	125.75
354.583	128.75
354.81	141.75
355.037	141.75
355.264	145.75
355.491	130.75
355.718	135.75
355.945	124.75
356.172	147.75
356.399	151.75
356.626	160.75
356.853	194.75
357.08	208.75
357.307	249.75
357.534	243.75
357.761	226.75
357.988	195.75
358.215	189.75
358.441	160.75
358.668	183.75
358.895	169.75
359.122	147.75
359.349	149.75
359.576	152.75
359.802	153.75
360.029	154.75
360.256	158.75
360.483	148.75
360.709	132.75
360.936	161.75
361.163	138.75
361.39	140.75
361.616	145.75
361.843	160.75
362.07	157.75
362.296	156.75
362.523	156.75
362.749	136.75
362.976	168.75
363.203	185.75
363.429	160.75
363.656	201.75
363.882	283.75
364.109	314.75
364.335	269.75
364.562	188.75
364.788	192.75
365.015	169.75
365.241	166.75
365.468	168.75
365.694	162.75
365.92	163.75
366.147	161.75
366.373	152.75
366.599	155.75
366.826	176.75
367.052	196.75
367.278	206.75
367.505	195.75
367.731	222.75
367.957	224.75
368.184	302.75
368.41	356.75
368.636	328.75
368.862	270.75
369.089	194.75
369.315	207.75
369.541	192.75
369.767	185.75
369.993	156.75
370.219	161.75
370.445	158.75
370.672	149.75
370.898	154.75
371.124	152.75
371.35	144.75
371.576	146.75
371.802	146.75
372.028	146.75
372.254	153.75
372.48	142.75
372.706	138.75
372.932	154.75
373.158	158.75
373.384	174.75
373.61	194.75
373.835	239.75
374.061	268.75
374.287	251.75
374.513	196.75
374.739	183.75
374.965	179.75
375.191	157.75
375.416	160.75
375.642	170.75
375.868	164.75
376.094	151.75
376.319	144.75
376.545	142.75
376.771	138.75
376.997	161.75
377.222	151.75
377.448	148.75
377.674	152.75
377.899	169.75
378.125	152.75
378.35	139.75
378.576	159.75
378.802	146.75
379.027	138.75
379.253	152.75
379.478	145.75
379.704	142.75
379.929	152.75
380.155	138.75
380.38	142.75
380.606	147.75
380.831	127.75
381.057	180.75
381.282	150.75
381.507	153.75
381.733	157.75
381.958	153.75
382.184	132.75
382.409	137.75
382.634	148.75
382.86	141.75
383.085	150.75
383.31	150.75
383.535	148.75
383.761	138.75
383.986	137.75
384.211	164.75
384.436	140.75
384.662	140.75
384.887	154.75
385.112	140.75
385.337	160.75
385.562	161.75
385.787	159.75
386.013	156.75
386.238	149.75
386.463	155.75
386.688	216.75
386.913	148.75
387.138	154.75
387.363	157.75
387.588	168.75
387.813	139.75
388.038	152.75
388.263	152.75
388.488	141.75
388.713	139.75
388.938	155.75
389.163	146.75
389.387	154.75
389.612	136.75
389.837	125.75
390.062	142.75
390.287	151.75
390.512	162.75
390.736	150.75
390.961	133.75
391.186	137.75
391.411	146.75
391.636	158.75
391.86	146.75
392.085	154.75
392.31	144.75
392.534	172.75
392.759	168.75
392.984	161.75
393.208	148.75
393.433	158.75
393.658	157.75
393.882	158.75
394.107	154.75
394.331	148.75
394.556	145.75
394.78	150.75
395.005	161.75
395.229	143.75
395.454	152.75
395.678	140.75
395.903	164.75
396.127	183.75
396.352	157.75
396.576	165.75
396.801	154.75
397.025	146.75
397.249	151.75
397.474	167.75
397.698	164.75
397.922	149.75
398.147	156.75
398.371	153.75
398.595	171.75
398.82	169.75
399.044	154.75
399.268	164.75
399.492	162.75
399.717	180.75
399.941	169.75
400.165	167.75
400.389	160.75
400.613	168.75
400.837	178.75
401.062	184.75
401.286	174.75
401.51	187.75
401.734	191.75
401.958	204.75
402.182	185.75
402.406	171.75
402.63	164.75
402.854	164.75
403.078	172.75
403.302	174.75
403.526	175.75
403.75	158.75
403.974	173.75
404.198	158.75
404.422	179.75
404.645	215.75
404.869	194.75
405.093	235.75
405.317	267.75
405.541	336.75
405.765	479.75
405.988	537.75
406.212	433.75
406.436	332.75
406.66	271.75
406.883	246.75
407.107	220.75
407.331	204.75
407.555	201.75
407.778	203.75
408.002	204.75
408.226	205.75
408.449	197.75
408.673	185.75
408.896	172.75
409.12	169.75
409.344	171.75
409.567	168.75
409.791	173.75
410.014	191.75
410.238	185.75
410.461	183.75
410.685	174.75
410.908	178.75
411.132	183.75
411.355	163.75
411.578	172.75
411.802	171.75
412.025	165.75
412.249	177.75
412.472	181.75
412.695	170.75
412.919	171.75
413.142	180.75
413.365	166.75
413.589	177.75
413.812	156.75
414.035	185.75
414.258	171.75
414.482	161.75
414.705	167.75
414.928	167.75
415.151	178.75
415.374	172.75
415.597	177.75
415.821	169.75
416.044	168.75
416.267	162.75
416.49	191.75
416.713	176.75
416.936	192.75
417.159	184.75
417.382	168.75
417.605	148.75
417.828	182.75
418.051	159.75
418.274	176.75
418.497	154.75
418.72	179.75
418.943	185.75
419.166	188.75
419.389	176.75
419.611	193.75
419.834	171.75
420.057	181.75
420.28	185.75
420.503	169.75
420.726	158.75
420.948	183.75
421.171	175.75
421.394	189.75
421.617	175.75
421.839	178.75
422.062	165.75
422.285	187.75
422.507	181.75
422.73	175.75
422.953	164.75
423.175	181.75
423.398	198.75
423.621	192.75
423.843	197.75
424.066	223.75
424.288	254.75
424.511	264.75
424.733	295.75
424.956	267.75
425.178	252.75
425.401	229.75
425.623	218.75
425.846	210.75
426.068	193.75
426.291	202.75
426.513	196.75
426.735	202.75
426.958	189.75
427.18	185.75
427.402	204.75
427.625	189.75
427.847	174.75
428.069	179.75
428.292	173.75
428.514	197.75
428.736	189.75
428.958	193.75
429.181	183.75
429.403	179.75
429.625	160.75
429.847	193.75
430.069	171.75
430.292	183.75
430.514	181.75
430.736	168.75
430.958	192.75
431.18	160.75
431.402	174.75
431.624	172.75
431.846	171.75
432.068	171.75
432.29	162.75
432.512	195.75
432.734	170.75
432.956	165.75
433.178	187.75
433.4	175.75
433.622	196.75
433.844	184.75
434.066	180.75
434.287	169.75
434.509	176.75
434.731	177.75
434.953	195.75
435.175	178.75
435.397	191.75
435.618	181.75
435.84	181.75
436.062	188.75
436.284	183.75
436.505	191.75
436.727	211.75
436.949	184.75
437.17	205.75
437.392	176.75
437.614	186.75
437.835	189.75
438.057	194.75
438.278	197.75
438.5	226.75
438.721	264.75
438.943	264.75
439.165	272.75
439.386	241.75
439.608	249.75
439.829	238.75
440.05	229.75
440.272	217.75
440.493	226.75
440.715	229.75
440.936	252.75
441.158	229.75
441.379	213.75
441.6	215.75
441.822	198.75
442.043	205.75
442.264	207.75
442.486	228.75
442.707	199.75
442.928	201.75
443.149	186.75
443.371	224.75
443.592	190.75
443.813	193.75
444.034	190.75
444.255	206.75
444.476	195.75
444.698	192.75
444.919	183.75
445.14	488.75
445.361	355.75
445.582	198.75
445.803	189.75
446.024	203.75
446.245	214.75
446.466	208.75
446.687	189.75
446.908	186.75
447.129	213.75
447.35	204.75
447.571	204.75
447.792	198.75
448.013	188.75
448.234	197.75
448.455	176.75
448.675	171.75
448.896	160.75
449.117	177.75
449.338	176.75
449.559	179.75
449.779	163.75
450	168.75
450.221	159.75
450.442	197.75
450.662	183.75
450.883	191.75
451.104	186.75
451.324	165.75
451.545	168.75
451.766	178.75
451.986	162.75
452.207	177.75
452.428	169.75
452.648	173.75
452.869	179.75
453.089	183.75
453.31	162.75
453.53	162.75
453.751	157.75
453.971	155.75
454.192	152.75
454.412	148.75
454.633	180.75
454.853	169.75
455.073	172.75
455.294	166.75
455.514	170.75
455.734	156.75
455.955	170.75
456.175	170.75
456.395	162.75
456.616	167.75
456.836	163.75
457.056	193.75
457.276	148.75
457.497	169.75
457.717	175.75
457.937	173.75
458.157	161.75
458.377	156.75
458.598	159.75
458.818	156.75
459.038	150.75
459.258	155.75
459.478	156.75
459.698	161.75
459.918	161.75
460.138	154.75
460.358	163.75
460.578	179.75
460.798	180.75
461.018	169.75
461.238	173.75
461.458	172.75
461.678	170.75
461.898	176.75
462.118	162.75
462.338	169.75
462.558	147.75
462.777	171.75
462.997	160.75
463.217	167.75
463.437	172.75
463.657	156.75
463.876	173.75
464.096	173.75
464.316	156.75
464.536	157.75
464.755	187.75
464.975	151.75
465.195	172.75
465.414	170.75
465.634	164.75
465.854	149.75
466.073	167.75
466.293	171.75
466.512	171.75
466.732	179.75
466.951	174.75
467.171	174.75
467.391	157.75
467.61	169.75
467.829	156.75
468.049	184.75
468.268	171.75
468.488	167.75
468.707	161.75
468.927	182.75
469.146	153.75
469.365	158.75
469.585	195.75
469.804	183.75
470.023	175.75
470.243	180.75
470.462	173.75
470.681	183.75
470.901	171.75
471.12	169.75
471.339	187.75
471.558	182.75
471.777	184.75
471.997	190.75
472.216	172.75
472.435	167.75
472.654	167.75
472.873	172.75
473.092	178.75
473.311	159.75
473.53	169.75
473.749	183.75
473.968	191.75
474.187	156.75
474.406	172.75
474.625	173.75
474.844	187.75
475.063	175.75
475.282	176.75
475.501	168.75
475.72	188.75
475.939	161.75
476.158	183.75
476.377	175.75
476.596	178.75
476.814	176.75
477.033	159.75
477.252	188.75
477.471	176.75
477.69	184.75
477.908	186.75
478.127	189.75
478.346	180.75
478.564	182.75
478.783	177.75
479.002	200.75
479.22	186.75
479.439	198.75
479.658	167.75
479.876	172.75
480.095	169.75
480.313	193.75
480.532	188.75
480.751	170.75
480.969	154.75
481.188	175.75
481.406	172.75
481.624	159.75
481.843	154.75
482.061	155.75
482.28	182.75
482.498	184.75
482.717	168.75
482.935	191.75
483.153	196.75
483.372	205.75
483.59	187.75
483.808	186.75
484.027	186.75
484.245	185.75
484.463	179.75
484.681	198.75
484.9	167.75
485.118	187.75
485.336	169.75
485.554	176.75
485.772	169.75
485.99	175.75
486.209	180.75
486.427	186.75
486.645	185.75
486.863	196.75
487.081	163.75
487.299	171.75
487.517	197.75
487.735	209.75
487.953	218.75
488.171	228.75
488.389	206.75
488.607	210.75
488.825	185.75
489.043	174.75
489.261	210.75
489.479	190.75
489.696	201.75
489.914	188.75
490.132	192.75
490.35	189.75
490.568	200.75
490.786	203.75
491.003	201.75
491.221	196.75
491.439	198.75
491.657	201.75
491.874	224.75
492.092	221.75
492.31	239.75
492.527	220.75
492.745	219.75
492.963	233.75
493.18	207.75
493.398	217.75
493.615	195.75
493.833	197.75
494.05	193.75
494.268	218.75
494.485	191.75
494.703	220.75
494.92	209.75
495.138	197.75
495.355	210.75
495.573	222.75
495.79	198.75
496.008	211.75
496.225	206.75
496.442	199.75
496.66	237.75
496.877	207.75
497.094	210.75
497.312	215.75
497.529	213.75
497.746	216.75
497.963	210.75
498.181	195.75
498.398	221.75
498.615	195.75
498.832	194.75
499.049	198.75
499.267	208.75
499.484	208.75
499.701	232.75
499.918	239.75
500.135	238.75
500.352	239.75
500.569	262.75
500.786	279.75
501.003	268.75
501.22	241.75
501.437	236.75
501.654	211.75
501.871	240.75
502.088	223.75
502.305	207.75
502.522	222.75
502.739	209.75
502.956	221.75
503.172	226.75
503.389	217.75
503.606	212.75
