Data from TenMicroDelayPb_HRD10591_00020.txt Node
Date: Mon Nov 24 14:56:28 EST 2025
User: Yrep
Spectrometer: HR+D1059
Trigger mode: 5
Integration Time (sec): 3.000000E-3
Scans to average: 1
Electric dark correction enabled: true
Nonlinearity correction enabled: false
Boxcar width: 0
XAxis mode: Wavelengths
Number of Pixels in Spectrum: 2048
>>>>>Begin Spectral Data<<<<<
223.165	-16.19
223.4	-16.19
223.635	-16.19
223.869	-29.19
224.104	-31.19
224.338	-18.19
224.573	-20.19
224.808	-7.19
225.042	-6.19
225.277	-1.19
225.511	5.81
225.746	3.81
225.98	3.81
226.215	-4.19
226.449	8.81
226.683	32.81
226.918	36.81
227.152	41.81
227.387	38.81
227.621	35.81
227.856	60.81
228.09	48.81
228.324	39.81
228.559	68.81
228.793	71.81
229.027	74.81
229.262	78.81
229.496	74.81
229.73	75.81
229.964	99.81
230.199	69.81
230.433	73.81
230.667	90.81
230.901	78.81
231.136	91.81
231.37	99.81
231.604	90.81
231.838	85.81
232.072	71.81
232.306	85.81
232.541	78.81
232.775	83.81
233.009	102.81
233.243	91.81
233.477	99.81
233.711	91.81
233.945	89.81
234.179	91.81
234.413	103.81
234.647	80.81
234.881	96.81
235.115	74.81
235.349	83.81
235.583	83.81
235.817	94.81
236.051	97.81
236.285	82.81
236.519	87.81
236.753	84.81
236.987	84.81
237.221	80.81
237.455	79.81
237.689	90.81
237.922	82.81
238.156	87.81
238.39	98.81
238.624	99.81
238.858	96.81
239.091	87.81
239.325	92.81
239.559	105.81
239.793	106.81
240.027	99.81
240.26	97.81
240.494	90.81
240.728	72.81
240.961	90.81
241.195	103.81
241.429	106.81
241.662	93.81
241.896	99.81
242.13	68.81
242.363	73.81
242.597	96.81
242.83	91.81
243.064	96.81
243.298	88.81
243.531	91.81
243.765	73.81
243.998	87.81
244.232	94.81
244.465	88.81
244.699	99.81
244.932	110.81
245.166	84.81
245.399	79.81
245.633	87.81
245.866	97.81
246.099	90.81
246.333	85.81
246.566	90.81
246.8	110.81
247.033	82.81
247.266	86.81
247.5	91.81
247.733	88.81
247.966	97.81
248.2	106.81
248.433	82.81
248.666	88.81
248.899	91.81
249.133	93.81
249.366	105.81
249.599	102.81
249.832	89.81
250.066	111.81
250.299	97.81
250.532	122.81
250.765	94.81
250.998	98.81
251.231	100.81
251.465	96.81
251.698	91.81
251.931	98.81
252.164	103.81
252.397	90.81
252.63	110.81
252.863	98.81
253.096	115.81
253.329	114.81
253.562	107.81
253.795	113.81
254.028	112.81
254.261	112.81
254.494	89.81
254.727	126.81
254.96	99.81
255.193	114.81
255.426	120.81
255.659	106.81
255.892	110.81
256.124	115.81
256.357	128.81
256.59	126.81
256.823	107.81
257.056	112.81
257.289	114.81
257.521	118.81
257.754	98.81
257.987	104.81
258.22	121.81
258.452	113.81
258.685	111.81
258.918	99.81
259.151	108.81
259.383	120.81
259.616	119.81
259.849	103.81
260.081	118.81
260.314	98.81
260.547	114.81
260.779	108.81
261.012	131.81
261.244	143.81
261.477	172.81
261.71	146.81
261.942	131.81
262.175	107.81
262.407	110.81
262.64	106.81
262.872	121.81
263.105	116.81
263.337	139.81
263.57	119.81
263.802	119.81
264.035	123.81
264.267	105.81
264.499	122.81
264.732	129.81
264.964	134.81
265.197	126.81
265.429	116.81
265.661	119.81
265.894	120.81
266.126	111.81
266.358	127.81
266.591	130.81
266.823	125.81
267.055	124.81
267.287	121.81
267.52	100.81
267.752	116.81
267.984	103.81
268.216	101.81
268.448	127.81
268.681	116.81
268.913	118.81
269.145	107.81
269.377	116.81
269.609	108.81
269.841	115.81
270.073	120.81
270.306	110.81
270.538	120.81
270.77	112.81
271.002	115.81
271.234	125.81
271.466	123.81
271.698	101.81
271.93	125.81
272.162	108.81
272.394	128.81
272.626	121.81
272.858	113.81
273.09	109.81
273.322	104.81
273.553	116.81
273.785	108.81
274.017	111.81
274.249	115.81
274.481	85.81
274.713	109.81
274.945	123.81
275.176	121.81
275.408	131.81
275.64	126.81
275.872	122.81
276.104	112.81
276.335	110.81
276.567	117.81
276.799	108.81
277.031	94.81
277.262	113.81
277.494	126.81
277.726	122.81
277.957	117.81
278.189	110.81
278.421	111.81
278.652	112.81
278.884	116.81
279.115	140.81
279.347	138.81
279.579	157.81
279.81	151.81
280.042	189.81
280.273	207.81
280.505	196.81
280.736	155.81
280.968	160.81
281.199	148.81
281.431	140.81
281.662	129.81
281.894	155.81
282.125	148.81
282.356	139.81
282.588	141.81
282.819	138.81
283.051	147.81
283.282	179.81
283.513	170.81
283.745	168.81
283.976	151.81
284.207	140.81
284.439	139.81
284.67	137.81
284.901	132.81
285.132	126.81
285.364	126.81
285.595	133.81
285.826	131.81
286.057	135.81
286.288	122.81
286.52	145.81
286.751	131.81
286.982	131.81
287.213	161.81
287.444	171.81
287.675	164.81
287.906	138.81
288.138	137.81
288.369	131.81
288.6	134.81
288.831	116.81
289.062	136.81
289.293	124.81
289.524	112.81
289.755	147.81
289.986	109.81
290.217	122.81
290.448	123.81
290.679	124.81
290.91	129.81
291.141	107.81
291.371	124.81
291.602	130.81
291.833	127.81
292.064	132.81
292.295	124.81
292.526	124.81
292.757	121.81
292.987	116.81
293.218	113.81
293.449	130.81
293.68	122.81
293.91	123.81
294.141	137.81
294.372	118.81
294.603	129.81
294.833	121.81
295.064	132.81
295.295	111.81
295.525	124.81
295.756	114.81
295.987	133.81
296.217	120.81
296.448	118.81
296.679	134.81
296.909	131.81
297.14	118.81
297.37	130.81
297.601	129.81
297.831	126.81
298.062	122.81
298.292	132.81
298.523	127.81
298.753	107.81
298.984	115.81
299.214	120.81
299.445	119.81
299.675	128.81
299.905	132.81
300.136	111.81
300.366	127.81
300.597	135.81
300.827	115.81
301.057	121.81
301.288	132.81
301.518	122.81
301.748	134.81
301.979	182.81
302.209	131.81
302.439	118.81
302.669	123.81
302.9	140.81
303.13	127.81
303.36	132.81
303.59	115.81
303.82	135.81
304.051	134.81
304.281	130.81
304.511	132.81
304.741	123.81
304.971	112.81
305.201	144.81
305.431	130.81
305.661	132.81
305.891	125.81
306.121	124.81
306.352	122.81
306.582	114.81
306.812	140.81
307.042	130.81
307.272	119.81
307.502	121.81
307.731	146.81
307.961	126.81
308.191	119.81
308.421	125.81
308.651	125.81
308.881	136.81
309.111	131.81
309.341	125.81
309.571	127.81
309.8	114.81
310.03	121.81
310.26	116.81
310.49	139.81
310.72	136.81
310.949	133.81
311.179	123.81
311.409	114.81
311.639	135.81
311.868	132.81
312.098	132.81
312.328	129.81
312.557	147.81
312.787	112.81
313.017	141.81
313.246	122.81
313.476	137.81
313.706	142.81
313.935	147.81
314.165	136.81
314.394	143.81
314.624	157.81
314.853	163.81
315.083	158.81
315.312	161.81
315.542	129.81
315.771	145.81
316.001	130.81
316.23	135.81
316.46	138.81
316.689	130.81
316.919	145.81
317.148	141.81
317.377	151.81
317.607	126.81
317.836	134.81
318.065	143.81
318.295	150.81
318.524	134.81
318.753	146.81
318.983	140.81
319.212	149.81
319.441	131.81
319.67	135.81
319.9	144.81
320.129	127.81
320.358	126.81
320.587	135.81
320.816	125.81
321.046	137.81
321.275	140.81
321.504	122.81
321.733	140.81
321.962	133.81
322.191	126.81
322.42	131.81
322.649	136.81
322.878	139.81
323.108	139.81
323.337	128.81
323.566	126.81
323.795	145.81
324.024	145.81
324.253	134.81
324.482	114.81
324.71	132.81
324.939	146.81
325.168	128.81
325.397	132.81
325.626	139.81
325.855	128.81
326.084	136.81
326.313	129.81
326.542	128.81
326.77	139.81
326.999	144.81
327.228	129.81
327.457	132.81
327.686	135.81
327.914	139.81
328.143	147.81
328.372	141.81
328.6	129.81
328.829	132.81
329.058	124.81
329.287	130.81
329.515	152.81
329.744	160.81
329.972	122.81
330.201	119.81
330.43	144.81
330.658	116.81
330.887	142.81
331.115	130.81
331.344	131.81
331.572	157.81
331.801	129.81
332.03	131.81
332.258	136.81
332.486	143.81
332.715	145.81
332.943	133.81
333.172	123.81
333.4	136.81
333.629	131.81
333.857	120.81
334.085	135.81
334.314	135.81
334.542	128.81
334.771	143.81
334.999	123.81
335.227	143.81
335.455	127.81
335.684	132.81
335.912	142.81
336.14	121.81
336.369	127.81
336.597	141.81
336.825	132.81
337.053	136.81
337.281	120.81
337.51	142.81
337.738	153.81
337.966	131.81
338.194	114.81
338.422	129.81
338.65	134.81
338.878	146.81
339.106	139.81
339.334	144.81
339.562	132.81
339.79	130.81
340.018	128.81
340.246	133.81
340.474	127.81
340.702	135.81
340.93	127.81
341.158	116.81
341.386	127.81
341.614	137.81
341.842	130.81
342.07	123.81
342.298	131.81
342.526	137.81
342.754	136.81
342.981	123.81
343.209	123.81
343.437	182.81
343.665	128.81
343.893	142.81
344.12	150.81
344.348	123.81
344.576	135.81
344.804	132.81
345.031	122.81
345.259	140.81
345.487	145.81
345.714	119.81
345.942	148.81
346.17	141.81
346.397	129.81
346.625	129.81
346.853	128.81
347.08	135.81
347.308	137.81
347.535	129.81
347.763	119.81
347.99	136.81
348.218	136.81
348.445	131.81
348.673	120.81
348.9	151.81
349.128	147.81
349.355	131.81
349.583	133.81
349.81	134.81
350.037	130.81
350.265	151.81
350.492	117.81
350.72	121.81
350.947	124.81
351.174	151.81
351.402	137.81
351.629	144.81
351.856	152.81
352.083	148.81
352.311	137.81
352.538	136.81
352.765	143.81
352.992	167.81
353.22	146.81
353.447	118.81
353.674	138.81
353.901	142.81
354.128	136.81
354.355	135.81
354.583	130.81
354.81	140.81
355.037	135.81
355.264	143.81
355.491	150.81
355.718	147.81
355.945	151.81
356.172	152.81
356.399	146.81
356.626	147.81
356.853	184.81
357.08	214.81
357.307	248.81
357.534	268.81
357.761	227.81
357.988	193.81
358.215	177.81
358.441	152.81
358.668	160.81
358.895	153.81
359.122	155.81
359.349	155.81
359.576	153.81
359.802	144.81
360.029	143.81
360.256	137.81
360.483	130.81
360.709	135.81
360.936	166.81
361.163	156.81
361.39	147.81
361.616	133.81
361.843	155.81
362.07	160.81
362.296	150.81
362.523	147.81
362.749	168.81
362.976	148.81
363.203	188.81
363.429	168.81
363.656	213.81
363.882	267.81
364.109	300.81
364.335	227.81
364.562	200.81
364.788	183.81
365.015	172.81
365.241	171.81
365.468	156.81
365.694	159.81
365.92	170.81
366.147	151.81
366.373	147.81
366.599	154.81
366.826	167.81
367.052	195.81
367.278	195.81
367.505	191.81
367.731	216.81
367.957	224.81
368.184	275.81
368.41	345.81
368.636	323.81
368.862	256.81
369.089	220.81
369.315	197.81
369.541	185.81
369.767	183.81
369.993	163.81
370.219	145.81
370.445	143.81
370.672	142.81
370.898	146.81
371.124	147.81
371.35	152.81
371.576	166.81
371.802	154.81
372.028	166.81
372.254	156.81
372.48	137.81
372.706	149.81
372.932	148.81
373.158	159.81
373.384	162.81
373.61	183.81
373.835	232.81
374.061	274.81
374.287	264.81
374.513	221.81
374.739	167.81
374.965	157.81
375.191	152.81
375.416	148.81
375.642	160.81
375.868	169.81
376.094	166.81
376.319	143.81
376.545	123.81
376.771	133.81
376.997	126.81
377.222	137.81
377.448	135.81
377.674	139.81
377.899	155.81
378.125	144.81
378.35	158.81
378.576	141.81
378.802	142.81
379.027	143.81
379.253	157.81
379.478	138.81
379.704	131.81
379.929	143.81
380.155	134.81
380.38	136.81
380.606	135.81
380.831	140.81
381.057	160.81
381.282	146.81
381.507	142.81
381.733	155.81
381.958	131.81
382.184	131.81
382.409	140.81
382.634	160.81
382.86	146.81
383.085	143.81
383.31	125.81
383.535	151.81
383.761	143.81
383.986	145.81
384.211	140.81
384.436	147.81
384.662	144.81
384.887	145.81
385.112	125.81
385.337	156.81
385.562	139.81
385.787	145.81
386.013	150.81
386.238	146.81
386.463	132.81
386.688	185.81
386.913	157.81
387.138	133.81
387.363	156.81
387.588	146.81
387.813	152.81
388.038	142.81
388.263	175.81
388.488	144.81
388.713	147.81
388.938	135.81
389.163	138.81
389.387	148.81
389.612	146.81
389.837	143.81
390.062	152.81
390.287	142.81
390.512	156.81
390.736	130.81
390.961	130.81
391.186	134.81
391.411	141.81
391.636	145.81
391.86	146.81
392.085	170.81
392.31	151.81
392.534	132.81
392.759	152.81
392.984	170.81
393.208	153.81
393.433	138.81
393.658	132.81
393.882	153.81
394.107	172.81
394.331	144.81
394.556	151.81
394.78	149.81
395.005	146.81
395.229	159.81
395.454	150.81
395.678	124.81
395.903	166.81
396.127	157.81
396.352	157.81
396.576	148.81
396.801	150.81
397.025	155.81
397.249	152.81
397.474	170.81
397.698	144.81
397.922	164.81
398.147	137.81
398.371	152.81
398.595	160.81
398.82	162.81
399.044	161.81
399.268	169.81
399.492	155.81
399.717	163.81
399.941	153.81
400.165	166.81
400.389	180.81
400.613	168.81
400.837	152.81
401.062	154.81
401.286	153.81
401.51	166.81
401.734	180.81
401.958	192.81
402.182	191.81
402.406	171.81
402.63	162.81
402.854	179.81
403.078	176.81
403.302	161.81
403.526	170.81
403.75	175.81
403.974	171.81
404.198	161.81
404.422	192.81
404.645	201.81
404.869	196.81
405.093	216.81
405.317	244.81
405.541	326.81
405.765	446.81
405.988	476.81
406.212	403.81
406.436	305.81
406.66	262.81
406.883	224.81
407.107	216.81
407.331	206.81
407.555	202.81
407.778	198.81
408.002	182.81
408.226	184.81
408.449	176.81
408.673	174.81
408.896	168.81
409.12	185.81
409.344	188.81
409.567	171.81
409.791	174.81
410.014	161.81
410.238	171.81
410.461	182.81
410.685	189.81
410.908	173.81
411.132	176.81
411.355	158.81
411.578	184.81
411.802	176.81
412.025	174.81
412.249	184.81
412.472	162.81
412.695	174.81
412.919	170.81
413.142	155.81
413.365	174.81
413.589	155.81
413.812	181.81
414.035	184.81
414.258	163.81
414.482	160.81
414.705	172.81
414.928	170.81
415.151	161.81
415.374	159.81
415.597	156.81
415.821	171.81
416.044	174.81
416.267	188.81
416.49	188.81
416.713	176.81
416.936	173.81
417.159	174.81
417.382	167.81
417.605	154.81
417.828	161.81
418.051	156.81
418.274	174.81
418.497	169.81
418.72	153.81
418.943	159.81
419.166	180.81
419.389	178.81
419.611	174.81
419.834	175.81
420.057	202.81
420.28	166.81
420.503	174.81
420.726	175.81
420.948	163.81
421.171	153.81
421.394	158.81
421.617	168.81
421.839	162.81
422.062	178.81
422.285	170.81
422.507	179.81
422.73	184.81
422.953	180.81
423.175	190.81
423.398	182.81
423.621	203.81
423.843	213.81
424.066	219.81
424.288	255.81
424.511	250.81
424.733	262.81
424.956	246.81
425.178	247.81
425.401	211.81
425.623	218.81
425.846	215.81
426.068	184.81
426.291	196.81
426.513	187.81
426.735	188.81
426.958	185.81
427.18	198.81
427.402	169.81
427.625	168.81
427.847	179.81
428.069	184.81
428.292	171.81
428.514	181.81
428.736	167.81
428.958	178.81
429.181	162.81
429.403	166.81
429.625	178.81
429.847	171.81
430.069	184.81
430.292	201.81
430.514	167.81
430.736	166.81
430.958	189.81
431.18	183.81
431.402	163.81
431.624	167.81
431.846	158.81
432.068	159.81
432.29	169.81
432.512	149.81
432.734	162.81
432.956	175.81
433.178	202.81
433.4	193.81
433.622	193.81
433.844	200.81
434.066	187.81
434.287	168.81
434.509	164.81
434.731	176.81
434.953	166.81
435.175	202.81
435.397	173.81
435.618	165.81
435.84	158.81
436.062	168.81
436.284	174.81
436.505	194.81
436.727	177.81
436.949	179.81
437.17	199.81
437.392	172.81
437.614	191.81
437.835	189.81
438.057	195.81
438.278	210.81
438.5	242.81
438.721	241.81
438.943	270.81
439.165	244.81
439.386	228.81
439.608	234.81
439.829	210.81
440.05	218.81
440.272	223.81
440.493	209.81
440.715	216.81
440.936	244.81
441.158	239.81
441.379	210.81
441.6	209.81
441.822	207.81
442.043	206.81
442.264	198.81
442.486	197.81
442.707	195.81
442.928	204.81
443.149	210.81
443.371	204.81
443.592	188.81
443.813	187.81
444.034	195.81
444.255	197.81
444.476	182.81
444.698	205.81
444.919	189.81
445.14	509.81
445.361	351.81
445.582	185.81
445.803	176.81
446.024	206.81
446.245	203.81
446.466	204.81
446.687	210.81
446.908	191.81
447.129	185.81
447.35	193.81
447.571	197.81
447.792	184.81
448.013	184.81
448.234	182.81
448.455	188.81
448.675	173.81
448.896	171.81
449.117	174.81
449.338	190.81
449.559	188.81
449.779	161.81
450	171.81
450.221	173.81
450.442	172.81
450.662	193.81
450.883	168.81
451.104	170.81
451.324	176.81
451.545	165.81
451.766	170.81
451.986	157.81
452.207	172.81
452.428	183.81
452.648	168.81
452.869	158.81
453.089	161.81
453.31	152.81
453.53	142.81
453.751	168.81
453.971	187.81
454.192	148.81
454.412	146.81
454.633	156.81
454.853	162.81
455.073	152.81
455.294	158.81
455.514	169.81
455.734	168.81
455.955	160.81
456.175	158.81
456.395	166.81
456.616	185.81
456.836	153.81
457.056	168.81
457.276	149.81
457.497	139.81
457.717	163.81
457.937	147.81
458.157	145.81
458.377	146.81
458.598	152.81
458.818	143.81
459.038	156.81
459.258	160.81
459.478	139.81
459.698	149.81
459.918	162.81
460.138	152.81
460.358	157.81
460.578	186.81
460.798	168.81
461.018	162.81
461.238	164.81
461.458	162.81
461.678	161.81
461.898	192.81
462.118	163.81
462.338	166.81
462.558	166.81
462.777	168.81
462.997	160.81
463.217	153.81
463.437	169.81
463.657	166.81
463.876	168.81
464.096	164.81
464.316	156.81
464.536	170.81
464.755	167.81
464.975	156.81
465.195	174.81
465.414	163.81
465.634	157.81
465.854	165.81
466.073	166.81
466.293	155.81
466.512	158.81
466.732	153.81
466.951	166.81
467.171	177.81
467.391	159.81
467.61	165.81
467.829	172.81
468.049	180.81
468.268	168.81
468.488	163.81
468.707	177.81
468.927	153.81
469.146	172.81
469.365	182.81
469.585	175.81
469.804	187.81
470.023	182.81
470.243	159.81
470.462	168.81
470.681	173.81
470.901	169.81
471.12	186.81
471.339	167.81
471.558	147.81
471.777	184.81
471.997	178.81
472.216	156.81
472.435	145.81
472.654	157.81
472.873	174.81
473.092	174.81
473.311	160.81
473.53	156.81
473.749	167.81
473.968	191.81
474.187	174.81
474.406	155.81
474.625	164.81
474.844	175.81
475.063	154.81
475.282	157.81
475.501	161.81
475.72	179.81
475.939	166.81
476.158	183.81
476.377	174.81
476.596	161.81
476.814	160.81
477.033	178.81
477.252	170.81
477.471	188.81
477.69	175.81
477.908	178.81
478.127	192.81
478.346	177.81
478.564	181.81
478.783	182.81
479.002	186.81
479.22	177.81
479.439	188.81
479.658	184.81
479.876	154.81
480.095	157.81
480.313	170.81
480.532	180.81
480.751	162.81
480.969	152.81
481.188	171.81
481.406	188.81
481.624	170.81
481.843	177.81
482.061	170.81
482.28	162.81
482.498	182.81
482.717	156.81
482.935	169.81
483.153	183.81
483.372	189.81
483.59	178.81
483.808	172.81
484.027	174.81
484.245	187.81
484.463	188.81
484.681	207.81
484.9	191.81
485.118	190.81
485.336	177.81
485.554	167.81
485.772	173.81
485.99	160.81
486.209	173.81
486.427	166.81
486.645	187.81
486.863	204.81
487.081	189.81
487.299	170.81
487.517	187.81
487.735	196.81
487.953	208.81
488.171	197.81
488.389	192.81
488.607	195.81
488.825	182.81
489.043	200.81
489.261	193.81
489.479	192.81
489.696	189.81
489.914	169.81
490.132	188.81
490.35	203.81
490.568	200.81
490.786	214.81
491.003	205.81
491.221	209.81
491.439	200.81
491.657	194.81
491.874	207.81
492.092	237.81
492.31	225.81
492.527	211.81
492.745	206.81
492.963	218.81
493.18	232.81
493.398	203.81
493.615	207.81
493.833	193.81
494.05	196.81
494.268	208.81
494.485	214.81
494.703	210.81
494.92	222.81
495.138	205.81
495.355	221.81
495.573	217.81
495.79	190.81
496.008	210.81
496.225	219.81
496.442	210.81
496.66	228.81
496.877	195.81
497.094	201.81
497.312	190.81
497.529	205.81
497.746	216.81
497.963	185.81
498.181	198.81
498.398	202.81
498.615	211.81
498.832	196.81
499.049	204.81
499.267	199.81
499.484	203.81
499.701	225.81
499.918	224.81
500.135	231.81
500.352	234.81
500.569	266.81
500.786	290.81
501.003	251.81
501.22	234.81
501.437	232.81
501.654	211.81
501.871	206.81
502.088	206.81
502.305	229.81
502.522	215.81
502.739	212.81
502.956	202.81
503.172	190.81
503.389	192.81
503.606	187.81
503.823	189.81
