Data from TenMicroDelayPb_HRD10591_00006.txt Node
Date: Mon Nov 24 14:56:13 EST 2025
User: Yrep
Spectrometer: HR+D1059
Trigger mode: 5
Integration Time (sec): 1.000000E-3
Scans to average: 1
Electric dark correction enabled: true
Nonlinearity correction enabled: false
Boxcar width: 0
XAxis mode: Wavelengths
Number of Pixels in Spectrum: 2048
>>>>>Begin Spectral Data<<<<<
223.165	-24.88
223.4	-24.88
223.635	-24.88
223.869	-23.88
224.104	-28.88
224.338	0.12
224.573	-14.88
224.808	-5.88
225.042	-10.88
225.277	-5.88
225.511	-18.88
225.746	14.12
225.98	-3.88
226.215	10.12
226.449	23.12
226.683	21.12
226.918	28.12
227.152	41.12
227.387	50.12
227.621	56.12
227.856	59.12
228.09	49.12
228.324	42.12
228.559	59.12
228.793	65.12
229.027	81.12
229.262	70.12
229.496	74.12
229.73	79.12
229.964	100.12
230.199	77.12
230.433	75.12
230.667	84.12
230.901	68.12
231.136	72.12
231.37	90.12
231.604	73.12
231.838	87.12
232.072	84.12
232.306	88.12
232.541	91.12
232.775	103.12
233.009	91.12
233.243	99.12
233.477	96.12
233.711	82.12
233.945	81.12
234.179	94.12
234.413	102.12
234.647	90.12
234.881	95.12
235.115	91.12
235.349	81.12
235.583	102.12
235.817	94.12
236.051	87.12
236.285	87.12
236.519	91.12
236.753	84.12
236.987	85.12
237.221	90.12
237.455	100.12
237.689	82.12
237.922	74.12
238.156	80.12
238.39	79.12
238.624	84.12
238.858	86.12
239.091	100.12
239.325	81.12
239.559	97.12
239.793	96.12
240.027	108.12
240.26	86.12
240.494	97.12
240.728	89.12
240.961	81.12
241.195	79.12
241.429	76.12
241.662	68.12
241.896	78.12
242.13	93.12
242.363	79.12
242.597	75.12
242.83	82.12
243.064	86.12
243.298	97.12
243.531	82.12
243.765	93.12
243.998	88.12
244.232	110.12
244.465	99.12
244.699	88.12
244.932	89.12
245.166	107.12
245.399	102.12
245.633	104.12
245.866	92.12
246.099	91.12
246.333	96.12
246.566	90.12
246.8	88.12
247.033	95.12
247.266	84.12
247.5	91.12
247.733	102.12
247.966	99.12
248.2	113.12
248.433	90.12
248.666	85.12
248.899	83.12
249.133	90.12
249.366	126.12
249.599	106.12
249.832	90.12
250.066	119.12
250.299	107.12
250.532	96.12
250.765	86.12
250.998	81.12
251.231	95.12
251.465	94.12
251.698	96.12
251.931	102.12
252.164	88.12
252.397	101.12
252.63	109.12
252.863	112.12
253.096	101.12
253.329	98.12
253.562	122.12
253.795	121.12
254.028	106.12
254.261	106.12
254.494	106.12
254.727	107.12
254.96	102.12
255.193	110.12
255.426	106.12
255.659	104.12
255.892	131.12
256.124	106.12
256.357	127.12
256.59	127.12
256.823	107.12
257.056	105.12
257.289	117.12
257.521	107.12
257.754	118.12
257.987	106.12
258.22	122.12
258.452	116.12
258.685	102.12
258.918	95.12
259.151	113.12
259.383	132.12
259.616	118.12
259.849	119.12
260.081	126.12
260.314	121.12
260.547	111.12
260.779	131.12
261.012	129.12
261.244	148.12
261.477	155.12
261.71	149.12
261.942	131.12
262.175	127.12
262.407	123.12
262.64	128.12
262.872	126.12
263.105	109.12
263.337	128.12
263.57	117.12
263.802	122.12
264.035	122.12
264.267	139.12
264.499	113.12
264.732	134.12
264.964	124.12
265.197	130.12
265.429	132.12
265.661	127.12
265.894	136.12
266.126	132.12
266.358	122.12
266.591	143.12
266.823	128.12
267.055	117.12
267.287	119.12
267.52	111.12
267.752	131.12
267.984	118.12
268.216	114.12
268.448	123.12
268.681	121.12
268.913	115.12
269.145	107.12
269.377	118.12
269.609	115.12
269.841	112.12
270.073	120.12
270.306	113.12
270.538	105.12
270.77	118.12
271.002	107.12
271.234	116.12
271.466	134.12
271.698	116.12
271.93	112.12
272.162	114.12
272.394	125.12
272.626	116.12
272.858	120.12
273.09	114.12
273.322	124.12
273.553	114.12
273.785	115.12
274.017	113.12
274.249	98.12
274.481	112.12
274.713	113.12
274.945	124.12
275.176	105.12
275.408	122.12
275.64	122.12
275.872	104.12
276.104	124.12
276.335	111.12
276.567	106.12
276.799	112.12
277.031	118.12
277.262	119.12
277.494	148.12
277.726	124.12
277.957	136.12
278.189	114.12
278.421	120.12
278.652	140.12
278.884	155.12
279.115	155.12
279.347	140.12
279.579	152.12
279.81	169.12
280.042	194.12
280.273	204.12
280.505	193.12
280.736	169.12
280.968	143.12
281.199	150.12
281.431	156.12
281.662	146.12
281.894	170.12
282.125	153.12
282.356	162.12
282.588	164.12
282.819	157.12
283.051	142.12
283.282	154.12
283.513	200.12
283.745	169.12
283.976	157.12
284.207	159.12
284.439	136.12
284.67	146.12
284.901	141.12
285.132	123.12
285.364	134.12
285.595	132.12
285.826	119.12
286.057	138.12
286.288	123.12
286.52	140.12
286.751	140.12
286.982	152.12
287.213	166.12
287.444	162.12
287.675	147.12
287.906	136.12
288.138	128.12
288.369	130.12
288.6	121.12
288.831	129.12
289.062	131.12
289.293	122.12
289.524	125.12
289.755	125.12
289.986	129.12
290.217	124.12
290.448	120.12
290.679	127.12
290.91	132.12
291.141	128.12
291.371	110.12
291.602	128.12
291.833	132.12
292.064	137.12
292.295	120.12
292.526	122.12
292.757	117.12
292.987	110.12
293.218	124.12
293.449	127.12
293.68	151.12
293.91	135.12
294.141	142.12
294.372	134.12
294.603	137.12
294.833	127.12
295.064	129.12
295.295	123.12
295.525	132.12
295.756	127.12
295.987	122.12
296.217	129.12
296.448	130.12
296.679	116.12
296.909	133.12
297.14	139.12
297.37	128.12
297.601	128.12
297.831	115.12
298.062	144.12
298.292	138.12
298.523	120.12
298.753	127.12
298.984	127.12
299.214	131.12
299.445	127.12
299.675	120.12
299.905	137.12
300.136	136.12
300.366	121.12
300.597	129.12
300.827	112.12
301.057	128.12
301.288	140.12
301.518	122.12
301.748	138.12
301.979	198.12
302.209	135.12
302.439	128.12
302.669	118.12
302.9	128.12
303.13	140.12
303.36	122.12
303.59	143.12
303.82	139.12
304.051	137.12
304.281	139.12
304.511	145.12
304.741	142.12
304.971	136.12
305.201	133.12
305.431	130.12
305.661	136.12
305.891	132.12
306.121	141.12
306.352	120.12
306.582	129.12
306.812	123.12
307.042	138.12
307.272	131.12
307.502	126.12
307.731	133.12
307.961	134.12
308.191	130.12
308.421	138.12
308.651	127.12
308.881	125.12
309.111	123.12
309.341	129.12
309.571	131.12
309.8	122.12
310.03	123.12
310.26	121.12
310.49	125.12
310.72	124.12
310.949	128.12
311.179	111.12
311.409	136.12
311.639	120.12
311.868	134.12
312.098	130.12
312.328	147.12
312.557	138.12
312.787	130.12
313.017	134.12
313.246	143.12
313.476	138.12
313.706	160.12
313.935	126.12
314.165	146.12
314.394	141.12
314.624	146.12
314.853	148.12
315.083	151.12
315.312	147.12
315.542	143.12
315.771	159.12
316.001	136.12
316.23	152.12
316.46	146.12
316.689	135.12
316.919	149.12
317.148	136.12
317.377	162.12
317.607	146.12
317.836	143.12
318.065	145.12
318.295	133.12
318.524	141.12
318.753	137.12
318.983	110.12
319.212	137.12
319.441	142.12
319.67	154.12
319.9	155.12
320.129	147.12
320.358	150.12
320.587	143.12
320.816	145.12
321.046	128.12
321.275	155.12
321.504	137.12
321.733	137.12
321.962	144.12
322.191	134.12
322.42	128.12
322.649	133.12
322.878	151.12
323.108	123.12
323.337	135.12
323.566	132.12
323.795	134.12
324.024	149.12
324.253	119.12
324.482	138.12
324.71	142.12
324.939	149.12
325.168	145.12
325.397	136.12
325.626	135.12
325.855	135.12
326.084	136.12
326.313	148.12
326.542	145.12
326.77	147.12
326.999	150.12
327.228	136.12
327.457	131.12
327.686	142.12
327.914	144.12
328.143	131.12
328.372	136.12
328.6	124.12
328.829	148.12
329.058	134.12
329.287	142.12
329.515	134.12
329.744	143.12
329.972	136.12
330.201	132.12
330.43	143.12
330.658	124.12
330.887	122.12
331.115	131.12
331.344	132.12
331.572	142.12
331.801	128.12
332.03	140.12
332.258	144.12
332.486	137.12
332.715	143.12
332.943	148.12
333.172	150.12
333.4	128.12
333.629	141.12
333.857	151.12
334.085	136.12
334.314	129.12
334.542	134.12
334.771	137.12
334.999	150.12
335.227	145.12
335.455	141.12
335.684	146.12
335.912	143.12
336.14	131.12
336.369	131.12
336.597	147.12
336.825	130.12
337.053	138.12
337.281	141.12
337.51	126.12
337.738	144.12
337.966	125.12
338.194	139.12
338.422	139.12
338.65	136.12
338.878	147.12
339.106	149.12
339.334	162.12
339.562	131.12
339.79	136.12
340.018	131.12
340.246	141.12
340.474	130.12
340.702	129.12
340.93	136.12
341.158	145.12
341.386	138.12
341.614	130.12
341.842	141.12
342.07	124.12
342.298	130.12
342.526	137.12
342.754	131.12
342.981	130.12
343.209	138.12
343.437	182.12
343.665	139.12
343.893	133.12
344.12	131.12
344.348	142.12
344.576	131.12
344.804	146.12
345.031	150.12
345.259	138.12
345.487	137.12
345.714	135.12
345.942	124.12
346.17	145.12
346.397	148.12
346.625	156.12
346.853	134.12
347.08	148.12
347.308	125.12
347.535	131.12
347.763	134.12
347.99	138.12
348.218	139.12
348.445	125.12
348.673	145.12
348.9	146.12
349.128	152.12
349.355	135.12
349.583	144.12
349.81	148.12
350.037	142.12
350.265	160.12
350.492	134.12
350.72	129.12
350.947	135.12
351.174	134.12
351.402	129.12
351.629	134.12
351.856	139.12
352.083	120.12
352.311	146.12
352.538	130.12
352.765	149.12
352.992	179.12
353.22	156.12
353.447	139.12
353.674	139.12
353.901	141.12
354.128	144.12
354.355	132.12
354.583	144.12
354.81	158.12
355.037	152.12
355.264	138.12
355.491	128.12
355.718	139.12
355.945	144.12
356.172	153.12
356.399	146.12
356.626	155.12
356.853	172.12
357.08	213.12
357.307	254.12
357.534	259.12
357.761	227.12
357.988	186.12
358.215	188.12
358.441	171.12
358.668	153.12
358.895	161.12
359.122	159.12
359.349	155.12
359.576	150.12
359.802	160.12
360.029	142.12
360.256	146.12
360.483	144.12
360.709	147.12
360.936	174.12
361.163	158.12
361.39	149.12
361.616	145.12
361.843	170.12
362.07	158.12
362.296	147.12
362.523	151.12
362.749	146.12
362.976	144.12
363.203	191.12
363.429	178.12
363.656	219.12
363.882	246.12
364.109	296.12
364.335	252.12
364.562	202.12
364.788	191.12
365.015	172.12
365.241	175.12
365.468	168.12
365.694	163.12
365.92	161.12
366.147	149.12
366.373	160.12
366.599	145.12
366.826	153.12
367.052	190.12
367.278	212.12
367.505	195.12
367.731	224.12
367.957	222.12
368.184	280.12
368.41	319.12
368.636	324.12
368.862	239.12
369.089	202.12
369.315	167.12
369.541	183.12
369.767	179.12
369.993	176.12
370.219	149.12
370.445	152.12
370.672	153.12
370.898	147.12
371.124	149.12
371.35	157.12
371.576	142.12
371.802	154.12
372.028	152.12
372.254	142.12
372.48	151.12
372.706	150.12
372.932	162.12
373.158	171.12
373.384	172.12
373.61	198.12
373.835	218.12
374.061	280.12
374.287	255.12
374.513	200.12
374.739	192.12
374.965	179.12
375.191	158.12
375.416	174.12
375.642	173.12
375.868	179.12
376.094	144.12
376.319	143.12
376.545	156.12
376.771	148.12
376.997	153.12
377.222	146.12
377.448	154.12
377.674	170.12
377.899	153.12
378.125	143.12
378.35	157.12
378.576	133.12
378.802	151.12
379.027	147.12
379.253	155.12
379.478	155.12
379.704	162.12
379.929	145.12
380.155	134.12
380.38	152.12
380.606	147.12
380.831	154.12
381.057	163.12
381.282	156.12
381.507	138.12
381.733	132.12
381.958	144.12
382.184	125.12
382.409	141.12
382.634	135.12
382.86	144.12
383.085	146.12
383.31	127.12
383.535	142.12
383.761	155.12
383.986	136.12
384.211	150.12
384.436	154.12
384.662	152.12
384.887	139.12
385.112	138.12
385.337	161.12
385.562	143.12
385.787	148.12
386.013	150.12
386.238	135.12
386.463	151.12
386.688	194.12
386.913	155.12
387.138	153.12
387.363	142.12
387.588	156.12
387.813	158.12
388.038	147.12
388.263	159.12
388.488	134.12
388.713	149.12
388.938	159.12
389.163	142.12
389.387	157.12
389.612	131.12
389.837	158.12
390.062	148.12
390.287	138.12
390.512	148.12
390.736	155.12
390.961	143.12
391.186	147.12
391.411	155.12
391.636	159.12
391.86	152.12
392.085	141.12
392.31	137.12
392.534	155.12
392.759	159.12
392.984	164.12
393.208	155.12
393.433	147.12
393.658	160.12
393.882	135.12
394.107	151.12
394.331	170.12
394.556	147.12
394.78	150.12
395.005	147.12
395.229	148.12
395.454	138.12
395.678	143.12
395.903	169.12
396.127	169.12
396.352	139.12
396.576	147.12
396.801	138.12
397.025	159.12
397.249	169.12
397.474	186.12
397.698	150.12
397.922	157.12
398.147	170.12
398.371	154.12
398.595	161.12
398.82	155.12
399.044	153.12
399.268	163.12
399.492	163.12
399.717	167.12
399.941	165.12
400.165	171.12
400.389	161.12
400.613	156.12
400.837	164.12
401.062	166.12
401.286	175.12
401.51	184.12
401.734	187.12
401.958	188.12
402.182	177.12
402.406	163.12
402.63	182.12
402.854	178.12
403.078	176.12
403.302	173.12
403.526	184.12
403.75	164.12
403.974	183.12
404.198	174.12
404.422	192.12
404.645	186.12
404.869	222.12
405.093	211.12
405.317	253.12
405.541	346.12
405.765	447.12
405.988	498.12
406.212	381.12
406.436	308.12
406.66	283.12
406.883	242.12
407.107	227.12
407.331	209.12
407.555	202.12
407.778	204.12
408.002	196.12
408.226	182.12
408.449	187.12
408.673	185.12
408.896	190.12
409.12	184.12
409.344	195.12
409.567	184.12
409.791	191.12
410.014	187.12
410.238	172.12
410.461	182.12
410.685	184.12
410.908	157.12
411.132	200.12
411.355	167.12
411.578	178.12
411.802	168.12
412.025	163.12
412.249	166.12
412.472	154.12
412.695	159.12
412.919	166.12
413.142	170.12
413.365	180.12
413.589	167.12
413.812	160.12
414.035	176.12
414.258	175.12
414.482	168.12
414.705	151.12
414.928	169.12
415.151	163.12
415.374	163.12
415.597	164.12
415.821	160.12
416.044	159.12
416.267	156.12
416.49	167.12
416.713	184.12
416.936	202.12
417.159	167.12
417.382	167.12
417.605	170.12
417.828	177.12
418.051	183.12
418.274	166.12
418.497	184.12
418.72	160.12
418.943	180.12
419.166	174.12
419.389	182.12
419.611	178.12
419.834	172.12
420.057	175.12
420.28	173.12
420.503	168.12
420.726	157.12
420.948	161.12
421.171	158.12
421.394	160.12
421.617	168.12
421.839	162.12
422.062	202.12
422.285	178.12
422.507	169.12
422.73	186.12
422.953	179.12
423.175	188.12
423.398	206.12
423.621	208.12
423.843	202.12
424.066	232.12
424.288	235.12
424.511	267.12
424.733	290.12
424.956	265.12
425.178	259.12
425.401	235.12
425.623	245.12
425.846	212.12
426.068	197.12
426.291	186.12
426.513	203.12
426.735	210.12
426.958	218.12
427.18	196.12
427.402	185.12
427.625	195.12
427.847	189.12
428.069	199.12
428.292	178.12
428.514	186.12
428.736	176.12
428.958	189.12
429.181	184.12
429.403	184.12
429.625	195.12
429.847	174.12
430.069	172.12
430.292	187.12
430.514	168.12
430.736	176.12
430.958	169.12
431.18	162.12
431.402	182.12
431.624	161.12
431.846	155.12
432.068	164.12
432.29	167.12
432.512	188.12
432.734	177.12
432.956	184.12
433.178	190.12
433.4	179.12
433.622	185.12
433.844	193.12
434.066	182.12
434.287	182.12
434.509	178.12
434.731	177.12
434.953	183.12
435.175	176.12
435.397	189.12
435.618	176.12
435.84	176.12
436.062	168.12
436.284	196.12
436.505	202.12
436.727	169.12
436.949	175.12
437.17	178.12
437.392	189.12
437.614	184.12
437.835	188.12
438.057	194.12
438.278	205.12
438.5	223.12
438.721	243.12
438.943	275.12
439.165	257.12
439.386	249.12
439.608	245.12
439.829	210.12
440.05	223.12
440.272	236.12
440.493	230.12
440.715	238.12
440.936	241.12
441.158	239.12
441.379	225.12
441.6	223.12
441.822	217.12
442.043	214.12
442.264	205.12
442.486	196.12
442.707	200.12
442.928	192.12
443.149	180.12
443.371	211.12
443.592	186.12
443.813	190.12
444.034	188.12
444.255	182.12
444.476	190.12
444.698	196.12
444.919	186.12
445.14	490.12
445.361	337.12
445.582	205.12
445.803	181.12
446.024	196.12
446.245	218.12
446.466	197.12
446.687	188.12
446.908	214.12
447.129	201.12
447.35	209.12
447.571	172.12
447.792	180.12
448.013	183.12
448.234	187.12
448.455	178.12
448.675	196.12
448.896	179.12
449.117	193.12
449.338	163.12
449.559	194.12
449.779	167.12
450	174.12
450.221	186.12
450.442	160.12
450.662	191.12
450.883	192.12
451.104	184.12
451.324	177.12
451.545	171.12
451.766	170.12
451.986	167.12
452.207	172.12
452.428	156.12
452.648	170.12
452.869	163.12
453.089	151.12
453.31	167.12
453.53	163.12
453.751	180.12
453.971	164.12
454.192	170.12
454.412	160.12
454.633	159.12
454.853	182.12
455.073	159.12
455.294	170.12
455.514	179.12
455.734	163.12
455.955	176.12
456.175	159.12
456.395	162.12
456.616	163.12
456.836	158.12
457.056	162.12
457.276	146.12
457.497	146.12
457.717	154.12
457.937	177.12
458.157	161.12
458.377	153.12
458.598	155.12
458.818	151.12
459.038	147.12
459.258	140.12
459.478	142.12
459.698	146.12
459.918	161.12
460.138	159.12
460.358	161.12
460.578	177.12
460.798	179.12
461.018	184.12
461.238	168.12
461.458	164.12
461.678	162.12
461.898	172.12
462.118	172.12
462.338	176.12
462.558	160.12
462.777	160.12
462.997	176.12
463.217	156.12
463.437	187.12
463.657	172.12
463.876	161.12
464.096	169.12
464.316	172.12
464.536	173.12
464.755	184.12
464.975	173.12
465.195	172.12
465.414	162.12
465.634	162.12
465.854	152.12
466.073	167.12
466.293	170.12
466.512	155.12
466.732	158.12
466.951	174.12
467.171	166.12
467.391	174.12
467.61	175.12
467.829	160.12
468.049	178.12
468.268	151.12
468.488	166.12
468.707	162.12
468.927	179.12
469.146	174.12
469.365	187.12
469.585	178.12
469.804	169.12
470.023	155.12
470.243	167.12
470.462	180.12
470.681	189.12
470.901	158.12
471.12	158.12
471.339	163.12
471.558	172.12
471.777	164.12
471.997	163.12
472.216	178.12
472.435	163.12
472.654	143.12
472.873	167.12
473.092	168.12
473.311	185.12
473.53	163.12
473.749	169.12
473.968	186.12
474.187	164.12
474.406	161.12
474.625	164.12
474.844	176.12
475.063	177.12
475.282	156.12
475.501	146.12
475.72	160.12
475.939	171.12
476.158	192.12
476.377	178.12
476.596	174.12
476.814	175.12
477.033	185.12
477.252	170.12
477.471	170.12
477.69	191.12
477.908	172.12
478.127	200.12
478.346	185.12
478.564	200.12
478.783	196.12
479.002	195.12
479.22	190.12
479.439	192.12
479.658	194.12
479.876	185.12
480.095	170.12
480.313	196.12
480.532	196.12
480.751	176.12
480.969	164.12
481.188	150.12
481.406	199.12
481.624	188.12
481.843	157.12
482.061	166.12
482.28	192.12
482.498	178.12
482.717	175.12
482.935	185.12
483.153	193.12
483.372	187.12
483.59	187.12
483.808	191.12
484.027	192.12
484.245	209.12
484.463	186.12
484.681	201.12
484.9	182.12
485.118	181.12
485.336	184.12
485.554	171.12
485.772	176.12
485.99	166.12
486.209	188.12
486.427	172.12
486.645	197.12
486.863	170.12
487.081	188.12
487.299	190.12
487.517	202.12
487.735	204.12
487.953	192.12
488.171	230.12
488.389	221.12
488.607	196.12
488.825	182.12
489.043	167.12
489.261	202.12
489.479	184.12
489.696	191.12
489.914	192.12
490.132	196.12
490.35	200.12
490.568	190.12
490.786	215.12
491.003	198.12
491.221	192.12
491.439	210.12
491.657	208.12
491.874	216.12
492.092	237.12
492.31	254.12
492.527	203.12
492.745	203.12
492.963	230.12
493.18	221.12
493.398	213.12
493.615	203.12
493.833	207.12
494.05	204.12
494.268	204.12
494.485	205.12
494.703	216.12
494.92	232.12
495.138	227.12
495.355	202.12
495.573	219.12
495.79	204.12
496.008	225.12
496.225	201.12
496.442	218.12
496.66	212.12
496.877	208.12
497.094	226.12
497.312	201.12
497.529	202.12
497.746	218.12
497.963	210.12
498.181	184.12
498.398	212.12
498.615	197.12
498.832	194.12
499.049	206.12
499.267	206.12
499.484	218.12
499.701	231.12
499.918	227.12
500.135	223.12
500.352	237.12
500.569	251.12
500.786	286.12
501.003	264.12
501.22	243.12
501.437	227.12
501.654	215.12
501.871	225.12
502.088	212.12
502.305	231.12
502.522	212.12
502.739	200.12
502.956	209.12
503.172	201.12
503.389	204.12
503.606	206.12
503.823	219.12
