Data from TenMicroDelayPb_HRD10591_00015.txt Node
Date: Mon Nov 24 14:56:26 EST 2025
User: Yrep
Spectrometer: HR+D1059
Trigger mode: 5
Integration Time (sec): 3.000000E-3
Scans to average: 1
Electric dark correction enabled: true
Nonlinearity correction enabled: false
Boxcar width: 0
XAxis mode: Wavelengths
Number of Pixels in Spectrum: 2048
>>>>>Begin Spectral Data<<<<<
223.165	-27.94
223.4	-27.94
223.635	-27.94
223.869	-28.94
224.104	-15.94
224.338	-6.94
224.573	-21.94
224.808	-25.94
225.042	-12.94
225.277	1.06
225.511	1.06
225.746	11.06
225.98	4.06
226.215	18.06
226.449	19.06
226.683	17.06
226.918	32.06
227.152	37.06
227.387	34.06
227.621	44.06
227.856	48.06
228.09	26.06
228.324	46.06
228.559	74.06
228.793	54.06
229.027	66.06
229.262	68.06
229.496	78.06
229.73	81.06
229.964	84.06
230.199	103.06
230.433	97.06
230.667	86.06
230.901	72.06
231.136	86.06
231.37	89.06
231.604	91.06
231.838	84.06
232.072	71.06
232.306	93.06
232.541	99.06
232.775	106.06
233.009	100.06
233.243	80.06
233.477	100.06
233.711	81.06
233.945	88.06
234.179	83.06
234.413	86.06
234.647	68.06
234.881	80.06
235.115	76.06
235.349	76.06
235.583	96.06
235.817	86.06
236.051	100.06
236.285	84.06
236.519	83.06
236.753	90.06
236.987	90.06
237.221	91.06
237.455	87.06
237.689	98.06
237.922	96.06
238.156	92.06
238.39	96.06
238.624	89.06
238.858	84.06
239.091	82.06
239.325	92.06
239.559	94.06
239.793	99.06
240.027	99.06
240.26	100.06
240.494	96.06
240.728	77.06
240.961	78.06
241.195	112.06
241.429	94.06
241.662	97.06
241.896	96.06
242.13	81.06
242.363	95.06
242.597	97.06
242.83	84.06
243.064	98.06
243.298	102.06
243.531	89.06
243.765	87.06
243.998	106.06
244.232	92.06
244.465	93.06
244.699	99.06
244.932	100.06
245.166	87.06
245.399	95.06
245.633	91.06
245.866	97.06
246.099	84.06
246.333	76.06
246.566	92.06
246.8	102.06
247.033	93.06
247.266	83.06
247.5	98.06
247.733	113.06
247.966	119.06
248.2	102.06
248.433	97.06
248.666	84.06
248.899	108.06
249.133	91.06
249.366	97.06
249.599	98.06
249.832	99.06
250.066	104.06
250.299	86.06
250.532	102.06
250.765	94.06
250.998	102.06
251.231	92.06
251.465	107.06
251.698	114.06
251.931	92.06
252.164	95.06
252.397	104.06
252.63	102.06
252.863	98.06
253.096	108.06
253.329	119.06
253.562	107.06
253.795	123.06
254.028	122.06
254.261	107.06
254.494	96.06
254.727	118.06
254.96	106.06
255.193	105.06
255.426	95.06
255.659	108.06
255.892	122.06
256.124	94.06
256.357	119.06
256.59	103.06
256.823	111.06
257.056	109.06
257.289	88.06
257.521	119.06
257.754	106.06
257.987	127.06
258.22	130.06
258.452	111.06
258.685	106.06
258.918	99.06
259.151	106.06
259.383	102.06
259.616	105.06
259.849	128.06
260.081	113.06
260.314	106.06
260.547	109.06
260.779	115.06
261.012	123.06
261.244	127.06
261.477	160.06
261.71	155.06
261.942	123.06
262.175	128.06
262.407	114.06
262.64	111.06
262.872	117.06
263.105	126.06
263.337	136.06
263.57	133.06
263.802	108.06
264.035	111.06
264.267	118.06
264.499	118.06
264.732	122.06
264.964	130.06
265.197	126.06
265.429	123.06
265.661	112.06
265.894	135.06
266.126	137.06
266.358	144.06
266.591	139.06
266.823	117.06
267.055	108.06
267.287	111.06
267.52	102.06
267.752	106.06
267.984	103.06
268.216	108.06
268.448	112.06
268.681	114.06
268.913	111.06
269.145	119.06
269.377	100.06
269.609	114.06
269.841	113.06
270.073	114.06
270.306	118.06
270.538	100.06
270.77	102.06
271.002	104.06
271.234	119.06
271.466	114.06
271.698	104.06
271.93	105.06
272.162	120.06
272.394	116.06
272.626	119.06
272.858	109.06
273.09	115.06
273.322	115.06
273.553	112.06
273.785	120.06
274.017	121.06
274.249	114.06
274.481	103.06
274.713	95.06
274.945	115.06
275.176	108.06
275.408	121.06
275.64	96.06
275.872	107.06
276.104	118.06
276.335	128.06
276.567	129.06
276.799	110.06
277.031	104.06
277.262	123.06
277.494	128.06
277.726	117.06
277.957	106.06
278.189	122.06
278.421	132.06
278.652	125.06
278.884	131.06
279.115	142.06
279.347	132.06
279.579	150.06
279.81	168.06
280.042	191.06
280.273	210.06
280.505	188.06
280.736	168.06
280.968	150.06
281.199	142.06
281.431	130.06
281.662	138.06
281.894	134.06
282.125	162.06
282.356	153.06
282.588	139.06
282.819	142.06
283.051	140.06
283.282	154.06
283.513	175.06
283.745	176.06
283.976	160.06
284.207	136.06
284.439	128.06
284.67	142.06
284.901	128.06
285.132	124.06
285.364	134.06
285.595	122.06
285.826	126.06
286.057	127.06
286.288	132.06
286.52	151.06
286.751	119.06
286.982	166.06
287.213	162.06
287.444	156.06
287.675	152.06
287.906	145.06
288.138	128.06
288.369	118.06
288.6	116.06
288.831	115.06
289.062	134.06
289.293	112.06
289.524	128.06
289.755	121.06
289.986	129.06
290.217	115.06
290.448	116.06
290.679	123.06
290.91	130.06
291.141	110.06
291.371	126.06
291.602	98.06
291.833	98.06
292.064	118.06
292.295	136.06
292.526	110.06
292.757	123.06
292.987	130.06
293.218	97.06
293.449	112.06
293.68	130.06
293.91	113.06
294.141	160.06
294.372	113.06
294.603	120.06
294.833	120.06
295.064	119.06
295.295	135.06
295.525	113.06
295.756	118.06
295.987	126.06
296.217	127.06
296.448	129.06
296.679	128.06
296.909	132.06
297.14	136.06
297.37	132.06
297.601	131.06
297.831	112.06
298.062	132.06
298.292	121.06
298.523	133.06
298.753	118.06
298.984	121.06
299.214	137.06
299.445	129.06
299.675	130.06
299.905	127.06
300.136	129.06
300.366	128.06
300.597	110.06
300.827	124.06
301.057	113.06
301.288	124.06
301.518	126.06
301.748	113.06
301.979	183.06
302.209	122.06
302.439	128.06
302.669	147.06
302.9	125.06
303.13	116.06
303.36	121.06
303.59	125.06
303.82	149.06
304.051	121.06
304.281	140.06
304.511	135.06
304.741	129.06
304.971	127.06
305.201	137.06
305.431	130.06
305.661	118.06
305.891	122.06
306.121	133.06
306.352	118.06
306.582	112.06
306.812	116.06
307.042	127.06
307.272	129.06
307.502	121.06
307.731	108.06
307.961	135.06
308.191	121.06
308.421	118.06
308.651	138.06
308.881	131.06
309.111	122.06
309.341	131.06
309.571	120.06
309.8	104.06
310.03	120.06
310.26	127.06
310.49	127.06
310.72	135.06
310.949	127.06
311.179	129.06
311.409	142.06
311.639	123.06
311.868	127.06
312.098	142.06
312.328	123.06
312.557	131.06
312.787	135.06
313.017	131.06
313.246	122.06
313.476	135.06
313.706	138.06
313.935	143.06
314.165	138.06
314.394	138.06
314.624	132.06
314.853	146.06
315.083	131.06
315.312	138.06
315.542	132.06
315.771	150.06
316.001	140.06
316.23	108.06
316.46	139.06
316.689	125.06
316.919	142.06
317.148	145.06
317.377	154.06
317.607	139.06
317.836	128.06
318.065	119.06
318.295	138.06
318.524	121.06
318.753	126.06
318.983	140.06
319.212	142.06
319.441	119.06
319.67	129.06
319.9	127.06
320.129	126.06
320.358	126.06
320.587	114.06
320.816	132.06
321.046	119.06
321.275	139.06
321.504	127.06
321.733	147.06
321.962	118.06
322.191	136.06
322.42	122.06
322.649	139.06
322.878	141.06
323.108	127.06
323.337	135.06
323.566	130.06
323.795	137.06
324.024	134.06
324.253	135.06
324.482	115.06
324.71	141.06
324.939	142.06
325.168	139.06
325.397	150.06
325.626	128.06
325.855	122.06
326.084	132.06
326.313	139.06
326.542	136.06
326.77	145.06
326.999	134.06
327.228	122.06
327.457	132.06
327.686	141.06
327.914	142.06
328.143	136.06
328.372	139.06
328.6	152.06
328.829	130.06
329.058	131.06
329.287	133.06
329.515	131.06
329.744	135.06
329.972	127.06
330.201	141.06
330.43	125.06
330.658	136.06
330.887	148.06
331.115	139.06
331.344	138.06
331.572	145.06
331.801	143.06
332.03	133.06
332.258	138.06
332.486	123.06
332.715	128.06
332.943	136.06
333.172	143.06
333.4	130.06
333.629	137.06
333.857	130.06
334.085	150.06
334.314	150.06
334.542	127.06
334.771	139.06
334.999	133.06
335.227	115.06
335.455	139.06
335.684	147.06
335.912	149.06
336.14	124.06
336.369	150.06
336.597	131.06
336.825	137.06
337.053	128.06
337.281	131.06
337.51	129.06
337.738	157.06
337.966	125.06
338.194	114.06
338.422	126.06
338.65	135.06
338.878	152.06
339.106	127.06
339.334	142.06
339.562	136.06
339.79	159.06
340.018	140.06
340.246	126.06
340.474	136.06
340.702	129.06
340.93	137.06
341.158	138.06
341.386	116.06
341.614	138.06
341.842	116.06
342.07	132.06
342.298	143.06
342.526	131.06
342.754	123.06
342.981	130.06
343.209	125.06
343.437	177.06
343.665	128.06
343.893	143.06
344.12	145.06
344.348	126.06
344.576	137.06
344.804	129.06
345.031	136.06
345.259	142.06
345.487	137.06
345.714	131.06
345.942	122.06
346.17	133.06
346.397	116.06
346.625	136.06
346.853	132.06
347.08	127.06
347.308	146.06
347.535	134.06
347.763	134.06
347.99	128.06
348.218	138.06
348.445	131.06
348.673	127.06
348.9	149.06
349.128	155.06
349.355	112.06
349.583	142.06
349.81	127.06
350.037	134.06
350.265	142.06
350.492	133.06
350.72	136.06
350.947	136.06
351.174	127.06
351.402	134.06
351.629	118.06
351.856	114.06
352.083	137.06
352.311	131.06
352.538	135.06
352.765	145.06
352.992	163.06
353.22	150.06
353.447	132.06
353.674	134.06
353.901	155.06
354.128	135.06
354.355	133.06
354.583	133.06
354.81	131.06
355.037	140.06
355.264	142.06
355.491	135.06
355.718	131.06
355.945	140.06
356.172	141.06
356.399	152.06
356.626	138.06
356.853	179.06
357.08	227.06
357.307	251.06
357.534	242.06
357.761	218.06
357.988	206.06
358.215	182.06
358.441	158.06
358.668	152.06
358.895	147.06
359.122	159.06
359.349	141.06
359.576	143.06
359.802	145.06
360.029	143.06
360.256	155.06
360.483	139.06
360.709	135.06
360.936	185.06
361.163	131.06
361.39	147.06
361.616	145.06
361.843	135.06
362.07	146.06
362.296	161.06
362.523	142.06
362.749	146.06
362.976	163.06
363.203	176.06
363.429	162.06
363.656	218.06
363.882	274.06
364.109	298.06
364.335	247.06
364.562	196.06
364.788	167.06
365.015	173.06
365.241	152.06
365.468	163.06
365.694	177.06
365.92	160.06
366.147	165.06
366.373	153.06
366.599	146.06
366.826	168.06
367.052	188.06
367.278	210.06
367.505	200.06
367.731	218.06
367.957	228.06
368.184	292.06
368.41	352.06
368.636	324.06
368.862	245.06
369.089	193.06
369.315	179.06
369.541	197.06
369.767	173.06
369.993	157.06
370.219	167.06
370.445	154.06
370.672	146.06
370.898	128.06
371.124	139.06
371.35	144.06
371.576	129.06
371.802	152.06
372.028	151.06
372.254	162.06
372.48	143.06
372.706	141.06
372.932	151.06
373.158	160.06
373.384	197.06
373.61	204.06
373.835	224.06
374.061	272.06
374.287	259.06
374.513	213.06
374.739	183.06
374.965	163.06
375.191	167.06
375.416	176.06
375.642	169.06
375.868	176.06
376.094	154.06
376.319	139.06
376.545	150.06
376.771	138.06
376.997	144.06
377.222	135.06
377.448	129.06
377.674	138.06
377.899	132.06
378.125	141.06
378.35	152.06
378.576	157.06
378.802	141.06
379.027	152.06
379.253	144.06
379.478	140.06
379.704	140.06
379.929	145.06
380.155	141.06
380.38	143.06
380.606	144.06
380.831	147.06
381.057	172.06
381.282	143.06
381.507	134.06
381.733	155.06
381.958	143.06
382.184	139.06
382.409	125.06
382.634	133.06
382.86	132.06
383.085	162.06
383.31	142.06
383.535	162.06
383.761	148.06
383.986	140.06
384.211	141.06
384.436	126.06
384.662	150.06
384.887	144.06
385.112	128.06
385.337	153.06
385.562	142.06
385.787	139.06
386.013	156.06
386.238	159.06
386.463	156.06
386.688	195.06
386.913	140.06
387.138	162.06
387.363	160.06
387.588	164.06
387.813	148.06
388.038	157.06
388.263	166.06
388.488	158.06
388.713	153.06
388.938	147.06
389.163	143.06
389.387	144.06
389.612	144.06
389.837	151.06
390.062	140.06
390.287	156.06
390.512	138.06
390.736	155.06
390.961	136.06
391.186	146.06
391.411	131.06
391.636	133.06
391.86	153.06
392.085	130.06
392.31	137.06
392.534	144.06
392.759	170.06
392.984	164.06
393.208	152.06
393.433	158.06
393.658	146.06
393.882	138.06
394.107	145.06
394.331	160.06
394.556	154.06
394.78	145.06
395.005	147.06
395.229	148.06
395.454	155.06
395.678	158.06
395.903	160.06
396.127	171.06
396.352	158.06
396.576	158.06
396.801	149.06
397.025	156.06
397.249	169.06
397.474	161.06
397.698	165.06
397.922	156.06
398.147	156.06
398.371	172.06
398.595	174.06
398.82	168.06
399.044	176.06
399.268	156.06
399.492	155.06
399.717	156.06
399.941	157.06
400.165	164.06
400.389	175.06
400.613	153.06
400.837	172.06
401.062	164.06
401.286	179.06
401.51	172.06
401.734	187.06
401.958	192.06
402.182	182.06
402.406	171.06
402.63	166.06
402.854	159.06
403.078	152.06
403.302	153.06
403.526	171.06
403.75	154.06
403.974	172.06
404.198	190.06
404.422	186.06
404.645	181.06
404.869	196.06
405.093	232.06
405.317	253.06
405.541	353.06
405.765	458.06
405.988	494.06
406.212	406.06
406.436	311.06
406.66	284.06
406.883	230.06
407.107	218.06
407.331	212.06
407.555	211.06
407.778	215.06
408.002	199.06
408.226	199.06
408.449	186.06
408.673	182.06
408.896	186.06
409.12	151.06
409.344	180.06
409.567	166.06
409.791	179.06
410.014	175.06
410.238	178.06
410.461	177.06
410.685	154.06
410.908	173.06
411.132	186.06
411.355	183.06
411.578	186.06
411.802	170.06
412.025	163.06
412.249	187.06
412.472	166.06
412.695	178.06
412.919	169.06
413.142	163.06
413.365	175.06
413.589	157.06
413.812	171.06
414.035	182.06
414.258	163.06
414.482	167.06
414.705	180.06
414.928	194.06
415.151	171.06
415.374	164.06
415.597	180.06
415.821	198.06
416.044	153.06
416.267	182.06
416.49	195.06
416.713	169.06
416.936	184.06
417.159	176.06
417.382	154.06
417.605	171.06
417.828	168.06
418.051	149.06
418.274	166.06
418.497	162.06
418.72	171.06
418.943	163.06
419.166	162.06
419.389	182.06
419.611	174.06
419.834	176.06
420.057	171.06
420.28	174.06
420.503	160.06
420.726	166.06
420.948	157.06
421.171	167.06
421.394	170.06
421.617	167.06
421.839	168.06
422.062	175.06
422.285	168.06
422.507	183.06
422.73	159.06
422.953	190.06
423.175	181.06
423.398	184.06
423.621	207.06
423.843	202.06
424.066	206.06
424.288	223.06
424.511	263.06
424.733	264.06
424.956	238.06
425.178	235.06
425.401	227.06
425.623	219.06
425.846	202.06
426.068	194.06
426.291	183.06
426.513	202.06
426.735	208.06
426.958	191.06
427.18	186.06
427.402	195.06
427.625	188.06
427.847	169.06
428.069	171.06
428.292	186.06
428.514	186.06
428.736	171.06
428.958	162.06
429.181	185.06
429.403	182.06
429.625	173.06
429.847	162.06
430.069	180.06
430.292	163.06
430.514	176.06
430.736	162.06
430.958	170.06
431.18	169.06
431.402	179.06
431.624	168.06
431.846	167.06
432.068	168.06
432.29	163.06
432.512	166.06
432.734	192.06
432.956	158.06
433.178	194.06
433.4	171.06
433.622	185.06
433.844	198.06
434.066	176.06
434.287	184.06
434.509	181.06
434.731	168.06
434.953	175.06
435.175	186.06
435.397	185.06
435.618	170.06
435.84	182.06
436.062	176.06
436.284	187.06
436.505	192.06
436.727	185.06
436.949	174.06
437.17	178.06
437.392	179.06
437.614	191.06
437.835	186.06
438.057	208.06
438.278	216.06
438.5	222.06
438.721	270.06
438.943	268.06
439.165	264.06
439.386	243.06
439.608	254.06
439.829	230.06
440.05	236.06
440.272	226.06
440.493	222.06
440.715	236.06
440.936	241.06
441.158	236.06
441.379	219.06
441.6	213.06
441.822	207.06
442.043	203.06
442.264	191.06
442.486	195.06
442.707	193.06
442.928	191.06
443.149	185.06
443.371	216.06
443.592	194.06
443.813	202.06
444.034	197.06
444.255	216.06
444.476	195.06
444.698	207.06
444.919	194.06
445.14	592.06
445.361	398.06
445.582	202.06
445.803	188.06
446.024	204.06
446.245	202.06
446.466	202.06
446.687	178.06
446.908	204.06
447.129	188.06
447.35	178.06
447.571	192.06
447.792	189.06
448.013	184.06
448.234	191.06
448.455	188.06
448.675	183.06
448.896	207.06
449.117	195.06
449.338	195.06
449.559	192.06
449.779	172.06
450	191.06
450.221	186.06
450.442	186.06
450.662	181.06
450.883	164.06
451.104	177.06
451.324	156.06
451.545	162.06
451.766	192.06
451.986	163.06
452.207	176.06
452.428	168.06
452.648	170.06
452.869	170.06
453.089	181.06
453.31	167.06
453.53	155.06
453.751	159.06
453.971	156.06
454.192	150.06
454.412	167.06
454.633	163.06
454.853	175.06
455.073	166.06
455.294	153.06
455.514	164.06
455.734	167.06
455.955	159.06
456.175	165.06
456.395	156.06
456.616	155.06
456.836	152.06
457.056	153.06
457.276	144.06
457.497	147.06
457.717	150.06
457.937	151.06
458.157	148.06
458.377	145.06
458.598	134.06
458.818	141.06
459.038	135.06
459.258	132.06
459.478	155.06
459.698	141.06
459.918	146.06
460.138	168.06
460.358	158.06
460.578	184.06
460.798	163.06
461.018	166.06
461.238	176.06
461.458	185.06
461.678	169.06
461.898	164.06
462.118	164.06
462.338	164.06
462.558	170.06
462.777	154.06
462.997	162.06
463.217	159.06
463.437	154.06
463.657	167.06
463.876	171.06
464.096	171.06
464.316	155.06
464.536	164.06
464.755	163.06
464.975	165.06
465.195	169.06
465.414	169.06
465.634	157.06
465.854	154.06
466.073	159.06
466.293	178.06
466.512	164.06
466.732	161.06
466.951	173.06
467.171	174.06
467.391	163.06
467.61	158.06
467.829	171.06
468.049	170.06
468.268	162.06
468.488	178.06
468.707	179.06
468.927	167.06
469.146	161.06
469.365	175.06
469.585	184.06
469.804	184.06
470.023	157.06
470.243	163.06
470.462	192.06
470.681	170.06
470.901	173.06
471.12	176.06
471.339	170.06
471.558	156.06
471.777	158.06
471.997	161.06
472.216	155.06
472.435	167.06
472.654	162.06
472.873	170.06
473.092	167.06
473.311	161.06
473.53	152.06
473.749	176.06
473.968	210.06
474.187	177.06
474.406	176.06
474.625	175.06
474.844	169.06
475.063	158.06
475.282	175.06
475.501	171.06
475.72	195.06
475.939	156.06
476.158	170.06
476.377	169.06
476.596	172.06
476.814	160.06
477.033	176.06
477.252	163.06
477.471	169.06
477.69	178.06
477.908	186.06
478.127	188.06
478.346	189.06
478.564	179.06
478.783	182.06
479.002	196.06
479.22	184.06
479.439	198.06
479.658	190.06
479.876	167.06
480.095	167.06
480.313	171.06
480.532	185.06
480.751	184.06
480.969	162.06
481.188	164.06
481.406	174.06
481.624	166.06
481.843	169.06
482.061	155.06
482.28	177.06
482.498	163.06
482.717	170.06
482.935	170.06
483.153	185.06
483.372	194.06
483.59	181.06
483.808	195.06
484.027	184.06
484.245	186.06
484.463	191.06
484.681	208.06
484.9	186.06
485.118	170.06
485.336	193.06
485.554	185.06
485.772	180.06
485.99	166.06
486.209	185.06
486.427	183.06
486.645	172.06
486.863	195.06
487.081	179.06
487.299	194.06
487.517	188.06
487.735	202.06
487.953	211.06
488.171	211.06
488.389	206.06
488.607	180.06
488.825	190.06
489.043	169.06
489.261	208.06
489.479	178.06
489.696	208.06
489.914	196.06
490.132	189.06
490.35	204.06
490.568	196.06
490.786	198.06
491.003	202.06
491.221	207.06
491.439	213.06
491.657	195.06
491.874	215.06
492.092	222.06
492.31	219.06
492.527	212.06
492.745	212.06
492.963	212.06
493.18	216.06
493.398	202.06
493.615	206.06
493.833	191.06
494.05	190.06
494.268	216.06
494.485	206.06
494.703	200.06
494.92	203.06
495.138	225.06
495.355	209.06
495.573	222.06
495.79	217.06
496.008	214.06
496.225	201.06
496.442	207.06
496.66	239.06
496.877	217.06
497.094	240.06
497.312	201.06
497.529	200.06
497.746	208.06
497.963	212.06
498.181	197.06
498.398	179.06
498.615	204.06
498.832	202.06
499.049	196.06
499.267	217.06
499.484	207.06
499.701	211.06
499.918	234.06
500.135	221.06
500.352	248.06
500.569	263.06
500.786	280.06
501.003	281.06
501.22	248.06
501.437	239.06
501.654	226.06
501.871	234.06
502.088	204.06
502.305	222.06
502.522	204.06
502.739	211.06
502.956	211.06
503.172	213.06
503.389	219.06
503.606	195.06
503.823	224.06
