Data from TenMicroDelayPb_HRD10591_00018.txt Node
Date: Mon Nov 24 14:56:27 EST 2025
User: Yrep
Spectrometer: HR+D1059
Trigger mode: 5
Integration Time (sec): 3.000000E-3
Scans to average: 1
Electric dark correction enabled: true
Nonlinearity correction enabled: false
Boxcar width: 0
XAxis mode: Wavelengths
Number of Pixels in Spectrum: 2048
>>>>>Begin Spectral Data<<<<<
223.165	-18.31
223.4	-18.31
223.635	-18.31
223.869	-31.31
224.104	-19.31
224.338	-0.31
224.573	-4.31
224.808	-14.31
225.042	-6.31
225.277	-3.31
225.511	-15.31
225.746	4.69
225.98	15.69
226.215	2.69
226.449	13.69
226.683	11.69
226.918	27.69
227.152	36.69
227.387	43.69
227.621	47.69
227.856	51.69
228.09	34.69
228.324	47.69
228.559	72.69
228.793	56.69
229.027	77.69
229.262	69.69
229.496	67.69
229.73	70.69
229.964	99.69
230.199	90.69
230.433	62.69
230.667	74.69
230.901	92.69
231.136	66.69
231.37	77.69
231.604	95.69
231.838	82.69
232.072	98.69
232.306	109.69
232.541	101.69
232.775	93.69
233.009	73.69
233.243	95.69
233.477	90.69
233.711	100.69
233.945	93.69
234.179	91.69
234.413	99.69
234.647	85.69
234.881	91.69
235.115	100.69
235.349	85.69
235.583	74.69
235.817	100.69
236.051	95.69
236.285	106.69
236.519	98.69
236.753	98.69
236.987	76.69
237.221	80.69
237.455	84.69
237.689	95.69
237.922	104.69
238.156	80.69
238.39	87.69
238.624	83.69
238.858	95.69
239.091	86.69
239.325	92.69
239.559	80.69
239.793	88.69
240.027	99.69
240.26	91.69
240.494	97.69
240.728	82.69
240.961	89.69
241.195	113.69
241.429	124.69
241.662	84.69
241.896	102.69
242.13	82.69
242.363	97.69
242.597	98.69
242.83	91.69
243.064	85.69
243.298	80.69
243.531	88.69
243.765	91.69
243.998	107.69
244.232	113.69
244.465	110.69
244.699	100.69
244.932	83.69
245.166	89.69
245.399	97.69
245.633	90.69
245.866	96.69
246.099	96.69
246.333	84.69
246.566	88.69
246.8	99.69
247.033	90.69
247.266	84.69
247.5	91.69
247.733	95.69
247.966	107.69
248.2	108.69
248.433	100.69
248.666	93.69
248.899	123.69
249.133	107.69
249.366	112.69
249.599	87.69
249.832	93.69
250.066	125.69
250.299	103.69
250.532	107.69
250.765	96.69
250.998	97.69
251.231	98.69
251.465	122.69
251.698	108.69
251.931	106.69
252.164	99.69
252.397	87.69
252.63	118.69
252.863	95.69
253.096	100.69
253.329	112.69
253.562	106.69
253.795	111.69
254.028	131.69
254.261	117.69
254.494	106.69
254.727	114.69
254.96	93.69
255.193	115.69
255.426	99.69
255.659	107.69
255.892	105.69
256.124	91.69
256.357	105.69
256.59	109.69
256.823	114.69
257.056	113.69
257.289	108.69
257.521	99.69
257.754	133.69
257.987	120.69
258.22	126.69
258.452	109.69
258.685	113.69
258.918	100.69
259.151	113.69
259.383	117.69
259.616	100.69
259.849	112.69
260.081	116.69
260.314	112.69
260.547	130.69
260.779	123.69
261.012	138.69
261.244	146.69
261.477	170.69
261.71	145.69
261.942	142.69
262.175	123.69
262.407	127.69
262.64	116.69
262.872	135.69
263.105	130.69
263.337	124.69
263.57	98.69
263.802	115.69
264.035	120.69
264.267	124.69
264.499	121.69
264.732	149.69
264.964	148.69
265.197	130.69
265.429	117.69
265.661	123.69
265.894	120.69
266.126	133.69
266.358	147.69
266.591	141.69
266.823	140.69
267.055	123.69
267.287	115.69
267.52	110.69
267.752	103.69
267.984	124.69
268.216	110.69
268.448	107.69
268.681	108.69
268.913	121.69
269.145	100.69
269.377	112.69
269.609	116.69
269.841	112.69
270.073	116.69
270.306	122.69
270.538	106.69
270.77	110.69
271.002	112.69
271.234	101.69
271.466	129.69
271.698	83.69
271.93	98.69
272.162	117.69
272.394	124.69
272.626	115.69
272.858	108.69
273.09	131.69
273.322	131.69
273.553	128.69
273.785	122.69
274.017	104.69
274.249	108.69
274.481	126.69
274.713	99.69
274.945	121.69
275.176	117.69
275.408	129.69
275.64	119.69
275.872	123.69
276.104	114.69
276.335	139.69
276.567	127.69
276.799	119.69
277.031	124.69
277.262	123.69
277.494	131.69
277.726	125.69
277.957	128.69
278.189	132.69
278.421	122.69
278.652	129.69
278.884	127.69
279.115	146.69
279.347	145.69
279.579	167.69
279.81	193.69
280.042	177.69
280.273	205.69
280.505	199.69
280.736	157.69
280.968	153.69
281.199	144.69
281.431	144.69
281.662	144.69
281.894	139.69
282.125	155.69
282.356	140.69
282.588	171.69
282.819	148.69
283.051	160.69
283.282	160.69
283.513	205.69
283.745	168.69
283.976	139.69
284.207	153.69
284.439	151.69
284.67	145.69
284.901	130.69
285.132	129.69
285.364	123.69
285.595	137.69
285.826	115.69
286.057	138.69
286.288	133.69
286.52	140.69
286.751	145.69
286.982	155.69
287.213	149.69
287.444	163.69
287.675	161.69
287.906	152.69
288.138	127.69
288.369	132.69
288.6	130.69
288.831	114.69
289.062	133.69
289.293	121.69
289.524	129.69
289.755	118.69
289.986	118.69
290.217	142.69
290.448	123.69
290.679	130.69
290.91	144.69
291.141	120.69
291.371	138.69
291.602	119.69
291.833	124.69
292.064	133.69
292.295	124.69
292.526	128.69
292.757	128.69
292.987	123.69
293.218	122.69
293.449	119.69
293.68	130.69
293.91	124.69
294.141	138.69
294.372	127.69
294.603	121.69
294.833	125.69
295.064	107.69
295.295	132.69
295.525	103.69
295.756	140.69
295.987	112.69
296.217	129.69
296.448	117.69
296.679	122.69
296.909	128.69
297.14	150.69
297.37	139.69
297.601	122.69
297.831	115.69
298.062	130.69
298.292	114.69
298.523	124.69
298.753	126.69
298.984	133.69
299.214	148.69
299.445	150.69
299.675	134.69
299.905	124.69
300.136	121.69
300.366	117.69
300.597	121.69
300.827	135.69
301.057	116.69
301.288	124.69
301.518	136.69
301.748	138.69
301.979	184.69
302.209	123.69
302.439	124.69
302.669	130.69
302.9	134.69
303.13	142.69
303.36	141.69
303.59	133.69
303.82	130.69
304.051	138.69
304.281	147.69
304.511	135.69
304.741	133.69
304.971	127.69
305.201	145.69
305.431	132.69
305.661	128.69
305.891	131.69
306.121	131.69
306.352	125.69
306.582	129.69
306.812	139.69
307.042	133.69
307.272	129.69
307.502	125.69
307.731	133.69
307.961	124.69
308.191	119.69
308.421	132.69
308.651	133.69
308.881	136.69
309.111	123.69
309.341	124.69
309.571	139.69
309.8	130.69
310.03	131.69
310.26	128.69
310.49	129.69
310.72	142.69
310.949	136.69
311.179	128.69
311.409	121.69
311.639	120.69
311.868	131.69
312.098	141.69
312.328	148.69
312.557	141.69
312.787	142.69
313.017	140.69
313.246	142.69
313.476	149.69
313.706	132.69
313.935	145.69
314.165	149.69
314.394	148.69
314.624	155.69
314.853	146.69
315.083	145.69
315.312	151.69
315.542	151.69
315.771	144.69
316.001	157.69
316.23	140.69
316.46	150.69
316.689	141.69
316.919	151.69
317.148	149.69
317.377	146.69
317.607	127.69
317.836	133.69
318.065	134.69
318.295	154.69
318.524	149.69
318.753	142.69
318.983	133.69
319.212	140.69
319.441	140.69
319.67	137.69
319.9	123.69
320.129	132.69
320.358	132.69
320.587	131.69
320.816	135.69
321.046	139.69
321.275	136.69
321.504	130.69
321.733	147.69
321.962	140.69
322.191	143.69
322.42	122.69
322.649	143.69
322.878	150.69
323.108	134.69
323.337	140.69
323.566	134.69
323.795	136.69
324.024	134.69
324.253	139.69
324.482	134.69
324.71	127.69
324.939	149.69
325.168	146.69
325.397	143.69
325.626	147.69
325.855	133.69
326.084	132.69
326.313	144.69
326.542	140.69
326.77	129.69
326.999	132.69
327.228	141.69
327.457	140.69
327.686	125.69
327.914	134.69
328.143	151.69
328.372	122.69
328.6	134.69
328.829	137.69
329.058	139.69
329.287	123.69
329.515	141.69
329.744	148.69
329.972	130.69
330.201	126.69
330.43	138.69
330.658	132.69
330.887	162.69
331.115	139.69
331.344	131.69
331.572	144.69
331.801	136.69
332.03	146.69
332.258	133.69
332.486	146.69
332.715	131.69
332.943	133.69
333.172	139.69
333.4	148.69
333.629	136.69
333.857	133.69
334.085	154.69
334.314	147.69
334.542	133.69
334.771	131.69
334.999	131.69
335.227	142.69
335.455	130.69
335.684	161.69
335.912	141.69
336.14	125.69
336.369	137.69
336.597	143.69
336.825	128.69
337.053	146.69
337.281	155.69
337.51	132.69
337.738	138.69
337.966	130.69
338.194	137.69
338.422	128.69
338.65	149.69
338.878	140.69
339.106	125.69
339.334	125.69
339.562	128.69
339.79	139.69
340.018	137.69
340.246	141.69
340.474	132.69
340.702	149.69
340.93	133.69
341.158	130.69
341.386	117.69
341.614	160.69
341.842	141.69
342.07	130.69
342.298	135.69
342.526	132.69
342.754	133.69
342.981	120.69
343.209	141.69
343.437	189.69
343.665	133.69
343.893	149.69
344.12	152.69
344.348	151.69
344.576	139.69
344.804	135.69
345.031	136.69
345.259	131.69
345.487	146.69
345.714	136.69
345.942	140.69
346.17	141.69
346.397	140.69
346.625	139.69
346.853	133.69
347.08	127.69
347.308	122.69
347.535	144.69
347.763	136.69
347.99	140.69
348.218	145.69
348.445	135.69
348.673	132.69
348.9	154.69
349.128	146.69
349.355	148.69
349.583	137.69
349.81	140.69
350.037	130.69
350.265	147.69
350.492	130.69
350.72	142.69
350.947	133.69
351.174	135.69
351.402	131.69
351.629	133.69
351.856	137.69
352.083	142.69
352.311	134.69
352.538	129.69
352.765	147.69
352.992	159.69
353.22	139.69
353.447	127.69
353.674	157.69
353.901	160.69
354.128	137.69
354.355	127.69
354.583	128.69
354.81	141.69
355.037	143.69
355.264	130.69
355.491	133.69
355.718	141.69
355.945	152.69
356.172	147.69
356.399	153.69
356.626	156.69
356.853	167.69
357.08	219.69
357.307	265.69
357.534	252.69
357.761	219.69
357.988	217.69
358.215	187.69
358.441	170.69
358.668	169.69
358.895	163.69
359.122	156.69
359.349	148.69
359.576	160.69
359.802	145.69
360.029	152.69
360.256	162.69
360.483	143.69
360.709	144.69
360.936	174.69
361.163	165.69
361.39	151.69
361.616	147.69
361.843	167.69
362.07	157.69
362.296	160.69
362.523	146.69
362.749	150.69
362.976	161.69
363.203	179.69
363.429	173.69
363.656	220.69
363.882	265.69
364.109	303.69
364.335	245.69
364.562	196.69
364.788	165.69
365.015	168.69
365.241	167.69
365.468	185.69
365.694	155.69
365.92	156.69
366.147	145.69
366.373	160.69
366.599	148.69
366.826	179.69
367.052	192.69
367.278	200.69
367.505	202.69
367.731	229.69
367.957	236.69
368.184	281.69
368.41	352.69
368.636	319.69
368.862	257.69
369.089	216.69
369.315	181.69
369.541	203.69
369.767	168.69
369.993	147.69
370.219	164.69
370.445	164.69
370.672	169.69
370.898	151.69
371.124	151.69
371.35	149.69
371.576	148.69
371.802	144.69
372.028	128.69
372.254	160.69
372.48	137.69
372.706	150.69
372.932	157.69
373.158	145.69
373.384	187.69
373.61	195.69
373.835	238.69
374.061	253.69
374.287	255.69
374.513	211.69
374.739	187.69
374.965	168.69
375.191	162.69
375.416	152.69
375.642	152.69
375.868	151.69
376.094	159.69
376.319	156.69
376.545	149.69
376.771	145.69
376.997	146.69
377.222	139.69
377.448	130.69
377.674	146.69
377.899	151.69
378.125	149.69
378.35	159.69
378.576	147.69
378.802	150.69
379.027	157.69
379.253	142.69
379.478	148.69
379.704	132.69
379.929	152.69
380.155	140.69
380.38	149.69
380.606	131.69
380.831	160.69
381.057	162.69
381.282	151.69
381.507	155.69
381.733	150.69
381.958	146.69
382.184	145.69
382.409	155.69
382.634	164.69
382.86	141.69
383.085	172.69
383.31	145.69
383.535	146.69
383.761	131.69
383.986	151.69
384.211	138.69
384.436	149.69
384.662	140.69
384.887	149.69
385.112	150.69
385.337	132.69
385.562	147.69
385.787	155.69
386.013	167.69
386.238	148.69
386.463	152.69
386.688	205.69
386.913	152.69
387.138	144.69
387.363	146.69
387.588	155.69
387.813	152.69
388.038	151.69
388.263	165.69
388.488	148.69
388.713	141.69
388.938	148.69
389.163	151.69
389.387	136.69
389.612	137.69
389.837	149.69
390.062	146.69
390.287	147.69
390.512	146.69
390.736	138.69
390.961	147.69
391.186	146.69
391.411	148.69
391.636	148.69
391.86	151.69
392.085	152.69
392.31	148.69
392.534	142.69
392.759	153.69
392.984	153.69
393.208	159.69
393.433	156.69
393.658	155.69
393.882	132.69
394.107	156.69
394.331	156.69
394.556	154.69
394.78	156.69
395.005	152.69
395.229	151.69
395.454	144.69
395.678	156.69
395.903	160.69
396.127	164.69
396.352	147.69
396.576	163.69
396.801	143.69
397.025	141.69
397.249	160.69
397.474	184.69
397.698	158.69
397.922	164.69
398.147	156.69
398.371	152.69
398.595	163.69
398.82	154.69
399.044	137.69
399.268	155.69
399.492	164.69
399.717	179.69
399.941	173.69
400.165	160.69
400.389	161.69
400.613	168.69
400.837	157.69
401.062	165.69
401.286	166.69
401.51	167.69
401.734	183.69
401.958	200.69
402.182	196.69
402.406	168.69
402.63	151.69
402.854	163.69
403.078	173.69
403.302	159.69
403.526	157.69
403.75	183.69
403.974	169.69
404.198	172.69
404.422	190.69
404.645	186.69
404.869	200.69
405.093	233.69
405.317	260.69
405.541	346.69
405.765	453.69
405.988	508.69
406.212	407.69
406.436	304.69
406.66	269.69
406.883	239.69
407.107	213.69
407.331	219.69
407.555	208.69
407.778	214.69
408.002	185.69
408.226	211.69
408.449	195.69
408.673	192.69
408.896	187.69
409.12	189.69
409.344	188.69
409.567	181.69
409.791	183.69
410.014	191.69
410.238	160.69
410.461	168.69
410.685	167.69
410.908	176.69
411.132	193.69
411.355	171.69
411.578	162.69
411.802	154.69
412.025	164.69
412.249	183.69
412.472	163.69
412.695	167.69
412.919	162.69
413.142	153.69
413.365	171.69
413.589	172.69
413.812	161.69
414.035	174.69
414.258	180.69
414.482	153.69
414.705	160.69
414.928	171.69
415.151	175.69
415.374	174.69
415.597	163.69
415.821	165.69
416.044	172.69
416.267	184.69
416.49	172.69
416.713	172.69
416.936	191.69
417.159	179.69
417.382	155.69
417.605	161.69
417.828	180.69
418.051	158.69
418.274	178.69
418.497	168.69
418.72	146.69
418.943	156.69
419.166	176.69
419.389	168.69
419.611	184.69
419.834	159.69
420.057	175.69
420.28	176.69
420.503	179.69
420.726	179.69
420.948	161.69
421.171	168.69
421.394	169.69
421.617	149.69
421.839	179.69
422.062	193.69
422.285	167.69
422.507	186.69
422.73	187.69
422.953	187.69
423.175	188.69
423.398	177.69
423.621	210.69
423.843	196.69
424.066	199.69
424.288	229.69
424.511	247.69
424.733	268.69
424.956	233.69
425.178	252.69
425.401	215.69
425.623	211.69
425.846	208.69
426.068	193.69
426.291	191.69
426.513	198.69
426.735	215.69
426.958	202.69
427.18	194.69
427.402	189.69
427.625	192.69
427.847	166.69
428.069	183.69
428.292	170.69
428.514	191.69
428.736	174.69
428.958	165.69
429.181	199.69
429.403	183.69
429.625	159.69
429.847	183.69
430.069	191.69
430.292	194.69
430.514	168.69
430.736	177.69
430.958	180.69
431.18	167.69
431.402	168.69
431.624	180.69
431.846	161.69
432.068	173.69
432.29	164.69
432.512	191.69
432.734	177.69
432.956	192.69
433.178	183.69
433.4	169.69
433.622	204.69
433.844	189.69
434.066	187.69
434.287	175.69
434.509	173.69
434.731	170.69
434.953	171.69
435.175	184.69
435.397	188.69
435.618	162.69
435.84	172.69
436.062	177.69
436.284	184.69
436.505	194.69
436.727	176.69
436.949	178.69
437.17	185.69
437.392	172.69
437.614	171.69
437.835	164.69
438.057	197.69
438.278	210.69
438.5	239.69
438.721	242.69
438.943	257.69
439.165	265.69
439.386	256.69
439.608	244.69
439.829	226.69
440.05	220.69
440.272	235.69
440.493	229.69
440.715	223.69
440.936	256.69
441.158	241.69
441.379	214.69
441.6	229.69
441.822	204.69
442.043	220.69
442.264	199.69
442.486	212.69
442.707	211.69
442.928	190.69
443.149	200.69
443.371	203.69
443.592	199.69
443.813	184.69
444.034	196.69
444.255	206.69
444.476	195.69
444.698	192.69
444.919	197.69
445.14	499.69
445.361	336.69
445.582	196.69
445.803	185.69
446.024	192.69
446.245	203.69
446.466	191.69
446.687	181.69
446.908	201.69
447.129	192.69
447.35	175.69
447.571	176.69
447.792	191.69
448.013	185.69
448.234	175.69
448.455	175.69
448.675	180.69
448.896	196.69
449.117	159.69
449.338	163.69
449.559	191.69
449.779	189.69
450	169.69
450.221	171.69
450.442	179.69
450.662	178.69
450.883	168.69
451.104	176.69
451.324	155.69
451.545	171.69
451.766	177.69
451.986	170.69
452.207	172.69
452.428	168.69
452.648	174.69
452.869	146.69
453.089	151.69
453.31	156.69
453.53	153.69
453.751	165.69
453.971	164.69
454.192	161.69
454.412	153.69
454.633	159.69
454.853	164.69
455.073	180.69
455.294	175.69
455.514	182.69
455.734	162.69
455.955	162.69
456.175	176.69
456.395	173.69
456.616	166.69
456.836	162.69
457.056	168.69
457.276	160.69
457.497	144.69
457.717	164.69
457.937	153.69
458.157	164.69
458.377	148.69
458.598	165.69
458.818	142.69
459.038	154.69
459.258	145.69
459.478	164.69
459.698	144.69
459.918	153.69
460.138	165.69
460.358	163.69
460.578	169.69
460.798	163.69
461.018	146.69
461.238	164.69
461.458	190.69
461.678	153.69
461.898	183.69
462.118	174.69
462.338	167.69
462.558	147.69
462.777	156.69
462.997	152.69
463.217	164.69
463.437	179.69
463.657	177.69
463.876	170.69
464.096	157.69
464.316	176.69
464.536	174.69
464.755	176.69
464.975	168.69
465.195	157.69
465.414	173.69
465.634	160.69
465.854	175.69
466.073	164.69
466.293	161.69
466.512	158.69
466.732	162.69
466.951	185.69
467.171	173.69
467.391	152.69
467.61	173.69
467.829	175.69
468.049	169.69
468.268	178.69
468.488	167.69
468.707	159.69
468.927	162.69
469.146	177.69
469.365	178.69
469.585	173.69
469.804	180.69
470.023	164.69
470.243	173.69
470.462	165.69
470.681	184.69
470.901	177.69
471.12	169.69
471.339	187.69
471.558	164.69
471.777	151.69
471.997	168.69
472.216	177.69
472.435	164.69
472.654	145.69
472.873	167.69
473.092	159.69
473.311	167.69
473.53	159.69
473.749	173.69
473.968	174.69
474.187	164.69
474.406	164.69
474.625	168.69
474.844	191.69
475.063	166.69
475.282	161.69
475.501	171.69
475.72	184.69
475.939	158.69
476.158	169.69
476.377	183.69
476.596	158.69
476.814	173.69
477.033	173.69
477.252	183.69
477.471	157.69
477.69	163.69
477.908	187.69
478.127	189.69
478.346	166.69
478.564	187.69
478.783	201.69
479.002	197.69
479.22	193.69
479.439	172.69
479.658	170.69
479.876	175.69
480.095	175.69
480.313	190.69
480.532	192.69
480.751	171.69
480.969	169.69
481.188	168.69
481.406	183.69
481.624	177.69
481.843	166.69
482.061	185.69
482.28	158.69
482.498	179.69
482.717	160.69
482.935	187.69
483.153	197.69
483.372	191.69
483.59	203.69
483.808	170.69
484.027	194.69
484.245	194.69
484.463	186.69
484.681	203.69
484.9	170.69
485.118	175.69
485.336	160.69
485.554	169.69
485.772	174.69
485.99	195.69
486.209	170.69
486.427	156.69
486.645	169.69
486.863	193.69
487.081	170.69
487.299	168.69
487.517	214.69
487.735	183.69
487.953	206.69
488.171	213.69
488.389	219.69
488.607	179.69
488.825	193.69
489.043	170.69
489.261	207.69
489.479	197.69
489.696	205.69
489.914	180.69
490.132	203.69
490.35	197.69
490.568	199.69
490.786	215.69
491.003	205.69
491.221	209.69
491.439	213.69
491.657	215.69
491.874	223.69
492.092	243.69
492.31	252.69
492.527	221.69
492.745	190.69
492.963	215.69
493.18	210.69
493.398	224.69
493.615	194.69
493.833	202.69
494.05	191.69
494.268	191.69
494.485	207.69
494.703	195.69
494.92	207.69
495.138	203.69
495.355	219.69
495.573	229.69
495.79	189.69
496.008	197.69
496.225	220.69
496.442	212.69
496.66	215.69
496.877	220.69
497.094	227.69
497.312	219.69
497.529	222.69
497.746	191.69
497.963	193.69
498.181	167.69
498.398	181.69
498.615	210.69
498.832	203.69
499.049	202.69
499.267	219.69
499.484	229.69
499.701	220.69
499.918	229.69
500.135	219.69
500.352	252.69
500.569	257.69
500.786	306.69
501.003	277.69
501.22	244.69
501.437	233.69
501.654	212.69
501.871	212.69
502.088	219.69
502.305	196.69
502.522	230.69
502.739	197.69
502.956	205.69
503.172	194.69
503.389	200.69
503.606	192.69
503.823	209.69
