Data from TenMicroDelayPb_HRD10591_00014.txt Node
Date: Mon Nov 24 14:56:25 EST 2025
User: Yrep
Spectrometer: HR+D1059
Trigger mode: 5
Integration Time (sec): 3.000000E-3
Scans to average: 1
Electric dark correction enabled: true
Nonlinearity correction enabled: false
Boxcar width: 0
XAxis mode: Wavelengths
Number of Pixels in Spectrum: 2048
>>>>>Begin Spectral Data<<<<<
223.165	-33.06
223.4	-33.06
223.635	-33.06
223.869	-17.06
224.104	-16.06
224.338	-7.06
224.573	-9.06
224.808	-2.06
225.042	-9.06
225.277	-6.06
225.511	-10.06
225.746	3.94
225.98	11.94
226.215	12.94
226.449	14.94
226.683	14.94
226.918	16.94
227.152	33.94
227.387	37.94
227.621	39.94
227.856	63.94
228.09	51.94
228.324	39.94
228.559	60.94
228.793	62.94
229.027	82.94
229.262	91.94
229.496	77.94
229.73	95.94
229.964	100.94
230.199	78.94
230.433	95.94
230.667	108.94
230.901	85.94
231.136	84.94
231.37	87.94
231.604	74.94
231.838	80.94
232.072	105.94
232.306	84.94
232.541	101.94
232.775	81.94
233.009	83.94
233.243	84.94
233.477	97.94
233.711	104.94
233.945	95.94
234.179	83.94
234.413	96.94
234.647	95.94
234.881	91.94
235.115	78.94
235.349	86.94
235.583	104.94
235.817	80.94
236.051	95.94
236.285	106.94
236.519	91.94
236.753	74.94
236.987	86.94
237.221	75.94
237.455	89.94
237.689	84.94
237.922	95.94
238.156	88.94
238.39	82.94
238.624	89.94
238.858	83.94
239.091	87.94
239.325	87.94
239.559	84.94
239.793	72.94
240.027	87.94
240.26	94.94
240.494	103.94
240.728	94.94
240.961	91.94
241.195	107.94
241.429	90.94
241.662	78.94
241.896	92.94
242.13	100.94
242.363	94.94
242.597	69.94
242.83	94.94
243.064	95.94
243.298	92.94
243.531	81.94
243.765	112.94
243.998	79.94
244.232	104.94
244.465	95.94
244.699	95.94
244.932	81.94
245.166	88.94
245.399	99.94
245.633	105.94
245.866	100.94
246.099	95.94
246.333	80.94
246.566	98.94
246.8	81.94
247.033	81.94
247.266	101.94
247.5	80.94
247.733	98.94
247.966	107.94
248.2	116.94
248.433	112.94
248.666	86.94
248.899	95.94
249.133	95.94
249.366	126.94
249.599	97.94
249.832	97.94
250.066	97.94
250.299	95.94
250.532	100.94
250.765	107.94
250.998	109.94
251.231	91.94
251.465	110.94
251.698	102.94
251.931	90.94
252.164	95.94
252.397	102.94
252.63	104.94
252.863	118.94
253.096	95.94
253.329	121.94
253.562	111.94
253.795	106.94
254.028	118.94
254.261	99.94
254.494	118.94
254.727	105.94
254.96	114.94
255.193	127.94
255.426	109.94
255.659	88.94
255.892	111.94
256.124	104.94
256.357	105.94
256.59	115.94
256.823	110.94
257.056	115.94
257.289	107.94
257.521	121.94
257.754	127.94
257.987	127.94
258.22	138.94
258.452	107.94
258.685	119.94
258.918	107.94
259.151	123.94
259.383	107.94
259.616	97.94
259.849	113.94
260.081	96.94
260.314	125.94
260.547	126.94
260.779	125.94
261.012	139.94
261.244	129.94
261.477	175.94
261.71	152.94
261.942	137.94
262.175	120.94
262.407	114.94
262.64	129.94
262.872	118.94
263.105	115.94
263.337	130.94
263.57	114.94
263.802	97.94
264.035	112.94
264.267	95.94
264.499	117.94
264.732	131.94
264.964	121.94
265.197	114.94
265.429	124.94
265.661	123.94
265.894	97.94
266.126	134.94
266.358	137.94
266.591	151.94
266.823	163.94
267.055	109.94
267.287	120.94
267.52	106.94
267.752	123.94
267.984	100.94
268.216	118.94
268.448	124.94
268.681	113.94
268.913	110.94
269.145	118.94
269.377	119.94
269.609	88.94
269.841	110.94
270.073	116.94
270.306	111.94
270.538	113.94
270.77	113.94
271.002	102.94
271.234	104.94
271.466	123.94
271.698	120.94
271.93	119.94
272.162	99.94
272.394	128.94
272.626	107.94
272.858	109.94
273.09	126.94
273.322	121.94
273.553	91.94
273.785	117.94
274.017	114.94
274.249	109.94
274.481	104.94
274.713	114.94
274.945	129.94
275.176	103.94
275.408	121.94
275.64	108.94
275.872	99.94
276.104	109.94
276.335	104.94
276.567	109.94
276.799	114.94
277.031	120.94
277.262	127.94
277.494	132.94
277.726	128.94
277.957	118.94
278.189	130.94
278.421	125.94
278.652	122.94
278.884	131.94
279.115	138.94
279.347	141.94
279.579	160.94
279.81	179.94
280.042	186.94
280.273	208.94
280.505	179.94
280.736	162.94
280.968	138.94
281.199	161.94
281.431	130.94
281.662	151.94
281.894	153.94
282.125	134.94
282.356	161.94
282.588	158.94
282.819	153.94
283.051	153.94
283.282	172.94
283.513	205.94
283.745	180.94
283.976	155.94
284.207	154.94
284.439	137.94
284.67	151.94
284.901	117.94
285.132	127.94
285.364	137.94
285.595	129.94
285.826	136.94
286.057	135.94
286.288	131.94
286.52	132.94
286.751	131.94
286.982	148.94
287.213	157.94
287.444	174.94
287.675	144.94
287.906	136.94
288.138	114.94
288.369	131.94
288.6	120.94
288.831	110.94
289.062	135.94
289.293	145.94
289.524	128.94
289.755	112.94
289.986	120.94
290.217	115.94
290.448	110.94
290.679	119.94
290.91	129.94
291.141	102.94
291.371	141.94
291.602	135.94
291.833	124.94
292.064	125.94
292.295	114.94
292.526	128.94
292.757	120.94
292.987	128.94
293.218	119.94
293.449	109.94
293.68	112.94
293.91	136.94
294.141	151.94
294.372	128.94
294.603	121.94
294.833	119.94
295.064	124.94
295.295	129.94
295.525	123.94
295.756	138.94
295.987	136.94
296.217	113.94
296.448	135.94
296.679	119.94
296.909	136.94
297.14	126.94
297.37	134.94
297.601	121.94
297.831	129.94
298.062	129.94
298.292	138.94
298.523	128.94
298.753	133.94
298.984	128.94
299.214	140.94
299.445	135.94
299.675	125.94
299.905	130.94
300.136	120.94
300.366	125.94
300.597	135.94
300.827	107.94
301.057	126.94
301.288	129.94
301.518	132.94
301.748	125.94
301.979	194.94
302.209	116.94
302.439	115.94
302.669	132.94
302.9	129.94
303.13	127.94
303.36	131.94
303.59	126.94
303.82	118.94
304.051	133.94
304.281	132.94
304.511	140.94
304.741	121.94
304.971	136.94
305.201	131.94
305.431	122.94
305.661	133.94
305.891	127.94
306.121	139.94
306.352	129.94
306.582	129.94
306.812	118.94
307.042	116.94
307.272	130.94
307.502	133.94
307.731	123.94
307.961	136.94
308.191	140.94
308.421	123.94
308.651	132.94
308.881	133.94
309.111	115.94
309.341	126.94
309.571	136.94
309.8	131.94
310.03	130.94
310.26	131.94
310.49	140.94
310.72	142.94
310.949	131.94
311.179	125.94
311.409	129.94
311.639	132.94
311.868	126.94
312.098	131.94
312.328	124.94
312.557	134.94
312.787	138.94
313.017	152.94
313.246	139.94
313.476	123.94
313.706	130.94
313.935	147.94
314.165	140.94
314.394	153.94
314.624	143.94
314.853	155.94
315.083	155.94
315.312	151.94
315.542	141.94
315.771	139.94
316.001	143.94
316.23	153.94
316.46	137.94
316.689	141.94
316.919	149.94
317.148	146.94
317.377	138.94
317.607	167.94
317.836	153.94
318.065	146.94
318.295	139.94
318.524	145.94
318.753	143.94
318.983	123.94
319.212	138.94
319.441	122.94
319.67	131.94
319.9	133.94
320.129	132.94
320.358	148.94
320.587	135.94
320.816	125.94
321.046	139.94
321.275	146.94
321.504	131.94
321.733	139.94
321.962	121.94
322.191	151.94
322.42	120.94
322.649	157.94
322.878	137.94
323.108	154.94
323.337	136.94
323.566	147.94
323.795	131.94
324.024	143.94
324.253	127.94
324.482	134.94
324.71	133.94
324.939	144.94
325.168	132.94
325.397	136.94
325.626	133.94
325.855	124.94
326.084	128.94
326.313	143.94
326.542	138.94
326.77	138.94
326.999	138.94
327.228	137.94
327.457	135.94
327.686	131.94
327.914	144.94
328.143	147.94
328.372	115.94
328.6	134.94
328.829	135.94
329.058	141.94
329.287	135.94
329.515	142.94
329.744	149.94
329.972	131.94
330.201	143.94
330.43	126.94
330.658	137.94
330.887	126.94
331.115	144.94
331.344	133.94
331.572	142.94
331.801	132.94
332.03	136.94
332.258	145.94
332.486	141.94
332.715	136.94
332.943	131.94
333.172	141.94
333.4	128.94
333.629	153.94
333.857	136.94
334.085	150.94
334.314	146.94
334.542	135.94
334.771	150.94
334.999	143.94
335.227	145.94
335.455	149.94
335.684	163.94
335.912	162.94
336.14	128.94
336.369	137.94
336.597	142.94
336.825	140.94
337.053	152.94
337.281	142.94
337.51	128.94
337.738	138.94
337.966	132.94
338.194	124.94
338.422	133.94
338.65	140.94
338.878	153.94
339.106	127.94
339.334	151.94
339.562	124.94
339.79	131.94
340.018	112.94
340.246	143.94
340.474	142.94
340.702	118.94
340.93	128.94
341.158	140.94
341.386	144.94
341.614	123.94
341.842	139.94
342.07	132.94
342.298	139.94
342.526	123.94
342.754	138.94
342.981	139.94
343.209	135.94
343.437	185.94
343.665	132.94
343.893	150.94
344.12	155.94
344.348	148.94
344.576	130.94
344.804	139.94
345.031	136.94
345.259	150.94
345.487	129.94
345.714	134.94
345.942	131.94
346.17	152.94
346.397	147.94
346.625	140.94
346.853	128.94
347.08	136.94
347.308	136.94
347.535	123.94
347.763	140.94
347.99	129.94
348.218	134.94
348.445	135.94
348.673	127.94
348.9	140.94
349.128	152.94
349.355	134.94
349.583	145.94
349.81	125.94
350.037	140.94
350.265	148.94
350.492	136.94
350.72	143.94
350.947	142.94
351.174	141.94
351.402	128.94
351.629	145.94
351.856	141.94
352.083	123.94
352.311	139.94
352.538	136.94
352.765	138.94
352.992	151.94
353.22	142.94
353.447	141.94
353.674	150.94
353.901	151.94
354.128	138.94
354.355	132.94
354.583	142.94
354.81	156.94
355.037	141.94
355.264	152.94
355.491	151.94
355.718	124.94
355.945	152.94
356.172	152.94
356.399	154.94
356.626	166.94
356.853	190.94
357.08	224.94
357.307	273.94
357.534	252.94
357.761	225.94
357.988	204.94
358.215	182.94
358.441	168.94
358.668	161.94
358.895	159.94
359.122	147.94
359.349	143.94
359.576	155.94
359.802	153.94
360.029	148.94
360.256	150.94
360.483	136.94
360.709	146.94
360.936	167.94
361.163	150.94
361.39	151.94
361.616	147.94
361.843	137.94
362.07	150.94
362.296	159.94
362.523	161.94
362.749	151.94
362.976	160.94
363.203	185.94
363.429	173.94
363.656	235.94
363.882	270.94
364.109	324.94
364.335	264.94
364.562	204.94
364.788	162.94
365.015	166.94
365.241	186.94
365.468	175.94
365.694	159.94
365.92	166.94
366.147	155.94
366.373	154.94
366.599	150.94
366.826	167.94
367.052	190.94
367.278	203.94
367.505	206.94
367.731	224.94
367.957	234.94
368.184	304.94
368.41	360.94
368.636	319.94
368.862	266.94
369.089	224.94
369.315	183.94
369.541	185.94
369.767	177.94
369.993	167.94
370.219	158.94
370.445	162.94
370.672	144.94
370.898	157.94
371.124	159.94
371.35	163.94
371.576	145.94
371.802	155.94
372.028	146.94
372.254	142.94
372.48	160.94
372.706	147.94
372.932	169.94
373.158	162.94
373.384	166.94
373.61	177.94
373.835	230.94
374.061	270.94
374.287	255.94
374.513	208.94
374.739	194.94
374.965	178.94
375.191	169.94
375.416	155.94
375.642	171.94
375.868	162.94
376.094	154.94
376.319	143.94
376.545	154.94
376.771	145.94
376.997	152.94
377.222	147.94
377.448	129.94
377.674	149.94
377.899	143.94
378.125	136.94
378.35	151.94
378.576	147.94
378.802	136.94
379.027	154.94
379.253	168.94
379.478	149.94
379.704	140.94
379.929	151.94
380.155	133.94
380.38	143.94
380.606	137.94
380.831	143.94
381.057	160.94
381.282	158.94
381.507	163.94
381.733	150.94
381.958	135.94
382.184	140.94
382.409	125.94
382.634	138.94
382.86	148.94
383.085	143.94
383.31	152.94
383.535	152.94
383.761	149.94
383.986	139.94
384.211	139.94
384.436	142.94
384.662	142.94
384.887	146.94
385.112	136.94
385.337	155.94
385.562	143.94
385.787	157.94
386.013	153.94
386.238	152.94
386.463	143.94
386.688	200.94
386.913	142.94
387.138	150.94
387.363	152.94
387.588	169.94
387.813	171.94
388.038	147.94
388.263	142.94
388.488	137.94
388.713	155.94
388.938	151.94
389.163	149.94
389.387	136.94
389.612	142.94
389.837	148.94
390.062	157.94
390.287	146.94
390.512	141.94
390.736	162.94
390.961	136.94
391.186	153.94
391.411	141.94
391.636	166.94
391.86	144.94
392.085	163.94
392.31	137.94
392.534	150.94
392.759	151.94
392.984	139.94
393.208	156.94
393.433	139.94
393.658	141.94
393.882	146.94
394.107	154.94
394.331	155.94
394.556	158.94
394.78	152.94
395.005	160.94
395.229	153.94
395.454	149.94
395.678	150.94
395.903	148.94
396.127	152.94
396.352	158.94
396.576	147.94
396.801	144.94
397.025	145.94
397.249	162.94
397.474	174.94
397.698	163.94
397.922	164.94
398.147	166.94
398.371	147.94
398.595	176.94
398.82	152.94
399.044	161.94
399.268	162.94
399.492	163.94
399.717	173.94
399.941	168.94
400.165	174.94
400.389	171.94
400.613	150.94
400.837	173.94
401.062	169.94
401.286	157.94
401.51	168.94
401.734	181.94
401.958	203.94
402.182	180.94
402.406	187.94
402.63	163.94
402.854	166.94
403.078	171.94
403.302	175.94
403.526	182.94
403.75	184.94
403.974	190.94
404.198	177.94
404.422	193.94
404.645	187.94
404.869	208.94
405.093	219.94
405.317	278.94
405.541	350.94
405.765	483.94
405.988	530.94
406.212	403.94
406.436	319.94
406.66	264.94
406.883	234.94
407.107	228.94
407.331	230.94
407.555	205.94
407.778	207.94
408.002	191.94
408.226	206.94
408.449	195.94
408.673	175.94
408.896	186.94
409.12	180.94
409.344	179.94
409.567	190.94
409.791	181.94
410.014	193.94
410.238	176.94
410.461	149.94
410.685	161.94
410.908	174.94
411.132	187.94
411.355	158.94
411.578	180.94
411.802	172.94
412.025	159.94
412.249	173.94
412.472	162.94
412.695	160.94
412.919	156.94
413.142	173.94
413.365	167.94
413.589	174.94
413.812	172.94
414.035	172.94
414.258	167.94
414.482	166.94
414.705	171.94
414.928	175.94
415.151	192.94
415.374	179.94
415.597	175.94
415.821	159.94
416.044	158.94
416.267	188.94
416.49	180.94
416.713	168.94
416.936	177.94
417.159	187.94
417.382	163.94
417.605	171.94
417.828	177.94
418.051	171.94
418.274	163.94
418.497	168.94
418.72	171.94
418.943	166.94
419.166	160.94
419.389	190.94
419.611	186.94
419.834	172.94
420.057	178.94
420.28	185.94
420.503	171.94
420.726	164.94
420.948	174.94
421.171	154.94
421.394	160.94
421.617	164.94
421.839	166.94
422.062	185.94
422.285	190.94
422.507	195.94
422.73	189.94
422.953	188.94
423.175	206.94
423.398	198.94
423.621	210.94
423.843	191.94
424.066	218.94
424.288	235.94
424.511	267.94
424.733	275.94
424.956	269.94
425.178	259.94
425.401	230.94
425.623	220.94
425.846	199.94
426.068	212.94
426.291	196.94
426.513	194.94
426.735	191.94
426.958	187.94
427.18	188.94
427.402	190.94
427.625	192.94
427.847	179.94
428.069	182.94
428.292	190.94
428.514	185.94
428.736	189.94
428.958	187.94
429.181	189.94
429.403	182.94
429.625	174.94
429.847	194.94
430.069	174.94
430.292	206.94
430.514	164.94
430.736	156.94
430.958	180.94
431.18	159.94
431.402	163.94
431.624	173.94
431.846	152.94
432.068	160.94
432.29	162.94
432.512	178.94
432.734	157.94
432.956	173.94
433.178	204.94
433.4	180.94
433.622	183.94
433.844	182.94
434.066	161.94
434.287	170.94
434.509	158.94
434.731	154.94
434.953	156.94
435.175	170.94
435.397	179.94
435.618	174.94
435.84	172.94
436.062	157.94
436.284	188.94
436.505	190.94
436.727	180.94
436.949	178.94
437.17	180.94
437.392	179.94
437.614	190.94
437.835	192.94
438.057	201.94
438.278	212.94
438.5	219.94
438.721	272.94
438.943	276.94
439.165	255.94
439.386	238.94
439.608	220.94
439.829	231.94
440.05	230.94
440.272	210.94
440.493	219.94
440.715	225.94
440.936	252.94
441.158	242.94
441.379	232.94
441.6	217.94
441.822	222.94
442.043	194.94
442.264	208.94
442.486	194.94
442.707	193.94
442.928	192.94
443.149	205.94
443.371	214.94
443.592	189.94
443.813	211.94
444.034	198.94
444.255	193.94
444.476	190.94
444.698	185.94
444.919	196.94
445.14	528.94
445.361	345.94
445.582	200.94
445.803	182.94
446.024	192.94
446.245	219.94
446.466	197.94
446.687	193.94
446.908	192.94
447.129	200.94
447.35	197.94
447.571	184.94
447.792	194.94
448.013	173.94
448.234	169.94
448.455	167.94
448.675	191.94
448.896	178.94
449.117	188.94
449.338	175.94
449.559	178.94
449.779	192.94
450	184.94
450.221	186.94
450.442	173.94
450.662	186.94
450.883	187.94
451.104	185.94
451.324	177.94
451.545	179.94
451.766	173.94
451.986	176.94
452.207	189.94
452.428	154.94
452.648	161.94
452.869	167.94
453.089	183.94
453.31	161.94
453.53	157.94
453.751	161.94
453.971	157.94
454.192	167.94
454.412	160.94
454.633	169.94
454.853	154.94
455.073	158.94
455.294	157.94
455.514	183.94
455.734	163.94
455.955	158.94
456.175	171.94
456.395	160.94
456.616	162.94
456.836	151.94
457.056	156.94
457.276	137.94
457.497	143.94
457.717	143.94
457.937	154.94
458.157	171.94
458.377	154.94
458.598	150.94
458.818	154.94
459.038	146.94
459.258	147.94
459.478	163.94
459.698	155.94
459.918	150.94
460.138	159.94
460.358	168.94
460.578	196.94
460.798	165.94
461.018	159.94
461.238	161.94
461.458	169.94
461.678	159.94
461.898	168.94
462.118	170.94
462.338	171.94
462.558	161.94
462.777	172.94
462.997	184.94
463.217	168.94
463.437	161.94
463.657	167.94
463.876	164.94
464.096	160.94
464.316	159.94
464.536	164.94
464.755	164.94
464.975	166.94
465.195	166.94
465.414	161.94
465.634	163.94
465.854	157.94
466.073	161.94
466.293	171.94
466.512	156.94
466.732	170.94
466.951	178.94
467.171	166.94
467.391	157.94
467.61	169.94
467.829	182.94
468.049	168.94
468.268	171.94
468.488	163.94
468.707	171.94
468.927	193.94
469.146	178.94
469.365	161.94
469.585	171.94
469.804	188.94
470.023	177.94
470.243	167.94
470.462	184.94
470.681	176.94
470.901	187.94
471.12	155.94
471.339	162.94
471.558	166.94
471.777	180.94
471.997	156.94
472.216	162.94
472.435	152.94
472.654	172.94
472.873	174.94
473.092	173.94
473.311	177.94
473.53	151.94
473.749	167.94
473.968	163.94
474.187	156.94
474.406	152.94
474.625	161.94
474.844	174.94
475.063	160.94
475.282	172.94
475.501	159.94
475.72	194.94
475.939	163.94
476.158	169.94
476.377	166.94
476.596	172.94
476.814	154.94
477.033	167.94
477.252	169.94
477.471	186.94
477.69	171.94
477.908	190.94
478.127	200.94
478.346	183.94
478.564	192.94
478.783	207.94
479.002	184.94
479.22	195.94
479.439	195.94
479.658	172.94
479.876	159.94
480.095	161.94
480.313	170.94
480.532	177.94
480.751	197.94
480.969	164.94
481.188	173.94
481.406	172.94
481.624	172.94
481.843	166.94
482.061	173.94
482.28	167.94
482.498	171.94
482.717	162.94
482.935	192.94
483.153	199.94
483.372	185.94
483.59	188.94
483.808	175.94
484.027	184.94
484.245	192.94
484.463	183.94
484.681	198.94
484.9	197.94
485.118	188.94
485.336	192.94
485.554	190.94
485.772	160.94
485.99	164.94
486.209	187.94
486.427	162.94
486.645	190.94
486.863	210.94
487.081	177.94
487.299	193.94
487.517	185.94
487.735	190.94
487.953	204.94
488.171	204.94
488.389	199.94
488.607	181.94
488.825	181.94
489.043	175.94
489.261	207.94
489.479	179.94
489.696	189.94
489.914	184.94
490.132	200.94
490.35	200.94
490.568	201.94
490.786	199.94
491.003	200.94
491.221	220.94
491.439	216.94
491.657	216.94
491.874	219.94
492.092	224.94
492.31	238.94
492.527	210.94
492.745	204.94
492.963	209.94
493.18	222.94
493.398	212.94
493.615	197.94
493.833	209.94
494.05	205.94
494.268	201.94
494.485	207.94
494.703	223.94
494.92	220.94
495.138	207.94
495.355	220.94
495.573	211.94
495.79	217.94
496.008	202.94
496.225	226.94
496.442	230.94
496.66	210.94
496.877	206.94
497.094	210.94
497.312	220.94
497.529	216.94
497.746	205.94
497.963	200.94
498.181	184.94
498.398	210.94
498.615	206.94
498.832	202.94
499.049	210.94
499.267	221.94
499.484	207.94
499.701	239.94
499.918	232.94
500.135	232.94
500.352	254.94
500.569	255.94
500.786	303.94
501.003	277.94
501.22	230.94
501.437	232.94
501.654	231.94
501.871	212.94
502.088	192.94
502.305	210.94
502.522	200.94
502.739	209.94
502.956	206.94
503.172	208.94
503.389	186.94
503.606	200.94
503.823	203.94
