Data from TenMicroDelayPb_HRD10591_00005.txt Node
Date: Mon Nov 24 14:56:12 EST 2025
User: Yrep
Spectrometer: HR+D1059
Trigger mode: 5
Integration Time (sec): 1.000000E-3
Scans to average: 1
Electric dark correction enabled: true
Nonlinearity correction enabled: false
Boxcar width: 0
XAxis mode: Wavelengths
Number of Pixels in Spectrum: 2048
>>>>>Begin Spectral Data<<<<<
223.165	-30.12
223.4	-30.12
223.635	-30.12
223.869	-38.12
224.104	-37.12
224.338	1.88
224.573	-6.12
224.808	-10.12
225.042	-0.12
225.277	-1.12
225.511	-7.12
225.746	10.88
225.98	1.88
226.215	1.88
226.449	12.88
226.683	17.88
226.918	32.88
227.152	49.88
227.387	44.88
227.621	45.88
227.856	48.88
228.09	44.88
228.324	48.88
228.559	57.88
228.793	77.88
229.027	79.88
229.262	61.88
229.496	58.88
229.73	78.88
229.964	90.88
230.199	88.88
230.433	76.88
230.667	85.88
230.901	80.88
231.136	82.88
231.37	85.88
231.604	78.88
231.838	102.88
232.072	73.88
232.306	72.88
232.541	89.88
232.775	92.88
233.009	90.88
233.243	76.88
233.477	84.88
233.711	78.88
233.945	97.88
234.179	89.88
234.413	96.88
234.647	85.88
234.881	90.88
235.115	90.88
235.349	106.88
235.583	82.88
235.817	94.88
236.051	84.88
236.285	80.88
236.519	85.88
236.753	96.88
236.987	92.88
237.221	82.88
237.455	80.88
237.689	81.88
237.922	88.88
238.156	93.88
238.39	80.88
238.624	91.88
238.858	90.88
239.091	67.88
239.325	87.88
239.559	97.88
239.793	90.88
240.027	115.88
240.26	90.88
240.494	105.88
240.728	78.88
240.961	84.88
241.195	84.88
241.429	108.88
241.662	87.88
241.896	103.88
242.13	82.88
242.363	92.88
242.597	82.88
242.83	81.88
243.064	71.88
243.298	79.88
243.531	80.88
243.765	94.88
243.998	95.88
244.232	97.88
244.465	93.88
244.699	77.88
244.932	85.88
245.166	93.88
245.399	94.88
245.633	98.88
245.866	103.88
246.099	78.88
246.333	77.88
246.566	77.88
246.8	89.88
247.033	95.88
247.266	84.88
247.5	85.88
247.733	101.88
247.966	101.88
248.2	82.88
248.433	78.88
248.666	90.88
248.899	101.88
249.133	94.88
249.366	88.88
249.599	101.88
249.832	101.88
250.066	110.88
250.299	104.88
250.532	112.88
250.765	108.88
250.998	108.88
251.231	97.88
251.465	96.88
251.698	105.88
251.931	94.88
252.164	102.88
252.397	104.88
252.63	115.88
252.863	103.88
253.096	92.88
253.329	115.88
253.562	109.88
253.795	115.88
254.028	122.88
254.261	111.88
254.494	109.88
254.727	117.88
254.96	91.88
255.193	106.88
255.426	100.88
255.659	104.88
255.892	120.88
256.124	120.88
256.357	109.88
256.59	112.88
256.823	109.88
257.056	133.88
257.289	85.88
257.521	111.88
257.754	92.88
257.987	106.88
258.22	125.88
258.452	119.88
258.685	104.88
258.918	110.88
259.151	100.88
259.383	120.88
259.616	128.88
259.849	96.88
260.081	107.88
260.314	116.88
260.547	105.88
260.779	122.88
261.012	123.88
261.244	122.88
261.477	160.88
261.71	157.88
261.942	130.88
262.175	127.88
262.407	121.88
262.64	102.88
262.872	114.88
263.105	111.88
263.337	131.88
263.57	118.88
263.802	114.88
264.035	127.88
264.267	116.88
264.499	130.88
264.732	127.88
264.964	122.88
265.197	119.88
265.429	130.88
265.661	119.88
265.894	101.88
266.126	128.88
266.358	134.88
266.591	130.88
266.823	124.88
267.055	113.88
267.287	120.88
267.52	109.88
267.752	116.88
267.984	113.88
268.216	124.88
268.448	110.88
268.681	124.88
268.913	116.88
269.145	92.88
269.377	112.88
269.609	112.88
269.841	121.88
270.073	113.88
270.306	109.88
270.538	125.88
270.77	100.88
271.002	106.88
271.234	114.88
271.466	108.88
271.698	105.88
271.93	120.88
272.162	120.88
272.394	127.88
272.626	111.88
272.858	116.88
273.09	115.88
273.322	108.88
273.553	107.88
273.785	103.88
274.017	103.88
274.249	116.88
274.481	113.88
274.713	118.88
274.945	108.88
275.176	100.88
275.408	110.88
275.64	102.88
275.872	109.88
276.104	116.88
276.335	108.88
276.567	102.88
276.799	129.88
277.031	121.88
277.262	117.88
277.494	127.88
277.726	126.88
277.957	118.88
278.189	129.88
278.421	118.88
278.652	125.88
278.884	137.88
279.115	128.88
279.347	148.88
279.579	142.88
279.81	155.88
280.042	167.88
280.273	200.88
280.505	183.88
280.736	168.88
280.968	143.88
281.199	148.88
281.431	147.88
281.662	139.88
281.894	144.88
282.125	132.88
282.356	135.88
282.588	144.88
282.819	140.88
283.051	146.88
283.282	161.88
283.513	180.88
283.745	159.88
283.976	151.88
284.207	137.88
284.439	116.88
284.67	125.88
284.901	142.88
285.132	110.88
285.364	125.88
285.595	131.88
285.826	142.88
286.057	130.88
286.288	128.88
286.52	112.88
286.751	122.88
286.982	141.88
287.213	149.88
287.444	164.88
287.675	161.88
287.906	139.88
288.138	117.88
288.369	134.88
288.6	120.88
288.831	121.88
289.062	140.88
289.293	123.88
289.524	110.88
289.755	114.88
289.986	124.88
290.217	112.88
290.448	116.88
290.679	118.88
290.91	141.88
291.141	120.88
291.371	112.88
291.602	114.88
291.833	128.88
292.064	118.88
292.295	117.88
292.526	124.88
292.757	113.88
292.987	111.88
293.218	124.88
293.449	130.88
293.68	120.88
293.91	128.88
294.141	136.88
294.372	137.88
294.603	116.88
294.833	118.88
295.064	129.88
295.295	118.88
295.525	123.88
295.756	143.88
295.987	124.88
296.217	120.88
296.448	117.88
296.679	112.88
296.909	122.88
297.14	114.88
297.37	125.88
297.601	108.88
297.831	107.88
298.062	125.88
298.292	117.88
298.523	118.88
298.753	127.88
298.984	108.88
299.214	128.88
299.445	126.88
299.675	126.88
299.905	121.88
300.136	123.88
300.366	113.88
300.597	124.88
300.827	111.88
301.057	126.88
301.288	127.88
301.518	124.88
301.748	122.88
301.979	185.88
302.209	128.88
302.439	121.88
302.669	126.88
302.9	137.88
303.13	125.88
303.36	122.88
303.59	121.88
303.82	138.88
304.051	139.88
304.281	147.88
304.511	153.88
304.741	111.88
304.971	122.88
305.201	132.88
305.431	122.88
305.661	128.88
305.891	114.88
306.121	138.88
306.352	133.88
306.582	124.88
306.812	123.88
307.042	139.88
307.272	121.88
307.502	132.88
307.731	122.88
307.961	124.88
308.191	114.88
308.421	127.88
308.651	116.88
308.881	125.88
309.111	135.88
309.341	129.88
309.571	125.88
309.8	130.88
310.03	116.88
310.26	123.88
310.49	123.88
310.72	118.88
310.949	113.88
311.179	135.88
311.409	120.88
311.639	117.88
311.868	135.88
312.098	129.88
312.328	116.88
312.557	148.88
312.787	117.88
313.017	139.88
313.246	149.88
313.476	134.88
313.706	128.88
313.935	135.88
314.165	121.88
314.394	139.88
314.624	143.88
314.853	153.88
315.083	155.88
315.312	143.88
315.542	145.88
315.771	142.88
316.001	139.88
316.23	139.88
316.46	134.88
316.689	147.88
316.919	151.88
317.148	134.88
317.377	156.88
317.607	132.88
317.836	140.88
318.065	141.88
318.295	136.88
318.524	121.88
318.753	136.88
318.983	134.88
319.212	132.88
319.441	138.88
319.67	146.88
319.9	136.88
320.129	124.88
320.358	144.88
320.587	119.88
320.816	153.88
321.046	132.88
321.275	127.88
321.504	122.88
321.733	141.88
321.962	137.88
322.191	138.88
322.42	123.88
322.649	144.88
322.878	130.88
323.108	137.88
323.337	130.88
323.566	125.88
323.795	132.88
324.024	157.88
324.253	133.88
324.482	135.88
324.71	142.88
324.939	136.88
325.168	136.88
325.397	121.88
325.626	138.88
325.855	130.88
326.084	128.88
326.313	141.88
326.542	122.88
326.77	134.88
326.999	136.88
327.228	123.88
327.457	135.88
327.686	129.88
327.914	139.88
328.143	126.88
328.372	136.88
328.6	128.88
328.829	131.88
329.058	135.88
329.287	135.88
329.515	124.88
329.744	144.88
329.972	136.88
330.201	132.88
330.43	129.88
330.658	135.88
330.887	117.88
331.115	142.88
331.344	118.88
331.572	138.88
331.801	119.88
332.03	128.88
332.258	128.88
332.486	139.88
332.715	137.88
332.943	123.88
333.172	152.88
333.4	143.88
333.629	132.88
333.857	135.88
334.085	144.88
334.314	137.88
334.542	144.88
334.771	126.88
334.999	145.88
335.227	128.88
335.455	122.88
335.684	144.88
335.912	139.88
336.14	141.88
336.369	145.88
336.597	128.88
336.825	140.88
337.053	128.88
337.281	135.88
337.51	108.88
337.738	120.88
337.966	119.88
338.194	119.88
338.422	119.88
338.65	129.88
338.878	130.88
339.106	125.88
339.334	124.88
339.562	142.88
339.79	135.88
340.018	138.88
340.246	133.88
340.474	126.88
340.702	136.88
340.93	141.88
341.158	131.88
341.386	137.88
341.614	142.88
341.842	123.88
342.07	117.88
342.298	127.88
342.526	126.88
342.754	118.88
342.981	136.88
343.209	130.88
343.437	164.88
343.665	118.88
343.893	124.88
344.12	155.88
344.348	138.88
344.576	155.88
344.804	149.88
345.031	120.88
345.259	125.88
345.487	111.88
345.714	129.88
345.942	128.88
346.17	153.88
346.397	134.88
346.625	116.88
346.853	129.88
347.08	121.88
347.308	134.88
347.535	131.88
347.763	119.88
347.99	133.88
348.218	132.88
348.445	125.88
348.673	139.88
348.9	145.88
349.128	136.88
349.355	140.88
349.583	144.88
349.81	122.88
350.037	121.88
350.265	128.88
350.492	124.88
350.72	134.88
350.947	130.88
351.174	126.88
351.402	128.88
351.629	138.88
351.856	143.88
352.083	142.88
352.311	124.88
352.538	129.88
352.765	151.88
352.992	147.88
353.22	138.88
353.447	138.88
353.674	149.88
353.901	160.88
354.128	113.88
354.355	116.88
354.583	134.88
354.81	130.88
355.037	149.88
355.264	135.88
355.491	134.88
355.718	128.88
355.945	129.88
356.172	138.88
356.399	143.88
356.626	150.88
356.853	176.88
357.08	202.88
357.307	230.88
357.534	238.88
357.761	209.88
357.988	182.88
358.215	166.88
358.441	156.88
358.668	149.88
358.895	151.88
359.122	149.88
359.349	143.88
359.576	153.88
359.802	137.88
360.029	148.88
360.256	133.88
360.483	137.88
360.709	156.88
360.936	155.88
361.163	153.88
361.39	142.88
361.616	143.88
361.843	147.88
362.07	128.88
362.296	150.88
362.523	134.88
362.749	149.88
362.976	144.88
363.203	176.88
363.429	171.88
363.656	221.88
363.882	249.88
364.109	298.88
364.335	247.88
364.562	192.88
364.788	168.88
365.015	154.88
365.241	166.88
365.468	166.88
365.694	152.88
365.92	155.88
366.147	155.88
366.373	136.88
366.599	150.88
366.826	173.88
367.052	184.88
367.278	193.88
367.505	187.88
367.731	217.88
367.957	203.88
368.184	246.88
368.41	332.88
368.636	306.88
368.862	254.88
369.089	194.88
369.315	188.88
369.541	198.88
369.767	155.88
369.993	158.88
370.219	145.88
370.445	144.88
370.672	150.88
370.898	143.88
371.124	144.88
371.35	166.88
371.576	169.88
371.802	159.88
372.028	148.88
372.254	143.88
372.48	151.88
372.706	159.88
372.932	144.88
373.158	150.88
373.384	159.88
373.61	192.88
373.835	223.88
374.061	249.88
374.287	244.88
374.513	191.88
374.739	170.88
374.965	157.88
375.191	165.88
375.416	169.88
375.642	153.88
375.868	154.88
376.094	159.88
376.319	145.88
376.545	148.88
376.771	134.88
376.997	140.88
377.222	146.88
377.448	149.88
377.674	152.88
377.899	139.88
378.125	126.88
378.35	145.88
378.576	149.88
378.802	150.88
379.027	126.88
379.253	146.88
379.478	142.88
379.704	147.88
379.929	151.88
380.155	124.88
380.38	150.88
380.606	149.88
380.831	150.88
381.057	180.88
381.282	145.88
381.507	132.88
381.733	146.88
381.958	153.88
382.184	136.88
382.409	137.88
382.634	157.88
382.86	155.88
383.085	146.88
383.31	132.88
383.535	141.88
383.761	146.88
383.986	143.88
384.211	136.88
384.436	149.88
384.662	137.88
384.887	143.88
385.112	137.88
385.337	137.88
385.562	153.88
385.787	150.88
386.013	169.88
386.238	134.88
386.463	137.88
386.688	188.88
386.913	161.88
387.138	133.88
387.363	147.88
387.588	165.88
387.813	164.88
388.038	149.88
388.263	160.88
388.488	130.88
388.713	153.88
388.938	129.88
389.163	137.88
389.387	140.88
389.612	130.88
389.837	135.88
390.062	147.88
390.287	132.88
390.512	143.88
390.736	138.88
390.961	140.88
391.186	143.88
391.411	150.88
391.636	150.88
391.86	133.88
392.085	147.88
392.31	134.88
392.534	144.88
392.759	137.88
392.984	145.88
393.208	151.88
393.433	148.88
393.658	152.88
393.882	138.88
394.107	135.88
394.331	137.88
394.556	132.88
394.78	142.88
395.005	142.88
395.229	145.88
395.454	153.88
395.678	143.88
395.903	141.88
396.127	138.88
396.352	138.88
396.576	144.88
396.801	148.88
397.025	153.88
397.249	157.88
397.474	169.88
397.698	132.88
397.922	147.88
398.147	141.88
398.371	149.88
398.595	163.88
398.82	149.88
399.044	146.88
399.268	152.88
399.492	156.88
399.717	166.88
399.941	151.88
400.165	171.88
400.389	168.88
400.613	171.88
400.837	145.88
401.062	140.88
401.286	164.88
401.51	167.88
401.734	157.88
401.958	177.88
402.182	169.88
402.406	156.88
402.63	168.88
402.854	156.88
403.078	154.88
403.302	148.88
403.526	172.88
403.75	170.88
403.974	178.88
404.198	181.88
404.422	171.88
404.645	152.88
404.869	187.88
405.093	191.88
405.317	230.88
405.541	309.88
405.765	426.88
405.988	468.88
406.212	399.88
406.436	306.88
406.66	262.88
406.883	236.88
407.107	228.88
407.331	217.88
407.555	198.88
407.778	195.88
408.002	189.88
408.226	187.88
408.449	181.88
408.673	177.88
408.896	178.88
409.12	157.88
409.344	182.88
409.567	166.88
409.791	176.88
410.014	183.88
410.238	179.88
410.461	170.88
410.685	175.88
410.908	155.88
411.132	166.88
411.355	166.88
411.578	174.88
411.802	158.88
412.025	153.88
412.249	166.88
412.472	150.88
412.695	151.88
412.919	151.88
413.142	164.88
413.365	184.88
413.589	173.88
413.812	144.88
414.035	182.88
414.258	149.88
414.482	162.88
414.705	162.88
414.928	164.88
415.151	152.88
415.374	171.88
415.597	164.88
415.821	148.88
416.044	144.88
416.267	164.88
416.49	167.88
416.713	167.88
416.936	148.88
417.159	152.88
417.382	168.88
417.605	156.88
417.828	176.88
418.051	158.88
418.274	157.88
418.497	169.88
418.72	158.88
418.943	165.88
419.166	174.88
419.389	172.88
419.611	168.88
419.834	178.88
420.057	179.88
420.28	162.88
420.503	159.88
420.726	166.88
420.948	167.88
421.171	164.88
421.394	163.88
421.617	156.88
421.839	168.88
422.062	177.88
422.285	170.88
422.507	173.88
422.73	165.88
422.953	187.88
423.175	173.88
423.398	191.88
423.621	200.88
423.843	193.88
424.066	212.88
424.288	223.88
424.511	235.88
424.733	260.88
424.956	245.88
425.178	251.88
425.401	220.88
425.623	203.88
425.846	186.88
426.068	196.88
426.291	196.88
426.513	203.88
426.735	173.88
426.958	191.88
427.18	197.88
427.402	182.88
427.625	175.88
427.847	178.88
428.069	194.88
428.292	170.88
428.514	181.88
428.736	164.88
428.958	159.88
429.181	156.88
429.403	191.88
429.625	171.88
429.847	175.88
430.069	156.88
430.292	170.88
430.514	167.88
430.736	157.88
430.958	176.88
431.18	183.88
431.402	168.88
431.624	162.88
431.846	162.88
432.068	143.88
432.29	173.88
432.512	158.88
432.734	168.88
432.956	165.88
433.178	160.88
433.4	184.88
433.622	188.88
433.844	173.88
434.066	180.88
434.287	155.88
434.509	147.88
434.731	173.88
434.953	164.88
435.175	169.88
435.397	166.88
435.618	176.88
435.84	162.88
436.062	163.88
436.284	186.88
436.505	198.88
436.727	172.88
436.949	176.88
437.17	181.88
437.392	181.88
437.614	173.88
437.835	173.88
438.057	187.88
438.278	196.88
438.5	218.88
438.721	222.88
438.943	263.88
439.165	222.88
439.386	222.88
439.608	239.88
439.829	229.88
440.05	225.88
440.272	230.88
440.493	222.88
440.715	221.88
440.936	228.88
441.158	218.88
441.379	200.88
441.6	218.88
441.822	208.88
442.043	208.88
442.264	192.88
442.486	198.88
442.707	188.88
442.928	187.88
443.149	184.88
443.371	175.88
443.592	196.88
443.813	192.88
444.034	193.88
444.255	198.88
444.476	183.88
444.698	193.88
444.919	180.88
445.14	495.88
445.361	335.88
445.582	188.88
445.803	176.88
446.024	195.88
446.245	204.88
446.466	179.88
446.687	177.88
446.908	200.88
447.129	196.88
447.35	177.88
447.571	177.88
447.792	193.88
448.013	182.88
448.234	177.88
448.455	192.88
448.675	183.88
448.896	168.88
449.117	171.88
449.338	161.88
449.559	192.88
449.779	169.88
450	180.88
450.221	168.88
450.442	171.88
450.662	152.88
450.883	178.88
451.104	182.88
451.324	182.88
451.545	165.88
451.766	165.88
451.986	160.88
452.207	158.88
452.428	173.88
452.648	182.88
452.869	178.88
453.089	164.88
453.31	155.88
453.53	151.88
453.751	146.88
453.971	151.88
454.192	147.88
454.412	141.88
454.633	151.88
454.853	165.88
455.073	162.88
455.294	146.88
455.514	171.88
455.734	155.88
455.955	169.88
456.175	167.88
456.395	168.88
456.616	141.88
456.836	153.88
457.056	152.88
457.276	141.88
457.497	145.88
457.717	143.88
457.937	143.88
458.157	149.88
458.377	139.88
458.598	143.88
458.818	132.88
459.038	135.88
459.258	128.88
459.478	144.88
459.698	148.88
459.918	168.88
460.138	149.88
460.358	146.88
460.578	177.88
460.798	158.88
461.018	166.88
461.238	171.88
461.458	187.88
461.678	166.88
461.898	172.88
462.118	170.88
462.338	168.88
462.558	165.88
462.777	157.88
462.997	159.88
463.217	160.88
463.437	158.88
463.657	148.88
463.876	167.88
464.096	173.88
464.316	161.88
464.536	158.88
464.755	178.88
464.975	161.88
465.195	166.88
465.414	160.88
465.634	153.88
465.854	149.88
466.073	149.88
466.293	181.88
466.512	151.88
466.732	160.88
466.951	152.88
467.171	169.88
467.391	168.88
467.61	166.88
467.829	170.88
468.049	180.88
468.268	158.88
468.488	154.88
468.707	168.88
468.927	175.88
469.146	157.88
469.365	176.88
469.585	151.88
469.804	174.88
470.023	166.88
470.243	180.88
470.462	168.88
470.681	159.88
470.901	158.88
471.12	158.88
471.339	176.88
471.558	157.88
471.777	175.88
471.997	155.88
472.216	176.88
472.435	136.88
472.654	156.88
472.873	182.88
473.092	159.88
473.311	141.88
473.53	151.88
473.749	170.88
473.968	168.88
474.187	165.88
474.406	174.88
474.625	160.88
474.844	178.88
475.063	168.88
475.282	164.88
475.501	154.88
475.72	179.88
475.939	152.88
476.158	160.88
476.377	173.88
476.596	176.88
476.814	149.88
477.033	166.88
477.252	180.88
477.471	169.88
477.69	188.88
477.908	169.88
478.127	169.88
478.346	184.88
478.564	180.88
478.783	172.88
479.002	176.88
479.22	176.88
479.439	184.88
479.658	173.88
479.876	170.88
480.095	183.88
480.313	174.88
480.532	153.88
480.751	170.88
480.969	156.88
481.188	159.88
481.406	168.88
481.624	147.88
481.843	163.88
482.061	178.88
482.28	168.88
482.498	190.88
482.717	166.88
482.935	186.88
483.153	199.88
483.372	182.88
483.59	167.88
483.808	167.88
484.027	184.88
484.245	171.88
484.463	163.88
484.681	194.88
484.9	177.88
485.118	173.88
485.336	140.88
485.554	152.88
485.772	156.88
485.99	162.88
486.209	180.88
486.427	155.88
486.645	167.88
486.863	182.88
487.081	178.88
487.299	184.88
487.517	178.88
487.735	203.88
487.953	205.88
488.171	205.88
488.389	195.88
488.607	180.88
488.825	175.88
489.043	182.88
489.261	184.88
489.479	177.88
489.696	178.88
489.914	183.88
490.132	182.88
490.35	200.88
490.568	194.88
490.786	195.88
491.003	194.88
491.221	194.88
491.439	201.88
491.657	209.88
491.874	213.88
492.092	220.88
492.31	232.88
492.527	232.88
492.745	213.88
492.963	213.88
493.18	199.88
493.398	224.88
493.615	190.88
493.833	188.88
494.05	193.88
494.268	212.88
494.485	221.88
494.703	212.88
494.92	199.88
495.138	193.88
495.355	186.88
495.573	198.88
495.79	197.88
496.008	195.88
496.225	205.88
496.442	205.88
496.66	207.88
496.877	195.88
497.094	223.88
497.312	198.88
497.529	191.88
497.746	204.88
497.963	212.88
498.181	182.88
498.398	193.88
498.615	206.88
498.832	191.88
499.049	181.88
499.267	232.88
499.484	188.88
499.701	212.88
499.918	212.88
500.135	215.88
500.352	241.88
500.569	248.88
500.786	274.88
501.003	267.88
501.22	236.88
501.437	216.88
501.654	226.88
501.871	215.88
502.088	216.88
502.305	217.88
502.522	198.88
502.739	205.88
502.956	204.88
503.172	212.88
503.389	212.88
503.606	192.88
503.823	205.88
