Data from Uncirc_1988_H10_HRD10591_00076.txt Node
Date: Wed Jan 03 12:04:19 EST 2024
User: Yrep
Spectrometer: HR+D1059
Trigger mode: 1
Integration Time (sec): 1.000000E-1
Scans to average: 1
Electric dark correction enabled: true
Nonlinearity correction enabled: false
Boxcar width: 0
XAxis mode: Wavelengths
Number of Pixels in Spectrum: 2048
>>>>>Begin Spectral Data<<<<<
223.165	-9.88
223.4	-9.88
223.635	-9.88
223.869	-19.88
224.104	-13.88
224.338	-24.88
224.573	-13.88
224.808	-24.88
225.042	-10.88
225.277	-12.88
225.511	-0.88
225.746	7.12
225.98	8.12
226.215	17.12
226.449	23.12
226.683	26.12
226.918	25.12
227.152	25.12
227.387	47.12
227.621	54.12
227.856	57.12
228.09	40.12
228.324	55.12
228.559	57.12
228.793	50.12
229.027	61.12
229.262	66.12
229.496	81.12
229.73	91.12
229.964	91.12
230.199	75.12
230.433	69.12
230.667	98.12
230.901	77.12
231.136	71.12
231.37	86.12
231.604	85.12
231.838	97.12
232.072	81.12
232.306	84.12
232.541	97.12
232.775	88.12
233.009	90.12
233.243	82.12
233.477	103.12
233.711	89.12
233.945	87.12
234.179	87.12
234.413	92.12
234.647	87.12
234.881	81.12
235.115	81.12
235.349	84.12
235.583	74.12
235.817	75.12
236.051	81.12
236.285	95.12
236.519	71.12
236.753	81.12
236.987	74.12
237.221	87.12
237.455	86.12
237.689	83.12
237.922	69.12
238.156	76.12
238.39	90.12
238.624	75.12
238.858	91.12
239.091	72.12
239.325	71.12
239.559	64.12
239.793	80.12
240.027	80.12
240.26	87.12
240.494	83.12
240.728	81.12
240.961	80.12
241.195	84.12
241.429	76.12
241.662	81.12
241.896	73.12
242.13	77.12
242.363	83.12
242.597	64.12
242.83	84.12
243.064	81.12
243.298	77.12
243.531	90.12
243.765	67.12
243.998	77.12
244.232	79.12
244.465	85.12
244.699	78.12
244.932	76.12
245.166	81.12
245.399	79.12
245.633	81.12
245.866	77.12
246.099	73.12
246.333	88.12
246.566	80.12
246.8	97.12
247.033	80.12
247.266	74.12
247.5	79.12
247.733	87.12
247.966	87.12
248.2	81.12
248.433	89.12
248.666	84.12
248.899	91.12
249.133	72.12
249.366	89.12
249.599	105.12
249.832	72.12
250.066	87.12
250.299	75.12
250.532	80.12
250.765	81.12
250.998	86.12
251.231	84.12
251.465	90.12
251.698	95.12
251.931	83.12
252.164	77.12
252.397	90.12
252.63	84.12
252.863	91.12
253.096	90.12
253.329	91.12
253.562	71.12
253.795	89.12
254.028	88.12
254.261	87.12
254.494	89.12
254.727	95.12
254.96	76.12
255.193	87.12
255.426	89.12
255.659	89.12
255.892	82.12
256.124	100.12
256.357	93.12
256.59	76.12
256.823	92.12
257.056	89.12
257.289	71.12
257.521	82.12
257.754	82.12
257.987	101.12
258.22	93.12
258.452	82.12
258.685	83.12
258.918	89.12
259.151	79.12
259.383	85.12
259.616	85.12
259.849	92.12
260.081	81.12
260.314	83.12
260.547	73.12
260.779	82.12
261.012	84.12
261.244	89.12
261.477	77.12
261.71	92.12
261.942	120.12
262.175	122.12
262.407	91.12
262.64	86.12
262.872	96.12
263.105	79.12
263.337	91.12
263.57	83.12
263.802	87.12
264.035	91.12
264.267	83.12
264.499	88.12
264.732	91.12
264.964	82.12
265.197	87.12
265.429	87.12
265.661	81.12
265.894	98.12
266.126	72.12
266.358	83.12
266.591	88.12
266.823	88.12
267.055	85.12
267.287	83.12
267.52	78.12
267.752	92.12
267.984	92.12
268.216	81.12
268.448	84.12
268.681	79.12
268.913	101.12
269.145	87.12
269.377	79.12
269.609	80.12
269.841	86.12
270.073	75.12
270.306	93.12
270.538	83.12
270.77	91.12
271.002	80.12
271.234	95.12
271.466	91.12
271.698	93.12
271.93	85.12
272.162	85.12
272.394	88.12
272.626	82.12
272.858	95.12
273.09	86.12
273.322	79.12
273.553	80.12
273.785	85.12
274.017	88.12
274.249	86.12
274.481	64.12
274.713	75.12
274.945	90.12
275.176	79.12
275.408	87.12
275.64	92.12
275.872	87.12
276.104	77.12
276.335	91.12
276.567	110.12
276.799	109.12
277.031	118.12
277.262	104.12
277.494	97.12
277.726	71.12
277.957	86.12
278.189	87.12
278.421	68.12
278.652	86.12
278.884	85.12
279.115	97.12
279.347	85.12
279.579	85.12
279.81	97.12
280.042	97.12
280.273	84.12
280.505	88.12
280.736	98.12
280.968	90.12
281.199	86.12
281.431	85.12
281.662	96.12
281.894	95.12
282.125	100.12
282.356	104.12
282.588	143.12
282.819	121.12
283.051	93.12
283.282	89.12
283.513	99.12
283.745	80.12
283.976	84.12
284.207	83.12
284.439	72.12
284.67	79.12
284.901	87.12
285.132	90.12
285.364	104.12
285.595	112.12
285.826	89.12
286.057	85.12
286.288	99.12
286.52	81.12
286.751	83.12
286.982	95.12
287.213	89.12
287.444	89.12
287.675	98.12
287.906	92.12
288.138	96.12
288.369	100.12
288.6	105.12
288.831	74.12
289.062	94.12
289.293	88.12
289.524	85.12
289.755	85.12
289.986	77.12
290.217	85.12
290.448	91.12
290.679	93.12
290.91	85.12
291.141	77.12
291.371	96.12
291.602	73.12
291.833	89.12
292.064	78.12
292.295	77.12
292.526	93.12
292.757	96.12
292.987	95.12
293.218	86.12
293.449	89.12
293.68	98.12
293.91	97.12
294.141	96.12
294.372	85.12
294.603	76.12
294.833	84.12
295.064	95.12
295.295	89.12
295.525	103.12
295.756	113.12
295.987	117.12
296.217	161.12
296.448	130.12
296.679	101.12
296.909	111.12
297.14	91.12
297.37	97.12
297.601	91.12
297.831	89.12
298.062	102.12
298.292	108.12
298.523	91.12
298.753	74.12
298.984	81.12
299.214	87.12
299.445	107.12
299.675	91.12
299.905	82.12
300.136	78.12
300.366	88.12
300.597	108.12
300.827	92.12
301.057	97.12
301.288	113.12
301.518	100.12
301.748	94.12
301.979	100.12
302.209	100.12
302.439	104.12
302.669	80.12
302.9	108.12
303.13	97.12
303.36	98.12
303.59	101.12
303.82	122.12
304.051	91.12
304.281	79.12
304.511	90.12
304.741	95.12
304.971	81.12
305.201	91.12
305.431	97.12
305.661	97.12
305.891	100.12
306.121	106.12
306.352	109.12
306.582	118.12
306.812	95.12
307.042	97.12
307.272	97.12
307.502	96.12
307.731	111.12
307.961	84.12
308.191	98.12
308.421	74.12
308.651	87.12
308.881	97.12
309.111	91.12
309.341	102.12
309.571	104.12
309.8	97.12
310.03	91.12
310.26	103.12
310.49	95.12
310.72	100.12
310.949	114.12
311.179	101.12
311.409	113.12
311.639	103.12
311.868	92.12
312.098	100.12
312.328	96.12
312.557	98.12
312.787	114.12
313.017	108.12
313.246	92.12
313.476	97.12
313.706	99.12
313.935	103.12
314.165	99.12
314.394	114.12
314.624	109.12
314.853	103.12
315.083	97.12
315.312	95.12
315.542	89.12
315.771	95.12
316.001	99.12
316.23	96.12
316.46	100.12
316.689	101.12
316.919	103.12
317.148	97.12
317.377	97.12
317.607	115.12
317.836	98.12
318.065	94.12
318.295	90.12
318.524	87.12
318.753	89.12
318.983	99.12
319.212	99.12
319.441	108.12
319.67	109.12
319.9	98.12
320.129	101.12
320.358	98.12
320.587	100.12
320.816	106.12
321.046	91.12
321.275	97.12
321.504	94.12
321.733	89.12
321.962	103.12
322.191	98.12
322.42	92.12
322.649	102.12
322.878	117.12
323.108	131.12
323.337	140.12
323.566	131.12
323.795	173.12
324.024	220.12
324.253	461.12
324.482	1017.12
324.71	2022.12
324.939	2667.12
325.168	968.12
325.397	272.12
325.626	157.12
325.855	141.12
326.084	139.12
326.313	162.12
326.542	167.12
326.77	266.12
326.999	523.12
327.228	1054.12
327.457	2060.12
327.686	1607.12
327.914	441.12
328.143	218.12
328.372	187.12
328.6	149.12
328.829	124.12
329.058	138.12
329.287	140.12
329.515	122.12
329.744	109.12
329.972	113.12
330.201	133.12
330.43	152.12
330.658	159.12
330.887	159.12
331.115	128.12
331.344	111.12
331.572	108.12
331.801	118.12
332.03	110.12
332.258	110.12
332.486	98.12
332.715	103.12
332.943	102.12
333.172	102.12
333.4	97.12
333.629	117.12
333.857	120.12
334.085	126.12
334.314	118.12
334.542	144.12
334.771	139.12
334.999	111.12
335.227	88.12
335.455	100.12
335.684	95.12
335.912	104.12
336.14	99.12
336.369	98.12
336.597	91.12
336.825	92.12
337.053	98.12
337.281	100.12
337.51	98.12
337.738	84.12
337.966	87.12
338.194	97.12
338.422	104.12
338.65	96.12
338.878	95.12
339.106	86.12
339.334	98.12
339.562	100.12
339.79	93.12
340.018	112.12
340.246	86.12
340.474	98.12
340.702	87.12
340.93	86.12
341.158	87.12
341.386	103.12
341.614	102.12
341.842	88.12
342.07	99.12
342.298	92.12
342.526	108.12
342.754	106.12
342.981	87.12
343.209	84.12
343.437	107.12
343.665	98.12
343.893	98.12
344.12	103.12
344.348	106.12
344.576	84.12
344.804	84.12
345.031	92.12
345.259	104.12
345.487	98.12
345.714	104.12
345.942	106.12
346.17	104.12
346.397	96.12
346.625	87.12
346.853	104.12
347.08	87.12
347.308	106.12
347.535	99.12
347.763	97.12
347.99	107.12
348.218	113.12
348.445	105.12
348.673	93.12
348.9	112.12
349.128	103.12
349.355	87.12
349.583	97.12
349.81	107.12
350.037	108.12
350.265	107.12
350.492	85.12
350.72	83.12
350.947	104.12
351.174	116.12
351.402	125.12
351.629	101.12
351.856	99.12
352.083	100.12
352.311	99.12
352.538	114.12
352.765	105.12
352.992	115.12
353.22	107.12
353.447	104.12
353.674	100.12
353.901	98.12
354.128	105.12
354.355	103.12
354.583	101.12
354.81	106.12
355.037	95.12
355.264	97.12
355.491	91.12
355.718	90.12
355.945	105.12
356.172	96.12
356.399	100.12
356.626	101.12
356.853	106.12
357.08	108.12
357.307	99.12
357.534	95.12
357.761	89.12
357.988	105.12
358.215	93.12
358.441	85.12
358.668	102.12
358.895	96.12
359.122	99.12
359.349	95.12
359.576	90.12
359.802	110.12
360.029	138.12
360.256	128.12
360.483	97.12
360.709	102.12
360.936	103.12
361.163	87.12
361.39	102.12
361.616	107.12
361.843	96.12
362.07	99.12
362.296	84.12
362.523	103.12
362.749	84.12
362.976	95.12
363.203	79.12
363.429	103.12
363.656	100.12
363.882	91.12
364.109	95.12
364.335	109.12
364.562	102.12
364.788	95.12
365.015	97.12
365.241	105.12
365.468	121.12
365.694	106.12
365.92	80.12
366.147	87.12
366.373	100.12
366.599	68.12
366.826	89.12
367.052	92.12
367.278	90.12
367.505	90.12
367.731	97.12
367.957	95.12
368.184	100.12
368.41	120.12
368.636	114.12
368.862	139.12
369.089	112.12
369.315	95.12
369.541	93.12
369.767	91.12
369.993	94.12
370.219	100.12
370.445	97.12
370.672	93.12
370.898	82.12
371.124	95.12
371.35	69.12
371.576	94.12
371.802	105.12
372.028	83.12
372.254	86.12
372.48	81.12
372.706	79.12
372.932	90.12
373.158	86.12
373.384	97.12
373.61	80.12
373.835	100.12
374.061	85.12
374.287	93.12
374.513	81.12
374.739	83.12
374.965	90.12
375.191	101.12
375.416	98.12
375.642	90.12
375.868	90.12
376.094	106.12
376.319	81.12
376.545	99.12
376.771	88.12
376.997	106.12
377.222	100.12
377.448	96.12
377.674	101.12
377.899	95.12
378.125	83.12
378.35	97.12
378.576	76.12
378.802	79.12
379.027	85.12
379.253	110.12
379.478	95.12
379.704	87.12
379.929	93.12
380.155	88.12
380.38	83.12
380.606	90.12
380.831	85.12
381.057	112.12
381.282	100.12
381.507	98.12
381.733	107.12
381.958	92.12
382.184	103.12
382.409	94.12
382.634	107.12
382.86	96.12
383.085	110.12
383.31	115.12
383.535	100.12
383.761	105.12
383.986	112.12
384.211	102.12
384.436	87.12
384.662	109.12
384.887	103.12
385.112	96.12
385.337	104.12
385.562	99.12
385.787	96.12
386.013	103.12
386.238	105.12
386.463	112.12
386.688	116.12
386.913	112.12
387.138	114.12
387.363	103.12
387.588	103.12
387.813	91.12
388.038	111.12
388.263	113.12
388.488	101.12
388.713	105.12
388.938	104.12
389.163	108.12
389.387	106.12
389.612	93.12
389.837	76.12
390.062	92.12
390.287	97.12
390.512	100.12
390.736	102.12
390.961	102.12
391.186	99.12
391.411	77.12
391.636	90.12
391.86	88.12
392.085	76.12
392.31	86.12
392.534	95.12
392.759	91.12
392.984	94.12
393.208	88.12
393.433	87.12
393.658	93.12
393.882	92.12
394.107	90.12
394.331	87.12
394.556	84.12
394.78	105.12
395.005	68.12
395.229	90.12
395.454	93.12
395.678	87.12
395.903	88.12
396.127	94.12
396.352	99.12
396.576	76.12
396.801	88.12
397.025	90.12
397.249	88.12
397.474	95.12
397.698	98.12
397.922	97.12
398.147	98.12
398.371	87.12
398.595	90.12
398.82	80.12
399.044	106.12
399.268	84.12
399.492	91.12
399.717	90.12
399.941	83.12
400.165	119.12
400.389	107.12
400.613	95.12
400.837	83.12
401.062	77.12
401.286	83.12
401.51	87.12
401.734	105.12
401.958	100.12
402.182	131.12
402.406	185.12
402.63	112.12
402.854	84.12
403.078	93.12
403.302	97.12
403.526	96.12
403.75	100.12
403.974	89.12
404.198	82.12
404.422	93.12
404.645	85.12
404.869	89.12
405.093	89.12
405.317	114.12
405.541	104.12
405.765	115.12
405.988	129.12
406.212	170.12
406.436	260.12
406.66	147.12
406.883	111.12
407.107	101.12
407.331	95.12
407.555	104.12
407.778	112.12
408.002	96.12
408.226	87.12
408.449	93.12
408.673	91.12
408.896	107.12
409.12	102.12
409.344	91.12
409.567	84.12
409.791	101.12
410.014	104.12
410.238	104.12
410.461	98.12
410.685	83.12
410.908	88.12
411.132	119.12
411.355	93.12
411.578	81.12
411.802	95.12
412.025	104.12
412.249	90.12
412.472	99.12
412.695	95.12
412.919	100.12
413.142	105.12
413.365	85.12
413.589	92.12
413.812	93.12
414.035	76.12
414.258	86.12
414.482	94.12
414.705	93.12
414.928	85.12
415.151	98.12
415.374	100.12
415.597	98.12
415.821	89.12
416.044	87.12
416.267	80.12
416.49	93.12
416.713	81.12
416.936	90.12
417.159	95.12
417.382	91.12
417.605	89.12
417.828	102.12
418.051	101.12
418.274	88.12
418.497	91.12
418.72	96.12
418.943	87.12
419.166	87.12
419.389	81.12
419.611	101.12
419.834	97.12
420.057	95.12
420.28	94.12
420.503	101.12
420.726	104.12
420.948	105.12
421.171	104.12
421.394	97.12
421.617	107.12
421.839	93.12
422.062	101.12
422.285	104.12
422.507	85.12
422.73	121.12
422.953	95.12
423.175	88.12
423.398	97.12
423.621	90.12
423.843	81.12
424.066	90.12
424.288	91.12
424.511	97.12
424.733	98.12
424.956	109.12
425.178	96.12
425.401	114.12
425.623	101.12
425.846	90.12
426.068	104.12
426.291	103.12
426.513	91.12
426.735	90.12
426.958	89.12
427.18	112.12
427.402	145.12
427.625	192.12
427.847	147.12
428.069	115.12
428.292	91.12
428.514	96.12
428.736	102.12
428.958	93.12
429.181	88.12
429.403	82.12
429.625	98.12
429.847	99.12
430.069	105.12
430.292	91.12
430.514	74.12
430.736	94.12
430.958	93.12
431.18	85.12
431.402	81.12
431.624	80.12
431.846	75.12
432.068	85.12
432.29	96.12
432.512	90.12
432.734	87.12
432.956	92.12
433.178	99.12
433.4	89.12
433.622	87.12
433.844	95.12
434.066	104.12
434.287	85.12
434.509	98.12
434.731	91.12
434.953	95.12
435.175	99.12
435.397	105.12
435.618	95.12
435.84	108.12
436.062	117.12
436.284	134.12
436.505	118.12
436.727	106.12
436.949	97.12
437.17	101.12
437.392	71.12
437.614	89.12
437.835	109.12
438.057	138.12
438.278	119.12
438.5	97.12
438.721	132.12
438.943	120.12
439.165	86.12
439.386	93.12
439.608	87.12
439.829	102.12
440.05	129.12
440.272	147.12
440.493	111.12
440.715	91.12
440.936	97.12
441.158	91.12
441.379	98.12
441.6	106.12
441.822	83.12
442.043	93.12
442.264	105.12
442.486	110.12
442.707	108.12
442.928	121.12
443.149	143.12
443.371	134.12
443.592	123.12
443.813	111.12
444.034	109.12
444.255	87.12
444.476	99.12
444.698	105.12
444.919	71.12
445.14	125.12
445.361	131.12
445.582	115.12
445.803	152.12
446.024	163.12
446.245	130.12
446.466	124.12
446.687	96.12
446.908	93.12
447.129	95.12
447.35	88.12
447.571	96.12
447.792	98.12
448.013	105.12
448.234	99.12
448.455	103.12
448.675	134.12
448.896	116.12
449.117	101.12
449.338	113.12
449.559	131.12
449.779	141.12
450	110.12
450.221	102.12
450.442	91.12
450.662	99.12
450.883	115.12
451.104	112.12
451.324	92.12
451.545	108.12
451.766	88.12
451.986	86.12
452.207	101.12
452.428	92.12
452.648	108.12
452.869	103.12
453.089	107.12
453.31	111.12
453.53	88.12
453.751	80.12
453.971	106.12
454.192	114.12
454.412	98.12
454.633	103.12
454.853	80.12
455.073	91.12
455.294	106.12
455.514	108.12
455.734	96.12
455.955	89.12
456.175	100.12
456.395	91.12
456.616	87.12
456.836	92.12
457.056	87.12
457.276	100.12
457.497	76.12
457.717	87.12
457.937	99.12
458.157	83.12
458.377	86.12
458.598	112.12
458.818	152.12
459.038	160.12
459.258	111.12
459.478	97.12
459.698	101.12
459.918	89.12
460.138	81.12
460.358	88.12
460.578	79.12
460.798	105.12
461.018	95.12
461.238	86.12
461.458	78.12
461.678	87.12
461.898	97.12
462.118	97.12
462.338	88.12
462.558	71.12
462.777	81.12
462.997	90.12
463.217	90.12
463.437	85.12
463.657	81.12
463.876	95.12
464.096	76.12
464.316	95.12
464.536	99.12
464.755	88.12
464.975	112.12
465.195	199.12
465.414	167.12
465.634	92.12
465.854	93.12
466.073	95.12
466.293	76.12
466.512	92.12
466.732	82.12
466.951	106.12
467.171	92.12
467.391	111.12
467.61	99.12
467.829	113.12
468.049	93.12
468.268	105.12
468.488	96.12
468.707	89.12
468.927	79.12
469.146	84.12
469.365	88.12
469.585	96.12
469.804	97.12
470.023	99.12
470.243	99.12
470.462	99.12
470.681	112.12
470.901	96.12
471.12	105.12
471.339	82.12
471.558	84.12
471.777	84.12
471.997	96.12
472.216	130.12
472.435	137.12
472.654	107.12
472.873	89.12
473.092	90.12
473.311	82.12
473.53	83.12
473.749	94.12
473.968	118.12
474.187	104.12
474.406	92.12
474.625	97.12
474.844	92.12
475.063	85.12
475.282	81.12
475.501	79.12
475.72	95.12
475.939	88.12
476.158	80.12
476.377	85.12
476.596	88.12
476.814	105.12
477.033	104.12
477.252	82.12
477.471	92.12
477.69	91.12
477.908	98.12
478.127	86.12
478.346	95.12
478.564	98.12
478.783	108.12
479.002	84.12
479.22	93.12
479.439	107.12
479.658	99.12
479.876	89.12
480.095	101.12
480.313	95.12
480.532	104.12
480.751	99.12
480.969	112.12
481.188	205.12
481.406	140.12
481.624	99.12
481.843	88.12
482.061	96.12
482.28	92.12
482.498	95.12
482.717	101.12
482.935	95.12
483.153	113.12
483.372	90.12
483.59	92.12
483.808	88.12
484.027	108.12
484.245	98.12
484.463	99.12
484.681	111.12
484.9	104.12
485.118	99.12
485.336	95.12
485.554	105.12
485.772	103.12
485.99	98.12
486.209	104.12
486.427	103.12
486.645	115.12
486.863	122.12
487.081	106.12
487.299	96.12
487.517	96.12
487.735	95.12
487.953	89.12
488.171	107.12
488.389	86.12
488.607	108.12
488.825	83.12
489.043	94.12
489.261	103.12
489.479	92.12
489.696	83.12
489.914	100.12
490.132	92.12
490.35	88.12
490.568	96.12
490.786	92.12
491.003	103.12
491.221	89.12
491.439	97.12
491.657	101.12
491.874	92.12
492.092	93.12
492.31	95.12
492.527	99.12
492.745	88.12
492.963	91.12
493.18	89.12
493.398	88.12
493.615	104.12
493.833	103.12
494.05	89.12
494.268	98.12
494.485	92.12
494.703	87.12
494.92	99.12
495.138	93.12
495.355	82.12
495.573	100.12
495.79	104.12
496.008	92.12
496.225	97.12
496.442	97.12
496.66	98.12
496.877	115.12
497.094	98.12
497.312	82.12
497.529	86.12
497.746	88.12
497.963	97.12
498.181	103.12
498.398	114.12
498.615	105.12
498.832	109.12
499.049	100.12
499.267	83.12
499.484	96.12
499.701	103.12
499.918	87.12
500.135	82.12
500.352	95.12
500.569	91.12
500.786	93.12
501.003	93.12
501.22	103.12
501.437	85.12
501.654	101.12
501.871	118.12
502.088	111.12
502.305	85.12
502.522	98.12
502.739	102.12
502.956	90.12
503.172	92.12
503.389	100.12
503.606	104.12
503.823	96.12
504.04	104.12
504.256	88.12
504.473	84.12
504.69	99.12
504.907	97.12
505.123	91.12
505.34	89.12
505.557	104.12
505.773	116.12
505.99	107.12
506.207	83.12
506.423	98.12
506.64	92.12
506.856	95.12
507.073	99.12
507.289	96.12
507.506	96.12
507.722	108.12
507.939	129.12
508.155	105.12
508.372	99.12
508.588	97.12
508.805	122.12
509.021	113.12
509.238	97.12
509.454	91.12
509.67	103.12
509.887	126.12
510.103	149.12
510.319	232.12
510.536	883.12
510.752	2892.12
510.968	759.12
511.184	173.12
511.401	126.12
511.617	112.12
511.833	92.12
512.049	96.12
512.265	95.12
512.481	96.12
512.698	95.12
512.914	97.12
513.13	114.12
513.346	107.12
513.562	96.12
513.778	101.12
