Data from Uncirc_1988_H10_HRD10591_00042.txt Node
Date: Wed Jan 03 12:04:12 EST 2024
User: Yrep
Spectrometer: HR+D1059
Trigger mode: 1
Integration Time (sec): 1.000000E-1
Scans to average: 1
Electric dark correction enabled: true
Nonlinearity correction enabled: false
Boxcar width: 0
XAxis mode: Wavelengths
Number of Pixels in Spectrum: 2048
>>>>>Begin Spectral Data<<<<<
223.165	-22.44
223.4	-22.44
223.635	-22.44
223.869	-10.44
224.104	-39.44
224.338	-21.44
224.573	-16.44
224.808	-8.44
225.042	0.56
225.277	-7.44
225.511	3.56
225.746	2.56
225.98	6.56
226.215	9.56
226.449	24.56
226.683	29.56
226.918	14.56
227.152	34.56
227.387	34.56
227.621	46.56
227.856	38.56
228.09	56.56
228.324	49.56
228.559	53.56
228.793	52.56
229.027	53.56
229.262	58.56
229.496	83.56
229.73	80.56
229.964	74.56
230.199	77.56
230.433	81.56
230.667	82.56
230.901	73.56
231.136	87.56
231.37	77.56
231.604	85.56
231.838	83.56
232.072	84.56
232.306	93.56
232.541	87.56
232.775	80.56
233.009	78.56
233.243	54.56
233.477	85.56
233.711	74.56
233.945	82.56
234.179	81.56
234.413	85.56
234.647	76.56
234.881	82.56
235.115	76.56
235.349	81.56
235.583	79.56
235.817	88.56
236.051	77.56
236.285	78.56
236.519	77.56
236.753	71.56
236.987	64.56
237.221	82.56
237.455	81.56
237.689	90.56
237.922	67.56
238.156	76.56
238.39	84.56
238.624	76.56
238.858	67.56
239.091	69.56
239.325	72.56
239.559	91.56
239.793	75.56
240.027	85.56
240.26	78.56
240.494	80.56
240.728	69.56
240.961	80.56
241.195	78.56
241.429	78.56
241.662	68.56
241.896	79.56
242.13	65.56
242.363	87.56
242.597	63.56
242.83	79.56
243.064	74.56
243.298	76.56
243.531	60.56
243.765	80.56
243.998	73.56
244.232	76.56
244.465	82.56
244.699	86.56
244.932	89.56
245.166	78.56
245.399	79.56
245.633	70.56
245.866	80.56
246.099	74.56
246.333	82.56
246.566	80.56
246.8	82.56
247.033	76.56
247.266	81.56
247.5	89.56
247.733	87.56
247.966	78.56
248.2	73.56
248.433	80.56
248.666	84.56
248.899	68.56
249.133	99.56
249.366	88.56
249.599	109.56
249.832	84.56
250.066	89.56
250.299	64.56
250.532	76.56
250.765	89.56
250.998	78.56
251.231	68.56
251.465	70.56
251.698	86.56
251.931	94.56
252.164	74.56
252.397	81.56
252.63	79.56
252.863	81.56
253.096	72.56
253.329	89.56
253.562	77.56
253.795	80.56
254.028	83.56
254.261	83.56
254.494	77.56
254.727	82.56
254.96	76.56
255.193	98.56
255.426	87.56
255.659	70.56
255.892	78.56
256.124	90.56
256.357	70.56
256.59	78.56
256.823	74.56
257.056	87.56
257.289	85.56
257.521	84.56
257.754	90.56
257.987	91.56
258.22	80.56
258.452	69.56
258.685	88.56
258.918	89.56
259.151	68.56
259.383	76.56
259.616	86.56
259.849	85.56
260.081	92.56
260.314	81.56
260.547	77.56
260.779	80.56
261.012	84.56
261.244	78.56
261.477	80.56
261.71	96.56
261.942	103.56
262.175	118.56
262.407	96.56
262.64	83.56
262.872	79.56
263.105	85.56
263.337	92.56
263.57	80.56
263.802	86.56
264.035	72.56
264.267	84.56
264.499	79.56
264.732	84.56
264.964	85.56
265.197	73.56
265.429	85.56
265.661	70.56
265.894	73.56
266.126	86.56
266.358	86.56
266.591	68.56
266.823	77.56
267.055	96.56
267.287	85.56
267.52	80.56
267.752	81.56
267.984	85.56
268.216	86.56
268.448	92.56
268.681	89.56
268.913	91.56
269.145	80.56
269.377	92.56
269.609	71.56
269.841	63.56
270.073	77.56
270.306	85.56
270.538	81.56
270.77	86.56
271.002	81.56
271.234	82.56
271.466	101.56
271.698	81.56
271.93	72.56
272.162	89.56
272.394	72.56
272.626	92.56
272.858	82.56
273.09	93.56
273.322	83.56
273.553	89.56
273.785	88.56
274.017	79.56
274.249	91.56
274.481	85.56
274.713	73.56
274.945	89.56
275.176	92.56
275.408	89.56
275.64	81.56
275.872	84.56
276.104	92.56
276.335	84.56
276.567	96.56
276.799	103.56
277.031	86.56
277.262	80.56
277.494	87.56
277.726	85.56
277.957	92.56
278.189	88.56
278.421	77.56
278.652	81.56
278.884	89.56
279.115	95.56
279.347	88.56
279.579	89.56
279.81	79.56
280.042	88.56
280.273	82.56
280.505	85.56
280.736	79.56
280.968	76.56
281.199	85.56
281.431	81.56
281.662	85.56
281.894	84.56
282.125	94.56
282.356	116.56
282.588	127.56
282.819	113.56
283.051	89.56
283.282	83.56
283.513	84.56
283.745	93.56
283.976	88.56
284.207	84.56
284.439	89.56
284.67	93.56
284.901	88.56
285.132	76.56
285.364	98.56
285.595	79.56
285.826	96.56
286.057	88.56
286.288	83.56
286.52	83.56
286.751	94.56
286.982	83.56
287.213	82.56
287.444	99.56
287.675	81.56
287.906	87.56
288.138	81.56
288.369	83.56
288.6	88.56
288.831	88.56
289.062	89.56
289.293	89.56
289.524	81.56
289.755	86.56
289.986	87.56
290.217	94.56
290.448	89.56
290.679	82.56
290.91	97.56
291.141	89.56
291.371	81.56
291.602	89.56
291.833	94.56
292.064	83.56
292.295	89.56
292.526	84.56
292.757	98.56
292.987	87.56
293.218	69.56
293.449	74.56
293.68	82.56
293.91	78.56
294.141	85.56
294.372	84.56
294.603	84.56
294.833	96.56
295.064	85.56
295.295	88.56
295.525	109.56
295.756	101.56
295.987	112.56
296.217	116.56
296.448	105.56
296.679	102.56
296.909	83.56
297.14	86.56
297.37	99.56
297.601	90.56
297.831	93.56
298.062	101.56
298.292	93.56
298.523	109.56
298.753	88.56
298.984	92.56
299.214	89.56
299.445	87.56
299.675	89.56
299.905	89.56
300.136	95.56
300.366	87.56
300.597	88.56
300.827	96.56
301.057	90.56
301.288	115.56
301.518	103.56
301.748	96.56
301.979	73.56
302.209	93.56
302.439	93.56
302.669	83.56
302.9	93.56
303.13	82.56
303.36	85.56
303.59	86.56
303.82	106.56
304.051	95.56
304.281	83.56
304.511	88.56
304.741	87.56
304.971	85.56
305.201	89.56
305.431	88.56
305.661	92.56
305.891	88.56
306.121	94.56
306.352	98.56
306.582	84.56
306.812	102.56
307.042	98.56
307.272	101.56
307.502	99.56
307.731	92.56
307.961	91.56
308.191	98.56
308.421	86.56
308.651	78.56
308.881	106.56
309.111	85.56
309.341	90.56
309.571	104.56
309.8	101.56
310.03	100.56
310.26	72.56
310.49	82.56
310.72	94.56
310.949	103.56
311.179	94.56
311.409	86.56
311.639	100.56
311.868	91.56
312.098	84.56
312.328	92.56
312.557	108.56
312.787	112.56
313.017	98.56
313.246	84.56
313.476	93.56
313.706	97.56
313.935	102.56
314.165	106.56
314.394	92.56
314.624	108.56
314.853	102.56
315.083	95.56
315.312	83.56
315.542	85.56
315.771	102.56
316.001	92.56
316.23	89.56
316.46	100.56
316.689	95.56
316.919	87.56
317.148	97.56
317.377	98.56
317.607	93.56
317.836	88.56
318.065	93.56
318.295	100.56
318.524	96.56
318.753	103.56
318.983	86.56
319.212	97.56
319.441	105.56
319.67	105.56
319.9	88.56
320.129	121.56
320.358	105.56
320.587	87.56
320.816	92.56
321.046	108.56
321.275	92.56
321.504	81.56
321.733	84.56
321.962	96.56
322.191	89.56
322.42	112.56
322.649	116.56
322.878	98.56
323.108	105.56
323.337	110.56
323.566	125.56
323.795	144.56
324.024	183.56
324.253	387.56
324.482	786.56
324.71	1679.56
324.939	2167.56
325.168	776.56
325.397	245.56
325.626	162.56
325.855	128.56
326.084	120.56
326.313	128.56
326.542	145.56
326.77	224.56
326.999	454.56
327.228	950.56
327.457	1713.56
327.686	1344.56
327.914	350.56
328.143	183.56
328.372	137.56
328.6	116.56
328.829	122.56
329.058	116.56
329.287	129.56
329.515	107.56
329.744	99.56
329.972	90.56
330.201	98.56
330.43	97.56
330.658	119.56
330.887	142.56
331.115	114.56
331.344	98.56
331.572	109.56
331.801	116.56
332.03	107.56
332.258	108.56
332.486	78.56
332.715	92.56
332.943	89.56
333.172	102.56
333.4	97.56
333.629	107.56
333.857	83.56
334.085	98.56
334.314	100.56
334.542	110.56
334.771	120.56
334.999	114.56
335.227	89.56
335.455	100.56
335.684	91.56
335.912	79.56
336.14	86.56
336.369	85.56
336.597	108.56
336.825	86.56
337.053	91.56
337.281	96.56
337.51	104.56
337.738	105.56
337.966	96.56
338.194	90.56
338.422	93.56
338.65	102.56
338.878	88.56
339.106	78.56
339.334	86.56
339.562	100.56
339.79	96.56
340.018	101.56
340.246	92.56
340.474	105.56
340.702	88.56
340.93	85.56
341.158	88.56
341.386	94.56
341.614	103.56
341.842	99.56
342.07	79.56
342.298	101.56
342.526	101.56
342.754	83.56
342.981	90.56
343.209	82.56
343.437	100.56
343.665	107.56
343.893	96.56
344.12	84.56
344.348	90.56
344.576	97.56
344.804	96.56
345.031	93.56
345.259	111.56
345.487	109.56
345.714	103.56
345.942	86.56
346.17	86.56
346.397	81.56
346.625	92.56
346.853	101.56
347.08	81.56
347.308	100.56
347.535	95.56
347.763	102.56
347.99	102.56
348.218	98.56
348.445	109.56
348.673	113.56
348.9	93.56
349.128	96.56
349.355	96.56
349.583	100.56
349.81	93.56
350.037	95.56
350.265	98.56
350.492	87.56
350.72	86.56
350.947	99.56
351.174	97.56
351.402	104.56
351.629	110.56
351.856	100.56
352.083	96.56
352.311	97.56
352.538	114.56
352.765	116.56
352.992	109.56
353.22	98.56
353.447	98.56
353.674	106.56
353.901	91.56
354.128	95.56
354.355	106.56
354.583	95.56
354.81	100.56
355.037	104.56
355.264	92.56
355.491	103.56
355.718	87.56
355.945	98.56
356.172	97.56
356.399	97.56
356.626	92.56
356.853	96.56
357.08	93.56
357.307	93.56
357.534	93.56
357.761	85.56
357.988	104.56
358.215	84.56
358.441	101.56
358.668	96.56
358.895	102.56
359.122	84.56
359.349	98.56
359.576	90.56
359.802	105.56
360.029	98.56
360.256	116.56
360.483	89.56
360.709	90.56
360.936	89.56
361.163	96.56
361.39	109.56
361.616	88.56
361.843	101.56
362.07	105.56
362.296	100.56
362.523	92.56
362.749	94.56
362.976	93.56
363.203	96.56
363.429	90.56
363.656	85.56
363.882	83.56
364.109	101.56
364.335	96.56
364.562	95.56
364.788	90.56
365.015	96.56
365.241	99.56
365.468	95.56
365.694	95.56
365.92	84.56
366.147	88.56
366.373	95.56
366.599	102.56
366.826	99.56
367.052	81.56
367.278	100.56
367.505	96.56
367.731	106.56
367.957	97.56
368.184	83.56
368.41	80.56
368.636	111.56
368.862	116.56
369.089	96.56
369.315	88.56
369.541	95.56
369.767	85.56
369.993	92.56
370.219	78.56
370.445	90.56
370.672	89.56
370.898	101.56
371.124	83.56
371.35	95.56
371.576	87.56
371.802	92.56
372.028	82.56
372.254	90.56
372.48	82.56
372.706	86.56
372.932	82.56
373.158	81.56
373.384	104.56
373.61	82.56
373.835	92.56
374.061	87.56
374.287	96.56
374.513	86.56
374.739	92.56
374.965	96.56
375.191	98.56
375.416	84.56
375.642	106.56
375.868	84.56
376.094	81.56
376.319	98.56
376.545	99.56
376.771	92.56
376.997	77.56
377.222	98.56
377.448	86.56
377.674	92.56
377.899	83.56
378.125	86.56
378.35	76.56
378.576	87.56
378.802	86.56
379.027	83.56
379.253	95.56
379.478	91.56
379.704	85.56
379.929	85.56
380.155	86.56
380.38	98.56
380.606	91.56
380.831	89.56
381.057	89.56
381.282	100.56
381.507	107.56
381.733	104.56
381.958	93.56
382.184	83.56
382.409	96.56
382.634	92.56
382.86	94.56
383.085	95.56
383.31	105.56
383.535	90.56
383.761	99.56
383.986	101.56
384.211	84.56
384.436	89.56
384.662	95.56
384.887	100.56
385.112	101.56
385.337	105.56
385.562	117.56
385.787	100.56
386.013	110.56
386.238	109.56
386.463	97.56
386.688	116.56
386.913	104.56
387.138	98.56
387.363	101.56
387.588	92.56
387.813	95.56
388.038	98.56
388.263	101.56
388.488	105.56
388.713	101.56
388.938	86.56
389.163	96.56
389.387	98.56
389.612	91.56
389.837	99.56
390.062	89.56
390.287	95.56
390.512	95.56
390.736	109.56
390.961	92.56
391.186	100.56
391.411	87.56
391.636	89.56
391.86	89.56
392.085	81.56
392.31	101.56
392.534	96.56
392.759	69.56
392.984	70.56
393.208	86.56
393.433	94.56
393.658	89.56
393.882	93.56
394.107	102.56
394.331	73.56
394.556	88.56
394.78	84.56
395.005	64.56
395.229	82.56
395.454	89.56
395.678	85.56
395.903	87.56
396.127	88.56
396.352	85.56
396.576	92.56
396.801	90.56
397.025	80.56
397.249	96.56
397.474	94.56
397.698	88.56
397.922	85.56
398.147	88.56
398.371	74.56
398.595	86.56
398.82	81.56
399.044	69.56
399.268	94.56
399.492	98.56
399.717	80.56
399.941	84.56
400.165	82.56
400.389	85.56
400.613	101.56
400.837	93.56
401.062	98.56
401.286	97.56
401.51	97.56
401.734	80.56
401.958	95.56
402.182	123.56
402.406	150.56
402.63	112.56
402.854	96.56
403.078	93.56
403.302	76.56
403.526	77.56
403.75	79.56
403.974	96.56
404.198	84.56
404.422	82.56
404.645	85.56
404.869	82.56
405.093	82.56
405.317	106.56
405.541	89.56
405.765	104.56
405.988	114.56
406.212	172.56
406.436	210.56
406.66	130.56
406.883	95.56
407.107	97.56
407.331	100.56
407.555	110.56
407.778	92.56
408.002	74.56
408.226	77.56
408.449	85.56
408.673	104.56
408.896	87.56
409.12	92.56
409.344	97.56
409.567	97.56
409.791	100.56
410.014	84.56
410.238	98.56
410.461	104.56
410.685	97.56
410.908	107.56
411.132	110.56
411.355	96.56
411.578	103.56
411.802	97.56
412.025	83.56
412.249	84.56
412.472	88.56
412.695	94.56
412.919	95.56
413.142	70.56
413.365	71.56
413.589	86.56
413.812	83.56
414.035	94.56
414.258	84.56
414.482	92.56
414.705	98.56
414.928	99.56
415.151	78.56
415.374	104.56
415.597	112.56
415.821	105.56
416.044	84.56
416.267	81.56
416.49	91.56
416.713	93.56
416.936	91.56
417.159	87.56
417.382	83.56
417.605	98.56
417.828	103.56
418.051	84.56
418.274	92.56
418.497	88.56
418.72	94.56
418.943	90.56
419.166	94.56
419.389	78.56
419.611	85.56
419.834	79.56
420.057	81.56
420.28	88.56
420.503	106.56
420.726	87.56
420.948	92.56
421.171	96.56
421.394	94.56
421.617	91.56
421.839	69.56
422.062	78.56
422.285	90.56
422.507	97.56
422.73	97.56
422.953	97.56
423.175	91.56
423.398	97.56
423.621	88.56
423.843	82.56
424.066	90.56
424.288	92.56
424.511	98.56
424.733	99.56
424.956	110.56
425.178	90.56
425.401	105.56
425.623	98.56
425.846	104.56
426.068	99.56
426.291	95.56
426.513	88.56
426.735	97.56
426.958	100.56
427.18	102.56
427.402	138.56
427.625	170.56
427.847	129.56
428.069	102.56
428.292	83.56
428.514	87.56
428.736	82.56
428.958	82.56
429.181	96.56
429.403	78.56
429.625	78.56
429.847	92.56
430.069	95.56
430.292	96.56
430.514	74.56
430.736	94.56
430.958	82.56
431.18	85.56
431.402	98.56
431.624	80.56
431.846	93.56
432.068	87.56
432.29	86.56
432.512	81.56
432.734	85.56
432.956	95.56
433.178	102.56
433.4	87.56
433.622	85.56
433.844	74.56
434.066	76.56
434.287	95.56
434.509	87.56
434.731	80.56
434.953	87.56
435.175	91.56
435.397	81.56
435.618	90.56
435.84	93.56
436.062	117.56
436.284	95.56
436.505	104.56
436.727	109.56
436.949	103.56
437.17	89.56
437.392	85.56
437.614	91.56
437.835	93.56
438.057	113.56
438.278	110.56
438.5	90.56
438.721	116.56
438.943	96.56
439.165	79.56
439.386	98.56
439.608	86.56
439.829	92.56
440.05	99.56
440.272	126.56
440.493	82.56
440.715	80.56
440.936	100.56
441.158	92.56
441.379	91.56
441.6	89.56
441.822	84.56
442.043	100.56
442.264	118.56
442.486	106.56
442.707	97.56
442.928	101.56
443.149	134.56
443.371	152.56
443.592	99.56
443.813	98.56
444.034	91.56
444.255	96.56
444.476	87.56
444.698	86.56
444.919	86.56
445.14	128.56
445.361	145.56
445.582	120.56
445.803	125.56
446.024	129.56
446.245	125.56
446.466	105.56
446.687	96.56
446.908	88.56
447.129	78.56
447.35	79.56
447.571	88.56
447.792	80.56
448.013	94.56
448.234	113.56
448.455	97.56
448.675	107.56
448.896	125.56
449.117	93.56
449.338	95.56
449.559	129.56
449.779	129.56
450	79.56
450.221	95.56
450.442	96.56
450.662	94.56
450.883	92.56
451.104	97.56
451.324	88.56
451.545	68.56
451.766	90.56
451.986	68.56
452.207	91.56
452.428	94.56
452.648	100.56
452.869	110.56
453.089	105.56
453.31	118.56
453.53	92.56
453.751	80.56
453.971	99.56
454.192	95.56
454.412	98.56
454.633	89.56
454.853	97.56
455.073	92.56
455.294	82.56
455.514	106.56
455.734	81.56
455.955	98.56
456.175	95.56
456.395	77.56
456.616	72.56
456.836	76.56
457.056	81.56
457.276	93.56
457.497	83.56
457.717	89.56
457.937	84.56
458.157	89.56
458.377	95.56
458.598	105.56
458.818	152.56
459.038	140.56
459.258	103.56
459.478	73.56
459.698	92.56
459.918	86.56
460.138	80.56
460.358	84.56
460.578	77.56
460.798	77.56
461.018	97.56
461.238	96.56
461.458	82.56
461.678	87.56
461.898	86.56
462.118	92.56
462.338	103.56
462.558	86.56
462.777	76.56
462.997	101.56
463.217	81.56
463.437	98.56
463.657	93.56
463.876	97.56
464.096	99.56
464.316	92.56
464.536	95.56
464.755	96.56
464.975	93.56
465.195	156.56
465.414	148.56
465.634	96.56
465.854	96.56
466.073	95.56
466.293	85.56
466.512	79.56
466.732	85.56
466.951	78.56
467.171	91.56
467.391	87.56
467.61	96.56
467.829	98.56
468.049	77.56
468.268	81.56
468.488	68.56
468.707	85.56
468.927	86.56
469.146	81.56
469.365	89.56
469.585	88.56
469.804	94.56
470.023	104.56
470.243	87.56
470.462	81.56
470.681	115.56
470.901	88.56
471.12	89.56
471.339	102.56
471.558	86.56
471.777	95.56
471.997	88.56
472.216	91.56
472.435	84.56
472.654	74.56
472.873	88.56
473.092	87.56
473.311	85.56
473.53	78.56
473.749	80.56
473.968	93.56
474.187	91.56
474.406	101.56
474.625	88.56
474.844	86.56
475.063	82.56
475.282	76.56
475.501	84.56
475.72	96.56
475.939	93.56
476.158	82.56
476.377	84.56
476.596	86.56
476.814	96.56
477.033	94.56
477.252	89.56
477.471	83.56
477.69	80.56
477.908	89.56
478.127	100.56
478.346	69.56
478.564	96.56
478.783	105.56
479.002	90.56
479.22	78.56
479.439	103.56
479.658	100.56
479.876	85.56
480.095	89.56
480.313	97.56
480.532	93.56
480.751	99.56
480.969	84.56
481.188	110.56
481.406	110.56
481.624	81.56
481.843	84.56
482.061	90.56
482.28	86.56
482.498	84.56
482.717	87.56
482.935	93.56
483.153	90.56
483.372	91.56
483.59	94.56
483.808	93.56
484.027	81.56
484.245	88.56
484.463	82.56
484.681	90.56
484.9	96.56
485.118	87.56
485.336	92.56
485.554	87.56
485.772	87.56
485.99	107.56
486.209	108.56
486.427	109.56
486.645	90.56
486.863	111.56
487.081	102.56
487.299	84.56
487.517	96.56
487.735	96.56
487.953	97.56
488.171	80.56
488.389	80.56
488.607	99.56
488.825	89.56
489.043	82.56
489.261	96.56
489.479	96.56
489.696	95.56
489.914	87.56
490.132	93.56
490.35	90.56
490.568	87.56
490.786	90.56
491.003	83.56
491.221	89.56
491.439	87.56
491.657	100.56
491.874	81.56
492.092	79.56
492.31	89.56
492.527	92.56
492.745	94.56
492.963	90.56
493.18	90.56
493.398	81.56
493.615	114.56
493.833	93.56
494.05	82.56
494.268	81.56
494.485	96.56
494.703	97.56
494.92	80.56
495.138	78.56
495.355	93.56
495.573	93.56
495.79	86.56
496.008	95.56
496.225	109.56
496.442	87.56
496.66	93.56
496.877	96.56
497.094	87.56
497.312	93.56
497.529	101.56
497.746	81.56
497.963	95.56
498.181	85.56
498.398	85.56
498.615	105.56
498.832	104.56
499.049	94.56
499.267	93.56
499.484	96.56
499.701	102.56
499.918	94.56
500.135	98.56
500.352	81.56
500.569	88.56
500.786	97.56
501.003	91.56
501.22	96.56
501.437	96.56
501.654	102.56
501.871	113.56
502.088	96.56
502.305	81.56
502.522	93.56
502.739	86.56
502.956	98.56
503.172	103.56
503.389	92.56
503.606	102.56
503.823	95.56
504.04	92.56
504.256	84.56
504.473	84.56
504.69	90.56
504.907	82.56
505.123	78.56
505.34	93.56
505.557	94.56
505.773	82.56
505.99	85.56
506.207	102.56
506.423	97.56
506.64	94.56
506.856	80.56
507.073	86.56
507.289	91.56
507.506	110.56
507.722	117.56
507.939	104.56
508.155	97.56
508.372	88.56
508.588	101.56
508.805	88.56
509.021	92.56
509.238	98.56
509.454	96.56
509.67	94.56
509.887	127.56
510.103	139.56
510.319	209.56
510.536	712.56
510.752	2183.56
510.968	597.56
511.184	154.56
511.401	101.56
511.617	100.56
511.833	97.56
512.049	87.56
512.265	102.56
512.481	98.56
512.698	93.56
512.914	85.56
513.13	96.56
513.346	112.56
513.562	97.56
513.778	98.56
513.994	101.56
514.21	106.56
514.426	117.56
514.642	104.56
514.858	128.56
515.074	156.56
515.29	436.56
515.506	1380.56
515.721	496.56
515.937	148.56
