Data from Uncirc_1988_H10_HRD10591_00057.txt Node
Date: Wed Jan 03 12:04:15 EST 2024
User: Yrep
Spectrometer: HR+D1059
Trigger mode: 1
Integration Time (sec): 1.000000E-1
Scans to average: 1
Electric dark correction enabled: true
Nonlinearity correction enabled: false
Boxcar width: 0
XAxis mode: Wavelengths
Number of Pixels in Spectrum: 2048
>>>>>Begin Spectral Data<<<<<
223.165	-22.88
223.4	-22.88
223.635	-22.88
223.869	-11.88
224.104	-12.88
224.338	-13.88
224.573	-20.88
224.808	-13.88
225.042	-5.88
225.277	-5.88
225.511	-4.88
225.746	14.12
225.98	-6.88
226.215	15.12
226.449	21.12
226.683	7.12
226.918	27.12
227.152	35.12
227.387	36.12
227.621	37.12
227.856	47.12
228.09	49.12
228.324	56.12
228.559	48.12
228.793	59.12
229.027	55.12
229.262	72.12
229.496	69.12
229.73	83.12
229.964	70.12
230.199	69.12
230.433	77.12
230.667	83.12
230.901	73.12
231.136	77.12
231.37	98.12
231.604	90.12
231.838	74.12
232.072	58.12
232.306	78.12
232.541	79.12
232.775	78.12
233.009	80.12
233.243	85.12
233.477	67.12
233.711	75.12
233.945	75.12
234.179	85.12
234.413	73.12
234.647	79.12
234.881	83.12
235.115	77.12
235.349	72.12
235.583	88.12
235.817	74.12
236.051	85.12
236.285	87.12
236.519	84.12
236.753	80.12
236.987	90.12
237.221	91.12
237.455	82.12
237.689	70.12
237.922	77.12
238.156	74.12
238.39	90.12
238.624	76.12
238.858	91.12
239.091	96.12
239.325	73.12
239.559	87.12
239.793	70.12
240.027	68.12
240.26	66.12
240.494	80.12
240.728	82.12
240.961	88.12
241.195	93.12
241.429	72.12
241.662	77.12
241.896	64.12
242.13	70.12
242.363	75.12
242.597	78.12
242.83	66.12
243.064	79.12
243.298	70.12
243.531	82.12
243.765	84.12
243.998	83.12
244.232	71.12
244.465	95.12
244.699	89.12
244.932	79.12
245.166	82.12
245.399	83.12
245.633	89.12
245.866	73.12
246.099	83.12
246.333	82.12
246.566	79.12
246.8	68.12
247.033	87.12
247.266	84.12
247.5	77.12
247.733	82.12
247.966	97.12
248.2	71.12
248.433	78.12
248.666	81.12
248.899	70.12
249.133	84.12
249.366	100.12
249.599	103.12
249.832	82.12
250.066	84.12
250.299	94.12
250.532	94.12
250.765	79.12
250.998	77.12
251.231	78.12
251.465	77.12
251.698	77.12
251.931	74.12
252.164	81.12
252.397	81.12
252.63	75.12
252.863	79.12
253.096	96.12
253.329	69.12
253.562	80.12
253.795	74.12
254.028	88.12
254.261	75.12
254.494	79.12
254.727	85.12
254.96	73.12
255.193	82.12
255.426	67.12
255.659	68.12
255.892	81.12
256.124	85.12
256.357	73.12
256.59	80.12
256.823	81.12
257.056	92.12
257.289	73.12
257.521	89.12
257.754	83.12
257.987	87.12
258.22	78.12
258.452	70.12
258.685	72.12
258.918	82.12
259.151	78.12
259.383	87.12
259.616	96.12
259.849	85.12
260.081	95.12
260.314	86.12
260.547	75.12
260.779	76.12
261.012	90.12
261.244	72.12
261.477	84.12
261.71	93.12
261.942	104.12
262.175	110.12
262.407	91.12
262.64	79.12
262.872	74.12
263.105	81.12
263.337	77.12
263.57	80.12
263.802	89.12
264.035	91.12
264.267	79.12
264.499	86.12
264.732	84.12
264.964	87.12
265.197	98.12
265.429	89.12
265.661	81.12
265.894	83.12
266.126	90.12
266.358	85.12
266.591	87.12
266.823	87.12
267.055	88.12
267.287	76.12
267.52	86.12
267.752	97.12
267.984	91.12
268.216	83.12
268.448	103.12
268.681	99.12
268.913	102.12
269.145	79.12
269.377	73.12
269.609	96.12
269.841	91.12
270.073	92.12
270.306	77.12
270.538	101.12
270.77	94.12
271.002	81.12
271.234	69.12
271.466	90.12
271.698	91.12
271.93	77.12
272.162	89.12
272.394	94.12
272.626	85.12
272.858	91.12
273.09	76.12
273.322	82.12
273.553	77.12
273.785	81.12
274.017	89.12
274.249	89.12
274.481	72.12
274.713	67.12
274.945	88.12
275.176	79.12
275.408	88.12
275.64	83.12
275.872	83.12
276.104	82.12
276.335	90.12
276.567	114.12
276.799	100.12
277.031	93.12
277.262	89.12
277.494	88.12
277.726	81.12
277.957	85.12
278.189	86.12
278.421	85.12
278.652	79.12
278.884	83.12
279.115	81.12
279.347	87.12
279.579	80.12
279.81	75.12
280.042	89.12
280.273	101.12
280.505	95.12
280.736	90.12
280.968	87.12
281.199	86.12
281.431	74.12
281.662	81.12
281.894	94.12
282.125	103.12
282.356	105.12
282.588	131.12
282.819	115.12
283.051	94.12
283.282	98.12
283.513	93.12
283.745	101.12
283.976	77.12
284.207	87.12
284.439	72.12
284.67	86.12
284.901	80.12
285.132	98.12
285.364	86.12
285.595	88.12
285.826	92.12
286.057	96.12
286.288	75.12
286.52	86.12
286.751	91.12
286.982	89.12
287.213	81.12
287.444	90.12
287.675	98.12
287.906	95.12
288.138	101.12
288.369	90.12
288.6	68.12
288.831	92.12
289.062	97.12
289.293	97.12
289.524	103.12
289.755	91.12
289.986	92.12
290.217	78.12
290.448	88.12
290.679	85.12
290.91	89.12
291.141	87.12
291.371	71.12
291.602	81.12
291.833	92.12
292.064	70.12
292.295	86.12
292.526	94.12
292.757	81.12
292.987	88.12
293.218	69.12
293.449	82.12
293.68	93.12
293.91	69.12
294.141	82.12
294.372	92.12
294.603	89.12
294.833	77.12
295.064	92.12
295.295	101.12
295.525	85.12
295.756	113.12
295.987	116.12
296.217	130.12
296.448	122.12
296.679	109.12
296.909	85.12
297.14	85.12
297.37	97.12
297.601	97.12
297.831	88.12
298.062	80.12
298.292	100.12
298.523	90.12
298.753	83.12
298.984	78.12
299.214	95.12
299.445	90.12
299.675	87.12
299.905	88.12
300.136	94.12
300.366	86.12
300.597	86.12
300.827	93.12
301.057	105.12
301.288	100.12
301.518	97.12
301.748	93.12
301.979	103.12
302.209	97.12
302.439	85.12
302.669	71.12
302.9	85.12
303.13	102.12
303.36	84.12
303.59	89.12
303.82	92.12
304.051	78.12
304.281	104.12
304.511	90.12
304.741	87.12
304.971	93.12
305.201	85.12
305.431	93.12
305.661	96.12
305.891	102.12
306.121	104.12
306.352	104.12
306.582	96.12
306.812	77.12
307.042	100.12
307.272	110.12
307.502	93.12
307.731	77.12
307.961	91.12
308.191	98.12
308.421	100.12
308.651	99.12
308.881	89.12
309.111	86.12
309.341	91.12
309.571	101.12
309.8	86.12
310.03	99.12
310.26	117.12
310.49	97.12
310.72	96.12
310.949	102.12
311.179	103.12
311.409	87.12
311.639	111.12
311.868	104.12
312.098	100.12
312.328	96.12
312.557	104.12
312.787	99.12
313.017	105.12
313.246	90.12
313.476	97.12
313.706	104.12
313.935	99.12
314.165	101.12
314.394	98.12
314.624	91.12
314.853	105.12
315.083	90.12
315.312	81.12
315.542	82.12
315.771	99.12
316.001	99.12
316.23	105.12
316.46	92.12
316.689	81.12
316.919	98.12
317.148	85.12
317.377	102.12
317.607	87.12
317.836	100.12
318.065	80.12
318.295	96.12
318.524	94.12
318.753	81.12
318.983	89.12
319.212	92.12
319.441	105.12
319.67	110.12
319.9	104.12
320.129	91.12
320.358	90.12
320.587	90.12
320.816	103.12
321.046	100.12
321.275	85.12
321.504	105.12
321.733	101.12
321.962	101.12
322.191	89.12
322.42	114.12
322.649	130.12
322.878	112.12
323.108	114.12
323.337	135.12
323.566	136.12
323.795	157.12
324.024	228.12
324.253	400.12
324.482	831.12
324.71	1731.12
324.939	2290.12
325.168	823.12
325.397	241.12
325.626	147.12
325.855	145.12
326.084	117.12
326.313	141.12
326.542	150.12
326.77	225.12
326.999	478.12
327.228	975.12
327.457	1829.12
327.686	1416.12
327.914	376.12
328.143	192.12
328.372	164.12
328.6	125.12
328.829	121.12
329.058	111.12
329.287	132.12
329.515	112.12
329.744	107.12
329.972	104.12
330.201	112.12
330.43	123.12
330.658	116.12
330.887	134.12
331.115	126.12
331.344	107.12
331.572	102.12
331.801	115.12
332.03	104.12
332.258	92.12
332.486	85.12
332.715	91.12
332.943	85.12
333.172	91.12
333.4	78.12
333.629	94.12
333.857	116.12
334.085	98.12
334.314	97.12
334.542	107.12
334.771	111.12
334.999	104.12
335.227	100.12
335.455	106.12
335.684	96.12
335.912	100.12
336.14	93.12
336.369	119.12
336.597	89.12
336.825	86.12
337.053	103.12
337.281	81.12
337.51	98.12
337.738	95.12
337.966	98.12
338.194	94.12
338.422	85.12
338.65	89.12
338.878	93.12
339.106	82.12
339.334	96.12
339.562	95.12
339.79	85.12
340.018	89.12
340.246	92.12
340.474	102.12
340.702	86.12
340.93	88.12
341.158	105.12
341.386	85.12
341.614	78.12
341.842	110.12
342.07	93.12
342.298	84.12
342.526	84.12
342.754	106.12
342.981	69.12
343.209	93.12
343.437	98.12
343.665	80.12
343.893	84.12
344.12	85.12
344.348	86.12
344.576	82.12
344.804	87.12
345.031	97.12
345.259	106.12
345.487	103.12
345.714	88.12
345.942	92.12
346.17	92.12
346.397	100.12
346.625	90.12
346.853	93.12
347.08	91.12
347.308	101.12
347.535	98.12
347.763	104.12
347.99	94.12
348.218	95.12
348.445	100.12
348.673	104.12
348.9	105.12
349.128	81.12
349.355	81.12
349.583	90.12
349.81	95.12
350.037	99.12
350.265	105.12
350.492	103.12
350.72	107.12
350.947	98.12
351.174	109.12
351.402	100.12
351.629	107.12
351.856	90.12
352.083	82.12
352.311	104.12
352.538	106.12
352.765	85.12
352.992	100.12
353.22	102.12
353.447	113.12
353.674	95.12
353.901	96.12
354.128	90.12
354.355	98.12
354.583	101.12
354.81	100.12
355.037	94.12
355.264	87.12
355.491	68.12
355.718	86.12
355.945	108.12
356.172	100.12
356.399	90.12
356.626	97.12
356.853	98.12
357.08	92.12
357.307	92.12
357.534	96.12
357.761	96.12
357.988	71.12
358.215	92.12
358.441	89.12
358.668	93.12
358.895	96.12
359.122	90.12
359.349	83.12
359.576	87.12
359.802	103.12
360.029	120.12
360.256	107.12
360.483	118.12
360.709	92.12
360.936	100.12
361.163	100.12
361.39	96.12
361.616	101.12
361.843	87.12
362.07	88.12
362.296	94.12
362.523	94.12
362.749	92.12
362.976	97.12
363.203	105.12
363.429	100.12
363.656	97.12
363.882	87.12
364.109	89.12
364.335	87.12
364.562	90.12
364.788	93.12
365.015	90.12
365.241	98.12
365.468	110.12
365.694	97.12
365.92	97.12
366.147	90.12
366.373	81.12
366.599	81.12
366.826	95.12
367.052	85.12
367.278	101.12
367.505	88.12
367.731	97.12
367.957	78.12
368.184	98.12
368.41	98.12
368.636	121.12
368.862	115.12
369.089	112.12
369.315	96.12
369.541	90.12
369.767	97.12
369.993	96.12
370.219	97.12
370.445	93.12
370.672	95.12
370.898	79.12
371.124	98.12
371.35	89.12
371.576	90.12
371.802	85.12
372.028	91.12
372.254	91.12
372.48	104.12
372.706	88.12
372.932	84.12
373.158	88.12
373.384	91.12
373.61	82.12
373.835	84.12
374.061	70.12
374.287	100.12
374.513	90.12
374.739	86.12
374.965	94.12
375.191	94.12
375.416	81.12
375.642	85.12
375.868	100.12
376.094	89.12
376.319	92.12
376.545	97.12
376.771	73.12
376.997	103.12
377.222	85.12
377.448	98.12
377.674	93.12
377.899	97.12
378.125	83.12
378.35	91.12
378.576	98.12
378.802	93.12
379.027	78.12
379.253	93.12
379.478	100.12
379.704	99.12
379.929	102.12
380.155	79.12
380.38	97.12
380.606	94.12
380.831	84.12
381.057	89.12
381.282	87.12
381.507	98.12
381.733	103.12
381.958	97.12
382.184	93.12
382.409	97.12
382.634	87.12
382.86	94.12
383.085	113.12
383.31	103.12
383.535	86.12
383.761	97.12
383.986	99.12
384.211	104.12
384.436	95.12
384.662	95.12
384.887	90.12
385.112	104.12
385.337	91.12
385.562	96.12
385.787	103.12
386.013	96.12
386.238	109.12
386.463	101.12
386.688	95.12
386.913	95.12
387.138	93.12
387.363	100.12
387.588	96.12
387.813	96.12
388.038	93.12
388.263	101.12
388.488	114.12
388.713	95.12
388.938	89.12
389.163	93.12
389.387	106.12
389.612	91.12
389.837	89.12
390.062	100.12
390.287	91.12
390.512	84.12
390.736	83.12
390.961	94.12
391.186	94.12
391.411	101.12
391.636	106.12
391.86	82.12
392.085	77.12
392.31	82.12
392.534	90.12
392.759	83.12
392.984	84.12
393.208	98.12
393.433	94.12
393.658	93.12
393.882	86.12
394.107	89.12
394.331	87.12
394.556	99.12
394.78	101.12
395.005	93.12
395.229	90.12
395.454	108.12
395.678	85.12
395.903	93.12
396.127	89.12
396.352	93.12
396.576	81.12
396.801	95.12
397.025	89.12
397.249	96.12
397.474	87.12
397.698	85.12
397.922	88.12
398.147	90.12
398.371	95.12
398.595	82.12
398.82	82.12
399.044	94.12
399.268	78.12
399.492	89.12
399.717	96.12
399.941	98.12
400.165	96.12
400.389	99.12
400.613	82.12
400.837	83.12
401.062	86.12
401.286	79.12
401.51	88.12
401.734	93.12
401.958	95.12
402.182	141.12
402.406	135.12
402.63	106.12
402.854	99.12
403.078	93.12
403.302	91.12
403.526	97.12
403.75	85.12
403.974	82.12
404.198	86.12
404.422	84.12
404.645	91.12
404.869	95.12
405.093	106.12
405.317	102.12
405.541	92.12
405.765	101.12
405.988	107.12
406.212	157.12
406.436	209.12
406.66	126.12
406.883	101.12
407.107	93.12
407.331	104.12
407.555	105.12
407.778	94.12
408.002	102.12
408.226	87.12
408.449	95.12
408.673	93.12
408.896	90.12
409.12	99.12
409.344	90.12
409.567	88.12
409.791	96.12
410.014	85.12
410.238	90.12
410.461	106.12
410.685	95.12
410.908	92.12
411.132	98.12
411.355	109.12
411.578	82.12
411.802	94.12
412.025	93.12
412.249	86.12
412.472	90.12
412.695	101.12
412.919	101.12
413.142	104.12
413.365	90.12
413.589	92.12
413.812	96.12
414.035	106.12
414.258	83.12
414.482	85.12
414.705	86.12
414.928	86.12
415.151	86.12
415.374	94.12
415.597	83.12
415.821	89.12
416.044	90.12
416.267	82.12
416.49	90.12
416.713	105.12
416.936	94.12
417.159	84.12
417.382	80.12
417.605	97.12
417.828	93.12
418.051	99.12
418.274	91.12
418.497	94.12
418.72	82.12
418.943	88.12
419.166	91.12
419.389	91.12
419.611	87.12
419.834	74.12
420.057	82.12
420.28	84.12
420.503	92.12
420.726	92.12
420.948	88.12
421.171	89.12
421.394	103.12
421.617	93.12
421.839	87.12
422.062	90.12
422.285	98.12
422.507	104.12
422.73	82.12
422.953	87.12
423.175	95.12
423.398	83.12
423.621	89.12
423.843	89.12
424.066	85.12
424.288	81.12
424.511	88.12
424.733	97.12
424.956	111.12
425.178	99.12
425.401	82.12
425.623	82.12
425.846	87.12
426.068	82.12
426.291	97.12
426.513	85.12
426.735	92.12
426.958	102.12
427.18	102.12
427.402	136.12
427.625	153.12
427.847	127.12
428.069	97.12
428.292	95.12
428.514	93.12
428.736	94.12
428.958	87.12
429.181	83.12
429.403	84.12
429.625	89.12
429.847	88.12
430.069	107.12
430.292	90.12
430.514	90.12
430.736	93.12
430.958	74.12
431.18	74.12
431.402	60.12
431.624	88.12
431.846	93.12
432.068	95.12
432.29	87.12
432.512	88.12
432.734	89.12
432.956	93.12
433.178	104.12
433.4	112.12
433.622	95.12
433.844	98.12
434.066	81.12
434.287	93.12
434.509	90.12
434.731	99.12
434.953	87.12
435.175	77.12
435.397	99.12
435.618	97.12
435.84	106.12
436.062	150.12
436.284	117.12
436.505	99.12
436.727	110.12
436.949	102.12
437.17	91.12
437.392	87.12
437.614	105.12
437.835	118.12
438.057	116.12
438.278	102.12
438.5	92.12
438.721	98.12
438.943	108.12
439.165	87.12
439.386	85.12
439.608	99.12
439.829	104.12
440.05	118.12
440.272	145.12
440.493	91.12
440.715	82.12
440.936	98.12
441.158	89.12
441.379	85.12
441.6	102.12
441.822	97.12
442.043	102.12
442.264	112.12
442.486	109.12
442.707	111.12
442.928	106.12
443.149	133.12
443.371	133.12
443.592	101.12
443.813	119.12
444.034	107.12
444.255	89.12
444.476	94.12
444.698	89.12
444.919	87.12
445.14	126.12
445.361	113.12
445.582	122.12
445.803	129.12
446.024	120.12
446.245	118.12
446.466	111.12
446.687	87.12
446.908	92.12
447.129	83.12
447.35	85.12
447.571	91.12
447.792	107.12
448.013	91.12
448.234	98.12
448.455	92.12
448.675	106.12
448.896	129.12
449.117	106.12
449.338	106.12
449.559	129.12
449.779	133.12
450	92.12
450.221	99.12
450.442	95.12
450.662	84.12
450.883	107.12
451.104	100.12
451.324	106.12
451.545	81.12
451.766	91.12
451.986	97.12
452.207	97.12
452.428	102.12
452.648	103.12
452.869	116.12
453.089	108.12
453.31	106.12
453.53	87.12
453.751	89.12
453.971	100.12
454.192	102.12
454.412	84.12
454.633	83.12
454.853	90.12
455.073	94.12
455.294	90.12
455.514	91.12
455.734	87.12
455.955	77.12
456.175	77.12
456.395	91.12
456.616	97.12
456.836	91.12
457.056	98.12
457.276	78.12
457.497	90.12
457.717	85.12
457.937	80.12
458.157	86.12
458.377	100.12
458.598	106.12
458.818	145.12
459.038	152.12
459.258	106.12
459.478	97.12
459.698	93.12
459.918	90.12
460.138	95.12
460.358	89.12
460.578	82.12
460.798	84.12
461.018	91.12
461.238	88.12
461.458	82.12
461.678	86.12
461.898	93.12
462.118	80.12
462.338	87.12
462.558	67.12
462.777	73.12
462.997	80.12
463.217	89.12
463.437	88.12
463.657	96.12
463.876	104.12
464.096	101.12
464.316	102.12
464.536	81.12
464.755	99.12
464.975	113.12
465.195	149.12
465.414	158.12
465.634	103.12
465.854	94.12
466.073	89.12
466.293	87.12
466.512	97.12
466.732	77.12
466.951	77.12
467.171	88.12
467.391	98.12
467.61	112.12
467.829	99.12
468.049	98.12
468.268	95.12
468.488	82.12
468.707	96.12
468.927	93.12
469.146	91.12
469.365	82.12
469.585	91.12
469.804	88.12
470.023	83.12
470.243	85.12
470.462	95.12
470.681	115.12
470.901	95.12
471.12	82.12
471.339	92.12
471.558	100.12
471.777	83.12
471.997	96.12
472.216	97.12
472.435	121.12
472.654	84.12
472.873	105.12
473.092	93.12
473.311	85.12
473.53	90.12
473.749	98.12
473.968	97.12
474.187	107.12
474.406	96.12
474.625	85.12
474.844	91.12
475.063	90.12
475.282	89.12
475.501	83.12
475.72	105.12
475.939	92.12
476.158	88.12
476.377	91.12
476.596	80.12
476.814	86.12
477.033	88.12
477.252	88.12
477.471	69.12
477.69	96.12
477.908	91.12
478.127	87.12
478.346	89.12
478.564	89.12
478.783	94.12
479.002	101.12
479.22	97.12
479.439	89.12
479.658	101.12
479.876	97.12
480.095	102.12
480.313	92.12
480.532	87.12
480.751	89.12
480.969	104.12
481.188	133.12
481.406	113.12
481.624	79.12
481.843	108.12
482.061	83.12
482.28	89.12
482.498	80.12
482.717	90.12
482.935	89.12
483.153	84.12
483.372	105.12
483.59	84.12
483.808	77.12
484.027	95.12
484.245	92.12
484.463	87.12
484.681	93.12
484.9	102.12
485.118	86.12
485.336	94.12
485.554	104.12
485.772	104.12
485.99	94.12
486.209	113.12
486.427	103.12
486.645	120.12
486.863	106.12
487.081	96.12
487.299	86.12
487.517	105.12
487.735	77.12
487.953	98.12
488.171	85.12
488.389	95.12
488.607	94.12
488.825	96.12
489.043	85.12
489.261	89.12
489.479	91.12
489.696	84.12
489.914	81.12
490.132	105.12
490.35	96.12
490.568	86.12
490.786	97.12
491.003	79.12
491.221	89.12
491.439	104.12
491.657	99.12
491.874	87.12
492.092	97.12
492.31	92.12
492.527	93.12
492.745	99.12
492.963	103.12
493.18	86.12
493.398	87.12
493.615	89.12
493.833	111.12
494.05	95.12
494.268	83.12
494.485	86.12
494.703	88.12
494.92	98.12
495.138	81.12
495.355	93.12
495.573	98.12
495.79	85.12
496.008	81.12
496.225	73.12
496.442	90.12
496.66	99.12
496.877	84.12
497.094	90.12
497.312	104.12
497.529	81.12
497.746	82.12
497.963	95.12
498.181	99.12
498.398	89.12
498.615	102.12
498.832	106.12
499.049	102.12
499.267	71.12
499.484	97.12
499.701	87.12
499.918	99.12
500.135	77.12
500.352	86.12
500.569	96.12
500.786	91.12
501.003	86.12
501.22	90.12
501.437	98.12
501.654	97.12
501.871	107.12
502.088	86.12
502.305	95.12
502.522	85.12
502.739	99.12
502.956	97.12
503.172	92.12
503.389	102.12
503.606	97.12
503.823	97.12
504.04	103.12
504.256	88.12
504.473	93.12
504.69	88.12
504.907	92.12
505.123	85.12
505.34	88.12
505.557	96.12
505.773	106.12
505.99	111.12
506.207	93.12
506.423	94.12
506.64	94.12
506.856	92.12
507.073	87.12
507.289	86.12
507.506	114.12
507.722	106.12
507.939	106.12
508.155	106.12
508.372	92.12
508.588	91.12
508.805	105.12
509.021	93.12
509.238	98.12
509.454	102.12
509.67	110.12
509.887	115.12
510.103	125.12
510.319	197.12
510.536	708.12
510.752	2165.12
510.968	593.12
511.184	142.12
511.401	103.12
511.617	100.12
511.833	94.12
512.049	103.12
512.265	96.12
512.481	94.12
512.698	103.12
512.914	96.12
513.13	91.12
513.346	92.12
513.562	89.12
513.778	98.12
513.994	106.12
514.21	105.12
514.426	110.12
514.642	125.12
514.858	123.12
515.074	159.12
515.29	412.12
