Data from Uncirc_1988_H10_HRD10591_00061.txt Node
Date: Wed Jan 03 12:04:16 EST 2024
User: Yrep
Spectrometer: HR+D1059
Trigger mode: 1
Integration Time (sec): 1.000000E-1
Scans to average: 1
Electric dark correction enabled: true
Nonlinearity correction enabled: false
Boxcar width: 0
XAxis mode: Wavelengths
Number of Pixels in Spectrum: 2048
>>>>>Begin Spectral Data<<<<<
223.165	-11.69
223.4	-11.69
223.635	-11.69
223.869	-12.69
224.104	-16.69
224.338	-26.69
224.573	-22.69
224.808	-13.69
225.042	-11.69
225.277	-12.69
225.511	4.31
225.746	3.31
225.98	8.31
226.215	7.31
226.449	29.31
226.683	19.31
226.918	27.31
227.152	29.31
227.387	43.31
227.621	32.31
227.856	39.31
228.09	41.31
228.324	52.31
228.559	58.31
228.793	49.31
229.027	61.31
229.262	62.31
229.496	64.31
229.73	83.31
229.964	78.31
230.199	75.31
230.433	82.31
230.667	83.31
230.901	76.31
231.136	70.31
231.37	83.31
231.604	84.31
231.838	81.31
232.072	73.31
232.306	85.31
232.541	77.31
232.775	74.31
233.009	83.31
233.243	85.31
233.477	79.31
233.711	67.31
233.945	82.31
234.179	75.31
234.413	81.31
234.647	80.31
234.881	61.31
235.115	71.31
235.349	80.31
235.583	79.31
235.817	76.31
236.051	70.31
236.285	87.31
236.519	84.31
236.753	60.31
236.987	70.31
237.221	75.31
237.455	74.31
237.689	89.31
237.922	66.31
238.156	66.31
238.39	74.31
238.624	71.31
238.858	77.31
239.091	51.31
239.325	70.31
239.559	82.31
239.793	73.31
240.027	91.31
240.26	66.31
240.494	77.31
240.728	65.31
240.961	63.31
241.195	73.31
241.429	67.31
241.662	74.31
241.896	87.31
242.13	70.31
242.363	78.31
242.597	86.31
242.83	70.31
243.064	60.31
243.298	72.31
243.531	71.31
243.765	77.31
243.998	77.31
244.232	78.31
244.465	80.31
244.699	77.31
244.932	84.31
245.166	90.31
245.399	69.31
245.633	79.31
245.866	82.31
246.099	80.31
246.333	77.31
246.566	98.31
246.8	85.31
247.033	81.31
247.266	76.31
247.5	68.31
247.733	79.31
247.966	66.31
248.2	68.31
248.433	73.31
248.666	75.31
248.899	85.31
249.133	79.31
249.366	73.31
249.599	102.31
249.832	77.31
250.066	91.31
250.299	81.31
250.532	84.31
250.765	81.31
250.998	89.31
251.231	85.31
251.465	84.31
251.698	83.31
251.931	65.31
252.164	81.31
252.397	76.31
252.63	95.31
252.863	76.31
253.096	85.31
253.329	78.31
253.562	75.31
253.795	77.31
254.028	74.31
254.261	78.31
254.494	68.31
254.727	89.31
254.96	77.31
255.193	79.31
255.426	82.31
255.659	71.31
255.892	69.31
256.124	87.31
256.357	84.31
256.59	79.31
256.823	77.31
257.056	67.31
257.289	73.31
257.521	86.31
257.754	91.31
257.987	74.31
258.22	82.31
258.452	76.31
258.685	87.31
258.918	89.31
259.151	74.31
259.383	91.31
259.616	76.31
259.849	93.31
260.081	78.31
260.314	79.31
260.547	82.31
260.779	87.31
261.012	83.31
261.244	91.31
261.477	77.31
261.71	96.31
261.942	107.31
262.175	111.31
262.407	83.31
262.64	78.31
262.872	85.31
263.105	65.31
263.337	84.31
263.57	83.31
263.802	80.31
264.035	87.31
264.267	76.31
264.499	90.31
264.732	92.31
264.964	100.31
265.197	86.31
265.429	89.31
265.661	73.31
265.894	84.31
266.126	89.31
266.358	76.31
266.591	79.31
266.823	78.31
267.055	70.31
267.287	76.31
267.52	91.31
267.752	92.31
267.984	73.31
268.216	78.31
268.448	89.31
268.681	81.31
268.913	81.31
269.145	83.31
269.377	81.31
269.609	82.31
269.841	87.31
270.073	83.31
270.306	86.31
270.538	85.31
270.77	74.31
271.002	90.31
271.234	66.31
271.466	82.31
271.698	87.31
271.93	80.31
272.162	73.31
272.394	86.31
272.626	80.31
272.858	90.31
273.09	85.31
273.322	86.31
273.553	74.31
273.785	79.31
274.017	69.31
274.249	85.31
274.481	82.31
274.713	79.31
274.945	82.31
275.176	74.31
275.408	103.31
275.64	86.31
275.872	75.31
276.104	87.31
276.335	83.31
276.567	94.31
276.799	103.31
277.031	84.31
277.262	88.31
277.494	72.31
277.726	70.31
277.957	91.31
278.189	69.31
278.421	87.31
278.652	97.31
278.884	91.31
279.115	86.31
279.347	79.31
279.579	98.31
279.81	71.31
280.042	68.31
280.273	80.31
280.505	91.31
280.736	79.31
280.968	100.31
281.199	80.31
281.431	96.31
281.662	77.31
281.894	74.31
282.125	89.31
282.356	117.31
282.588	127.31
282.819	122.31
283.051	88.31
283.282	84.31
283.513	82.31
283.745	83.31
283.976	79.31
284.207	76.31
284.439	70.31
284.67	86.31
284.901	89.31
285.132	94.31
285.364	78.31
285.595	100.31
285.826	93.31
286.057	91.31
286.288	89.31
286.52	92.31
286.751	83.31
286.982	80.31
287.213	90.31
287.444	108.31
287.675	74.31
287.906	93.31
288.138	85.31
288.369	89.31
288.6	85.31
288.831	87.31
289.062	90.31
289.293	86.31
289.524	86.31
289.755	80.31
289.986	81.31
290.217	81.31
290.448	75.31
290.679	87.31
290.91	87.31
291.141	101.31
291.371	97.31
291.602	81.31
291.833	88.31
292.064	78.31
292.295	81.31
292.526	87.31
292.757	91.31
292.987	95.31
293.218	73.31
293.449	77.31
293.68	91.31
293.91	75.31
294.141	93.31
294.372	86.31
294.603	97.31
294.833	97.31
295.064	85.31
295.295	70.31
295.525	89.31
295.756	111.31
295.987	119.31
296.217	143.31
296.448	118.31
296.679	96.31
296.909	102.31
297.14	87.31
297.37	95.31
297.601	94.31
297.831	103.31
298.062	92.31
298.292	89.31
298.523	73.31
298.753	79.31
298.984	105.31
299.214	89.31
299.445	87.31
299.675	81.31
299.905	97.31
300.136	94.31
300.366	76.31
300.597	93.31
300.827	87.31
301.057	99.31
301.288	106.31
301.518	105.31
301.748	89.31
301.979	95.31
302.209	81.31
302.439	86.31
302.669	95.31
302.9	96.31
303.13	86.31
303.36	106.31
303.59	100.31
303.82	113.31
304.051	101.31
304.281	90.31
304.511	87.31
304.741	79.31
304.971	86.31
305.201	88.31
305.431	89.31
305.661	86.31
305.891	91.31
306.121	102.31
306.352	99.31
306.582	91.31
306.812	97.31
307.042	95.31
307.272	75.31
307.502	91.31
307.731	95.31
307.961	86.31
308.191	93.31
308.421	86.31
308.651	93.31
308.881	86.31
309.111	86.31
309.341	111.31
309.571	103.31
309.8	82.31
310.03	97.31
310.26	98.31
310.49	90.31
310.72	101.31
310.949	90.31
311.179	108.31
311.409	90.31
311.639	94.31
311.868	80.31
312.098	86.31
312.328	107.31
312.557	96.31
312.787	107.31
313.017	101.31
313.246	99.31
313.476	92.31
313.706	96.31
313.935	90.31
314.165	97.31
314.394	100.31
314.624	86.31
314.853	93.31
315.083	109.31
315.312	94.31
315.542	81.31
315.771	87.31
316.001	90.31
316.23	99.31
316.46	85.31
316.689	92.31
316.919	89.31
317.148	90.31
317.377	98.31
317.607	87.31
317.836	85.31
318.065	86.31
318.295	86.31
318.524	92.31
318.753	87.31
318.983	91.31
319.212	105.31
319.441	103.31
319.67	108.31
319.9	93.31
320.129	99.31
320.358	88.31
320.587	103.31
320.816	83.31
321.046	77.31
321.275	90.31
321.504	101.31
321.733	102.31
321.962	92.31
322.191	108.31
322.42	101.31
322.649	92.31
322.878	105.31
323.108	119.31
323.337	114.31
323.566	137.31
323.795	134.31
324.024	214.31
324.253	404.31
324.482	869.31
324.71	1822.31
324.939	2395.31
325.168	841.31
325.397	254.31
325.626	155.31
325.855	126.31
326.084	126.31
326.313	131.31
326.542	138.31
326.77	228.31
326.999	480.31
327.228	1007.31
327.457	1850.31
327.686	1457.31
327.914	380.31
328.143	194.31
328.372	159.31
328.6	114.31
328.829	113.31
329.058	126.31
329.287	123.31
329.515	111.31
329.744	93.31
329.972	103.31
330.201	112.31
330.43	123.31
330.658	112.31
330.887	133.31
331.115	110.31
331.344	95.31
331.572	92.31
331.801	108.31
332.03	103.31
332.258	93.31
332.486	84.31
332.715	85.31
332.943	89.31
333.172	95.31
333.4	95.31
333.629	90.31
333.857	123.31
334.085	103.31
334.314	107.31
334.542	113.31
334.771	125.31
334.999	102.31
335.227	105.31
335.455	95.31
335.684	89.31
335.912	97.31
336.14	100.31
336.369	85.31
336.597	96.31
336.825	113.31
337.053	83.31
337.281	103.31
337.51	71.31
337.738	74.31
337.966	90.31
338.194	107.31
338.422	100.31
338.65	89.31
338.878	89.31
339.106	73.31
339.334	79.31
339.562	90.31
339.79	90.31
340.018	95.31
340.246	86.31
340.474	84.31
340.702	94.31
340.93	89.31
341.158	88.31
341.386	94.31
341.614	98.31
341.842	90.31
342.07	92.31
342.298	95.31
342.526	94.31
342.754	98.31
342.981	86.31
343.209	82.31
343.437	113.31
343.665	93.31
343.893	90.31
344.12	81.31
344.348	95.31
344.576	85.31
344.804	90.31
345.031	91.31
345.259	86.31
345.487	99.31
345.714	97.31
345.942	74.31
346.17	85.31
346.397	103.31
346.625	91.31
346.853	83.31
347.08	83.31
347.308	109.31
347.535	89.31
347.763	87.31
347.99	94.31
348.218	102.31
348.445	102.31
348.673	79.31
348.9	95.31
349.128	83.31
349.355	81.31
349.583	96.31
349.81	93.31
350.037	89.31
350.265	104.31
350.492	86.31
350.72	89.31
350.947	107.31
351.174	110.31
351.402	111.31
351.629	92.31
351.856	96.31
352.083	97.31
352.311	90.31
352.538	101.31
352.765	96.31
352.992	103.31
353.22	110.31
353.447	98.31
353.674	101.31
353.901	81.31
354.128	89.31
354.355	100.31
354.583	94.31
354.81	85.31
355.037	100.31
355.264	82.31
355.491	90.31
355.718	100.31
355.945	99.31
356.172	89.31
356.399	89.31
356.626	84.31
356.853	92.31
357.08	89.31
357.307	91.31
357.534	87.31
357.761	96.31
357.988	83.31
358.215	87.31
358.441	81.31
358.668	95.31
358.895	68.31
359.122	92.31
359.349	86.31
359.576	77.31
359.802	103.31
360.029	90.31
360.256	105.31
360.483	86.31
360.709	93.31
360.936	84.31
361.163	101.31
361.39	86.31
361.616	84.31
361.843	87.31
362.07	92.31
362.296	99.31
362.523	90.31
362.749	80.31
362.976	91.31
363.203	91.31
363.429	90.31
363.656	71.31
363.882	108.31
364.109	82.31
364.335	83.31
364.562	77.31
364.788	87.31
365.015	93.31
365.241	89.31
365.468	110.31
365.694	98.31
365.92	78.31
366.147	99.31
366.373	79.31
366.599	99.31
366.826	93.31
367.052	87.31
367.278	90.31
367.505	91.31
367.731	89.31
367.957	79.31
368.184	84.31
368.41	91.31
368.636	113.31
368.862	138.31
369.089	123.31
369.315	94.31
369.541	86.31
369.767	87.31
369.993	90.31
370.219	99.31
370.445	78.31
370.672	92.31
370.898	84.31
371.124	82.31
371.35	79.31
371.576	98.31
371.802	98.31
372.028	87.31
372.254	79.31
372.48	90.31
372.706	79.31
372.932	78.31
373.158	85.31
373.384	86.31
373.61	93.31
373.835	87.31
374.061	86.31
374.287	82.31
374.513	95.31
374.739	90.31
374.965	94.31
375.191	79.31
375.416	75.31
375.642	83.31
375.868	93.31
376.094	101.31
376.319	91.31
376.545	78.31
376.771	86.31
376.997	85.31
377.222	77.31
377.448	94.31
377.674	93.31
377.899	90.31
378.125	83.31
378.35	67.31
378.576	81.31
378.802	79.31
379.027	108.31
379.253	90.31
379.478	90.31
379.704	78.31
379.929	89.31
380.155	85.31
380.38	69.31
380.606	64.31
380.831	108.31
381.057	79.31
381.282	91.31
381.507	85.31
381.733	94.31
381.958	87.31
382.184	85.31
382.409	98.31
382.634	91.31
382.86	92.31
383.085	100.31
383.31	102.31
383.535	102.31
383.761	91.31
383.986	90.31
384.211	98.31
384.436	85.31
384.662	98.31
384.887	99.31
385.112	96.31
385.337	90.31
385.562	82.31
385.787	90.31
386.013	93.31
386.238	100.31
386.463	93.31
386.688	111.31
386.913	104.31
387.138	93.31
387.363	105.31
387.588	98.31
387.813	93.31
388.038	97.31
388.263	104.31
388.488	99.31
388.713	94.31
388.938	81.31
389.163	103.31
389.387	105.31
389.612	91.31
389.837	93.31
390.062	75.31
390.287	84.31
390.512	87.31
390.736	94.31
390.961	96.31
391.186	108.31
391.411	88.31
391.636	86.31
391.86	93.31
392.085	83.31
392.31	66.31
392.534	92.31
392.759	80.31
392.984	99.31
393.208	84.31
393.433	91.31
393.658	89.31
393.882	80.31
394.107	93.31
394.331	85.31
394.556	89.31
394.78	89.31
395.005	86.31
395.229	86.31
395.454	76.31
395.678	85.31
395.903	77.31
396.127	91.31
396.352	91.31
396.576	79.31
396.801	84.31
397.025	75.31
397.249	79.31
397.474	78.31
397.698	78.31
397.922	87.31
398.147	104.31
398.371	95.31
398.595	86.31
398.82	68.31
399.044	86.31
399.268	99.31
399.492	88.31
399.717	81.31
399.941	90.31
400.165	92.31
400.389	95.31
400.613	91.31
400.837	86.31
401.062	86.31
401.286	67.31
401.51	80.31
401.734	83.31
401.958	92.31
402.182	120.31
402.406	153.31
402.63	118.31
402.854	83.31
403.078	95.31
403.302	93.31
403.526	82.31
403.75	79.31
403.974	103.31
404.198	90.31
404.422	68.31
404.645	90.31
404.869	99.31
405.093	92.31
405.317	98.31
405.541	106.31
405.765	98.31
405.988	127.31
406.212	177.31
406.436	215.31
406.66	154.31
406.883	99.31
407.107	94.31
407.331	89.31
407.555	103.31
407.778	102.31
408.002	84.31
408.226	98.31
408.449	78.31
408.673	88.31
408.896	93.31
409.12	111.31
409.344	94.31
409.567	88.31
409.791	95.31
410.014	97.31
410.238	103.31
410.461	96.31
410.685	94.31
410.908	95.31
411.132	107.31
411.355	100.31
411.578	103.31
411.802	93.31
412.025	88.31
412.249	94.31
412.472	92.31
412.695	80.31
412.919	80.31
413.142	90.31
413.365	88.31
413.589	85.31
413.812	89.31
414.035	88.31
414.258	91.31
414.482	88.31
414.705	101.31
414.928	81.31
415.151	83.31
415.374	85.31
415.597	82.31
415.821	85.31
416.044	97.31
416.267	82.31
416.49	75.31
416.713	78.31
416.936	83.31
417.159	90.31
417.382	79.31
417.605	83.31
417.828	88.31
418.051	107.31
418.274	77.31
418.497	82.31
418.72	81.31
418.943	83.31
419.166	89.31
419.389	90.31
419.611	85.31
419.834	84.31
420.057	86.31
420.28	78.31
420.503	90.31
420.726	77.31
420.948	95.31
421.171	86.31
421.394	81.31
421.617	79.31
421.839	73.31
422.062	83.31
422.285	86.31
422.507	105.31
422.73	111.31
422.953	93.31
423.175	78.31
423.398	89.31
423.621	81.31
423.843	85.31
424.066	86.31
424.288	79.31
424.511	94.31
424.733	100.31
424.956	98.31
425.178	95.31
425.401	107.31
425.623	92.31
425.846	81.31
426.068	85.31
426.291	109.31
426.513	87.31
426.735	85.31
426.958	99.31
427.18	108.31
427.402	123.31
427.625	157.31
427.847	128.31
428.069	84.31
428.292	100.31
428.514	94.31
428.736	85.31
428.958	89.31
429.181	82.31
429.403	91.31
429.625	80.31
429.847	98.31
430.069	87.31
430.292	105.31
430.514	89.31
430.736	84.31
430.958	83.31
431.18	79.31
431.402	79.31
431.624	80.31
431.846	86.31
432.068	83.31
432.29	91.31
432.512	85.31
432.734	77.31
432.956	85.31
433.178	95.31
433.4	98.31
433.622	86.31
433.844	91.31
434.066	102.31
434.287	80.31
434.509	93.31
434.731	79.31
434.953	74.31
435.175	79.31
435.397	85.31
435.618	83.31
435.84	93.31
436.062	117.31
436.284	110.31
436.505	102.31
436.727	93.31
436.949	86.31
437.17	75.31
437.392	83.31
437.614	98.31
437.835	97.31
438.057	112.31
438.278	113.31
438.5	108.31
438.721	108.31
438.943	93.31
439.165	84.31
439.386	88.31
439.608	86.31
439.829	97.31
440.05	113.31
440.272	132.31
440.493	96.31
440.715	83.31
440.936	93.31
441.158	87.31
441.379	89.31
441.6	89.31
441.822	99.31
442.043	94.31
442.264	97.31
442.486	94.31
442.707	95.31
442.928	105.31
443.149	122.31
443.371	123.31
443.592	105.31
443.813	108.31
444.034	95.31
444.255	79.31
444.476	78.31
444.698	91.31
444.919	75.31
445.14	139.31
445.361	129.31
445.582	113.31
445.803	137.31
446.024	135.31
446.245	139.31
446.466	109.31
446.687	87.31
446.908	92.31
447.129	92.31
447.35	82.31
447.571	106.31
447.792	96.31
448.013	104.31
448.234	110.31
448.455	94.31
448.675	114.31
448.896	98.31
449.117	92.31
449.338	103.31
449.559	113.31
449.779	122.31
450	89.31
450.221	81.31
450.442	88.31
450.662	92.31
450.883	110.31
451.104	102.31
451.324	91.31
451.545	81.31
451.766	98.31
451.986	97.31
452.207	77.31
452.428	92.31
452.648	111.31
452.869	102.31
453.089	113.31
453.31	108.31
453.53	91.31
453.751	87.31
453.971	94.31
454.192	94.31
454.412	89.31
454.633	85.31
454.853	94.31
455.073	77.31
455.294	91.31
455.514	92.31
455.734	93.31
455.955	90.31
456.175	82.31
456.395	77.31
456.616	89.31
456.836	84.31
457.056	76.31
457.276	73.31
457.497	82.31
457.717	90.31
457.937	89.31
458.157	83.31
458.377	92.31
458.598	103.31
458.818	136.31
459.038	154.31
459.258	123.31
459.478	105.31
459.698	79.31
459.918	85.31
460.138	84.31
460.358	84.31
460.578	70.31
460.798	79.31
461.018	84.31
461.238	87.31
461.458	82.31
461.678	92.31
461.898	81.31
462.118	78.31
462.338	84.31
462.558	81.31
462.777	74.31
462.997	95.31
463.217	73.31
463.437	68.31
463.657	72.31
463.876	79.31
464.096	73.31
464.316	99.31
464.536	90.31
464.755	99.31
464.975	106.31
465.195	177.31
465.414	154.31
465.634	96.31
465.854	87.31
466.073	89.31
466.293	89.31
466.512	74.31
466.732	82.31
466.951	94.31
467.171	89.31
467.391	96.31
467.61	106.31
467.829	94.31
468.049	97.31
468.268	88.31
468.488	97.31
468.707	76.31
468.927	76.31
469.146	85.31
469.365	78.31
469.585	88.31
469.804	91.31
470.023	82.31
470.243	84.31
470.462	104.31
470.681	109.31
470.901	84.31
471.12	90.31
471.339	76.31
471.558	90.31
471.777	80.31
471.997	89.31
472.216	81.31
472.435	116.31
472.654	98.31
472.873	89.31
473.092	75.31
473.311	97.31
473.53	83.31
473.749	64.31
473.968	95.31
474.187	100.31
474.406	94.31
474.625	77.31
474.844	82.31
475.063	90.31
475.282	85.31
475.501	97.31
475.72	82.31
475.939	83.31
476.158	94.31
476.377	91.31
476.596	84.31
476.814	95.31
477.033	87.31
477.252	82.31
477.471	81.31
477.69	103.31
477.908	98.31
478.127	90.31
478.346	79.31
478.564	100.31
478.783	85.31
479.002	92.31
479.22	93.31
479.439	95.31
479.658	94.31
479.876	87.31
480.095	85.31
480.313	85.31
480.532	83.31
480.751	83.31
480.969	106.31
481.188	163.31
481.406	120.31
481.624	83.31
481.843	86.31
482.061	89.31
482.28	79.31
482.498	93.31
482.717	82.31
482.935	77.31
483.153	82.31
483.372	82.31
483.59	90.31
483.808	92.31
484.027	96.31
484.245	93.31
484.463	102.31
484.681	96.31
484.9	89.31
485.118	96.31
485.336	73.31
485.554	87.31
485.772	88.31
485.99	93.31
486.209	101.31
486.427	113.31
486.645	109.31
486.863	99.31
487.081	107.31
487.299	90.31
487.517	77.31
487.735	93.31
487.953	92.31
488.171	90.31
488.389	96.31
488.607	90.31
488.825	84.31
489.043	75.31
489.261	82.31
489.479	89.31
489.696	83.31
489.914	86.31
490.132	91.31
490.35	76.31
490.568	77.31
490.786	92.31
491.003	85.31
491.221	93.31
491.439	91.31
491.657	97.31
491.874	87.31
492.092	97.31
492.31	91.31
492.527	86.31
492.745	74.31
492.963	92.31
493.18	85.31
493.398	78.31
493.615	95.31
493.833	80.31
494.05	98.31
494.268	91.31
494.485	96.31
494.703	81.31
494.92	82.31
495.138	96.31
495.355	82.31
495.573	85.31
495.79	81.31
496.008	76.31
496.225	86.31
496.442	108.31
496.66	85.31
496.877	70.31
497.094	93.31
497.312	87.31
497.529	97.31
497.746	77.31
497.963	101.31
498.181	95.31
498.398	83.31
498.615	97.31
498.832	102.31
499.049	81.31
499.267	85.31
499.484	85.31
499.701	95.31
499.918	80.31
500.135	87.31
500.352	78.31
500.569	86.31
500.786	76.31
501.003	86.31
501.22	81.31
501.437	83.31
501.654	99.31
501.871	98.31
502.088	88.31
502.305	98.31
502.522	91.31
502.739	89.31
502.956	95.31
503.172	88.31
503.389	92.31
503.606	99.31
503.823	88.31
504.04	88.31
504.256	95.31
504.473	82.31
504.69	75.31
504.907	93.31
505.123	80.31
505.34	84.31
505.557	100.31
505.773	99.31
505.99	77.31
506.207	91.31
506.423	85.31
506.64	89.31
506.856	86.31
507.073	91.31
507.289	81.31
507.506	90.31
507.722	101.31
507.939	106.31
508.155	87.31
508.372	78.31
508.588	91.31
508.805	93.31
509.021	95.31
509.238	106.31
509.454	108.31
509.67	110.31
509.887	111.31
510.103	130.31
510.319	219.31
510.536	802.31
510.752	2563.31
510.968	689.31
511.184	150.31
511.401	112.31
511.617	92.31
511.833	96.31
512.049	94.31
512.265	92.31
512.481	85.31
512.698	95.31
512.914	89.31
513.13	91.31
513.346	97.31
513.562	88.31
513.778	88.31
513.994	99.31
514.21	95.31
514.426	98.31
514.642	125.31
514.858	115.31
515.074	169.31
515.29	506.31
515.506	1567.31
515.721	576.31
515.937	151.31
516.153	101.31
516.369	102.31
516.585	89.31
