Data from Uncirc_1988_H10_HRD10591_00096.txt Node
Date: Wed Jan 03 12:04:23 EST 2024
User: Yrep
Spectrometer: HR+D1059
Trigger mode: 1
Integration Time (sec): 1.000000E-1
Scans to average: 1
Electric dark correction enabled: true
Nonlinearity correction enabled: false
Boxcar width: 0
XAxis mode: Wavelengths
Number of Pixels in Spectrum: 2048
>>>>>Begin Spectral Data<<<<<
223.165	-10.5
223.4	-10.5
223.635	-10.5
223.869	-24.5
224.104	-14.5
224.338	-13.5
224.573	-20.5
224.808	-7.5
225.042	-12.5
225.277	-8.5
225.511	6.5
225.746	2.5
225.98	-0.5
226.215	17.5
226.449	16.5
226.683	21.5
226.918	23.5
227.152	24.5
227.387	28.5
227.621	35.5
227.856	40.5
228.09	50.5
228.324	37.5
228.559	45.5
228.793	63.5
229.027	58.5
229.262	54.5
229.496	76.5
229.73	94.5
229.964	91.5
230.199	73.5
230.433	70.5
230.667	72.5
230.901	80.5
231.136	87.5
231.37	84.5
231.604	77.5
231.838	83.5
232.072	83.5
232.306	84.5
232.541	85.5
232.775	75.5
233.009	80.5
233.243	81.5
233.477	101.5
233.711	85.5
233.945	78.5
234.179	82.5
234.413	89.5
234.647	81.5
234.881	75.5
235.115	91.5
235.349	82.5
235.583	82.5
235.817	88.5
236.051	82.5
236.285	84.5
236.519	72.5
236.753	94.5
236.987	79.5
237.221	80.5
237.455	93.5
237.689	82.5
237.922	71.5
238.156	73.5
238.39	71.5
238.624	80.5
238.858	87.5
239.091	81.5
239.325	84.5
239.559	83.5
239.793	79.5
240.027	76.5
240.26	65.5
240.494	69.5
240.728	62.5
240.961	67.5
241.195	83.5
241.429	87.5
241.662	75.5
241.896	71.5
242.13	84.5
242.363	83.5
242.597	65.5
242.83	63.5
243.064	63.5
243.298	101.5
243.531	77.5
243.765	82.5
243.998	83.5
244.232	70.5
244.465	73.5
244.699	77.5
244.932	75.5
245.166	69.5
245.399	78.5
245.633	87.5
245.866	74.5
246.099	95.5
246.333	69.5
246.566	71.5
246.8	80.5
247.033	63.5
247.266	67.5
247.5	80.5
247.733	75.5
247.966	87.5
248.2	85.5
248.433	73.5
248.666	82.5
248.899	80.5
249.133	77.5
249.366	103.5
249.599	99.5
249.832	82.5
250.066	80.5
250.299	79.5
250.532	85.5
250.765	68.5
250.998	74.5
251.231	68.5
251.465	69.5
251.698	98.5
251.931	87.5
252.164	73.5
252.397	73.5
252.63	75.5
252.863	79.5
253.096	68.5
253.329	80.5
253.562	75.5
253.795	85.5
254.028	84.5
254.261	68.5
254.494	78.5
254.727	72.5
254.96	87.5
255.193	71.5
255.426	86.5
255.659	78.5
255.892	78.5
256.124	89.5
256.357	77.5
256.59	101.5
256.823	72.5
257.056	89.5
257.289	76.5
257.521	68.5
257.754	71.5
257.987	68.5
258.22	83.5
258.452	85.5
258.685	79.5
258.918	77.5
259.151	79.5
259.383	93.5
259.616	80.5
259.849	79.5
260.081	78.5
260.314	87.5
260.547	83.5
260.779	88.5
261.012	83.5
261.244	80.5
261.477	77.5
261.71	95.5
261.942	111.5
262.175	118.5
262.407	89.5
262.64	90.5
262.872	84.5
263.105	80.5
263.337	79.5
263.57	85.5
263.802	83.5
264.035	97.5
264.267	79.5
264.499	76.5
264.732	78.5
264.964	79.5
265.197	79.5
265.429	66.5
265.661	79.5
265.894	83.5
266.126	94.5
266.358	68.5
266.591	65.5
266.823	81.5
267.055	85.5
267.287	67.5
267.52	85.5
267.752	88.5
267.984	84.5
268.216	74.5
268.448	84.5
268.681	81.5
268.913	85.5
269.145	79.5
269.377	81.5
269.609	73.5
269.841	91.5
270.073	64.5
270.306	86.5
270.538	74.5
270.77	93.5
271.002	91.5
271.234	83.5
271.466	91.5
271.698	96.5
271.93	88.5
272.162	85.5
272.394	102.5
272.626	87.5
272.858	97.5
273.09	78.5
273.322	75.5
273.553	86.5
273.785	79.5
274.017	96.5
274.249	84.5
274.481	93.5
274.713	87.5
274.945	89.5
275.176	63.5
275.408	89.5
275.64	93.5
275.872	75.5
276.104	77.5
276.335	95.5
276.567	79.5
276.799	110.5
277.031	108.5
277.262	91.5
277.494	102.5
277.726	93.5
277.957	87.5
278.189	71.5
278.421	93.5
278.652	77.5
278.884	87.5
279.115	96.5
279.347	88.5
279.579	80.5
279.81	94.5
280.042	92.5
280.273	88.5
280.505	94.5
280.736	84.5
280.968	75.5
281.199	70.5
281.431	88.5
281.662	85.5
281.894	91.5
282.125	87.5
282.356	108.5
282.588	136.5
282.819	124.5
283.051	79.5
283.282	93.5
283.513	70.5
283.745	77.5
283.976	83.5
284.207	95.5
284.439	84.5
284.67	84.5
284.901	79.5
285.132	87.5
285.364	91.5
285.595	72.5
285.826	79.5
286.057	83.5
286.288	77.5
286.52	76.5
286.751	87.5
286.982	100.5
287.213	85.5
287.444	86.5
287.675	93.5
287.906	91.5
288.138	92.5
288.369	103.5
288.6	87.5
288.831	85.5
289.062	90.5
289.293	90.5
289.524	88.5
289.755	83.5
289.986	93.5
290.217	88.5
290.448	92.5
290.679	84.5
290.91	83.5
291.141	91.5
291.371	91.5
291.602	83.5
291.833	81.5
292.064	79.5
292.295	88.5
292.526	69.5
292.757	98.5
292.987	81.5
293.218	95.5
293.449	70.5
293.68	94.5
293.91	99.5
294.141	89.5
294.372	87.5
294.603	82.5
294.833	86.5
295.064	82.5
295.295	90.5
295.525	81.5
295.756	97.5
295.987	102.5
296.217	131.5
296.448	111.5
296.679	100.5
296.909	93.5
297.14	91.5
297.37	84.5
297.601	77.5
297.831	84.5
298.062	99.5
298.292	83.5
298.523	100.5
298.753	86.5
298.984	100.5
299.214	101.5
299.445	81.5
299.675	84.5
299.905	99.5
300.136	90.5
300.366	84.5
300.597	86.5
300.827	95.5
301.057	107.5
301.288	113.5
301.518	88.5
301.748	78.5
301.979	96.5
302.209	98.5
302.439	97.5
302.669	101.5
302.9	94.5
303.13	100.5
303.36	89.5
303.59	99.5
303.82	107.5
304.051	94.5
304.281	92.5
304.511	95.5
304.741	85.5
304.971	92.5
305.201	95.5
305.431	92.5
305.661	96.5
305.891	75.5
306.121	95.5
306.352	87.5
306.582	102.5
306.812	93.5
307.042	91.5
307.272	97.5
307.502	105.5
307.731	88.5
307.961	75.5
308.191	94.5
308.421	93.5
308.651	80.5
308.881	89.5
309.111	94.5
309.341	99.5
309.571	98.5
309.8	110.5
310.03	100.5
310.26	83.5
310.49	84.5
310.72	97.5
310.949	103.5
311.179	111.5
311.409	86.5
311.639	102.5
311.868	96.5
312.098	108.5
312.328	94.5
312.557	99.5
312.787	109.5
313.017	104.5
313.246	87.5
313.476	85.5
313.706	82.5
313.935	104.5
314.165	103.5
314.394	93.5
314.624	105.5
314.853	91.5
315.083	95.5
315.312	101.5
315.542	104.5
315.771	87.5
316.001	91.5
316.23	89.5
316.46	94.5
316.689	84.5
316.919	97.5
317.148	89.5
317.377	104.5
317.607	86.5
317.836	88.5
318.065	81.5
318.295	86.5
318.524	97.5
318.753	91.5
318.983	108.5
319.212	97.5
319.441	109.5
319.67	109.5
319.9	101.5
320.129	84.5
320.358	91.5
320.587	101.5
320.816	86.5
321.046	109.5
321.275	97.5
321.504	88.5
321.733	94.5
321.962	97.5
322.191	104.5
322.42	113.5
322.649	108.5
322.878	114.5
323.108	108.5
323.337	115.5
323.566	126.5
323.795	140.5
324.024	213.5
324.253	412.5
324.482	909.5
324.71	1901.5
324.939	2583.5
325.168	921.5
325.397	256.5
325.626	144.5
325.855	140.5
326.084	120.5
326.313	121.5
326.542	159.5
326.77	245.5
326.999	503.5
327.228	1051.5
327.457	2025.5
327.686	1629.5
327.914	425.5
328.143	203.5
328.372	163.5
328.6	141.5
328.829	124.5
329.058	140.5
329.287	144.5
329.515	121.5
329.744	107.5
329.972	114.5
330.201	128.5
330.43	153.5
330.658	143.5
330.887	154.5
331.115	133.5
331.344	101.5
331.572	99.5
331.801	106.5
332.03	111.5
332.258	104.5
332.486	100.5
332.715	88.5
332.943	88.5
333.172	97.5
333.4	93.5
333.629	106.5
333.857	105.5
334.085	117.5
334.314	147.5
334.542	173.5
334.771	154.5
334.999	112.5
335.227	99.5
335.455	100.5
335.684	108.5
335.912	85.5
336.14	102.5
336.369	81.5
336.597	86.5
336.825	95.5
337.053	94.5
337.281	95.5
337.51	100.5
337.738	86.5
337.966	99.5
338.194	95.5
338.422	99.5
338.65	95.5
338.878	91.5
339.106	94.5
339.334	94.5
339.562	96.5
339.79	75.5
340.018	101.5
340.246	86.5
340.474	92.5
340.702	80.5
340.93	101.5
341.158	85.5
341.386	100.5
341.614	101.5
341.842	91.5
342.07	84.5
342.298	93.5
342.526	92.5
342.754	77.5
342.981	92.5
343.209	97.5
343.437	94.5
343.665	86.5
343.893	94.5
344.12	91.5
344.348	102.5
344.576	89.5
344.804	94.5
345.031	98.5
345.259	103.5
345.487	96.5
345.714	89.5
345.942	93.5
346.17	80.5
346.397	103.5
346.625	88.5
346.853	81.5
347.08	79.5
347.308	88.5
347.535	91.5
347.763	95.5
347.99	94.5
348.218	91.5
348.445	105.5
348.673	105.5
348.9	88.5
349.128	91.5
349.355	86.5
349.583	93.5
349.81	94.5
350.037	95.5
350.265	97.5
350.492	98.5
350.72	101.5
350.947	95.5
351.174	106.5
351.402	108.5
351.629	105.5
351.856	97.5
352.083	98.5
352.311	105.5
352.538	111.5
352.765	111.5
352.992	111.5
353.22	105.5
353.447	103.5
353.674	99.5
353.901	84.5
354.128	109.5
354.355	96.5
354.583	104.5
354.81	99.5
355.037	97.5
355.264	96.5
355.491	99.5
355.718	106.5
355.945	86.5
356.172	103.5
356.399	101.5
356.626	94.5
356.853	85.5
357.08	92.5
357.307	87.5
357.534	102.5
357.761	88.5
357.988	87.5
358.215	88.5
358.441	82.5
358.668	83.5
358.895	97.5
359.122	98.5
359.349	99.5
359.576	95.5
359.802	96.5
360.029	106.5
360.256	125.5
360.483	101.5
360.709	95.5
360.936	103.5
361.163	93.5
361.39	97.5
361.616	93.5
361.843	100.5
362.07	115.5
362.296	98.5
362.523	98.5
362.749	95.5
362.976	102.5
363.203	100.5
363.429	91.5
363.656	85.5
363.882	67.5
364.109	91.5
364.335	80.5
364.562	94.5
364.788	97.5
365.015	90.5
365.241	81.5
365.468	104.5
365.694	102.5
365.92	84.5
366.147	104.5
366.373	102.5
366.599	86.5
366.826	98.5
367.052	96.5
367.278	96.5
367.505	85.5
367.731	83.5
367.957	90.5
368.184	91.5
368.41	91.5
368.636	118.5
368.862	111.5
369.089	113.5
369.315	86.5
369.541	78.5
369.767	86.5
369.993	86.5
370.219	104.5
370.445	79.5
370.672	97.5
370.898	79.5
371.124	90.5
371.35	96.5
371.576	95.5
371.802	92.5
372.028	88.5
372.254	109.5
372.48	98.5
372.706	97.5
372.932	77.5
373.158	87.5
373.384	100.5
373.61	109.5
373.835	91.5
374.061	93.5
374.287	91.5
374.513	94.5
374.739	93.5
374.965	84.5
375.191	84.5
375.416	78.5
375.642	86.5
375.868	97.5
376.094	87.5
376.319	95.5
376.545	81.5
376.771	82.5
376.997	85.5
377.222	88.5
377.448	103.5
377.674	110.5
377.899	87.5
378.125	89.5
378.35	91.5
378.576	83.5
378.802	97.5
379.027	100.5
379.253	85.5
379.478	71.5
379.704	77.5
379.929	87.5
380.155	83.5
380.38	77.5
380.606	100.5
380.831	92.5
381.057	84.5
381.282	94.5
381.507	89.5
381.733	77.5
381.958	115.5
382.184	84.5
382.409	91.5
382.634	105.5
382.86	90.5
383.085	107.5
383.31	100.5
383.535	87.5
383.761	96.5
383.986	75.5
384.211	85.5
384.436	96.5
384.662	84.5
384.887	97.5
385.112	86.5
385.337	90.5
385.562	89.5
385.787	105.5
386.013	92.5
386.238	124.5
386.463	110.5
386.688	107.5
386.913	95.5
387.138	108.5
387.363	100.5
387.588	98.5
387.813	89.5
388.038	93.5
388.263	102.5
388.488	102.5
388.713	81.5
388.938	90.5
389.163	105.5
389.387	112.5
389.612	92.5
389.837	103.5
390.062	97.5
390.287	92.5
390.512	101.5
390.736	91.5
390.961	101.5
391.186	83.5
391.411	93.5
391.636	87.5
391.86	94.5
392.085	94.5
392.31	91.5
392.534	76.5
392.759	71.5
392.984	87.5
393.208	92.5
393.433	83.5
393.658	98.5
393.882	81.5
394.107	95.5
394.331	72.5
394.556	79.5
394.78	98.5
395.005	85.5
395.229	100.5
395.454	94.5
395.678	91.5
395.903	85.5
396.127	85.5
396.352	80.5
396.576	74.5
396.801	91.5
397.025	91.5
397.249	88.5
397.474	75.5
397.698	79.5
397.922	91.5
398.147	85.5
398.371	95.5
398.595	87.5
398.82	89.5
399.044	91.5
399.268	80.5
399.492	89.5
399.717	93.5
399.941	81.5
400.165	93.5
400.389	96.5
400.613	95.5
400.837	93.5
401.062	97.5
401.286	85.5
401.51	112.5
401.734	88.5
401.958	92.5
402.182	121.5
402.406	151.5
402.63	111.5
402.854	96.5
403.078	101.5
403.302	94.5
403.526	80.5
403.75	89.5
403.974	80.5
404.198	81.5
404.422	88.5
404.645	90.5
404.869	105.5
405.093	110.5
405.317	116.5
405.541	105.5
405.765	102.5
405.988	113.5
406.212	166.5
406.436	249.5
406.66	141.5
406.883	96.5
407.107	86.5
407.331	102.5
407.555	119.5
407.778	108.5
408.002	88.5
408.226	85.5
408.449	82.5
408.673	92.5
408.896	94.5
409.12	95.5
409.344	83.5
409.567	88.5
409.791	81.5
410.014	91.5
410.238	89.5
410.461	83.5
410.685	100.5
410.908	97.5
411.132	110.5
411.355	94.5
411.578	97.5
411.802	96.5
412.025	83.5
412.249	104.5
412.472	93.5
412.695	105.5
412.919	108.5
413.142	94.5
413.365	91.5
413.589	72.5
413.812	89.5
414.035	91.5
414.258	75.5
414.482	86.5
414.705	98.5
414.928	80.5
415.151	91.5
415.374	102.5
415.597	95.5
415.821	86.5
416.044	98.5
416.267	81.5
416.49	82.5
416.713	81.5
416.936	100.5
417.159	88.5
417.382	81.5
417.605	88.5
417.828	89.5
418.051	99.5
418.274	91.5
418.497	90.5
418.72	81.5
418.943	94.5
419.166	93.5
419.389	96.5
419.611	91.5
419.834	86.5
420.057	91.5
420.28	71.5
420.503	88.5
420.726	96.5
420.948	92.5
421.171	101.5
421.394	104.5
421.617	93.5
421.839	87.5
422.062	77.5
422.285	97.5
422.507	103.5
422.73	105.5
422.953	97.5
423.175	92.5
423.398	91.5
423.621	99.5
423.843	81.5
424.066	93.5
424.288	89.5
424.511	85.5
424.733	89.5
424.956	103.5
425.178	96.5
425.401	108.5
425.623	122.5
425.846	87.5
426.068	91.5
426.291	103.5
426.513	96.5
426.735	115.5
426.958	96.5
427.18	112.5
427.402	151.5
427.625	169.5
427.847	161.5
428.069	115.5
428.292	108.5
428.514	82.5
428.736	87.5
428.958	82.5
429.181	77.5
429.403	89.5
429.625	104.5
429.847	98.5
430.069	105.5
430.292	93.5
430.514	87.5
430.736	97.5
430.958	83.5
431.18	81.5
431.402	86.5
431.624	74.5
431.846	76.5
432.068	80.5
432.29	83.5
432.512	104.5
432.734	95.5
432.956	95.5
433.178	100.5
433.4	97.5
433.622	94.5
433.844	86.5
434.066	109.5
434.287	92.5
434.509	83.5
434.731	91.5
434.953	84.5
435.175	91.5
435.397	95.5
435.618	87.5
435.84	101.5
436.062	131.5
436.284	133.5
436.505	111.5
436.727	104.5
436.949	109.5
437.17	96.5
437.392	93.5
437.614	92.5
437.835	110.5
438.057	124.5
438.278	116.5
438.5	114.5
438.721	150.5
438.943	98.5
439.165	102.5
439.386	88.5
439.608	87.5
439.829	99.5
440.05	140.5
440.272	154.5
440.493	107.5
440.715	94.5
440.936	81.5
441.158	84.5
441.379	97.5
441.6	96.5
441.822	99.5
442.043	85.5
442.264	112.5
442.486	108.5
442.707	103.5
442.928	108.5
443.149	126.5
443.371	128.5
443.592	120.5
443.813	109.5
444.034	113.5
444.255	93.5
444.476	87.5
444.698	85.5
444.919	101.5
445.14	110.5
445.361	120.5
445.582	121.5
445.803	159.5
446.024	150.5
446.245	167.5
446.466	135.5
446.687	98.5
446.908	91.5
447.129	92.5
447.35	95.5
447.571	95.5
447.792	100.5
448.013	96.5
448.234	112.5
448.455	109.5
448.675	111.5
448.896	139.5
449.117	105.5
449.338	124.5
449.559	144.5
449.779	166.5
450	113.5
450.221	81.5
450.442	80.5
450.662	105.5
450.883	115.5
451.104	112.5
451.324	90.5
451.545	83.5
451.766	83.5
451.986	89.5
452.207	93.5
452.428	112.5
452.648	100.5
452.869	96.5
453.089	128.5
453.31	121.5
453.53	95.5
453.751	87.5
453.971	96.5
454.192	107.5
454.412	97.5
454.633	92.5
454.853	79.5
455.073	78.5
455.294	95.5
455.514	109.5
455.734	93.5
455.955	89.5
456.175	95.5
456.395	81.5
456.616	72.5
456.836	84.5
457.056	83.5
457.276	83.5
457.497	77.5
457.717	89.5
457.937	82.5
458.157	75.5
458.377	92.5
458.598	105.5
458.818	164.5
459.038	187.5
459.258	111.5
459.478	102.5
459.698	92.5
459.918	91.5
460.138	90.5
460.358	81.5
460.578	94.5
460.798	80.5
461.018	100.5
461.238	97.5
461.458	100.5
461.678	95.5
461.898	82.5
462.118	83.5
462.338	90.5
462.558	82.5
462.777	92.5
462.997	87.5
463.217	70.5
463.437	88.5
463.657	85.5
463.876	95.5
464.096	91.5
464.316	103.5
464.536	95.5
464.755	89.5
464.975	106.5
465.195	185.5
465.414	172.5
465.634	96.5
465.854	85.5
466.073	90.5
466.293	93.5
466.512	87.5
466.732	71.5
466.951	89.5
467.171	91.5
467.391	89.5
467.61	115.5
467.829	103.5
468.049	115.5
468.268	115.5
468.488	104.5
468.707	82.5
468.927	77.5
469.146	77.5
469.365	82.5
469.585	97.5
469.804	100.5
470.023	94.5
470.243	93.5
470.462	83.5
470.681	107.5
470.901	97.5
471.12	88.5
471.339	101.5
471.558	81.5
471.777	93.5
471.997	96.5
472.216	136.5
472.435	200.5
472.654	115.5
472.873	99.5
473.092	72.5
473.311	86.5
473.53	80.5
473.749	85.5
473.968	100.5
474.187	127.5
474.406	102.5
474.625	88.5
474.844	86.5
475.063	88.5
475.282	78.5
475.501	91.5
475.72	91.5
475.939	76.5
476.158	78.5
476.377	80.5
476.596	95.5
476.814	86.5
477.033	104.5
477.252	84.5
477.471	89.5
477.69	83.5
477.908	69.5
478.127	81.5
478.346	91.5
478.564	95.5
478.783	92.5
479.002	88.5
479.22	93.5
479.439	113.5
479.658	97.5
479.876	97.5
480.095	83.5
480.313	100.5
480.532	100.5
480.751	107.5
480.969	130.5
481.188	293.5
481.406	203.5
481.624	96.5
481.843	92.5
482.061	96.5
482.28	91.5
482.498	90.5
482.717	98.5
482.935	86.5
483.153	77.5
483.372	73.5
483.59	85.5
483.808	89.5
484.027	89.5
484.245	89.5
484.463	102.5
484.681	93.5
484.9	82.5
485.118	100.5
485.336	84.5
485.554	94.5
485.772	106.5
485.99	104.5
486.209	85.5
486.427	116.5
486.645	118.5
486.863	101.5
487.081	99.5
487.299	92.5
487.517	104.5
487.735	97.5
487.953	93.5
488.171	87.5
488.389	99.5
488.607	92.5
488.825	111.5
489.043	111.5
489.261	90.5
489.479	78.5
489.696	84.5
489.914	81.5
490.132	85.5
490.35	81.5
490.568	99.5
490.786	97.5
491.003	90.5
491.221	97.5
491.439	99.5
491.657	94.5
491.874	80.5
492.092	84.5
492.31	86.5
492.527	103.5
492.745	90.5
492.963	93.5
493.18	98.5
493.398	101.5
493.615	92.5
493.833	87.5
494.05	88.5
494.268	101.5
494.485	86.5
494.703	89.5
494.92	91.5
495.138	73.5
495.355	89.5
495.573	92.5
495.79	94.5
496.008	99.5
496.225	87.5
496.442	81.5
496.66	87.5
496.877	81.5
497.094	90.5
497.312	89.5
497.529	95.5
497.746	90.5
497.963	92.5
498.181	99.5
498.398	115.5
498.615	101.5
498.832	92.5
499.049	94.5
499.267	85.5
499.484	84.5
499.701	93.5
499.918	90.5
500.135	84.5
500.352	91.5
500.569	93.5
500.786	89.5
501.003	92.5
501.22	89.5
501.437	102.5
501.654	88.5
501.871	109.5
502.088	102.5
502.305	85.5
502.522	79.5
502.739	85.5
502.956	98.5
503.172	90.5
503.389	93.5
503.606	109.5
503.823	104.5
504.04	92.5
504.256	100.5
504.473	100.5
504.69	80.5
504.907	92.5
505.123	95.5
505.34	81.5
505.557	94.5
505.773	86.5
505.99	85.5
506.207	96.5
506.423	80.5
506.64	94.5
506.856	86.5
507.073	94.5
507.289	85.5
507.506	106.5
507.722	98.5
507.939	121.5
508.155	88.5
508.372	111.5
508.588	94.5
508.805	94.5
509.021	82.5
509.238	93.5
509.454	89.5
509.67	112.5
509.887	103.5
510.103	130.5
510.319	215.5
510.536	789.5
510.752	2431.5
510.968	660.5
511.184	156.5
511.401	118.5
511.617	107.5
511.833	85.5
512.049	94.5
512.265	57.5
512.481	96.5
512.698	88.5
512.914	91.5
513.13	115.5
513.346	88.5
513.562	92.5
513.778	94.5
513.994	102.5
514.21	104.5
514.426	118.5
514.642	143.5
514.858	131.5
515.074	162.5
515.29	498.5
515.506	1595.5
515.721	573.5
515.937	166.5
516.153	106.5
516.369	109.5
516.585	98.5
516.801	113.5
517.016	87.5
517.232	96.5
517.448	85.5
517.664	89.5
517.879	94.5
518.095	108.5
518.311	104.5
518.527	91.5
518.742	95.5
518.958	93.5
519.173	94.5
519.389	100.5
519.605	96.5
519.82	97.5
520.036	85.5
520.251	118.5
520.467	102.5
520.682	103.5
520.898	108.5
521.113	123.5
521.329	141.5
521.544	217.5
521.76	632.5
521.975	2703.5
522.19	1599.5
522.406	341.5
522.621	123.5
522.836	99.5
523.052	98.5
523.267	80.5
523.482	96.5
523.698	105.5
523.913	127.5
524.128	97.5
524.343	105.5
524.559	99.5
524.774	97.5
524.989	99.5
525.204	101.5
525.419	88.5
525.634	91.5
525.849	95.5
526.064	104.5
526.28	90.5
526.495	88.5
526.71	65.5
526.925	103.5
527.14	84.5
527.355	68.5
527.57	91.5
527.785	86.5
527.999	91.5
528.214	96.5
528.429	106.5
528.644	88.5
528.859	101.5
529.074	99.5
529.289	134.5
529.503	190.5
529.718	114.5
529.933	78.5
530.148	92.5
530.363	108.5
530.577	76.5
530.792	80.5
531.007	98.5
531.221	87.5
531.436	93.5
531.651	85.5
531.865	88.5
532.08	82.5
532.295	84.5
532.509	103.5
532.724	96.5
532.938	102.5
533.153	108.5
533.367	92.5
533.582	87.5
533.796	97.5
534.011	95.5
534.225	95.5
534.44	84.5
534.654	99.5
