Data from Uncirc_1988_H10_HRD10591_00077.txt Node
Date: Wed Jan 03 12:04:19 EST 2024
User: Yrep
Spectrometer: HR+D1059
Trigger mode: 1
Integration Time (sec): 1.000000E-1
Scans to average: 1
Electric dark correction enabled: true
Nonlinearity correction enabled: false
Boxcar width: 0
XAxis mode: Wavelengths
Number of Pixels in Spectrum: 2048
>>>>>Begin Spectral Data<<<<<
223.165	-5.81
223.4	-5.81
223.635	-5.81
223.869	-21.81
224.104	-21.81
224.338	-1.81
224.573	-11.81
224.808	-11.81
225.042	5.19
225.277	-8.81
225.511	3.19
225.746	15.19
225.98	9.19
226.215	1.19
226.449	5.19
226.683	8.19
226.918	14.19
227.152	22.19
227.387	19.19
227.621	39.19
227.856	42.19
228.09	49.19
228.324	46.19
228.559	53.19
228.793	69.19
229.027	66.19
229.262	57.19
229.496	68.19
229.73	79.19
229.964	74.19
230.199	68.19
230.433	85.19
230.667	80.19
230.901	83.19
231.136	85.19
231.37	70.19
231.604	86.19
231.838	71.19
232.072	84.19
232.306	69.19
232.541	79.19
232.775	87.19
233.009	92.19
233.243	82.19
233.477	80.19
233.711	91.19
233.945	85.19
234.179	73.19
234.413	68.19
234.647	90.19
234.881	81.19
235.115	90.19
235.349	87.19
235.583	84.19
235.817	82.19
236.051	69.19
236.285	84.19
236.519	81.19
236.753	73.19
236.987	60.19
237.221	93.19
237.455	89.19
237.689	66.19
237.922	92.19
238.156	80.19
238.39	80.19
238.624	95.19
238.858	67.19
239.091	68.19
239.325	71.19
239.559	74.19
239.793	90.19
240.027	72.19
240.26	82.19
240.494	73.19
240.728	71.19
240.961	61.19
241.195	59.19
241.429	74.19
241.662	81.19
241.896	64.19
242.13	87.19
242.363	92.19
242.597	81.19
242.83	69.19
243.064	88.19
243.298	71.19
243.531	95.19
243.765	80.19
243.998	86.19
244.232	102.19
244.465	82.19
244.699	79.19
244.932	73.19
245.166	68.19
245.399	81.19
245.633	70.19
245.866	88.19
246.099	68.19
246.333	72.19
246.566	81.19
246.8	81.19
247.033	79.19
247.266	79.19
247.5	69.19
247.733	71.19
247.966	72.19
248.2	68.19
248.433	73.19
248.666	84.19
248.899	86.19
249.133	86.19
249.366	95.19
249.599	84.19
249.832	83.19
250.066	65.19
250.299	65.19
250.532	85.19
250.765	82.19
250.998	78.19
251.231	87.19
251.465	91.19
251.698	87.19
251.931	101.19
252.164	89.19
252.397	80.19
252.63	83.19
252.863	96.19
253.096	76.19
253.329	83.19
253.562	75.19
253.795	80.19
254.028	94.19
254.261	82.19
254.494	89.19
254.727	82.19
254.96	76.19
255.193	79.19
255.426	73.19
255.659	81.19
255.892	93.19
256.124	80.19
256.357	76.19
256.59	74.19
256.823	90.19
257.056	70.19
257.289	76.19
257.521	88.19
257.754	67.19
257.987	66.19
258.22	86.19
258.452	76.19
258.685	79.19
258.918	82.19
259.151	72.19
259.383	68.19
259.616	81.19
259.849	87.19
260.081	78.19
260.314	82.19
260.547	73.19
260.779	83.19
261.012	80.19
261.244	89.19
261.477	93.19
261.71	103.19
261.942	120.19
262.175	115.19
262.407	84.19
262.64	68.19
262.872	76.19
263.105	90.19
263.337	97.19
263.57	77.19
263.802	69.19
264.035	89.19
264.267	71.19
264.499	84.19
264.732	89.19
264.964	76.19
265.197	90.19
265.429	86.19
265.661	97.19
265.894	81.19
266.126	89.19
266.358	78.19
266.591	85.19
266.823	87.19
267.055	80.19
267.287	88.19
267.52	74.19
267.752	76.19
267.984	70.19
268.216	76.19
268.448	80.19
268.681	77.19
268.913	88.19
269.145	78.19
269.377	72.19
269.609	82.19
269.841	81.19
270.073	88.19
270.306	65.19
270.538	72.19
270.77	91.19
271.002	74.19
271.234	86.19
271.466	87.19
271.698	82.19
271.93	82.19
272.162	78.19
272.394	79.19
272.626	81.19
272.858	86.19
273.09	100.19
273.322	84.19
273.553	98.19
273.785	71.19
274.017	92.19
274.249	85.19
274.481	80.19
274.713	80.19
274.945	82.19
275.176	98.19
275.408	88.19
275.64	76.19
275.872	79.19
276.104	89.19
276.335	89.19
276.567	99.19
276.799	113.19
277.031	95.19
277.262	84.19
277.494	97.19
277.726	86.19
277.957	83.19
278.189	85.19
278.421	92.19
278.652	92.19
278.884	91.19
279.115	77.19
279.347	87.19
279.579	103.19
279.81	83.19
280.042	97.19
280.273	87.19
280.505	87.19
280.736	89.19
280.968	86.19
281.199	89.19
281.431	83.19
281.662	97.19
281.894	75.19
282.125	97.19
282.356	119.19
282.588	139.19
282.819	112.19
283.051	100.19
283.282	96.19
283.513	73.19
283.745	84.19
283.976	78.19
284.207	87.19
284.439	84.19
284.67	94.19
284.901	85.19
285.132	97.19
285.364	94.19
285.595	80.19
285.826	92.19
286.057	103.19
286.288	85.19
286.52	89.19
286.751	93.19
286.982	100.19
287.213	85.19
287.444	94.19
287.675	98.19
287.906	85.19
288.138	88.19
288.369	81.19
288.6	79.19
288.831	89.19
289.062	80.19
289.293	85.19
289.524	93.19
289.755	88.19
289.986	85.19
290.217	85.19
290.448	86.19
290.679	72.19
290.91	85.19
291.141	88.19
291.371	81.19
291.602	85.19
291.833	78.19
292.064	72.19
292.295	87.19
292.526	88.19
292.757	105.19
292.987	99.19
293.218	101.19
293.449	84.19
293.68	80.19
293.91	85.19
294.141	89.19
294.372	98.19
294.603	96.19
294.833	86.19
295.064	83.19
295.295	100.19
295.525	87.19
295.756	104.19
295.987	111.19
296.217	140.19
296.448	117.19
296.679	97.19
296.909	86.19
297.14	84.19
297.37	96.19
297.601	90.19
297.831	85.19
298.062	94.19
298.292	83.19
298.523	95.19
298.753	85.19
298.984	81.19
299.214	89.19
299.445	96.19
299.675	91.19
299.905	110.19
300.136	94.19
300.366	72.19
300.597	95.19
300.827	88.19
301.057	98.19
301.288	106.19
301.518	90.19
301.748	88.19
301.979	111.19
302.209	94.19
302.439	89.19
302.669	97.19
302.9	84.19
303.13	88.19
303.36	112.19
303.59	97.19
303.82	102.19
304.051	95.19
304.281	101.19
304.511	89.19
304.741	87.19
304.971	81.19
305.201	87.19
305.431	96.19
305.661	89.19
305.891	101.19
306.121	94.19
306.352	110.19
306.582	106.19
306.812	97.19
307.042	87.19
307.272	97.19
307.502	94.19
307.731	78.19
307.961	94.19
308.191	90.19
308.421	89.19
308.651	87.19
308.881	87.19
309.111	113.19
309.341	102.19
309.571	86.19
309.8	97.19
310.03	101.19
310.26	84.19
310.49	83.19
310.72	100.19
310.949	101.19
311.179	90.19
311.409	84.19
311.639	98.19
311.868	90.19
312.098	102.19
312.328	83.19
312.557	102.19
312.787	97.19
313.017	99.19
313.246	88.19
313.476	103.19
313.706	102.19
313.935	107.19
314.165	93.19
314.394	92.19
314.624	103.19
314.853	92.19
315.083	95.19
315.312	80.19
315.542	87.19
315.771	84.19
316.001	94.19
316.23	95.19
316.46	100.19
316.689	92.19
316.919	95.19
317.148	80.19
317.377	78.19
317.607	85.19
317.836	98.19
318.065	102.19
318.295	93.19
318.524	78.19
318.753	91.19
318.983	84.19
319.212	112.19
319.441	112.19
319.67	106.19
319.9	90.19
320.129	93.19
320.358	90.19
320.587	96.19
320.816	96.19
321.046	99.19
321.275	105.19
321.504	88.19
321.733	100.19
321.962	106.19
322.191	108.19
322.42	96.19
322.649	115.19
322.878	108.19
323.108	114.19
323.337	131.19
323.566	143.19
323.795	156.19
324.024	234.19
324.253	403.19
324.482	854.19
324.71	1786.19
324.939	2410.19
325.168	880.19
325.397	243.19
325.626	163.19
325.855	124.19
326.084	113.19
326.313	160.19
326.542	156.19
326.77	232.19
326.999	479.19
327.228	974.19
327.457	1854.19
327.686	1435.19
327.914	387.19
328.143	202.19
328.372	159.19
328.6	139.19
328.829	133.19
329.058	129.19
329.287	130.19
329.515	108.19
329.744	102.19
329.972	110.19
330.201	133.19
330.43	144.19
330.658	140.19
330.887	140.19
331.115	133.19
331.344	104.19
331.572	90.19
331.801	88.19
332.03	95.19
332.258	106.19
332.486	94.19
332.715	84.19
332.943	90.19
333.172	92.19
333.4	92.19
333.629	103.19
333.857	117.19
334.085	119.19
334.314	110.19
334.542	120.19
334.771	124.19
334.999	109.19
335.227	84.19
335.455	92.19
335.684	106.19
335.912	103.19
336.14	101.19
336.369	96.19
336.597	89.19
336.825	88.19
337.053	99.19
337.281	96.19
337.51	97.19
337.738	92.19
337.966	85.19
338.194	101.19
338.422	95.19
338.65	86.19
338.878	113.19
339.106	86.19
339.334	96.19
339.562	88.19
339.79	87.19
340.018	92.19
340.246	97.19
340.474	93.19
340.702	92.19
340.93	89.19
341.158	103.19
341.386	107.19
341.614	101.19
341.842	111.19
342.07	98.19
342.298	87.19
342.526	85.19
342.754	92.19
342.981	82.19
343.209	95.19
343.437	87.19
343.665	89.19
343.893	89.19
344.12	88.19
344.348	101.19
344.576	79.19
344.804	94.19
345.031	85.19
345.259	89.19
345.487	102.19
345.714	97.19
345.942	89.19
346.17	90.19
346.397	100.19
346.625	105.19
346.853	90.19
347.08	94.19
347.308	103.19
347.535	91.19
347.763	94.19
347.99	101.19
348.218	103.19
348.445	93.19
348.673	95.19
348.9	90.19
349.128	105.19
349.355	94.19
349.583	98.19
349.81	99.19
350.037	104.19
350.265	90.19
350.492	99.19
350.72	107.19
350.947	98.19
351.174	85.19
351.402	106.19
351.629	109.19
351.856	102.19
352.083	102.19
352.311	121.19
352.538	119.19
352.765	111.19
352.992	107.19
353.22	96.19
353.447	102.19
353.674	109.19
353.901	110.19
354.128	90.19
354.355	95.19
354.583	91.19
354.81	92.19
355.037	93.19
355.264	100.19
355.491	105.19
355.718	103.19
355.945	93.19
356.172	97.19
356.399	92.19
356.626	86.19
356.853	92.19
357.08	90.19
357.307	99.19
357.534	97.19
357.761	99.19
357.988	93.19
358.215	100.19
358.441	87.19
358.668	79.19
358.895	97.19
359.122	95.19
359.349	81.19
359.576	106.19
359.802	94.19
360.029	114.19
360.256	112.19
360.483	104.19
360.709	93.19
360.936	87.19
361.163	99.19
361.39	96.19
361.616	96.19
361.843	87.19
362.07	100.19
362.296	112.19
362.523	88.19
362.749	103.19
362.976	83.19
363.203	99.19
363.429	79.19
363.656	98.19
363.882	95.19
364.109	95.19
364.335	86.19
364.562	91.19
364.788	98.19
365.015	91.19
365.241	99.19
365.468	107.19
365.694	94.19
365.92	94.19
366.147	87.19
366.373	95.19
366.599	82.19
366.826	81.19
367.052	86.19
367.278	76.19
367.505	88.19
367.731	96.19
367.957	103.19
368.184	81.19
368.41	87.19
368.636	105.19
368.862	112.19
369.089	107.19
369.315	96.19
369.541	100.19
369.767	82.19
369.993	98.19
370.219	87.19
370.445	94.19
370.672	91.19
370.898	86.19
371.124	86.19
371.35	95.19
371.576	94.19
371.802	103.19
372.028	90.19
372.254	83.19
372.48	91.19
372.706	94.19
372.932	97.19
373.158	90.19
373.384	93.19
373.61	94.19
373.835	93.19
374.061	85.19
374.287	103.19
374.513	87.19
374.739	94.19
374.965	93.19
375.191	89.19
375.416	85.19
375.642	102.19
375.868	100.19
376.094	89.19
376.319	89.19
376.545	83.19
376.771	94.19
376.997	110.19
377.222	97.19
377.448	68.19
377.674	76.19
377.899	104.19
378.125	94.19
378.35	90.19
378.576	88.19
378.802	103.19
379.027	88.19
379.253	90.19
379.478	106.19
379.704	83.19
379.929	87.19
380.155	104.19
380.38	95.19
380.606	101.19
380.831	92.19
381.057	81.19
381.282	98.19
381.507	91.19
381.733	80.19
381.958	92.19
382.184	101.19
382.409	104.19
382.634	93.19
382.86	104.19
383.085	86.19
383.31	95.19
383.535	107.19
383.761	98.19
383.986	100.19
384.211	94.19
384.436	93.19
384.662	95.19
384.887	88.19
385.112	101.19
385.337	94.19
385.562	98.19
385.787	93.19
386.013	92.19
386.238	107.19
386.463	97.19
386.688	98.19
386.913	101.19
387.138	99.19
387.363	115.19
387.588	96.19
387.813	104.19
388.038	97.19
388.263	102.19
388.488	99.19
388.713	95.19
388.938	85.19
389.163	91.19
389.387	86.19
389.612	90.19
389.837	87.19
390.062	105.19
390.287	83.19
390.512	94.19
390.736	96.19
390.961	94.19
391.186	103.19
391.411	92.19
391.636	92.19
391.86	94.19
392.085	72.19
392.31	73.19
392.534	92.19
392.759	93.19
392.984	94.19
393.208	84.19
393.433	82.19
393.658	83.19
393.882	71.19
394.107	89.19
394.331	82.19
394.556	82.19
394.78	91.19
395.005	89.19
395.229	84.19
395.454	84.19
395.678	98.19
395.903	103.19
396.127	99.19
396.352	87.19
396.576	84.19
396.801	104.19
397.025	91.19
397.249	94.19
397.474	95.19
397.698	79.19
397.922	86.19
398.147	87.19
398.371	86.19
398.595	87.19
398.82	79.19
399.044	79.19
399.268	92.19
399.492	92.19
399.717	72.19
399.941	85.19
400.165	87.19
400.389	95.19
400.613	95.19
400.837	81.19
401.062	85.19
401.286	97.19
401.51	92.19
401.734	95.19
401.958	111.19
402.182	128.19
402.406	145.19
402.63	108.19
402.854	99.19
403.078	98.19
403.302	85.19
403.526	96.19
403.75	87.19
403.974	112.19
404.198	81.19
404.422	85.19
404.645	93.19
404.869	97.19
405.093	102.19
405.317	89.19
405.541	97.19
405.765	108.19
405.988	125.19
406.212	171.19
406.436	228.19
406.66	150.19
406.883	107.19
407.107	104.19
407.331	92.19
407.555	100.19
407.778	88.19
408.002	90.19
408.226	86.19
408.449	92.19
408.673	76.19
408.896	101.19
409.12	82.19
409.344	95.19
409.567	98.19
409.791	94.19
410.014	87.19
410.238	89.19
410.461	89.19
410.685	87.19
410.908	93.19
411.132	111.19
411.355	105.19
411.578	91.19
411.802	79.19
412.025	89.19
412.249	99.19
412.472	94.19
412.695	106.19
412.919	95.19
413.142	97.19
413.365	94.19
413.589	80.19
413.812	98.19
414.035	91.19
414.258	76.19
414.482	85.19
414.705	95.19
414.928	87.19
415.151	88.19
415.374	85.19
415.597	94.19
415.821	83.19
416.044	99.19
416.267	93.19
416.49	88.19
416.713	80.19
416.936	93.19
417.159	85.19
417.382	80.19
417.605	92.19
417.828	91.19
418.051	112.19
418.274	96.19
418.497	79.19
418.72	98.19
418.943	97.19
419.166	89.19
419.389	102.19
419.611	94.19
419.834	84.19
420.057	90.19
420.28	88.19
420.503	86.19
420.726	85.19
420.948	85.19
421.171	101.19
421.394	88.19
421.617	78.19
421.839	102.19
422.062	87.19
422.285	101.19
422.507	97.19
422.73	94.19
422.953	100.19
423.175	77.19
423.398	88.19
423.621	97.19
423.843	86.19
424.066	82.19
424.288	98.19
424.511	96.19
424.733	92.19
424.956	111.19
425.178	100.19
425.401	112.19
425.623	101.19
425.846	78.19
426.068	95.19
426.291	95.19
426.513	109.19
426.735	82.19
426.958	112.19
427.18	100.19
427.402	137.19
427.625	162.19
427.847	139.19
428.069	107.19
428.292	92.19
428.514	90.19
428.736	81.19
428.958	78.19
429.181	72.19
429.403	84.19
429.625	79.19
429.847	97.19
430.069	100.19
430.292	87.19
430.514	73.19
430.736	87.19
430.958	88.19
431.18	95.19
431.402	81.19
431.624	89.19
431.846	93.19
432.068	87.19
432.29	90.19
432.512	89.19
432.734	83.19
432.956	100.19
433.178	108.19
433.4	99.19
433.622	94.19
433.844	97.19
434.066	88.19
434.287	91.19
434.509	100.19
434.731	97.19
434.953	81.19
435.175	86.19
435.397	94.19
435.618	101.19
435.84	110.19
436.062	118.19
436.284	129.19
436.505	104.19
436.727	98.19
436.949	97.19
437.17	108.19
437.392	80.19
437.614	97.19
437.835	114.19
438.057	120.19
438.278	100.19
438.5	105.19
438.721	120.19
438.943	102.19
439.165	110.19
439.386	86.19
439.608	93.19
439.829	118.19
440.05	120.19
440.272	146.19
440.493	90.19
440.715	89.19
440.936	84.19
441.158	99.19
441.379	94.19
441.6	90.19
441.822	91.19
442.043	98.19
442.264	114.19
442.486	103.19
442.707	92.19
442.928	95.19
443.149	135.19
443.371	136.19
443.592	105.19
443.813	115.19
444.034	113.19
444.255	78.19
444.476	99.19
444.698	94.19
444.919	87.19
445.14	126.19
445.361	121.19
445.582	118.19
445.803	143.19
446.024	122.19
446.245	144.19
446.466	97.19
446.687	93.19
446.908	102.19
447.129	98.19
447.35	84.19
447.571	87.19
447.792	101.19
448.013	103.19
448.234	92.19
448.455	104.19
448.675	112.19
448.896	130.19
449.117	101.19
449.338	99.19
449.559	112.19
449.779	136.19
450	103.19
450.221	89.19
450.442	92.19
450.662	93.19
450.883	104.19
451.104	102.19
451.324	87.19
451.545	89.19
451.766	86.19
451.986	88.19
452.207	101.19
452.428	92.19
452.648	94.19
452.869	110.19
453.089	117.19
453.31	121.19
453.53	89.19
453.751	97.19
453.971	106.19
454.192	116.19
454.412	100.19
454.633	88.19
454.853	79.19
455.073	94.19
455.294	100.19
455.514	102.19
455.734	81.19
455.955	81.19
456.175	96.19
456.395	85.19
456.616	87.19
456.836	90.19
457.056	76.19
457.276	73.19
457.497	84.19
457.717	88.19
457.937	90.19
458.157	101.19
458.377	85.19
458.598	114.19
458.818	145.19
459.038	165.19
459.258	100.19
459.478	73.19
459.698	89.19
459.918	84.19
460.138	85.19
460.358	79.19
460.578	96.19
460.798	101.19
461.018	80.19
461.238	104.19
461.458	87.19
461.678	83.19
461.898	85.19
462.118	95.19
462.338	94.19
462.558	82.19
462.777	77.19
462.997	86.19
463.217	87.19
463.437	104.19
463.657	94.19
463.876	89.19
464.096	93.19
464.316	93.19
464.536	92.19
464.755	106.19
464.975	115.19
465.195	170.19
465.414	168.19
465.634	101.19
465.854	92.19
466.073	101.19
466.293	86.19
466.512	85.19
466.732	85.19
466.951	80.19
467.171	91.19
467.391	101.19
467.61	101.19
467.829	97.19
468.049	93.19
468.268	118.19
468.488	101.19
468.707	91.19
468.927	96.19
469.146	87.19
469.365	84.19
469.585	90.19
469.804	94.19
470.023	105.19
470.243	100.19
470.462	98.19
470.681	106.19
470.901	79.19
471.12	77.19
471.339	90.19
471.558	84.19
471.777	78.19
471.997	106.19
472.216	114.19
472.435	147.19
472.654	96.19
472.873	87.19
473.092	86.19
473.311	92.19
473.53	79.19
473.749	96.19
473.968	95.19
474.187	105.19
474.406	101.19
474.625	101.19
474.844	88.19
475.063	103.19
475.282	85.19
475.501	98.19
475.72	97.19
475.939	86.19
476.158	88.19
476.377	80.19
476.596	84.19
476.814	90.19
477.033	95.19
477.252	83.19
477.471	88.19
477.69	86.19
477.908	91.19
478.127	69.19
478.346	92.19
478.564	108.19
478.783	106.19
479.002	99.19
479.22	101.19
479.439	105.19
479.658	97.19
479.876	93.19
480.095	89.19
480.313	93.19
480.532	85.19
480.751	104.19
480.969	116.19
481.188	206.19
481.406	156.19
481.624	96.19
481.843	89.19
482.061	79.19
482.28	82.19
482.498	84.19
482.717	77.19
482.935	71.19
483.153	88.19
483.372	98.19
483.59	94.19
483.808	97.19
484.027	85.19
484.245	86.19
484.463	101.19
484.681	94.19
484.9	98.19
485.118	106.19
485.336	88.19
485.554	103.19
485.772	93.19
485.99	106.19
486.209	102.19
486.427	90.19
486.645	113.19
486.863	98.19
487.081	100.19
487.299	112.19
487.517	93.19
487.735	96.19
487.953	92.19
488.171	98.19
488.389	98.19
488.607	99.19
488.825	87.19
489.043	89.19
489.261	78.19
489.479	90.19
489.696	69.19
489.914	90.19
490.132	80.19
490.35	93.19
490.568	87.19
490.786	89.19
491.003	102.19
491.221	95.19
491.439	92.19
491.657	92.19
491.874	91.19
492.092	86.19
492.31	86.19
492.527	82.19
492.745	102.19
492.963	101.19
493.18	99.19
493.398	87.19
493.615	103.19
493.833	94.19
494.05	85.19
494.268	96.19
494.485	82.19
494.703	88.19
494.92	84.19
495.138	77.19
495.355	91.19
495.573	80.19
495.79	84.19
496.008	99.19
496.225	79.19
496.442	86.19
496.66	98.19
496.877	101.19
497.094	90.19
497.312	91.19
497.529	86.19
497.746	92.19
497.963	87.19
498.181	102.19
498.398	98.19
498.615	95.19
498.832	104.19
499.049	84.19
499.267	88.19
499.484	92.19
499.701	98.19
499.918	86.19
500.135	99.19
500.352	82.19
500.569	84.19
500.786	99.19
501.003	93.19
501.22	94.19
501.437	80.19
501.654	100.19
501.871	92.19
502.088	92.19
502.305	86.19
502.522	84.19
502.739	89.19
502.956	99.19
503.172	101.19
503.389	98.19
503.606	112.19
503.823	100.19
504.04	107.19
504.256	94.19
504.473	96.19
504.69	79.19
504.907	95.19
505.123	88.19
505.34	90.19
505.557	86.19
505.773	83.19
505.99	102.19
506.207	100.19
506.423	106.19
506.64	96.19
506.856	94.19
507.073	96.19
507.289	86.19
507.506	101.19
507.722	121.19
507.939	119.19
508.155	86.19
508.372	103.19
508.588	105.19
508.805	86.19
509.021	101.19
509.238	95.19
509.454	114.19
509.67	106.19
509.887	116.19
510.103	133.19
510.319	216.19
510.536	802.19
510.752	2527.19
510.968	665.19
511.184	148.19
511.401	113.19
511.617	94.19
511.833	88.19
512.049	93.19
512.265	94.19
512.481	102.19
512.698	103.19
512.914	110.19
513.13	98.19
513.346	86.19
513.562	98.19
513.778	92.19
513.994	104.19
514.21	104.19
514.426	116.19
514.642	145.19
514.858	112.19
515.074	165.19
515.29	511.19
