Data from Uncirc_1988_H10_HRD10591_00078.txt Node
Date: Wed Jan 03 12:04:20 EST 2024
User: Yrep
Spectrometer: HR+D1059
Trigger mode: 1
Integration Time (sec): 1.000000E-1
Scans to average: 1
Electric dark correction enabled: true
Nonlinearity correction enabled: false
Boxcar width: 0
XAxis mode: Wavelengths
Number of Pixels in Spectrum: 2048
>>>>>Begin Spectral Data<<<<<
223.165	-18.5
223.4	-18.5
223.635	-18.5
223.869	-19.5
224.104	-15.5
224.338	-10.5
224.573	-15.5
224.808	-14.5
225.042	-4.5
225.277	-5.5
225.511	-2.5
225.746	-5.5
225.98	19.5
226.215	25.5
226.449	24.5
226.683	6.5
226.918	15.5
227.152	20.5
227.387	41.5
227.621	40.5
227.856	47.5
228.09	59.5
228.324	39.5
228.559	60.5
228.793	67.5
229.027	70.5
229.262	74.5
229.496	80.5
229.73	104.5
229.964	89.5
230.199	71.5
230.433	71.5
230.667	72.5
230.901	92.5
231.136	63.5
231.37	95.5
231.604	82.5
231.838	75.5
232.072	95.5
232.306	97.5
232.541	89.5
232.775	74.5
233.009	75.5
233.243	92.5
233.477	89.5
233.711	93.5
233.945	79.5
234.179	77.5
234.413	81.5
234.647	82.5
234.881	99.5
235.115	97.5
235.349	83.5
235.583	95.5
235.817	85.5
236.051	80.5
236.285	77.5
236.519	87.5
236.753	75.5
236.987	76.5
237.221	87.5
237.455	79.5
237.689	77.5
237.922	81.5
238.156	68.5
238.39	77.5
238.624	70.5
238.858	83.5
239.091	71.5
239.325	76.5
239.559	83.5
239.793	67.5
240.027	75.5
240.26	73.5
240.494	87.5
240.728	78.5
240.961	84.5
241.195	84.5
241.429	75.5
241.662	70.5
241.896	76.5
242.13	68.5
242.363	66.5
242.597	79.5
242.83	56.5
243.064	79.5
243.298	83.5
243.531	72.5
243.765	78.5
243.998	80.5
244.232	81.5
244.465	89.5
244.699	71.5
244.932	97.5
245.166	94.5
245.399	88.5
245.633	86.5
245.866	81.5
246.099	75.5
246.333	87.5
246.566	78.5
246.8	85.5
247.033	76.5
247.266	83.5
247.5	79.5
247.733	85.5
247.966	84.5
248.2	96.5
248.433	86.5
248.666	88.5
248.899	78.5
249.133	90.5
249.366	94.5
249.599	107.5
249.832	83.5
250.066	90.5
250.299	97.5
250.532	92.5
250.765	92.5
250.998	83.5
251.231	99.5
251.465	88.5
251.698	89.5
251.931	75.5
252.164	91.5
252.397	77.5
252.63	71.5
252.863	80.5
253.096	98.5
253.329	88.5
253.562	80.5
253.795	88.5
254.028	91.5
254.261	83.5
254.494	72.5
254.727	91.5
254.96	83.5
255.193	77.5
255.426	87.5
255.659	81.5
255.892	83.5
256.124	91.5
256.357	85.5
256.59	66.5
256.823	92.5
257.056	91.5
257.289	84.5
257.521	90.5
257.754	105.5
257.987	75.5
258.22	96.5
258.452	83.5
258.685	90.5
258.918	92.5
259.151	87.5
259.383	81.5
259.616	75.5
259.849	68.5
260.081	97.5
260.314	82.5
260.547	83.5
260.779	79.5
261.012	93.5
261.244	102.5
261.477	107.5
261.71	91.5
261.942	107.5
262.175	132.5
262.407	92.5
262.64	87.5
262.872	93.5
263.105	83.5
263.337	88.5
263.57	95.5
263.802	90.5
264.035	79.5
264.267	100.5
264.499	84.5
264.732	90.5
264.964	90.5
265.197	89.5
265.429	92.5
265.661	90.5
265.894	94.5
266.126	87.5
266.358	86.5
266.591	70.5
266.823	95.5
267.055	98.5
267.287	75.5
267.52	91.5
267.752	102.5
267.984	92.5
268.216	83.5
268.448	91.5
268.681	94.5
268.913	89.5
269.145	84.5
269.377	83.5
269.609	99.5
269.841	81.5
270.073	88.5
270.306	82.5
270.538	91.5
270.77	98.5
271.002	97.5
271.234	83.5
271.466	105.5
271.698	80.5
271.93	101.5
272.162	99.5
272.394	102.5
272.626	95.5
272.858	85.5
273.09	87.5
273.322	90.5
273.553	88.5
273.785	97.5
274.017	90.5
274.249	103.5
274.481	102.5
274.713	83.5
274.945	68.5
275.176	89.5
275.408	95.5
275.64	82.5
275.872	106.5
276.104	86.5
276.335	100.5
276.567	108.5
276.799	120.5
277.031	106.5
277.262	95.5
277.494	95.5
277.726	90.5
277.957	87.5
278.189	70.5
278.421	98.5
278.652	99.5
278.884	81.5
279.115	94.5
279.347	91.5
279.579	93.5
279.81	89.5
280.042	86.5
280.273	92.5
280.505	98.5
280.736	82.5
280.968	92.5
281.199	78.5
281.431	95.5
281.662	80.5
281.894	106.5
282.125	97.5
282.356	131.5
282.588	151.5
282.819	116.5
283.051	103.5
283.282	84.5
283.513	91.5
283.745	92.5
283.976	76.5
284.207	103.5
284.439	96.5
284.67	96.5
284.901	106.5
285.132	93.5
285.364	92.5
285.595	86.5
285.826	81.5
286.057	73.5
286.288	93.5
286.52	102.5
286.751	109.5
286.982	89.5
287.213	97.5
287.444	108.5
287.675	89.5
287.906	77.5
288.138	95.5
288.369	95.5
288.6	100.5
288.831	77.5
289.062	90.5
289.293	86.5
289.524	92.5
289.755	95.5
289.986	89.5
290.217	91.5
290.448	95.5
290.679	84.5
290.91	96.5
291.141	89.5
291.371	74.5
291.602	102.5
291.833	103.5
292.064	91.5
292.295	100.5
292.526	90.5
292.757	106.5
292.987	93.5
293.218	105.5
293.449	87.5
293.68	95.5
293.91	87.5
294.141	95.5
294.372	91.5
294.603	95.5
294.833	87.5
295.064	101.5
295.295	105.5
295.525	109.5
295.756	108.5
295.987	118.5
296.217	145.5
296.448	129.5
296.679	98.5
296.909	98.5
297.14	88.5
297.37	96.5
297.601	89.5
297.831	88.5
298.062	84.5
298.292	82.5
298.523	90.5
298.753	105.5
298.984	97.5
299.214	89.5
299.445	89.5
299.675	95.5
299.905	83.5
300.136	90.5
300.366	92.5
300.597	101.5
300.827	89.5
301.057	105.5
301.288	115.5
301.518	91.5
301.748	102.5
301.979	119.5
302.209	114.5
302.439	95.5
302.669	84.5
302.9	93.5
303.13	100.5
303.36	97.5
303.59	114.5
303.82	106.5
304.051	98.5
304.281	88.5
304.511	108.5
304.741	89.5
304.971	95.5
305.201	75.5
305.431	84.5
305.661	78.5
305.891	97.5
306.121	98.5
306.352	116.5
306.582	109.5
306.812	96.5
307.042	97.5
307.272	99.5
307.502	113.5
307.731	89.5
307.961	82.5
308.191	107.5
308.421	88.5
308.651	94.5
308.881	101.5
309.111	93.5
309.341	112.5
309.571	104.5
309.8	97.5
310.03	106.5
310.26	101.5
310.49	100.5
310.72	106.5
310.949	117.5
311.179	100.5
311.409	91.5
311.639	97.5
311.868	116.5
312.098	87.5
312.328	108.5
312.557	113.5
312.787	102.5
313.017	117.5
313.246	91.5
313.476	85.5
313.706	103.5
313.935	90.5
314.165	85.5
314.394	114.5
314.624	105.5
314.853	105.5
315.083	105.5
315.312	100.5
315.542	95.5
315.771	99.5
316.001	88.5
316.23	95.5
316.46	81.5
316.689	99.5
316.919	95.5
317.148	90.5
317.377	109.5
317.607	122.5
317.836	109.5
318.065	93.5
318.295	91.5
318.524	90.5
318.753	92.5
318.983	97.5
319.212	102.5
319.441	120.5
319.67	116.5
319.9	101.5
320.129	101.5
320.358	101.5
320.587	103.5
320.816	104.5
321.046	97.5
321.275	91.5
321.504	94.5
321.733	99.5
321.962	119.5
322.191	107.5
322.42	112.5
322.649	104.5
322.878	118.5
323.108	119.5
323.337	131.5
323.566	147.5
323.795	176.5
324.024	247.5
324.253	469.5
324.482	1042.5
324.71	2248.5
324.939	3039.5
325.168	1068.5
325.397	297.5
325.626	185.5
325.855	157.5
326.084	131.5
326.313	145.5
326.542	175.5
326.77	258.5
326.999	561.5
327.228	1219.5
327.457	2324.5
327.686	1858.5
327.914	463.5
328.143	238.5
328.372	183.5
328.6	157.5
328.829	135.5
329.058	136.5
329.287	153.5
329.515	124.5
329.744	95.5
329.972	104.5
330.201	125.5
330.43	162.5
330.658	147.5
330.887	178.5
331.115	140.5
331.344	97.5
331.572	119.5
331.801	115.5
332.03	109.5
332.258	115.5
332.486	99.5
332.715	97.5
332.943	80.5
333.172	111.5
333.4	108.5
333.629	127.5
333.857	120.5
334.085	112.5
334.314	129.5
334.542	169.5
334.771	165.5
334.999	116.5
335.227	117.5
335.455	101.5
335.684	98.5
335.912	105.5
336.14	89.5
336.369	100.5
336.597	113.5
336.825	103.5
337.053	115.5
337.281	96.5
337.51	96.5
337.738	93.5
337.966	101.5
338.194	97.5
338.422	99.5
338.65	100.5
338.878	102.5
339.106	96.5
339.334	100.5
339.562	87.5
339.79	105.5
340.018	98.5
340.246	87.5
340.474	98.5
340.702	85.5
340.93	96.5
341.158	104.5
341.386	108.5
341.614	102.5
341.842	93.5
342.07	85.5
342.298	101.5
342.526	101.5
342.754	98.5
342.981	91.5
343.209	92.5
343.437	102.5
343.665	103.5
343.893	103.5
344.12	94.5
344.348	89.5
344.576	93.5
344.804	106.5
345.031	105.5
345.259	113.5
345.487	103.5
345.714	99.5
345.942	95.5
346.17	85.5
346.397	74.5
346.625	105.5
346.853	98.5
347.08	108.5
347.308	116.5
347.535	98.5
347.763	112.5
347.99	78.5
348.218	103.5
348.445	128.5
348.673	122.5
348.9	95.5
349.128	99.5
349.355	94.5
349.583	106.5
349.81	103.5
350.037	96.5
350.265	134.5
350.492	105.5
350.72	102.5
350.947	115.5
351.174	121.5
351.402	123.5
351.629	109.5
351.856	104.5
352.083	112.5
352.311	119.5
352.538	121.5
352.765	114.5
352.992	118.5
353.22	109.5
353.447	113.5
353.674	93.5
353.901	97.5
354.128	99.5
354.355	111.5
354.583	107.5
354.81	105.5
355.037	107.5
355.264	109.5
355.491	97.5
355.718	82.5
355.945	102.5
356.172	87.5
356.399	99.5
356.626	93.5
356.853	99.5
357.08	101.5
357.307	104.5
357.534	93.5
357.761	95.5
357.988	97.5
358.215	91.5
358.441	89.5
358.668	85.5
358.895	91.5
359.122	90.5
359.349	104.5
359.576	112.5
359.802	111.5
360.029	125.5
360.256	138.5
360.483	108.5
360.709	103.5
360.936	101.5
361.163	103.5
361.39	105.5
361.616	101.5
361.843	103.5
362.07	107.5
362.296	116.5
362.523	101.5
362.749	101.5
362.976	100.5
363.203	103.5
363.429	87.5
363.656	101.5
363.882	93.5
364.109	100.5
364.335	94.5
364.562	90.5
364.788	98.5
365.015	106.5
365.241	107.5
365.468	114.5
365.694	116.5
365.92	89.5
366.147	104.5
366.373	84.5
366.599	89.5
366.826	89.5
367.052	95.5
367.278	104.5
367.505	79.5
367.731	108.5
367.957	109.5
368.184	95.5
368.41	99.5
368.636	129.5
368.862	136.5
369.089	107.5
369.315	108.5
369.541	90.5
369.767	91.5
369.993	79.5
370.219	88.5
370.445	89.5
370.672	84.5
370.898	105.5
371.124	88.5
371.35	90.5
371.576	88.5
371.802	92.5
372.028	87.5
372.254	95.5
372.48	101.5
372.706	91.5
372.932	95.5
373.158	97.5
373.384	96.5
373.61	80.5
373.835	112.5
374.061	106.5
374.287	97.5
374.513	102.5
374.739	109.5
374.965	106.5
375.191	86.5
375.416	94.5
375.642	76.5
375.868	90.5
376.094	101.5
376.319	97.5
376.545	96.5
376.771	98.5
376.997	87.5
377.222	84.5
377.448	91.5
377.674	81.5
377.899	98.5
378.125	86.5
378.35	90.5
378.576	98.5
378.802	92.5
379.027	85.5
379.253	94.5
379.478	99.5
379.704	74.5
379.929	91.5
380.155	103.5
380.38	103.5
380.606	101.5
380.831	89.5
381.057	119.5
381.282	89.5
381.507	106.5
381.733	94.5
381.958	93.5
382.184	106.5
382.409	104.5
382.634	106.5
382.86	105.5
383.085	111.5
383.31	79.5
383.535	105.5
383.761	98.5
383.986	100.5
384.211	98.5
384.436	93.5
384.662	93.5
384.887	103.5
385.112	104.5
385.337	96.5
385.562	106.5
385.787	115.5
386.013	103.5
386.238	116.5
386.463	109.5
386.688	103.5
386.913	96.5
387.138	109.5
387.363	94.5
387.588	97.5
387.813	114.5
388.038	109.5
388.263	114.5
388.488	100.5
388.713	92.5
388.938	101.5
389.163	104.5
389.387	107.5
389.612	100.5
389.837	88.5
390.062	91.5
390.287	90.5
390.512	97.5
390.736	83.5
390.961	92.5
391.186	88.5
391.411	102.5
391.636	99.5
391.86	89.5
392.085	80.5
392.31	100.5
392.534	100.5
392.759	93.5
392.984	86.5
393.208	98.5
393.433	85.5
393.658	99.5
393.882	89.5
394.107	77.5
394.331	87.5
394.556	96.5
394.78	88.5
395.005	89.5
395.229	90.5
395.454	83.5
395.678	83.5
395.903	84.5
396.127	98.5
396.352	97.5
396.576	101.5
396.801	96.5
397.025	93.5
397.249	98.5
397.474	90.5
397.698	104.5
397.922	92.5
398.147	98.5
398.371	90.5
398.595	84.5
398.82	71.5
399.044	84.5
399.268	96.5
399.492	90.5
399.717	85.5
399.941	94.5
400.165	98.5
400.389	99.5
400.613	97.5
400.837	79.5
401.062	91.5
401.286	97.5
401.51	104.5
401.734	106.5
401.958	109.5
402.182	148.5
402.406	176.5
402.63	124.5
402.854	99.5
403.078	81.5
403.302	92.5
403.526	89.5
403.75	87.5
403.974	95.5
404.198	105.5
404.422	104.5
404.645	113.5
404.869	104.5
405.093	100.5
405.317	109.5
405.541	111.5
405.765	99.5
405.988	136.5
406.212	187.5
406.436	260.5
406.66	169.5
406.883	103.5
407.107	92.5
407.331	100.5
407.555	104.5
407.778	93.5
408.002	89.5
408.226	97.5
408.449	89.5
408.673	102.5
408.896	106.5
409.12	109.5
409.344	99.5
409.567	111.5
409.791	98.5
410.014	108.5
410.238	98.5
410.461	109.5
410.685	99.5
410.908	105.5
411.132	99.5
411.355	98.5
411.578	105.5
411.802	98.5
412.025	98.5
412.249	105.5
412.472	104.5
412.695	98.5
412.919	92.5
413.142	88.5
413.365	87.5
413.589	89.5
413.812	107.5
414.035	90.5
414.258	92.5
414.482	95.5
414.705	87.5
414.928	94.5
415.151	107.5
415.374	85.5
415.597	99.5
415.821	93.5
416.044	92.5
416.267	100.5
416.49	87.5
416.713	74.5
416.936	96.5
417.159	93.5
417.382	81.5
417.605	104.5
417.828	97.5
418.051	97.5
418.274	99.5
418.497	98.5
418.72	93.5
418.943	94.5
419.166	89.5
419.389	92.5
419.611	109.5
419.834	101.5
420.057	95.5
420.28	95.5
420.503	91.5
420.726	99.5
420.948	92.5
421.171	107.5
421.394	96.5
421.617	94.5
421.839	83.5
422.062	96.5
422.285	105.5
422.507	94.5
422.73	114.5
422.953	93.5
423.175	94.5
423.398	99.5
423.621	85.5
423.843	83.5
424.066	93.5
424.288	102.5
424.511	107.5
424.733	108.5
424.956	132.5
425.178	100.5
425.401	119.5
425.623	116.5
425.846	97.5
426.068	100.5
426.291	95.5
426.513	102.5
426.735	81.5
426.958	98.5
427.18	116.5
427.402	154.5
427.625	209.5
427.847	149.5
428.069	133.5
428.292	99.5
428.514	90.5
428.736	94.5
428.958	91.5
429.181	93.5
429.403	98.5
429.625	87.5
429.847	110.5
430.069	116.5
430.292	107.5
430.514	80.5
430.736	82.5
430.958	87.5
431.18	80.5
431.402	93.5
431.624	79.5
431.846	95.5
432.068	92.5
432.29	91.5
432.512	98.5
432.734	97.5
432.956	104.5
433.178	101.5
433.4	99.5
433.622	101.5
433.844	95.5
434.066	91.5
434.287	85.5
434.509	76.5
434.731	81.5
434.953	87.5
435.175	79.5
435.397	88.5
435.618	103.5
435.84	114.5
436.062	149.5
436.284	123.5
436.505	111.5
436.727	114.5
436.949	99.5
437.17	95.5
437.392	103.5
437.614	107.5
437.835	112.5
438.057	141.5
438.278	130.5
438.5	119.5
438.721	133.5
438.943	115.5
439.165	91.5
439.386	90.5
439.608	104.5
439.829	113.5
440.05	156.5
440.272	169.5
440.493	111.5
440.715	99.5
440.936	98.5
441.158	77.5
441.379	103.5
441.6	95.5
441.822	107.5
442.043	104.5
442.264	129.5
442.486	117.5
442.707	114.5
442.928	122.5
443.149	164.5
443.371	150.5
443.592	130.5
443.813	156.5
444.034	128.5
444.255	90.5
444.476	92.5
444.698	91.5
444.919	87.5
445.14	128.5
445.361	127.5
445.582	131.5
445.803	180.5
446.024	168.5
446.245	170.5
446.466	139.5
446.687	86.5
446.908	92.5
447.129	106.5
447.35	101.5
447.571	97.5
447.792	102.5
448.013	110.5
448.234	117.5
448.455	107.5
448.675	134.5
448.896	159.5
449.117	106.5
449.338	124.5
449.559	154.5
449.779	156.5
450	88.5
450.221	92.5
450.442	98.5
450.662	107.5
450.883	130.5
451.104	131.5
451.324	106.5
451.545	91.5
451.766	83.5
451.986	96.5
452.207	97.5
452.428	88.5
452.648	113.5
452.869	107.5
453.089	126.5
453.31	123.5
453.53	97.5
453.751	96.5
453.971	110.5
454.192	113.5
454.412	97.5
454.633	101.5
454.853	113.5
455.073	107.5
455.294	107.5
455.514	115.5
455.734	108.5
455.955	97.5
456.175	83.5
456.395	93.5
456.616	95.5
456.836	102.5
457.056	97.5
457.276	82.5
457.497	96.5
457.717	91.5
457.937	103.5
458.157	91.5
458.377	99.5
458.598	127.5
458.818	169.5
459.038	191.5
459.258	144.5
459.478	97.5
459.698	97.5
459.918	87.5
460.138	86.5
460.358	100.5
460.578	90.5
460.798	98.5
461.018	97.5
461.238	103.5
461.458	90.5
461.678	95.5
461.898	103.5
462.118	95.5
462.338	84.5
462.558	85.5
462.777	85.5
462.997	100.5
463.217	87.5
463.437	91.5
463.657	87.5
463.876	95.5
464.096	106.5
464.316	85.5
464.536	93.5
464.755	112.5
464.975	107.5
465.195	190.5
465.414	181.5
465.634	92.5
465.854	100.5
466.073	99.5
466.293	97.5
466.512	91.5
466.732	101.5
466.951	86.5
467.171	89.5
467.391	103.5
467.61	102.5
467.829	106.5
468.049	108.5
468.268	114.5
468.488	95.5
468.707	89.5
468.927	95.5
469.146	79.5
469.365	85.5
469.585	82.5
469.804	97.5
470.023	107.5
470.243	104.5
470.462	112.5
470.681	137.5
470.901	87.5
471.12	95.5
471.339	95.5
471.558	89.5
471.777	102.5
471.997	96.5
472.216	112.5
472.435	158.5
472.654	116.5
472.873	103.5
473.092	90.5
473.311	85.5
473.53	80.5
473.749	90.5
473.968	112.5
474.187	125.5
474.406	114.5
474.625	102.5
474.844	95.5
475.063	104.5
475.282	89.5
475.501	98.5
475.72	85.5
475.939	88.5
476.158	99.5
476.377	83.5
476.596	87.5
476.814	101.5
477.033	95.5
477.252	96.5
477.471	87.5
477.69	92.5
477.908	80.5
478.127	92.5
478.346	90.5
478.564	108.5
478.783	125.5
479.002	88.5
479.22	95.5
479.439	114.5
479.658	101.5
479.876	106.5
480.095	99.5
480.313	102.5
480.532	112.5
480.751	98.5
480.969	122.5
481.188	236.5
481.406	186.5
481.624	103.5
481.843	107.5
482.061	97.5
482.28	97.5
482.498	91.5
482.717	96.5
482.935	60.5
483.153	87.5
483.372	90.5
483.59	106.5
483.808	92.5
484.027	102.5
484.245	106.5
484.463	95.5
484.681	98.5
484.9	97.5
485.118	108.5
485.336	101.5
485.554	96.5
485.772	100.5
485.99	96.5
486.209	101.5
486.427	118.5
486.645	112.5
486.863	112.5
487.081	100.5
487.299	97.5
487.517	96.5
487.735	101.5
487.953	100.5
488.171	103.5
488.389	113.5
488.607	93.5
488.825	90.5
489.043	82.5
489.261	93.5
489.479	87.5
489.696	100.5
489.914	100.5
490.132	97.5
490.35	93.5
490.568	97.5
490.786	100.5
491.003	99.5
491.221	95.5
491.439	105.5
491.657	101.5
491.874	92.5
492.092	85.5
492.31	97.5
492.527	92.5
492.745	97.5
492.963	82.5
493.18	95.5
493.398	85.5
493.615	105.5
493.833	107.5
494.05	93.5
494.268	92.5
494.485	99.5
494.703	97.5
494.92	104.5
495.138	91.5
495.355	96.5
495.573	87.5
495.79	84.5
496.008	100.5
496.225	94.5
496.442	84.5
496.66	95.5
496.877	94.5
497.094	101.5
497.312	91.5
497.529	87.5
497.746	83.5
497.963	92.5
498.181	97.5
498.398	102.5
498.615	115.5
498.832	109.5
499.049	98.5
499.267	83.5
499.484	91.5
499.701	102.5
499.918	98.5
500.135	103.5
500.352	89.5
500.569	88.5
500.786	88.5
501.003	102.5
501.22	96.5
501.437	95.5
501.654	101.5
501.871	114.5
502.088	99.5
502.305	88.5
502.522	87.5
502.739	100.5
502.956	86.5
503.172	106.5
503.389	101.5
503.606	104.5
503.823	117.5
504.04	86.5
504.256	93.5
504.473	95.5
504.69	87.5
504.907	106.5
505.123	87.5
505.34	94.5
505.557	91.5
505.773	87.5
505.99	97.5
506.207	99.5
506.423	95.5
506.64	88.5
506.856	101.5
507.073	92.5
507.289	82.5
507.506	104.5
507.722	124.5
507.939	111.5
508.155	103.5
508.372	96.5
508.588	111.5
508.805	91.5
509.021	93.5
509.238	102.5
509.454	101.5
509.67	100.5
509.887	98.5
510.103	128.5
510.319	248.5
510.536	854.5
510.752	2749.5
510.968	737.5
511.184	160.5
511.401	122.5
511.617	106.5
511.833	102.5
512.049	93.5
512.265	92.5
512.481	99.5
512.698	83.5
512.914	99.5
513.13	102.5
513.346	108.5
513.562	105.5
513.778	88.5
513.994	113.5
514.21	96.5
514.426	128.5
514.642	145.5
514.858	153.5
515.074	186.5
515.29	568.5
515.506	1876.5
515.721	657.5
515.937	181.5
516.153	129.5
516.369	103.5
516.585	96.5
516.801	106.5
517.016	98.5
517.232	95.5
517.448	96.5
517.664	98.5
517.879	115.5
518.095	105.5
518.311	107.5
518.527	87.5
518.742	101.5
518.958	93.5
519.173	107.5
519.389	93.5
519.605	99.5
519.82	108.5
520.036	103.5
520.251	138.5
520.467	130.5
520.682	108.5
520.898	112.5
521.113	131.5
521.329	148.5
521.544	234.5
521.76	717.5
521.975	3157.5
522.19	1835.5
522.406	390.5
522.621	150.5
522.836	113.5
523.052	103.5
523.267	101.5
523.482	103.5
523.698	104.5
523.913	125.5
524.128	125.5
524.343	111.5
524.559	104.5
524.774	100.5
524.989	103.5
525.204	119.5
525.419	108.5
525.634	94.5
525.849	86.5
526.064	104.5
526.28	93.5
526.495	92.5
526.71	100.5
526.925	96.5
527.14	105.5
527.355	95.5
527.57	85.5
527.785	94.5
527.999	92.5
528.214	95.5
528.429	97.5
528.644	108.5
528.859	93.5
529.074	96.5
529.289	135.5
529.503	233.5
529.718	125.5
529.933	113.5
530.148	107.5
530.363	87.5
530.577	97.5
530.792	100.5
531.007	106.5
531.221	107.5
531.436	89.5
531.651	93.5
