Data from Uncirc_1988_H10_HRD10591_00088.txt Node
Date: Wed Jan 03 12:04:22 EST 2024
User: Yrep
Spectrometer: HR+D1059
Trigger mode: 1
Integration Time (sec): 1.000000E-1
Scans to average: 1
Electric dark correction enabled: true
Nonlinearity correction enabled: false
Boxcar width: 0
XAxis mode: Wavelengths
Number of Pixels in Spectrum: 2048
>>>>>Begin Spectral Data<<<<<
223.165	-14
223.4	-14
223.635	-14
223.869	-19
224.104	-28
224.338	-8
224.573	-9
224.808	-3
225.042	-6
225.277	-9
225.511	-10
225.746	3
225.98	-4
226.215	10
226.449	34
226.683	23
226.918	15
227.152	25
227.387	36
227.621	36
227.856	47
228.09	58
228.324	29
228.559	72
228.793	57
229.027	55
229.262	73
229.496	65
229.73	92
229.964	91
230.199	90
230.433	83
230.667	87
230.901	73
231.136	87
231.37	86
231.604	78
231.838	79
232.072	85
232.306	85
232.541	85
232.775	68
233.009	72
233.243	84
233.477	85
233.711	87
233.945	90
234.179	81
234.413	93
234.647	74
234.881	93
235.115	74
235.349	73
235.583	78
235.817	87
236.051	89
236.285	74
236.519	91
236.753	76
236.987	83
237.221	78
237.455	95
237.689	78
237.922	74
238.156	75
238.39	83
238.624	77
238.858	77
239.091	82
239.325	82
239.559	89
239.793	84
240.027	89
240.26	77
240.494	85
240.728	70
240.961	81
241.195	81
241.429	94
241.662	75
241.896	77
242.13	81
242.363	92
242.597	79
242.83	93
243.064	69
243.298	65
243.531	73
243.765	85
243.998	80
244.232	86
244.465	84
244.699	81
244.932	74
245.166	79
245.399	87
245.633	73
245.866	57
246.099	75
246.333	76
246.566	82
246.8	87
247.033	71
247.266	78
247.5	85
247.733	72
247.966	88
248.2	101
248.433	70
248.666	64
248.899	81
249.133	77
249.366	112
249.599	84
249.832	81
250.066	78
250.299	88
250.532	81
250.765	82
250.998	79
251.231	94
251.465	85
251.698	75
251.931	84
252.164	73
252.397	79
252.63	68
252.863	72
253.096	79
253.329	75
253.562	79
253.795	91
254.028	73
254.261	77
254.494	70
254.727	97
254.96	89
255.193	89
255.426	77
255.659	75
255.892	68
256.124	84
256.357	72
256.59	77
256.823	85
257.056	75
257.289	100
257.521	79
257.754	77
257.987	78
258.22	88
258.452	89
258.685	82
258.918	86
259.151	81
259.383	78
259.616	77
259.849	83
260.081	73
260.314	73
260.547	85
260.779	79
261.012	73
261.244	89
261.477	87
261.71	75
261.942	113
262.175	118
262.407	95
262.64	77
262.872	92
263.105	87
263.337	69
263.57	85
263.802	85
264.035	86
264.267	71
264.499	83
264.732	81
264.964	79
265.197	101
265.429	85
265.661	86
265.894	91
266.126	93
266.358	82
266.591	80
266.823	80
267.055	86
267.287	95
267.52	86
267.752	81
267.984	92
268.216	95
268.448	71
268.681	81
268.913	85
269.145	88
269.377	88
269.609	83
269.841	83
270.073	78
270.306	74
270.538	87
270.77	83
271.002	77
271.234	86
271.466	83
271.698	96
271.93	87
272.162	94
272.394	89
272.626	70
272.858	93
273.09	81
273.322	90
273.553	79
273.785	85
274.017	92
274.249	81
274.481	88
274.713	96
274.945	90
275.176	84
275.408	99
275.64	93
275.872	92
276.104	97
276.335	85
276.567	88
276.799	102
277.031	107
277.262	85
277.494	83
277.726	79
277.957	80
278.189	89
278.421	87
278.652	89
278.884	94
279.115	94
279.347	83
279.579	88
279.81	90
280.042	97
280.273	105
280.505	96
280.736	107
280.968	92
281.199	93
281.431	91
281.662	90
281.894	97
282.125	112
282.356	117
282.588	152
282.819	118
283.051	99
283.282	77
283.513	93
283.745	92
283.976	89
284.207	87
284.439	81
284.67	93
284.901	89
285.132	85
285.364	90
285.595	94
285.826	88
286.057	93
286.288	96
286.52	82
286.751	81
286.982	81
287.213	93
287.444	87
287.675	86
287.906	83
288.138	83
288.369	90
288.6	93
288.831	90
289.062	102
289.293	104
289.524	89
289.755	94
289.986	87
290.217	80
290.448	88
290.679	85
290.91	75
291.141	69
291.371	82
291.602	81
291.833	88
292.064	83
292.295	90
292.526	105
292.757	90
292.987	87
293.218	86
293.449	98
293.68	79
293.91	78
294.141	92
294.372	96
294.603	77
294.833	87
295.064	88
295.295	95
295.525	105
295.756	107
295.987	126
296.217	142
296.448	138
296.679	83
296.909	85
297.14	78
297.37	81
297.601	93
297.831	105
298.062	97
298.292	90
298.523	93
298.753	87
298.984	77
299.214	98
299.445	100
299.675	98
299.905	79
300.136	88
300.366	90
300.597	91
300.827	102
301.057	101
301.288	105
301.518	93
301.748	98
301.979	106
302.209	100
302.439	73
302.669	83
302.9	82
303.13	95
303.36	71
303.59	87
303.82	105
304.051	91
304.281	88
304.511	85
304.741	84
304.971	83
305.201	95
305.431	98
305.661	80
305.891	93
306.121	92
306.352	102
306.582	108
306.812	103
307.042	88
307.272	84
307.502	112
307.731	98
307.961	109
308.191	93
308.421	102
308.651	83
308.881	93
309.111	84
309.341	103
309.571	86
309.8	101
310.03	100
310.26	98
310.49	97
310.72	102
310.949	104
311.179	105
311.409	87
311.639	103
311.868	95
312.098	104
312.328	88
312.557	104
312.787	98
313.017	92
313.246	82
313.476	93
313.706	91
313.935	96
314.165	97
314.394	98
314.624	90
314.853	92
315.083	109
315.312	99
315.542	83
315.771	101
316.001	85
316.23	85
316.46	74
316.689	105
316.919	97
317.148	98
317.377	90
317.607	101
317.836	97
318.065	94
318.295	97
318.524	91
318.753	93
318.983	104
319.212	108
319.441	99
319.67	111
319.9	96
320.129	104
320.358	95
320.587	107
320.816	87
321.046	115
321.275	106
321.504	104
321.733	111
321.962	111
322.191	104
322.42	104
322.649	117
322.878	105
323.108	114
323.337	113
323.566	129
323.795	160
324.024	213
324.253	407
324.482	901
324.71	1907
324.939	2520
325.168	883
325.397	250
325.626	148
325.855	135
326.084	121
326.313	153
326.542	161
326.77	255
326.999	503
327.228	1029
327.457	1972
327.686	1541
327.914	390
328.143	225
328.372	143
328.6	120
328.829	115
329.058	144
329.287	126
329.515	114
329.744	103
329.972	114
330.201	126
330.43	144
330.658	136
330.887	141
331.115	133
331.344	83
331.572	102
331.801	108
332.03	121
332.258	91
332.486	90
332.715	96
332.943	104
333.172	94
333.4	109
333.629	97
333.857	114
334.085	125
334.314	130
334.542	151
334.771	151
334.999	108
335.227	91
335.455	85
335.684	89
335.912	96
336.14	104
336.369	103
336.597	108
336.825	99
337.053	92
337.281	101
337.51	86
337.738	94
337.966	96
338.194	104
338.422	96
338.65	83
338.878	96
339.106	91
339.334	90
339.562	103
339.79	105
340.018	107
340.246	89
340.474	97
340.702	91
340.93	96
341.158	93
341.386	114
341.614	102
341.842	95
342.07	107
342.298	101
342.526	95
342.754	105
342.981	86
343.209	99
343.437	105
343.665	89
343.893	98
344.12	89
344.348	87
344.576	90
344.804	96
345.031	94
345.259	89
345.487	99
345.714	95
345.942	91
346.17	95
346.397	93
346.625	89
346.853	94
347.08	104
347.308	96
347.535	111
347.763	96
347.99	101
348.218	106
348.445	104
348.673	82
348.9	100
349.128	94
349.355	95
349.583	90
349.81	90
350.037	96
350.265	87
350.492	97
350.72	97
350.947	103
351.174	99
351.402	119
351.629	106
351.856	101
352.083	108
352.311	121
352.538	107
352.765	108
352.992	116
353.22	104
353.447	96
353.674	89
353.901	99
354.128	103
354.355	103
354.583	97
354.81	95
355.037	95
355.264	100
355.491	80
355.718	91
355.945	94
356.172	97
356.399	85
356.626	89
356.853	94
357.08	105
357.307	104
357.534	96
357.761	88
357.988	79
358.215	98
358.441	90
358.668	85
358.895	95
359.122	94
359.349	78
359.576	81
359.802	100
360.029	111
360.256	116
360.483	87
360.709	100
360.936	98
361.163	91
361.39	95
361.616	102
361.843	90
362.07	79
362.296	97
362.523	94
362.749	90
362.976	87
363.203	90
363.429	83
363.656	101
363.882	105
364.109	90
364.335	100
364.562	89
364.788	87
365.015	92
365.241	104
365.468	113
365.694	101
365.92	104
366.147	97
366.373	93
366.599	103
366.826	94
367.052	79
367.278	102
367.505	97
367.731	80
367.957	101
368.184	99
368.41	114
368.636	106
368.862	118
369.089	110
369.315	93
369.541	99
369.767	100
369.993	95
370.219	98
370.445	88
370.672	97
370.898	92
371.124	85
371.35	80
371.576	88
371.802	98
372.028	96
372.254	81
372.48	87
372.706	88
372.932	84
373.158	91
373.384	103
373.61	111
373.835	87
374.061	86
374.287	96
374.513	111
374.739	95
374.965	81
375.191	94
375.416	96
375.642	84
375.868	100
376.094	87
376.319	96
376.545	95
376.771	91
376.997	87
377.222	85
377.448	89
377.674	62
377.899	91
378.125	99
378.35	95
378.576	98
378.802	90
379.027	98
379.253	95
379.478	98
379.704	86
379.929	105
380.155	89
380.38	93
380.606	93
380.831	101
381.057	93
381.282	94
381.507	93
381.733	91
381.958	97
382.184	91
382.409	101
382.634	94
382.86	96
383.085	96
383.31	97
383.535	100
383.761	97
383.986	111
384.211	94
384.436	86
384.662	91
384.887	97
385.112	93
385.337	97
385.562	112
385.787	97
386.013	95
386.238	99
386.463	100
386.688	101
386.913	86
387.138	117
387.363	100
387.588	97
387.813	103
388.038	89
388.263	87
388.488	114
388.713	90
388.938	99
389.163	91
389.387	94
389.612	98
389.837	95
390.062	86
390.287	89
390.512	78
390.736	84
390.961	95
391.186	87
391.411	87
391.636	99
391.86	92
392.085	86
392.31	77
392.534	81
392.759	87
392.984	82
393.208	86
393.433	84
393.658	85
393.882	70
394.107	87
394.331	98
394.556	97
394.78	70
395.005	87
395.229	85
395.454	89
395.678	87
395.903	87
396.127	89
396.352	93
396.576	97
396.801	85
397.025	93
397.249	96
397.474	90
397.698	83
397.922	83
398.147	95
398.371	81
398.595	75
398.82	85
399.044	88
399.268	88
399.492	94
399.717	95
399.941	88
400.165	101
400.389	80
400.613	95
400.837	85
401.062	90
401.286	101
401.51	87
401.734	79
401.958	109
402.182	130
402.406	159
402.63	136
402.854	85
403.078	89
403.302	94
403.526	91
403.75	92
403.974	93
404.198	86
404.422	93
404.645	95
404.869	89
405.093	90
405.317	93
405.541	106
405.765	109
405.988	111
406.212	162
406.436	216
406.66	149
406.883	97
407.107	93
407.331	91
407.555	111
407.778	86
408.002	95
408.226	93
408.449	86
408.673	99
408.896	98
409.12	104
409.344	95
409.567	108
409.791	82
410.014	89
410.238	97
410.461	113
410.685	87
410.908	85
411.132	99
411.355	95
411.578	118
411.802	89
412.025	94
412.249	81
412.472	102
412.695	93
412.919	105
413.142	85
413.365	87
413.589	89
413.812	87
414.035	81
414.258	83
414.482	99
414.705	108
414.928	91
415.151	98
415.374	86
415.597	87
415.821	94
416.044	86
416.267	91
416.49	70
416.713	81
416.936	87
417.159	91
417.382	91
417.605	89
417.828	87
418.051	83
418.274	96
418.497	94
418.72	83
418.943	89
419.166	75
419.389	94
419.611	94
419.834	87
420.057	83
420.28	81
420.503	79
420.726	80
420.948	90
421.171	88
421.394	94
421.617	95
421.839	81
422.062	94
422.285	77
422.507	84
422.73	97
422.953	86
423.175	92
423.398	85
423.621	90
423.843	101
424.066	86
424.288	93
424.511	89
424.733	95
424.956	114
425.178	100
425.401	101
425.623	82
425.846	89
426.068	80
426.291	104
426.513	91
426.735	94
426.958	110
427.18	122
427.402	142
427.625	166
427.847	131
428.069	132
428.292	88
428.514	83
428.736	92
428.958	92
429.181	94
429.403	79
429.625	87
429.847	100
430.069	110
430.292	90
430.514	100
430.736	111
430.958	85
431.18	73
431.402	97
431.624	92
431.846	88
432.068	80
432.29	80
432.512	84
432.734	101
432.956	100
433.178	100
433.4	103
433.622	93
433.844	93
434.066	90
434.287	86
434.509	77
434.731	92
434.953	91
435.175	83
435.397	101
435.618	91
435.84	111
436.062	125
436.284	107
436.505	100
436.727	105
436.949	101
437.17	95
437.392	86
437.614	94
437.835	99
438.057	106
438.278	110
438.5	108
438.721	134
438.943	95
439.165	87
439.386	90
439.608	91
439.829	101
440.05	115
440.272	142
440.493	105
440.715	83
440.936	93
441.158	87
441.379	92
441.6	88
441.822	95
442.043	90
442.264	111
442.486	98
442.707	104
442.928	104
443.149	148
443.371	117
443.592	106
443.813	112
444.034	112
444.255	97
444.476	95
444.698	101
444.919	81
445.14	126
445.361	113
445.582	124
445.803	137
446.024	128
446.245	119
446.466	107
446.687	90
446.908	85
447.129	93
447.35	85
447.571	85
447.792	96
448.013	97
448.234	110
448.455	112
448.675	110
448.896	111
449.117	105
449.338	101
449.559	129
449.779	154
450	92
450.221	93
450.442	96
450.662	102
450.883	109
451.104	112
451.324	95
451.545	97
451.766	97
451.986	85
452.207	114
452.428	81
452.648	96
452.869	111
453.089	105
453.31	126
453.53	95
453.751	89
453.971	110
454.192	119
454.412	89
454.633	96
454.853	105
455.073	90
455.294	97
455.514	78
455.734	85
455.955	88
456.175	82
456.395	103
456.616	92
456.836	80
457.056	85
457.276	86
457.497	75
457.717	81
457.937	89
458.157	87
458.377	105
458.598	105
458.818	166
459.038	153
459.258	111
459.478	93
459.698	86
459.918	95
460.138	94
460.358	81
460.578	97
460.798	87
461.018	87
461.238	88
461.458	90
461.678	93
461.898	95
462.118	82
462.338	91
462.558	80
462.777	90
462.997	97
463.217	88
463.437	79
463.657	76
463.876	75
464.096	98
464.316	96
464.536	101
464.755	81
464.975	105
465.195	179
465.414	168
465.634	97
465.854	91
466.073	86
466.293	80
466.512	84
466.732	90
466.951	98
467.171	87
467.391	111
467.61	94
467.829	102
468.049	104
468.268	107
468.488	97
468.707	90
468.927	93
469.146	85
469.365	100
469.585	81
469.804	109
470.023	98
470.243	88
470.462	112
470.681	99
470.901	77
471.12	83
471.339	81
471.558	86
471.777	104
471.997	102
472.216	136
472.435	134
472.654	89
472.873	71
473.092	92
473.311	85
473.53	87
473.749	77
473.968	103
474.187	110
474.406	104
474.625	111
474.844	87
475.063	91
475.282	81
475.501	82
475.72	101
475.939	100
476.158	99
476.377	85
476.596	71
476.814	103
477.033	81
477.252	85
477.471	97
477.69	104
477.908	87
478.127	81
478.346	92
478.564	93
478.783	79
479.002	104
479.22	115
479.439	99
479.658	103
479.876	103
480.095	98
480.313	98
480.532	102
480.751	103
480.969	118
481.188	235
481.406	170
481.624	110
481.843	99
482.061	89
482.28	90
482.498	98
482.717	82
482.935	93
483.153	90
483.372	98
483.59	89
483.808	88
484.027	91
484.245	87
484.463	99
484.681	107
484.9	86
485.118	85
485.336	101
485.554	100
485.772	104
485.99	114
486.209	103
486.427	101
486.645	97
486.863	113
487.081	93
487.299	110
487.517	85
487.735	97
487.953	96
488.171	87
488.389	97
488.607	98
488.825	77
489.043	106
489.261	88
489.479	101
489.696	101
489.914	93
490.132	101
490.35	95
490.568	86
490.786	103
491.003	82
491.221	96
491.439	73
491.657	110
491.874	101
492.092	91
492.31	90
492.527	94
492.745	87
492.963	90
493.18	98
493.398	94
493.615	87
493.833	90
494.05	72
494.268	91
494.485	88
494.703	80
494.92	87
495.138	91
495.355	90
495.573	97
495.79	107
496.008	105
496.225	96
496.442	91
496.66	102
496.877	108
497.094	114
497.312	92
497.529	72
497.746	89
497.963	95
498.181	85
498.398	97
498.615	99
498.832	102
499.049	88
499.267	103
499.484	81
499.701	89
499.918	88
500.135	90
500.352	89
500.569	102
500.786	80
501.003	100
501.22	85
501.437	93
501.654	88
501.871	98
502.088	106
502.305	91
502.522	93
502.739	79
502.956	96
503.172	98
503.389	85
503.606	108
503.823	91
504.04	102
504.256	87
504.473	84
504.69	101
504.907	85
505.123	88
505.34	86
505.557	93
505.773	99
505.99	83
506.207	99
506.423	86
506.64	94
506.856	88
507.073	103
507.289	90
507.506	104
507.722	122
507.939	113
508.155	88
508.372	98
508.588	98
508.805	101
509.021	91
509.238	111
509.454	102
509.67	95
509.887	115
510.103	137
510.319	225
510.536	774
510.752	2469
510.968	672
511.184	175
511.401	115
511.617	86
511.833	90
512.049	86
512.265	95
512.481	104
512.698	99
512.914	104
513.13	103
513.346	91
513.562	94
513.778	98
513.994	104
514.21	92
514.426	124
514.642	139
514.858	129
515.074	164
515.29	486
515.506	1589
515.721	564
515.937	160
516.153	117
516.369	97
516.585	91
516.801	93
517.016	105
517.232	107
517.448	91
517.664	106
517.879	93
518.095	101
518.311	93
518.527	99
518.742	111
518.958	109
519.173	92
519.389	87
519.605	99
519.82	93
520.036	105
520.251	117
520.467	122
520.682	91
520.898	103
521.113	116
521.329	133
521.544	226
521.76	596
521.975	2659
522.19	1555
522.406	326
522.621	121
522.836	106
523.052	98
523.267	102
523.482	102
523.698	100
523.913	111
524.128	102
524.343	91
524.559	85
524.774	69
524.989	98
525.204	113
525.419	115
525.634	94
525.849	92
526.064	84
526.28	104
526.495	106
526.71	95
526.925	82
527.14	86
527.355	83
527.57	90
527.785	84
527.999	88
528.214	94
528.429	103
528.644	104
528.859	91
529.074	88
529.289	121
529.503	189
529.718	112
529.933	99
530.148	88
530.363	96
530.577	90
530.792	85
531.007	94
531.221	97
531.436	92
531.651	102
531.865	87
532.08	96
532.295	99
532.509	88
532.724	95
532.938	95
533.153	87
533.367	88
533.582	104
533.796	84
534.011	95
534.225	105
534.44	93
534.654	104
534.868	72
535.083	107
535.297	81
535.511	107
535.726	104
535.94	101
536.154	83
536.369	81
536.583	87
536.797	105
537.011	96
537.225	85
537.44	95
537.654	85
537.868	87
538.082	89
538.296	82
538.51	82
538.724	91
538.938	93
539.153	88
539.367	116
539.581	108
539.795	82
540.009	87
540.222	98
540.436	89
540.65	91
540.864	98
541.078	107
541.292	88
541.506	82
541.72	78
541.934	90
542.147	88
542.361	78
542.575	87
542.789	89
543.002	97
543.216	91
543.43	94
543.644	91
543.857	91
544.071	96
544.285	106
544.498	82
544.712	80
544.925	89
545.139	89
545.352	84
545.566	87
545.779	107
545.993	79
546.206	88
546.42	73
546.633	96
546.847	100
547.06	90
547.274	97
547.487	88
547.7	97
547.914	85
548.127	90
548.34	90
548.554	78
548.767	83
548.98	93
549.193	94
549.407	84
549.62	99
549.833	83
550.046	98
550.259	89
550.473	87
550.686	91
550.899	67
551.112	74
551.325	98
551.538	87
551.751	89
551.964	92
552.177	101
552.39	99
552.603	83
552.816	90
553.029	81
553.242	106
553.455	108
553.667	109
553.88	112
554.093	97
554.306	96
554.519	94
554.732	97
554.944	101
555.157	93
555.37	90
555.583	83
555.795	82
556.008	87
556.221	81
556.433	93
556.646	100
556.859	90
557.071	100
557.284	89
557.496	97
557.709	83
557.921	93
558.134	87
558.346	95
558.559	98
558.771	87
558.984	96
559.196	89
559.409	84
559.621	67
559.833	89
560.046	81
560.258	83
560.47	93
560.683	103
560.895	83
561.107	97
561.32	102
561.532	90
561.744	97
561.956	85
562.168	87
562.381	82
562.593	100
562.805	86
563.017	94
563.229	99
563.441	85
563.653	103
563.865	86
564.077	85
564.289	91
564.501	83
564.713	87
564.925	89
565.137	108
565.349	89
565.561	101
565.773	84
565.985	81
566.197	90
566.408	93
566.62	94
566.832	79
567.044	69
567.255	101
567.467	66
567.679	89
567.891	98
568.102	98
568.314	83
568.526	81
568.737	98
568.949	98
569.161	102
569.372	101
569.584	67
569.795	85
570.007	125
570.218	251
570.43	141
570.641	103
570.853	89
571.064	88
571.276	103
571.487	99
571.698	93
571.91	100
572.121	91
572.333	93
572.544	92
572.755	89
572.966	88
573.178	81
573.389	96
573.6	90
573.811	96
574.023	101
574.234	102
574.445	101
574.656	91
574.867	95
575.078	99
575.289	84
575.501	83
575.712	93
575.923	97
576.134	86
576.345	97
576.556	95
576.767	102
576.978	99
577.188	100
577.399	88
577.61	97
577.821	103
578.032	134
578.243	277
578.454	799
578.665	210
578.875	111
579.086	93
579.297	66
579.508	88
579.718	97
579.929	95
580.14	86
580.35	87
580.561	92
580.772	74
580.982	89
581.193	71
581.403	88
581.614	86
581.825	96
582.035	92
582.246	82
582.456	78
582.667	81
582.877	82
