Data from Uncirc_1988_H10_HRD10591_00054.txt Node
Date: Wed Jan 03 12:04:15 EST 2024
User: Yrep
Spectrometer: HR+D1059
Trigger mode: 1
Integration Time (sec): 1.000000E-1
Scans to average: 1
Electric dark correction enabled: true
Nonlinearity correction enabled: false
Boxcar width: 0
XAxis mode: Wavelengths
Number of Pixels in Spectrum: 2048
>>>>>Begin Spectral Data<<<<<
223.165	-17.44
223.4	-17.44
223.635	-17.44
223.869	-13.44
224.104	-30.44
224.338	-20.44
224.573	-8.44
224.808	-10.44
225.042	-17.44
225.277	3.56
225.511	-1.44
225.746	4.56
225.98	0.56
226.215	0.56
226.449	21.56
226.683	26.56
226.918	17.56
227.152	44.56
227.387	22.56
227.621	49.56
227.856	39.56
228.09	34.56
228.324	50.56
228.559	53.56
228.793	48.56
229.027	70.56
229.262	70.56
229.496	71.56
229.73	93.56
229.964	70.56
230.199	73.56
230.433	62.56
230.667	75.56
230.901	88.56
231.136	76.56
231.37	76.56
231.604	79.56
231.838	84.56
232.072	76.56
232.306	83.56
232.541	71.56
232.775	86.56
233.009	82.56
233.243	90.56
233.477	72.56
233.711	82.56
233.945	70.56
234.179	74.56
234.413	73.56
234.647	75.56
234.881	78.56
235.115	76.56
235.349	81.56
235.583	65.56
235.817	59.56
236.051	76.56
236.285	79.56
236.519	73.56
236.753	69.56
236.987	74.56
237.221	80.56
237.455	92.56
237.689	80.56
237.922	85.56
238.156	80.56
238.39	83.56
238.624	81.56
238.858	83.56
239.091	76.56
239.325	62.56
239.559	77.56
239.793	74.56
240.027	80.56
240.26	77.56
240.494	76.56
240.728	86.56
240.961	78.56
241.195	87.56
241.429	57.56
241.662	83.56
241.896	71.56
242.13	73.56
242.363	97.56
242.597	83.56
242.83	73.56
243.064	68.56
243.298	73.56
243.531	82.56
243.765	84.56
243.998	73.56
244.232	86.56
244.465	85.56
244.699	70.56
244.932	62.56
245.166	85.56
245.399	78.56
245.633	73.56
245.866	78.56
246.099	81.56
246.333	64.56
246.566	92.56
246.8	75.56
247.033	79.56
247.266	77.56
247.5	79.56
247.733	82.56
247.966	86.56
248.2	80.56
248.433	81.56
248.666	83.56
248.899	85.56
249.133	63.56
249.366	101.56
249.599	97.56
249.832	80.56
250.066	91.56
250.299	88.56
250.532	84.56
250.765	65.56
250.998	74.56
251.231	60.56
251.465	89.56
251.698	84.56
251.931	63.56
252.164	60.56
252.397	76.56
252.63	66.56
252.863	80.56
253.096	85.56
253.329	73.56
253.562	83.56
253.795	81.56
254.028	66.56
254.261	63.56
254.494	73.56
254.727	88.56
254.96	73.56
255.193	78.56
255.426	96.56
255.659	86.56
255.892	97.56
256.124	83.56
256.357	87.56
256.59	96.56
256.823	88.56
257.056	82.56
257.289	80.56
257.521	85.56
257.754	79.56
257.987	82.56
258.22	92.56
258.452	86.56
258.685	74.56
258.918	73.56
259.151	86.56
259.383	80.56
259.616	74.56
259.849	90.56
260.081	85.56
260.314	85.56
260.547	74.56
260.779	84.56
261.012	81.56
261.244	83.56
261.477	99.56
261.71	95.56
261.942	95.56
262.175	109.56
262.407	83.56
262.64	98.56
262.872	92.56
263.105	79.56
263.337	78.56
263.57	67.56
263.802	87.56
264.035	89.56
264.267	90.56
264.499	80.56
264.732	72.56
264.964	85.56
265.197	78.56
265.429	76.56
265.661	83.56
265.894	101.56
266.126	86.56
266.358	76.56
266.591	80.56
266.823	68.56
267.055	77.56
267.287	82.56
267.52	63.56
267.752	78.56
267.984	100.56
268.216	89.56
268.448	92.56
268.681	93.56
268.913	74.56
269.145	92.56
269.377	90.56
269.609	79.56
269.841	72.56
270.073	91.56
270.306	80.56
270.538	82.56
270.77	85.56
271.002	85.56
271.234	84.56
271.466	94.56
271.698	86.56
271.93	95.56
272.162	78.56
272.394	86.56
272.626	92.56
272.858	81.56
273.09	88.56
273.322	95.56
273.553	86.56
273.785	74.56
274.017	91.56
274.249	72.56
274.481	84.56
274.713	80.56
274.945	84.56
275.176	81.56
275.408	80.56
275.64	82.56
275.872	92.56
276.104	82.56
276.335	99.56
276.567	92.56
276.799	93.56
277.031	87.56
277.262	102.56
277.494	89.56
277.726	86.56
277.957	82.56
278.189	82.56
278.421	77.56
278.652	92.56
278.884	73.56
279.115	83.56
279.347	90.56
279.579	82.56
279.81	89.56
280.042	87.56
280.273	70.56
280.505	82.56
280.736	92.56
280.968	96.56
281.199	84.56
281.431	89.56
281.662	84.56
281.894	76.56
282.125	99.56
282.356	111.56
282.588	137.56
282.819	121.56
283.051	88.56
283.282	90.56
283.513	90.56
283.745	85.56
283.976	79.56
284.207	101.56
284.439	88.56
284.67	95.56
284.901	90.56
285.132	85.56
285.364	84.56
285.595	88.56
285.826	83.56
286.057	98.56
286.288	78.56
286.52	88.56
286.751	79.56
286.982	98.56
287.213	85.56
287.444	84.56
287.675	84.56
287.906	93.56
288.138	99.56
288.369	93.56
288.6	94.56
288.831	86.56
289.062	105.56
289.293	82.56
289.524	84.56
289.755	92.56
289.986	78.56
290.217	87.56
290.448	88.56
290.679	87.56
290.91	85.56
291.141	95.56
291.371	98.56
291.602	79.56
291.833	73.56
292.064	72.56
292.295	94.56
292.526	81.56
292.757	84.56
292.987	100.56
293.218	86.56
293.449	86.56
293.68	100.56
293.91	78.56
294.141	81.56
294.372	87.56
294.603	85.56
294.833	86.56
295.064	78.56
295.295	100.56
295.525	93.56
295.756	74.56
295.987	114.56
296.217	142.56
296.448	121.56
296.679	87.56
296.909	94.56
297.14	98.56
297.37	93.56
297.601	97.56
297.831	78.56
298.062	85.56
298.292	90.56
298.523	87.56
298.753	101.56
298.984	101.56
299.214	75.56
299.445	97.56
299.675	96.56
299.905	87.56
300.136	80.56
300.366	88.56
300.597	102.56
300.827	101.56
301.057	101.56
301.288	111.56
301.518	90.56
301.748	93.56
301.979	94.56
302.209	85.56
302.439	86.56
302.669	96.56
302.9	92.56
303.13	88.56
303.36	90.56
303.59	92.56
303.82	105.56
304.051	83.56
304.281	94.56
304.511	90.56
304.741	95.56
304.971	89.56
305.201	93.56
305.431	77.56
305.661	95.56
305.891	88.56
306.121	110.56
306.352	106.56
306.582	99.56
306.812	87.56
307.042	82.56
307.272	99.56
307.502	80.56
307.731	102.56
307.961	99.56
308.191	80.56
308.421	87.56
308.651	84.56
308.881	89.56
309.111	84.56
309.341	109.56
309.571	98.56
309.8	104.56
310.03	89.56
310.26	82.56
310.49	101.56
310.72	100.56
310.949	108.56
311.179	96.56
311.409	89.56
311.639	98.56
311.868	103.56
312.098	100.56
312.328	89.56
312.557	104.56
312.787	97.56
313.017	99.56
313.246	101.56
313.476	89.56
313.706	87.56
313.935	88.56
314.165	105.56
314.394	88.56
314.624	95.56
314.853	95.56
315.083	88.56
315.312	76.56
315.542	89.56
315.771	109.56
316.001	90.56
316.23	90.56
316.46	107.56
316.689	95.56
316.919	88.56
317.148	82.56
317.377	79.56
317.607	95.56
317.836	92.56
318.065	96.56
318.295	99.56
318.524	84.56
318.753	100.56
318.983	87.56
319.212	99.56
319.441	108.56
319.67	104.56
319.9	111.56
320.129	89.56
320.358	91.56
320.587	104.56
320.816	91.56
321.046	106.56
321.275	108.56
321.504	92.56
321.733	105.56
321.962	96.56
322.191	94.56
322.42	96.56
322.649	110.56
322.878	110.56
323.108	103.56
323.337	136.56
323.566	119.56
323.795	140.56
324.024	194.56
324.253	390.56
324.482	833.56
324.71	1678.56
324.939	2233.56
325.168	804.56
325.397	244.56
325.626	127.56
325.855	119.56
326.084	124.56
326.313	122.56
326.542	142.56
326.77	212.56
326.999	444.56
327.228	959.56
327.457	1712.56
327.686	1341.56
327.914	357.56
328.143	191.56
328.372	159.56
328.6	124.56
328.829	115.56
329.058	121.56
329.287	133.56
329.515	126.56
329.744	104.56
329.972	96.56
330.201	126.56
330.43	105.56
330.658	120.56
330.887	129.56
331.115	123.56
331.344	93.56
331.572	93.56
331.801	106.56
332.03	102.56
332.258	90.56
332.486	88.56
332.715	92.56
332.943	98.56
333.172	94.56
333.4	89.56
333.629	110.56
333.857	96.56
334.085	115.56
334.314	108.56
334.542	100.56
334.771	95.56
334.999	84.56
335.227	95.56
335.455	97.56
335.684	102.56
335.912	98.56
336.14	93.56
336.369	85.56
336.597	92.56
336.825	93.56
337.053	91.56
337.281	87.56
337.51	93.56
337.738	103.56
337.966	81.56
338.194	101.56
338.422	88.56
338.65	99.56
338.878	91.56
339.106	94.56
339.334	100.56
339.562	105.56
339.79	94.56
340.018	84.56
340.246	79.56
340.474	77.56
340.702	85.56
340.93	86.56
341.158	96.56
341.386	83.56
341.614	88.56
341.842	82.56
342.07	85.56
342.298	90.56
342.526	92.56
342.754	88.56
342.981	95.56
343.209	90.56
343.437	106.56
343.665	100.56
343.893	109.56
344.12	80.56
344.348	86.56
344.576	90.56
344.804	100.56
345.031	92.56
345.259	99.56
345.487	80.56
345.714	94.56
345.942	102.56
346.17	97.56
346.397	96.56
346.625	79.56
346.853	94.56
347.08	88.56
347.308	89.56
347.535	104.56
347.763	103.56
347.99	97.56
348.218	105.56
348.445	98.56
348.673	73.56
348.9	100.56
349.128	88.56
349.355	90.56
349.583	95.56
349.81	80.56
350.037	93.56
350.265	88.56
350.492	88.56
350.72	80.56
350.947	94.56
351.174	106.56
351.402	103.56
351.629	105.56
351.856	111.56
352.083	104.56
352.311	116.56
352.538	100.56
352.765	101.56
352.992	125.56
353.22	104.56
353.447	94.56
353.674	105.56
353.901	96.56
354.128	94.56
354.355	101.56
354.583	100.56
354.81	81.56
355.037	97.56
355.264	96.56
355.491	101.56
355.718	106.56
355.945	106.56
356.172	97.56
356.399	96.56
356.626	88.56
356.853	87.56
357.08	80.56
357.307	96.56
357.534	84.56
357.761	101.56
357.988	101.56
358.215	82.56
358.441	91.56
358.668	89.56
358.895	84.56
359.122	79.56
359.349	87.56
359.576	101.56
359.802	74.56
360.029	98.56
360.256	112.56
360.483	101.56
360.709	90.56
360.936	95.56
361.163	100.56
361.39	97.56
361.616	89.56
361.843	90.56
362.07	83.56
362.296	84.56
362.523	82.56
362.749	80.56
362.976	81.56
363.203	89.56
363.429	100.56
363.656	77.56
363.882	92.56
364.109	88.56
364.335	92.56
364.562	84.56
364.788	84.56
365.015	92.56
365.241	93.56
365.468	111.56
365.694	105.56
365.92	95.56
366.147	98.56
366.373	88.56
366.599	89.56
366.826	72.56
367.052	86.56
367.278	90.56
367.505	90.56
367.731	88.56
367.957	112.56
368.184	93.56
368.41	88.56
368.636	108.56
368.862	114.56
369.089	111.56
369.315	87.56
369.541	83.56
369.767	96.56
369.993	86.56
370.219	84.56
370.445	102.56
370.672	83.56
370.898	88.56
371.124	86.56
371.35	95.56
371.576	86.56
371.802	82.56
372.028	72.56
372.254	82.56
372.48	77.56
372.706	95.56
372.932	84.56
373.158	94.56
373.384	96.56
373.61	95.56
373.835	92.56
374.061	92.56
374.287	106.56
374.513	87.56
374.739	81.56
374.965	92.56
375.191	84.56
375.416	81.56
375.642	95.56
375.868	104.56
376.094	85.56
376.319	87.56
376.545	89.56
376.771	101.56
376.997	92.56
377.222	104.56
377.448	96.56
377.674	83.56
377.899	91.56
378.125	83.56
378.35	100.56
378.576	86.56
378.802	78.56
379.027	95.56
379.253	99.56
379.478	92.56
379.704	81.56
379.929	89.56
380.155	88.56
380.38	98.56
380.606	94.56
380.831	85.56
381.057	92.56
381.282	88.56
381.507	94.56
381.733	84.56
381.958	92.56
382.184	96.56
382.409	115.56
382.634	113.56
382.86	88.56
383.085	103.56
383.31	94.56
383.535	104.56
383.761	88.56
383.986	76.56
384.211	88.56
384.436	100.56
384.662	99.56
384.887	102.56
385.112	100.56
385.337	91.56
385.562	96.56
385.787	85.56
386.013	111.56
386.238	94.56
386.463	99.56
386.688	113.56
386.913	104.56
387.138	90.56
387.363	90.56
387.588	91.56
387.813	91.56
388.038	107.56
388.263	106.56
388.488	100.56
388.713	107.56
388.938	113.56
389.163	96.56
389.387	86.56
389.612	96.56
389.837	92.56
390.062	65.56
390.287	90.56
390.512	96.56
390.736	86.56
390.961	85.56
391.186	90.56
391.411	103.56
391.636	92.56
391.86	100.56
392.085	69.56
392.31	86.56
392.534	93.56
392.759	83.56
392.984	80.56
393.208	90.56
393.433	88.56
393.658	85.56
393.882	76.56
394.107	94.56
394.331	84.56
394.556	96.56
394.78	80.56
395.005	93.56
395.229	84.56
395.454	80.56
395.678	72.56
395.903	93.56
396.127	86.56
396.352	89.56
396.576	92.56
396.801	77.56
397.025	71.56
397.249	100.56
397.474	81.56
397.698	84.56
397.922	80.56
398.147	74.56
398.371	86.56
398.595	92.56
398.82	81.56
399.044	78.56
399.268	104.56
399.492	87.56
399.717	85.56
399.941	82.56
400.165	89.56
400.389	106.56
400.613	84.56
400.837	90.56
401.062	95.56
401.286	83.56
401.51	86.56
401.734	98.56
401.958	101.56
402.182	121.56
402.406	154.56
402.63	120.56
402.854	86.56
403.078	89.56
403.302	91.56
403.526	85.56
403.75	84.56
403.974	94.56
404.198	80.56
404.422	86.56
404.645	86.56
404.869	84.56
405.093	90.56
405.317	97.56
405.541	102.56
405.765	103.56
405.988	125.56
406.212	164.56
406.436	209.56
406.66	136.56
406.883	103.56
407.107	102.56
407.331	76.56
407.555	90.56
407.778	101.56
408.002	85.56
408.226	99.56
408.449	86.56
408.673	93.56
408.896	82.56
409.12	107.56
409.344	94.56
409.567	89.56
409.791	94.56
410.014	98.56
410.238	97.56
410.461	94.56
410.685	90.56
410.908	101.56
411.132	106.56
411.355	95.56
411.578	83.56
411.802	80.56
412.025	75.56
412.249	97.56
412.472	92.56
412.695	103.56
412.919	97.56
413.142	104.56
413.365	87.56
413.589	88.56
413.812	89.56
414.035	94.56
414.258	84.56
414.482	95.56
414.705	88.56
414.928	102.56
415.151	92.56
415.374	94.56
415.597	87.56
415.821	87.56
416.044	79.56
416.267	87.56
416.49	90.56
416.713	87.56
416.936	95.56
417.159	82.56
417.382	87.56
417.605	96.56
417.828	103.56
418.051	90.56
418.274	85.56
418.497	90.56
418.72	81.56
418.943	87.56
419.166	101.56
419.389	83.56
419.611	90.56
419.834	64.56
420.057	89.56
420.28	87.56
420.503	89.56
420.726	81.56
420.948	79.56
421.171	82.56
421.394	87.56
421.617	84.56
421.839	85.56
422.062	87.56
422.285	94.56
422.507	88.56
422.73	94.56
422.953	92.56
423.175	98.56
423.398	91.56
423.621	94.56
423.843	85.56
424.066	100.56
424.288	85.56
424.511	94.56
424.733	95.56
424.956	104.56
425.178	104.56
425.401	110.56
425.623	98.56
425.846	78.56
426.068	98.56
426.291	87.56
426.513	84.56
426.735	79.56
426.958	88.56
427.18	104.56
427.402	130.56
427.625	176.56
427.847	122.56
428.069	103.56
428.292	84.56
428.514	87.56
428.736	94.56
428.958	85.56
429.181	93.56
429.403	94.56
429.625	91.56
429.847	85.56
430.069	91.56
430.292	99.56
430.514	77.56
430.736	85.56
430.958	88.56
431.18	87.56
431.402	90.56
431.624	84.56
431.846	85.56
432.068	89.56
432.29	88.56
432.512	84.56
432.734	82.56
432.956	88.56
433.178	105.56
433.4	90.56
433.622	83.56
433.844	96.56
434.066	81.56
434.287	92.56
434.509	76.56
434.731	82.56
434.953	91.56
435.175	83.56
435.397	90.56
435.618	99.56
435.84	107.56
436.062	112.56
436.284	124.56
436.505	101.56
436.727	105.56
436.949	100.56
437.17	86.56
437.392	86.56
437.614	94.56
437.835	97.56
438.057	113.56
438.278	110.56
438.5	101.56
438.721	112.56
438.943	94.56
439.165	87.56
439.386	94.56
439.608	98.56
439.829	97.56
440.05	121.56
440.272	130.56
440.493	109.56
440.715	96.56
440.936	89.56
441.158	82.56
441.379	96.56
441.6	91.56
441.822	87.56
442.043	105.56
442.264	105.56
442.486	102.56
442.707	108.56
442.928	97.56
443.149	138.56
443.371	126.56
443.592	104.56
443.813	101.56
444.034	99.56
444.255	90.56
444.476	72.56
444.698	92.56
444.919	92.56
445.14	138.56
445.361	127.56
445.582	130.56
445.803	129.56
446.024	120.56
446.245	135.56
446.466	106.56
446.687	83.56
446.908	84.56
447.129	101.56
447.35	80.56
447.571	84.56
447.792	106.56
448.013	101.56
448.234	115.56
448.455	95.56
448.675	118.56
448.896	123.56
449.117	90.56
449.338	105.56
449.559	140.56
449.779	145.56
450	99.56
450.221	90.56
450.442	95.56
450.662	98.56
450.883	119.56
451.104	104.56
451.324	91.56
451.545	93.56
451.766	88.56
451.986	83.56
452.207	100.56
452.428	83.56
452.648	84.56
452.869	116.56
453.089	106.56
453.31	99.56
453.53	97.56
453.751	81.56
453.971	94.56
454.192	102.56
454.412	87.56
454.633	72.56
454.853	99.56
455.073	91.56
455.294	88.56
455.514	106.56
455.734	95.56
455.955	78.56
456.175	70.56
456.395	90.56
456.616	83.56
456.836	88.56
457.056	96.56
457.276	80.56
457.497	76.56
457.717	96.56
457.937	95.56
458.157	96.56
458.377	90.56
458.598	96.56
458.818	145.56
459.038	165.56
459.258	116.56
459.478	86.56
459.698	94.56
459.918	93.56
460.138	87.56
460.358	88.56
460.578	85.56
460.798	78.56
461.018	88.56
461.238	91.56
461.458	69.56
461.678	80.56
461.898	89.56
462.118	70.56
462.338	92.56
462.558	87.56
462.777	82.56
462.997	88.56
463.217	84.56
463.437	79.56
463.657	90.56
463.876	88.56
464.096	87.56
464.316	95.56
464.536	91.56
464.755	98.56
464.975	110.56
465.195	167.56
465.414	152.56
465.634	99.56
465.854	104.56
466.073	82.56
466.293	74.56
466.512	92.56
466.732	88.56
466.951	96.56
467.171	97.56
467.391	96.56
467.61	118.56
467.829	96.56
468.049	80.56
468.268	105.56
468.488	87.56
468.707	95.56
468.927	93.56
469.146	97.56
469.365	89.56
469.585	69.56
469.804	94.56
470.023	92.56
470.243	87.56
470.462	102.56
470.681	110.56
470.901	84.56
471.12	77.56
471.339	90.56
471.558	80.56
471.777	86.56
471.997	82.56
472.216	108.56
472.435	116.56
472.654	93.56
472.873	70.56
473.092	89.56
473.311	87.56
473.53	77.56
473.749	73.56
473.968	79.56
474.187	98.56
474.406	94.56
474.625	89.56
474.844	88.56
475.063	82.56
475.282	90.56
475.501	84.56
475.72	95.56
475.939	86.56
476.158	88.56
476.377	86.56
476.596	86.56
476.814	97.56
477.033	86.56
477.252	82.56
477.471	74.56
477.69	82.56
477.908	72.56
478.127	92.56
478.346	86.56
478.564	86.56
478.783	97.56
479.002	89.56
479.22	89.56
479.439	110.56
479.658	94.56
479.876	97.56
480.095	97.56
480.313	80.56
480.532	93.56
480.751	96.56
480.969	116.56
481.188	144.56
481.406	118.56
481.624	94.56
481.843	88.56
482.061	102.56
482.28	77.56
482.498	83.56
482.717	77.56
482.935	87.56
483.153	101.56
483.372	99.56
483.59	111.56
483.808	90.56
484.027	84.56
484.245	98.56
484.463	89.56
484.681	99.56
484.9	87.56
485.118	82.56
485.336	86.56
485.554	104.56
485.772	105.56
485.99	102.56
486.209	95.56
486.427	112.56
486.645	114.56
486.863	120.56
487.081	106.56
487.299	103.56
487.517	85.56
487.735	105.56
487.953	97.56
488.171	100.56
488.389	93.56
488.607	95.56
488.825	94.56
489.043	97.56
489.261	81.56
489.479	83.56
489.696	86.56
489.914	100.56
490.132	94.56
490.35	83.56
490.568	88.56
490.786	96.56
491.003	96.56
491.221	87.56
491.439	91.56
491.657	99.56
491.874	98.56
492.092	100.56
492.31	90.56
492.527	84.56
492.745	88.56
492.963	85.56
493.18	88.56
493.398	91.56
493.615	103.56
493.833	96.56
494.05	96.56
494.268	96.56
494.485	94.56
494.703	89.56
494.92	97.56
495.138	88.56
495.355	79.56
495.573	82.56
495.79	84.56
496.008	89.56
496.225	92.56
496.442	86.56
496.66	91.56
496.877	86.56
497.094	86.56
497.312	80.56
497.529	89.56
497.746	89.56
497.963	92.56
498.181	96.56
498.398	110.56
498.615	120.56
498.832	101.56
499.049	83.56
499.267	83.56
499.484	85.56
499.701	94.56
499.918	73.56
500.135	97.56
500.352	88.56
500.569	84.56
500.786	80.56
501.003	99.56
501.22	95.56
501.437	86.56
501.654	88.56
501.871	88.56
502.088	102.56
502.305	80.56
502.522	74.56
502.739	80.56
502.956	89.56
503.172	94.56
503.389	81.56
503.606	111.56
503.823	88.56
504.04	104.56
504.256	88.56
504.473	89.56
504.69	96.56
504.907	94.56
505.123	92.56
505.34	86.56
505.557	88.56
505.773	97.56
505.99	96.56
506.207	94.56
506.423	76.56
506.64	78.56
506.856	92.56
507.073	87.56
507.289	104.56
507.506	92.56
507.722	100.56
507.939	114.56
508.155	85.56
508.372	92.56
508.588	106.56
508.805	90.56
509.021	106.56
509.238	102.56
509.454	100.56
509.67	100.56
509.887	113.56
510.103	120.56
510.319	221.56
510.536	735.56
510.752	2251.56
510.968	614.56
511.184	144.56
511.401	126.56
511.617	105.56
511.833	108.56
512.049	100.56
512.265	103.56
512.481	99.56
512.698	88.56
512.914	99.56
513.13	95.56
513.346	94.56
513.562	103.56
513.778	84.56
513.994	100.56
514.21	109.56
514.426	106.56
514.642	136.56
514.858	125.56
515.074	164.56
515.29	448.56
515.506	1402.56
515.721	487.56
