Data from Uncirc_1988_H10_HRD10591_00064.txt Node
Date: Wed Jan 03 12:04:17 EST 2024
User: Yrep
Spectrometer: HR+D1059
Trigger mode: 1
Integration Time (sec): 1.000000E-1
Scans to average: 1
Electric dark correction enabled: true
Nonlinearity correction enabled: false
Boxcar width: 0
XAxis mode: Wavelengths
Number of Pixels in Spectrum: 2048
>>>>>Begin Spectral Data<<<<<
223.165	-15
223.4	-15
223.635	-15
223.869	-10
224.104	-17
224.338	-25
224.573	-20
224.808	-21
225.042	-2
225.277	-13
225.511	2
225.746	5
225.98	12
226.215	10
226.449	10
226.683	25
226.918	13
227.152	46
227.387	27
227.621	29
227.856	50
228.09	54
228.324	43
228.559	49
228.793	47
229.027	61
229.262	67
229.496	79
229.73	95
229.964	81
230.199	72
230.433	81
230.667	67
230.901	69
231.136	75
231.37	90
231.604	84
231.838	86
232.072	92
232.306	73
232.541	76
232.775	70
233.009	77
233.243	85
233.477	79
233.711	86
233.945	94
234.179	71
234.413	92
234.647	83
234.881	77
235.115	81
235.349	99
235.583	81
235.817	68
236.051	71
236.285	75
236.519	83
236.753	70
236.987	64
237.221	70
237.455	90
237.689	83
237.922	82
238.156	82
238.39	70
238.624	73
238.858	79
239.091	92
239.325	77
239.559	95
239.793	74
240.027	70
240.26	94
240.494	85
240.728	93
240.961	83
241.195	78
241.429	71
241.662	80
241.896	83
242.13	80
242.363	86
242.597	74
242.83	77
243.064	77
243.298	59
243.531	84
243.765	75
243.998	85
244.232	84
244.465	83
244.699	71
244.932	87
245.166	87
245.399	90
245.633	82
245.866	81
246.099	82
246.333	82
246.566	85
246.8	78
247.033	81
247.266	79
247.5	87
247.733	88
247.966	78
248.2	89
248.433	81
248.666	95
248.899	91
249.133	68
249.366	98
249.599	88
249.832	88
250.066	78
250.299	70
250.532	72
250.765	97
250.998	77
251.231	64
251.465	89
251.698	89
251.931	84
252.164	91
252.397	77
252.63	80
252.863	86
253.096	85
253.329	94
253.562	88
253.795	85
254.028	80
254.261	84
254.494	98
254.727	89
254.96	89
255.193	95
255.426	64
255.659	73
255.892	81
256.124	86
256.357	85
256.59	80
256.823	82
257.056	90
257.289	72
257.521	79
257.754	93
257.987	86
258.22	79
258.452	74
258.685	90
258.918	79
259.151	97
259.383	86
259.616	86
259.849	92
260.081	82
260.314	75
260.547	99
260.779	86
261.012	92
261.244	80
261.477	89
261.71	97
261.942	111
262.175	123
262.407	91
262.64	80
262.872	87
263.105	81
263.337	76
263.57	77
263.802	87
264.035	97
264.267	80
264.499	77
264.732	90
264.964	83
265.197	84
265.429	70
265.661	80
265.894	75
266.126	80
266.358	84
266.591	84
266.823	88
267.055	74
267.287	75
267.52	78
267.752	95
267.984	82
268.216	81
268.448	79
268.681	86
268.913	97
269.145	79
269.377	87
269.609	74
269.841	88
270.073	90
270.306	82
270.538	83
270.77	85
271.002	80
271.234	87
271.466	97
271.698	75
271.93	80
272.162	74
272.394	81
272.626	90
272.858	82
273.09	72
273.322	79
273.553	74
273.785	80
274.017	83
274.249	88
274.481	83
274.713	78
274.945	96
275.176	77
275.408	74
275.64	103
275.872	77
276.104	82
276.335	89
276.567	79
276.799	107
277.031	104
277.262	90
277.494	91
277.726	88
277.957	94
278.189	63
278.421	81
278.652	103
278.884	89
279.115	91
279.347	100
279.579	91
279.81	89
280.042	84
280.273	80
280.505	91
280.736	95
280.968	87
281.199	87
281.431	83
281.662	90
281.894	86
282.125	95
282.356	100
282.588	126
282.819	119
283.051	104
283.282	92
283.513	103
283.745	96
283.976	85
284.207	81
284.439	80
284.67	79
284.901	83
285.132	91
285.364	99
285.595	97
285.826	101
286.057	78
286.288	86
286.52	91
286.751	85
286.982	93
287.213	87
287.444	95
287.675	85
287.906	89
288.138	77
288.369	101
288.6	100
288.831	97
289.062	94
289.293	89
289.524	93
289.755	74
289.986	83
290.217	83
290.448	74
290.679	97
290.91	99
291.141	85
291.371	78
291.602	75
291.833	72
292.064	80
292.295	76
292.526	82
292.757	87
292.987	88
293.218	86
293.449	80
293.68	82
293.91	82
294.141	95
294.372	91
294.603	99
294.833	92
295.064	84
295.295	96
295.525	93
295.756	95
295.987	112
296.217	126
296.448	125
296.679	82
296.909	100
297.14	95
297.37	89
297.601	94
297.831	94
298.062	78
298.292	110
298.523	88
298.753	94
298.984	89
299.214	75
299.445	80
299.675	97
299.905	95
300.136	88
300.366	82
300.597	77
300.827	93
301.057	107
301.288	101
301.518	104
301.748	111
301.979	99
302.209	90
302.439	94
302.669	90
302.9	83
303.13	94
303.36	97
303.59	104
303.82	96
304.051	96
304.281	94
304.511	99
304.741	91
304.971	87
305.201	98
305.431	101
305.661	109
305.891	99
306.121	91
306.352	97
306.582	95
306.812	81
307.042	97
307.272	79
307.502	93
307.731	82
307.961	83
308.191	85
308.421	105
308.651	79
308.881	85
309.111	100
309.341	98
309.571	99
309.8	93
310.03	98
310.26	104
310.49	98
310.72	111
310.949	111
311.179	90
311.409	103
311.639	95
311.868	97
312.098	108
312.328	97
312.557	98
312.787	102
313.017	103
313.246	101
313.476	102
313.706	88
313.935	94
314.165	97
314.394	97
314.624	94
314.853	98
315.083	101
315.312	91
315.542	97
315.771	97
316.001	81
316.23	106
316.46	84
316.689	87
316.919	83
317.148	92
317.377	84
317.607	98
317.836	99
318.065	93
318.295	75
318.524	93
318.753	93
318.983	102
319.212	105
319.441	104
319.67	107
319.9	93
320.129	106
320.358	95
320.587	95
320.816	102
321.046	98
321.275	94
321.504	104
321.733	94
321.962	101
322.191	110
322.42	113
322.649	103
322.878	119
323.108	128
323.337	130
323.566	136
323.795	172
324.024	223
324.253	439
324.482	981
324.71	2070
324.939	2731
325.168	925
325.397	257
325.626	144
325.855	129
326.084	137
326.313	138
326.542	167
326.77	260
326.999	537
327.228	1124
327.457	2125
327.686	1652
327.914	423
328.143	201
328.372	156
328.6	155
328.829	114
329.058	135
329.287	135
329.515	128
329.744	109
329.972	123
330.201	124
330.43	147
330.658	125
330.887	143
331.115	134
331.344	105
331.572	111
331.801	109
332.03	100
332.258	95
332.486	85
332.715	106
332.943	96
333.172	103
333.4	109
333.629	113
333.857	110
334.085	105
334.314	102
334.542	123
334.771	136
334.999	114
335.227	95
335.455	100
335.684	103
335.912	97
336.14	104
336.369	92
336.597	105
336.825	98
337.053	113
337.281	89
337.51	101
337.738	86
337.966	86
338.194	101
338.422	94
338.65	96
338.878	97
339.106	83
339.334	97
339.562	86
339.79	94
340.018	93
340.246	96
340.474	85
340.702	95
340.93	93
341.158	83
341.386	95
341.614	89
341.842	94
342.07	93
342.298	110
342.526	95
342.754	85
342.981	86
343.209	89
343.437	104
343.665	81
343.893	87
344.12	87
344.348	91
344.576	97
344.804	87
345.031	91
345.259	111
345.487	92
345.714	97
345.942	93
346.17	97
346.397	95
346.625	104
346.853	90
347.08	89
347.308	101
347.535	92
347.763	108
347.99	107
348.218	112
348.445	109
348.673	106
348.9	105
349.128	93
349.355	101
349.583	100
349.81	95
350.037	96
350.265	110
350.492	93
350.72	98
350.947	98
351.174	112
351.402	111
351.629	101
351.856	111
352.083	109
352.311	100
352.538	104
352.765	115
352.992	110
353.22	96
353.447	106
353.674	95
353.901	93
354.128	86
354.355	91
354.583	81
354.81	100
355.037	97
355.264	106
355.491	104
355.718	89
355.945	90
356.172	109
356.399	96
356.626	106
356.853	90
357.08	99
357.307	82
357.534	91
357.761	94
357.988	108
358.215	111
358.441	93
358.668	101
358.895	82
359.122	91
359.349	97
359.576	110
359.802	100
360.029	101
360.256	107
360.483	105
360.709	93
360.936	93
361.163	93
361.39	98
361.616	98
361.843	87
362.07	105
362.296	100
362.523	91
362.749	97
362.976	94
363.203	85
363.429	99
363.656	110
363.882	101
364.109	101
364.335	96
364.562	79
364.788	97
365.015	103
365.241	98
365.468	121
365.694	94
365.92	109
366.147	97
366.373	75
366.599	94
366.826	81
367.052	100
367.278	99
367.505	83
367.731	96
367.957	97
368.184	95
368.41	93
368.636	109
368.862	121
369.089	90
369.315	97
369.541	85
369.767	85
369.993	95
370.219	91
370.445	98
370.672	96
370.898	85
371.124	99
371.35	95
371.576	103
371.802	97
372.028	77
372.254	96
372.48	90
372.706	86
372.932	77
373.158	85
373.384	99
373.61	97
373.835	97
374.061	93
374.287	98
374.513	104
374.739	85
374.965	99
375.191	100
375.416	90
375.642	79
375.868	100
376.094	90
376.319	94
376.545	89
376.771	93
376.997	90
377.222	97
377.448	87
377.674	83
377.899	96
378.125	92
378.35	90
378.576	89
378.802	98
379.027	79
379.253	99
379.478	98
379.704	103
379.929	93
380.155	98
380.38	93
380.606	102
380.831	90
381.057	108
381.282	102
381.507	90
381.733	89
381.958	93
382.184	81
382.409	101
382.634	102
382.86	85
383.085	96
383.31	90
383.535	93
383.761	91
383.986	90
384.211	103
384.436	101
384.662	94
384.887	105
385.112	107
385.337	87
385.562	108
385.787	108
386.013	113
386.238	122
386.463	106
386.688	99
386.913	102
387.138	103
387.363	100
387.588	101
387.813	103
388.038	98
388.263	103
388.488	95
388.713	96
388.938	83
389.163	90
389.387	80
389.612	93
389.837	101
390.062	110
390.287	74
390.512	102
390.736	84
390.961	87
391.186	102
391.411	108
391.636	92
391.86	94
392.085	97
392.31	88
392.534	104
392.759	88
392.984	89
393.208	92
393.433	96
393.658	91
393.882	87
394.107	80
394.331	83
394.556	89
394.78	87
395.005	90
395.229	88
395.454	89
395.678	93
395.903	77
396.127	70
396.352	86
396.576	82
396.801	98
397.025	93
397.249	78
397.474	90
397.698	90
397.922	90
398.147	86
398.371	77
398.595	88
398.82	95
399.044	81
399.268	93
399.492	92
399.717	99
399.941	91
400.165	102
400.389	97
400.613	85
400.837	104
401.062	84
401.286	89
401.51	106
401.734	104
401.958	113
402.182	120
402.406	176
402.63	117
402.854	103
403.078	90
403.302	97
403.526	101
403.75	103
403.974	79
404.198	86
404.422	87
404.645	90
404.869	89
405.093	97
405.317	90
405.541	97
405.765	101
405.988	136
406.212	194
406.436	245
406.66	151
406.883	111
407.107	95
407.331	97
407.555	108
407.778	101
408.002	75
408.226	97
408.449	80
408.673	75
408.896	102
409.12	113
409.344	90
409.567	95
409.791	93
410.014	96
410.238	101
410.461	87
410.685	106
410.908	95
411.132	112
411.355	106
411.578	96
411.802	96
412.025	94
412.249	84
412.472	94
412.695	94
412.919	83
413.142	88
413.365	81
413.589	87
413.812	79
414.035	93
414.258	87
414.482	95
414.705	85
414.928	88
415.151	77
415.374	83
415.597	99
415.821	102
416.044	88
416.267	78
416.49	82
416.713	84
416.936	81
417.159	94
417.382	83
417.605	86
417.828	86
418.051	89
418.274	104
418.497	90
418.72	96
418.943	81
419.166	88
419.389	88
419.611	100
419.834	93
420.057	93
420.28	88
420.503	85
420.726	84
420.948	116
421.171	95
421.394	87
421.617	81
421.839	97
422.062	88
422.285	88
422.507	106
422.73	107
422.953	103
423.175	93
423.398	74
423.621	86
423.843	91
424.066	85
424.288	90
424.511	89
424.733	106
424.956	111
425.178	100
425.401	105
425.623	83
425.846	102
426.068	101
426.291	96
426.513	78
426.735	83
426.958	97
427.18	113
427.402	150
427.625	159
427.847	143
428.069	114
428.292	97
428.514	94
428.736	90
428.958	89
429.181	83
429.403	99
429.625	72
429.847	102
430.069	102
430.292	102
430.514	100
430.736	81
430.958	85
431.18	97
431.402	85
431.624	88
431.846	84
432.068	73
432.29	82
432.512	92
432.734	95
432.956	102
433.178	105
433.4	91
433.622	97
433.844	102
434.066	89
434.287	103
434.509	102
434.731	94
434.953	91
435.175	93
435.397	95
435.618	93
435.84	93
436.062	137
436.284	110
436.505	114
436.727	122
436.949	112
437.17	96
437.392	104
437.614	85
437.835	117
438.057	128
438.278	108
438.5	105
438.721	116
438.943	110
439.165	99
439.386	88
439.608	104
439.829	104
440.05	128
440.272	148
440.493	102
440.715	90
440.936	100
441.158	92
441.379	89
441.6	97
441.822	93
442.043	97
442.264	111
442.486	105
442.707	98
442.928	120
443.149	137
443.371	134
443.592	111
443.813	132
444.034	121
444.255	87
444.476	86
444.698	87
444.919	101
445.14	136
445.361	115
445.582	120
445.803	157
446.024	161
446.245	147
446.466	123
446.687	97
446.908	87
447.129	89
447.35	86
447.571	107
447.792	85
448.013	105
448.234	110
448.455	103
448.675	109
448.896	129
449.117	103
449.338	102
449.559	146
449.779	129
450	109
450.221	97
450.442	99
450.662	94
450.883	104
451.104	104
451.324	94
451.545	84
451.766	97
451.986	91
452.207	93
452.428	90
452.648	93
452.869	117
453.089	109
453.31	119
453.53	90
453.751	104
453.971	98
454.192	117
454.412	104
454.633	84
454.853	85
455.073	88
455.294	89
455.514	104
455.734	91
455.955	85
456.175	98
456.395	92
456.616	91
456.836	91
457.056	81
457.276	84
457.497	90
457.717	88
457.937	85
458.157	88
458.377	111
458.598	109
458.818	178
459.038	195
459.258	119
459.478	88
459.698	86
459.918	90
460.138	82
460.358	78
460.578	91
460.798	95
461.018	108
461.238	91
461.458	82
461.678	90
461.898	89
462.118	78
462.338	80
462.558	98
462.777	77
462.997	87
463.217	102
463.437	78
463.657	85
463.876	97
464.096	84
464.316	100
464.536	91
464.755	89
464.975	92
465.195	180
465.414	162
465.634	90
465.854	98
466.073	89
466.293	87
466.512	87
466.732	88
466.951	88
467.171	85
467.391	104
467.61	108
467.829	107
468.049	89
468.268	93
468.488	98
468.707	91
468.927	92
469.146	87
469.365	82
469.585	97
469.804	88
470.023	90
470.243	93
470.462	98
470.681	111
470.901	107
471.12	96
471.339	96
471.558	95
471.777	87
471.997	86
472.216	112
472.435	121
472.654	96
472.873	92
473.092	90
473.311	81
473.53	94
473.749	79
473.968	102
474.187	99
474.406	103
474.625	95
474.844	88
475.063	90
475.282	81
475.501	97
475.72	109
475.939	93
476.158	93
476.377	103
476.596	81
476.814	102
477.033	87
477.252	89
477.471	89
477.69	95
477.908	97
478.127	107
478.346	88
478.564	95
478.783	99
479.002	97
479.22	100
479.439	112
479.658	116
479.876	99
480.095	96
480.313	93
480.532	94
480.751	110
480.969	127
481.188	186
481.406	149
481.624	99
481.843	87
482.061	92
482.28	87
482.498	89
482.717	91
482.935	97
483.153	94
483.372	101
483.59	77
483.808	100
484.027	101
484.245	95
484.463	98
484.681	116
484.9	89
485.118	101
485.336	93
485.554	108
485.772	81
485.99	104
486.209	105
486.427	95
486.645	95
486.863	115
487.081	98
487.299	84
487.517	90
487.735	89
487.953	98
488.171	98
488.389	96
488.607	98
488.825	94
489.043	70
489.261	103
489.479	96
489.696	98
489.914	90
490.132	97
490.35	97
490.568	107
490.786	95
491.003	79
491.221	89
491.439	99
491.657	104
491.874	103
492.092	91
492.31	108
492.527	102
492.745	101
492.963	102
493.18	82
493.398	85
493.615	94
493.833	88
494.05	97
494.268	96
494.485	82
494.703	85
494.92	77
495.138	86
495.355	108
495.573	96
495.79	102
496.008	94
496.225	85
496.442	83
496.66	101
496.877	105
497.094	92
497.312	96
497.529	95
497.746	83
497.963	96
498.181	93
498.398	89
498.615	125
498.832	101
499.049	85
499.267	102
499.484	119
499.701	91
499.918	101
500.135	91
500.352	95
500.569	89
500.786	89
501.003	94
501.22	94
501.437	100
501.654	100
501.871	107
502.088	96
502.305	99
502.522	80
502.739	81
502.956	93
503.172	97
503.389	89
503.606	106
503.823	98
504.04	90
504.256	91
504.473	103
504.69	87
504.907	99
505.123	86
505.34	95
505.557	82
505.773	95
505.99	92
506.207	83
506.423	99
506.64	95
506.856	81
507.073	106
507.289	89
507.506	97
507.722	95
507.939	107
508.155	99
508.372	95
508.588	109
508.805	101
509.021	93
509.238	101
509.454	94
509.67	94
509.887	105
510.103	154
510.319	230
510.536	795
510.752	2581
510.968	704
511.184	167
511.401	128
511.617	105
511.833	110
512.049	93
512.265	89
512.481	95
512.698	85
512.914	79
513.13	90
513.346	104
513.562	100
513.778	93
513.994	100
514.21	95
514.426	120
514.642	136
514.858	134
515.074	184
515.29	513
515.506	1630
515.721	597
515.937	176
516.153	119
516.369	106
516.585	104
516.801	96
517.016	96
517.232	100
517.448	95
517.664	83
517.879	94
518.095	96
518.311	95
518.527	111
518.742	100
518.958	89
519.173	98
519.389	81
519.605	85
519.82	102
520.036	103
520.251	117
520.467	122
520.682	115
520.898	113
521.113	128
521.329	145
521.544	225
521.76	618
521.975	2771
522.19	1617
522.406	344
522.621	129
522.836	114
523.052	94
523.267	98
523.482	106
523.698	96
523.913	124
524.128	113
524.343	87
524.559	85
524.774	92
524.989	100
525.204	114
525.419	105
525.634	99
525.849	86
526.064	99
526.28	98
526.495	91
526.71	91
526.925	93
527.14	99
527.355	69
527.57	84
527.785	93
527.999	102
528.214	82
528.429	100
528.644	96
528.859	103
529.074	97
529.289	120
529.503	185
529.718	109
529.933	93
530.148	86
530.363	90
530.577	98
530.792	89
531.007	98
531.221	97
531.436	93
531.651	91
531.865	85
532.08	97
532.295	85
532.509	101
532.724	86
532.938	98
533.153	112
533.367	97
533.582	99
533.796	97
534.011	96
534.225	93
534.44	89
534.654	93
534.868	84
535.083	90
535.297	97
535.511	99
535.726	99
535.94	107
536.154	97
536.369	95
536.583	83
536.797	105
537.011	78
537.225	94
537.44	95
537.654	96
537.868	81
538.082	91
538.296	83
538.51	89
538.724	85
538.938	88
539.153	90
539.367	106
539.581	105
539.795	82
540.009	100
540.222	102
540.436	103
540.65	86
540.864	95
541.078	93
541.292	89
541.506	81
541.72	92
541.934	75
542.147	95
542.361	88
542.575	85
542.789	93
543.002	98
543.216	94
543.43	103
543.644	86
543.857	109
544.071	95
544.285	97
544.498	93
544.712	100
544.925	81
545.139	89
545.352	103
545.566	87
545.779	89
545.993	85
546.206	86
546.42	77
546.633	90
546.847	85
547.06	96
547.274	95
547.487	93
547.7	81
547.914	85
548.127	88
548.34	80
548.554	95
548.767	86
548.98	95
549.193	106
549.407	95
549.62	83
549.833	83
550.046	100
550.259	95
550.473	91
550.686	95
550.899	98
551.112	85
551.325	67
551.538	94
551.751	85
551.964	86
552.177	94
552.39	86
552.603	97
552.816	86
553.029	89
553.242	94
553.455	91
553.667	101
553.88	87
554.093	78
554.306	85
554.519	102
554.732	105
554.944	93
555.157	97
555.37	86
555.583	100
555.795	94
556.008	99
556.221	86
556.433	96
556.646	85
556.859	70
557.071	96
557.284	78
557.496	92
557.709	87
557.921	81
558.134	96
558.346	74
558.559	104
558.771	93
558.984	83
559.196	91
559.409	91
559.621	84
559.833	95
560.046	78
560.258	86
560.47	91
560.683	100
560.895	86
561.107	89
561.32	91
561.532	101
561.744	85
561.956	92
562.168	100
562.381	101
562.593	77
562.805	92
563.017	100
563.229	103
563.441	86
563.653	103
563.865	89
564.077	97
564.289	95
564.501	99
564.713	107
564.925	104
565.137	107
565.349	104
565.561	84
565.773	105
565.985	78
566.197	82
566.408	99
566.62	91
566.832	74
567.044	81
567.255	82
567.467	90
567.679	83
567.891	87
568.102	86
568.314	87
568.526	86
568.737	83
568.949	97
569.161	98
569.372	86
569.584	83
569.795	109
570.007	121
570.218	259
570.43	139
570.641	81
570.853	81
571.064	90
571.276	90
571.487	93
571.698	89
571.91	88
572.121	73
572.333	98
572.544	79
572.755	82
572.966	86
573.178	86
573.389	87
573.6	78
573.811	104
574.023	93
574.234	101
574.445	95
574.656	95
574.867	82
575.078	99
575.289	86
575.501	101
575.712	84
575.923	95
576.134	97
576.345	82
576.556	95
576.767	94
576.978	93
577.188	99
577.399	97
577.61	87
577.821	86
578.032	120
578.243	285
578.454	819
578.665	226
578.875	117
579.086	110
579.297	97
579.508	89
579.718	89
579.929	90
580.14	75
580.35	96
580.561	91
580.772	100
580.982	73
581.193	77
581.403	77
581.614	98
581.825	99
582.035	91
582.246	87
582.456	92
582.667	92
