Data from Uncirc_1988_H10_HRD10591_00041.txt Node
Date: Wed Jan 03 12:04:12 EST 2024
User: Yrep
Spectrometer: HR+D1059
Trigger mode: 1
Integration Time (sec): 1.000000E-1
Scans to average: 1
Electric dark correction enabled: true
Nonlinearity correction enabled: false
Boxcar width: 0
XAxis mode: Wavelengths
Number of Pixels in Spectrum: 2048
>>>>>Begin Spectral Data<<<<<
223.165	-10.94
223.4	-10.94
223.635	-10.94
223.869	-10.94
224.104	-20.94
224.338	-16.94
224.573	-12.94
224.808	-3.94
225.042	-5.94
225.277	-4.94
225.511	-12.94
225.746	1.06
225.98	12.06
226.215	18.06
226.449	25.06
226.683	11.06
226.918	23.06
227.152	10.06
227.387	28.06
227.621	39.06
227.856	36.06
228.09	33.06
228.324	59.06
228.559	47.06
228.793	56.06
229.027	58.06
229.262	54.06
229.496	66.06
229.73	86.06
229.964	85.06
230.199	69.06
230.433	78.06
230.667	81.06
230.901	71.06
231.136	74.06
231.37	77.06
231.604	79.06
231.838	74.06
232.072	82.06
232.306	86.06
232.541	89.06
232.775	75.06
233.009	69.06
233.243	91.06
233.477	89.06
233.711	71.06
233.945	69.06
234.179	77.06
234.413	68.06
234.647	79.06
234.881	73.06
235.115	89.06
235.349	70.06
235.583	84.06
235.817	76.06
236.051	70.06
236.285	80.06
236.519	69.06
236.753	73.06
236.987	71.06
237.221	90.06
237.455	95.06
237.689	75.06
237.922	77.06
238.156	73.06
238.39	75.06
238.624	65.06
238.858	70.06
239.091	75.06
239.325	81.06
239.559	69.06
239.793	75.06
240.027	83.06
240.26	84.06
240.494	82.06
240.728	73.06
240.961	67.06
241.195	77.06
241.429	81.06
241.662	66.06
241.896	62.06
242.13	82.06
242.363	63.06
242.597	79.06
242.83	65.06
243.064	76.06
243.298	75.06
243.531	74.06
243.765	79.06
243.998	76.06
244.232	69.06
244.465	83.06
244.699	61.06
244.932	85.06
245.166	81.06
245.399	75.06
245.633	80.06
245.866	79.06
246.099	83.06
246.333	69.06
246.566	63.06
246.8	72.06
247.033	69.06
247.266	66.06
247.5	82.06
247.733	81.06
247.966	82.06
248.2	86.06
248.433	84.06
248.666	76.06
248.899	65.06
249.133	82.06
249.366	92.06
249.599	83.06
249.832	78.06
250.066	72.06
250.299	58.06
250.532	86.06
250.765	85.06
250.998	87.06
251.231	70.06
251.465	62.06
251.698	78.06
251.931	71.06
252.164	71.06
252.397	77.06
252.63	83.06
252.863	81.06
253.096	84.06
253.329	81.06
253.562	79.06
253.795	84.06
254.028	67.06
254.261	79.06
254.494	74.06
254.727	77.06
254.96	81.06
255.193	70.06
255.426	66.06
255.659	81.06
255.892	96.06
256.124	81.06
256.357	75.06
256.59	85.06
256.823	78.06
257.056	88.06
257.289	89.06
257.521	88.06
257.754	81.06
257.987	71.06
258.22	71.06
258.452	76.06
258.685	79.06
258.918	82.06
259.151	81.06
259.383	83.06
259.616	84.06
259.849	87.06
260.081	63.06
260.314	75.06
260.547	74.06
260.779	82.06
261.012	77.06
261.244	83.06
261.477	105.06
261.71	94.06
261.942	113.06
262.175	103.06
262.407	78.06
262.64	84.06
262.872	94.06
263.105	78.06
263.337	75.06
263.57	68.06
263.802	87.06
264.035	78.06
264.267	86.06
264.499	94.06
264.732	90.06
264.964	84.06
265.197	69.06
265.429	84.06
265.661	86.06
265.894	69.06
266.126	79.06
266.358	73.06
266.591	75.06
266.823	84.06
267.055	56.06
267.287	95.06
267.52	83.06
267.752	90.06
267.984	65.06
268.216	107.06
268.448	82.06
268.681	77.06
268.913	85.06
269.145	85.06
269.377	85.06
269.609	93.06
269.841	85.06
270.073	86.06
270.306	75.06
270.538	73.06
270.77	73.06
271.002	73.06
271.234	81.06
271.466	76.06
271.698	77.06
271.93	74.06
272.162	90.06
272.394	76.06
272.626	73.06
272.858	95.06
273.09	81.06
273.322	88.06
273.553	78.06
273.785	87.06
274.017	79.06
274.249	86.06
274.481	89.06
274.713	70.06
274.945	80.06
275.176	90.06
275.408	82.06
275.64	86.06
275.872	86.06
276.104	81.06
276.335	73.06
276.567	95.06
276.799	106.06
277.031	92.06
277.262	89.06
277.494	89.06
277.726	66.06
277.957	75.06
278.189	86.06
278.421	97.06
278.652	83.06
278.884	80.06
279.115	78.06
279.347	85.06
279.579	95.06
279.81	85.06
280.042	74.06
280.273	83.06
280.505	79.06
280.736	77.06
280.968	77.06
281.199	77.06
281.431	67.06
281.662	99.06
281.894	89.06
282.125	92.06
282.356	123.06
282.588	125.06
282.819	107.06
283.051	76.06
283.282	83.06
283.513	74.06
283.745	94.06
283.976	88.06
284.207	89.06
284.439	84.06
284.67	82.06
284.901	80.06
285.132	89.06
285.364	73.06
285.595	73.06
285.826	97.06
286.057	89.06
286.288	89.06
286.52	93.06
286.751	87.06
286.982	81.06
287.213	83.06
287.444	86.06
287.675	77.06
287.906	81.06
288.138	86.06
288.369	93.06
288.6	99.06
288.831	89.06
289.062	65.06
289.293	77.06
289.524	89.06
289.755	86.06
289.986	82.06
290.217	91.06
290.448	76.06
290.679	81.06
290.91	78.06
291.141	98.06
291.371	80.06
291.602	82.06
291.833	69.06
292.064	91.06
292.295	79.06
292.526	91.06
292.757	91.06
292.987	89.06
293.218	86.06
293.449	94.06
293.68	87.06
293.91	95.06
294.141	85.06
294.372	87.06
294.603	78.06
294.833	87.06
295.064	91.06
295.295	76.06
295.525	99.06
295.756	102.06
295.987	97.06
296.217	126.06
296.448	126.06
296.679	103.06
296.909	93.06
297.14	98.06
297.37	79.06
297.601	94.06
297.831	87.06
298.062	92.06
298.292	93.06
298.523	76.06
298.753	87.06
298.984	77.06
299.214	89.06
299.445	82.06
299.675	89.06
299.905	90.06
300.136	86.06
300.366	95.06
300.597	95.06
300.827	93.06
301.057	82.06
301.288	93.06
301.518	97.06
301.748	85.06
301.979	89.06
302.209	89.06
302.439	96.06
302.669	81.06
302.9	86.06
303.13	76.06
303.36	87.06
303.59	92.06
303.82	100.06
304.051	96.06
304.281	87.06
304.511	70.06
304.741	60.06
304.971	92.06
305.201	89.06
305.431	78.06
305.661	97.06
305.891	92.06
306.121	94.06
306.352	107.06
306.582	106.06
306.812	87.06
307.042	81.06
307.272	94.06
307.502	81.06
307.731	99.06
307.961	94.06
308.191	87.06
308.421	97.06
308.651	79.06
308.881	89.06
309.111	104.06
309.341	92.06
309.571	107.06
309.8	87.06
310.03	99.06
310.26	82.06
310.49	103.06
310.72	85.06
310.949	104.06
311.179	99.06
311.409	85.06
311.639	95.06
311.868	103.06
312.098	103.06
312.328	93.06
312.557	102.06
312.787	99.06
313.017	90.06
313.246	82.06
313.476	76.06
313.706	91.06
313.935	88.06
314.165	86.06
314.394	101.06
314.624	95.06
314.853	89.06
315.083	99.06
315.312	93.06
315.542	94.06
315.771	86.06
316.001	75.06
316.23	89.06
316.46	85.06
316.689	107.06
316.919	107.06
317.148	78.06
317.377	81.06
317.607	82.06
317.836	86.06
318.065	92.06
318.295	103.06
318.524	92.06
318.753	88.06
318.983	92.06
319.212	103.06
319.441	93.06
319.67	98.06
319.9	97.06
320.129	80.06
320.358	94.06
320.587	99.06
320.816	90.06
321.046	90.06
321.275	98.06
321.504	74.06
321.733	80.06
321.962	90.06
322.191	100.06
322.42	101.06
322.649	102.06
322.878	106.06
323.108	115.06
323.337	113.06
323.566	123.06
323.795	133.06
324.024	200.06
324.253	352.06
324.482	772.06
324.71	1600.06
324.939	2032.06
325.168	763.06
325.397	233.06
325.626	143.06
325.855	133.06
326.084	125.06
326.313	127.06
326.542	154.06
326.77	215.06
326.999	433.06
327.228	881.06
327.457	1641.06
327.686	1270.06
327.914	341.06
328.143	167.06
328.372	142.06
328.6	108.06
328.829	115.06
329.058	115.06
329.287	130.06
329.515	109.06
329.744	100.06
329.972	94.06
330.201	92.06
330.43	114.06
330.658	116.06
330.887	126.06
331.115	113.06
331.344	92.06
331.572	90.06
331.801	109.06
332.03	98.06
332.258	94.06
332.486	87.06
332.715	92.06
332.943	78.06
333.172	103.06
333.4	100.06
333.629	96.06
333.857	109.06
334.085	95.06
334.314	100.06
334.542	98.06
334.771	112.06
334.999	108.06
335.227	91.06
335.455	101.06
335.684	93.06
335.912	101.06
336.14	96.06
336.369	100.06
336.597	90.06
336.825	90.06
337.053	79.06
337.281	83.06
337.51	86.06
337.738	102.06
337.966	92.06
338.194	97.06
338.422	98.06
338.65	86.06
338.878	94.06
339.106	94.06
339.334	101.06
339.562	92.06
339.79	88.06
340.018	86.06
340.246	93.06
340.474	89.06
340.702	100.06
340.93	101.06
341.158	78.06
341.386	85.06
341.614	92.06
341.842	92.06
342.07	96.06
342.298	75.06
342.526	87.06
342.754	87.06
342.981	93.06
343.209	93.06
343.437	88.06
343.665	73.06
343.893	94.06
344.12	94.06
344.348	86.06
344.576	98.06
344.804	102.06
345.031	83.06
345.259	79.06
345.487	91.06
345.714	95.06
345.942	93.06
346.17	95.06
346.397	87.06
346.625	96.06
346.853	81.06
347.08	83.06
347.308	84.06
347.535	97.06
347.763	90.06
347.99	95.06
348.218	89.06
348.445	80.06
348.673	92.06
348.9	91.06
349.128	97.06
349.355	108.06
349.583	97.06
349.81	89.06
350.037	84.06
350.265	91.06
350.492	79.06
350.72	94.06
350.947	99.06
351.174	100.06
351.402	100.06
351.629	92.06
351.856	99.06
352.083	90.06
352.311	104.06
352.538	92.06
352.765	110.06
352.992	104.06
353.22	89.06
353.447	77.06
353.674	91.06
353.901	103.06
354.128	91.06
354.355	94.06
354.583	94.06
354.81	97.06
355.037	93.06
355.264	86.06
355.491	101.06
355.718	87.06
355.945	83.06
356.172	93.06
356.399	93.06
356.626	83.06
356.853	93.06
357.08	86.06
357.307	81.06
357.534	85.06
357.761	83.06
357.988	99.06
358.215	100.06
358.441	86.06
358.668	89.06
358.895	81.06
359.122	80.06
359.349	84.06
359.576	101.06
359.802	90.06
360.029	101.06
360.256	95.06
360.483	87.06
360.709	86.06
360.936	93.06
361.163	103.06
361.39	81.06
361.616	89.06
361.843	71.06
362.07	97.06
362.296	92.06
362.523	83.06
362.749	84.06
362.976	90.06
363.203	93.06
363.429	83.06
363.656	86.06
363.882	83.06
364.109	84.06
364.335	82.06
364.562	91.06
364.788	89.06
365.015	86.06
365.241	86.06
365.468	101.06
365.694	101.06
365.92	83.06
366.147	81.06
366.373	102.06
366.599	92.06
366.826	86.06
367.052	88.06
367.278	84.06
367.505	91.06
367.731	82.06
367.957	92.06
368.184	91.06
368.41	100.06
368.636	96.06
368.862	120.06
369.089	111.06
369.315	95.06
369.541	98.06
369.767	83.06
369.993	95.06
370.219	84.06
370.445	94.06
370.672	83.06
370.898	76.06
371.124	78.06
371.35	83.06
371.576	78.06
371.802	85.06
372.028	80.06
372.254	78.06
372.48	69.06
372.706	70.06
372.932	83.06
373.158	91.06
373.384	88.06
373.61	91.06
373.835	83.06
374.061	102.06
374.287	92.06
374.513	104.06
374.739	89.06
374.965	81.06
375.191	88.06
375.416	89.06
375.642	93.06
375.868	103.06
376.094	91.06
376.319	86.06
376.545	100.06
376.771	77.06
376.997	97.06
377.222	86.06
377.448	89.06
377.674	85.06
377.899	79.06
378.125	85.06
378.35	85.06
378.576	90.06
378.802	87.06
379.027	80.06
379.253	84.06
379.478	77.06
379.704	78.06
379.929	89.06
380.155	87.06
380.38	94.06
380.606	89.06
380.831	84.06
381.057	94.06
381.282	93.06
381.507	86.06
381.733	82.06
381.958	96.06
382.184	87.06
382.409	94.06
382.634	99.06
382.86	89.06
383.085	106.06
383.31	99.06
383.535	93.06
383.761	87.06
383.986	98.06
384.211	109.06
384.436	99.06
384.662	92.06
384.887	98.06
385.112	87.06
385.337	93.06
385.562	97.06
385.787	96.06
386.013	113.06
386.238	97.06
386.463	94.06
386.688	95.06
386.913	93.06
387.138	107.06
387.363	98.06
387.588	99.06
387.813	101.06
388.038	98.06
388.263	104.06
388.488	98.06
388.713	92.06
388.938	85.06
389.163	88.06
389.387	106.06
389.612	99.06
389.837	88.06
390.062	96.06
390.287	86.06
390.512	77.06
390.736	89.06
390.961	88.06
391.186	97.06
391.411	95.06
391.636	94.06
391.86	87.06
392.085	99.06
392.31	94.06
392.534	79.06
392.759	90.06
392.984	85.06
393.208	86.06
393.433	81.06
393.658	94.06
393.882	93.06
394.107	78.06
394.331	73.06
394.556	86.06
394.78	74.06
395.005	100.06
395.229	84.06
395.454	91.06
395.678	81.06
395.903	83.06
396.127	86.06
396.352	79.06
396.576	72.06
396.801	79.06
397.025	91.06
397.249	93.06
397.474	90.06
397.698	82.06
397.922	85.06
398.147	84.06
398.371	87.06
398.595	89.06
398.82	84.06
399.044	81.06
399.268	80.06
399.492	82.06
399.717	92.06
399.941	63.06
400.165	104.06
400.389	99.06
400.613	88.06
400.837	82.06
401.062	79.06
401.286	83.06
401.51	81.06
401.734	86.06
401.958	91.06
402.182	106.06
402.406	137.06
402.63	106.06
402.854	78.06
403.078	89.06
403.302	83.06
403.526	77.06
403.75	86.06
403.974	85.06
404.198	96.06
404.422	91.06
404.645	77.06
404.869	90.06
405.093	90.06
405.317	91.06
405.541	95.06
405.765	82.06
405.988	109.06
406.212	164.06
406.436	205.06
406.66	104.06
406.883	77.06
407.107	81.06
407.331	89.06
407.555	90.06
407.778	97.06
408.002	76.06
408.226	97.06
408.449	98.06
408.673	83.06
408.896	99.06
409.12	98.06
409.344	86.06
409.567	84.06
409.791	93.06
410.014	96.06
410.238	93.06
410.461	88.06
410.685	94.06
410.908	105.06
411.132	110.06
411.355	86.06
411.578	89.06
411.802	73.06
412.025	69.06
412.249	93.06
412.472	89.06
412.695	97.06
412.919	97.06
413.142	65.06
413.365	80.06
413.589	71.06
413.812	73.06
414.035	91.06
414.258	95.06
414.482	82.06
414.705	100.06
414.928	101.06
415.151	83.06
415.374	87.06
415.597	90.06
415.821	87.06
416.044	96.06
416.267	75.06
416.49	81.06
416.713	79.06
416.936	91.06
417.159	78.06
417.382	87.06
417.605	85.06
417.828	102.06
418.051	105.06
418.274	93.06
418.497	81.06
418.72	70.06
418.943	85.06
419.166	88.06
419.389	84.06
419.611	90.06
419.834	86.06
420.057	85.06
420.28	74.06
420.503	64.06
420.726	91.06
420.948	91.06
421.171	94.06
421.394	96.06
421.617	84.06
421.839	91.06
422.062	92.06
422.285	94.06
422.507	98.06
422.73	105.06
422.953	103.06
423.175	89.06
423.398	90.06
423.621	88.06
423.843	87.06
424.066	89.06
424.288	83.06
424.511	81.06
424.733	97.06
424.956	86.06
425.178	91.06
425.401	91.06
425.623	87.06
425.846	87.06
426.068	93.06
426.291	93.06
426.513	84.06
426.735	89.06
426.958	97.06
427.18	100.06
427.402	116.06
427.625	156.06
427.847	126.06
428.069	106.06
428.292	86.06
428.514	76.06
428.736	85.06
428.958	69.06
429.181	90.06
429.403	75.06
429.625	80.06
429.847	85.06
430.069	92.06
430.292	105.06
430.514	77.06
430.736	95.06
430.958	91.06
431.18	67.06
431.402	87.06
431.624	89.06
431.846	90.06
432.068	73.06
432.29	84.06
432.512	85.06
432.734	78.06
432.956	97.06
433.178	100.06
433.4	92.06
433.622	97.06
433.844	101.06
434.066	92.06
434.287	98.06
434.509	84.06
434.731	77.06
434.953	88.06
435.175	84.06
435.397	86.06
435.618	105.06
435.84	101.06
436.062	110.06
436.284	114.06
436.505	102.06
436.727	108.06
436.949	96.06
437.17	97.06
437.392	87.06
437.614	93.06
437.835	102.06
438.057	93.06
438.278	111.06
438.5	100.06
438.721	113.06
438.943	86.06
439.165	87.06
439.386	95.06
439.608	99.06
439.829	93.06
440.05	117.06
440.272	150.06
440.493	97.06
440.715	78.06
440.936	86.06
441.158	95.06
441.379	76.06
441.6	91.06
441.822	94.06
442.043	103.06
442.264	102.06
442.486	102.06
442.707	89.06
442.928	101.06
443.149	130.06
443.371	128.06
443.592	113.06
443.813	102.06
444.034	102.06
444.255	92.06
444.476	73.06
444.698	92.06
444.919	94.06
445.14	132.06
445.361	126.06
445.582	90.06
445.803	126.06
446.024	121.06
446.245	126.06
446.466	106.06
446.687	85.06
446.908	91.06
447.129	83.06
447.35	87.06
447.571	83.06
447.792	89.06
448.013	107.06
448.234	108.06
448.455	100.06
448.675	98.06
448.896	130.06
449.117	98.06
449.338	89.06
449.559	111.06
449.779	124.06
450	90.06
450.221	80.06
450.442	92.06
450.662	83.06
450.883	100.06
451.104	87.06
451.324	87.06
451.545	91.06
451.766	92.06
451.986	93.06
452.207	81.06
452.428	99.06
452.648	92.06
452.869	106.06
453.089	111.06
453.31	109.06
453.53	82.06
453.751	79.06
453.971	97.06
454.192	106.06
454.412	85.06
454.633	63.06
454.853	79.06
455.073	74.06
455.294	98.06
455.514	90.06
455.734	92.06
455.955	93.06
456.175	75.06
456.395	98.06
456.616	84.06
456.836	71.06
457.056	80.06
457.276	80.06
457.497	81.06
457.717	89.06
457.937	98.06
458.157	84.06
458.377	92.06
458.598	110.06
458.818	146.06
459.038	130.06
459.258	97.06
459.478	83.06
459.698	96.06
459.918	83.06
460.138	90.06
460.358	87.06
460.578	97.06
460.798	83.06
461.018	81.06
461.238	101.06
461.458	82.06
461.678	100.06
461.898	70.06
462.118	89.06
462.338	86.06
462.558	82.06
462.777	83.06
462.997	81.06
463.217	85.06
463.437	70.06
463.657	89.06
463.876	83.06
464.096	78.06
464.316	86.06
464.536	89.06
464.755	83.06
464.975	100.06
465.195	150.06
465.414	141.06
465.634	88.06
465.854	90.06
466.073	83.06
466.293	91.06
466.512	84.06
466.732	75.06
466.951	88.06
467.171	83.06
467.391	82.06
467.61	102.06
467.829	90.06
468.049	98.06
468.268	92.06
468.488	88.06
468.707	85.06
468.927	83.06
469.146	84.06
469.365	82.06
469.585	97.06
469.804	87.06
470.023	95.06
470.243	84.06
470.462	88.06
470.681	108.06
470.901	86.06
471.12	74.06
471.339	70.06
471.558	87.06
471.777	83.06
471.997	94.06
472.216	99.06
472.435	105.06
472.654	85.06
472.873	91.06
473.092	83.06
473.311	76.06
473.53	72.06
473.749	84.06
473.968	98.06
474.187	90.06
474.406	86.06
474.625	83.06
474.844	89.06
475.063	83.06
475.282	76.06
475.501	86.06
475.72	79.06
475.939	81.06
476.158	80.06
476.377	90.06
476.596	86.06
476.814	99.06
477.033	83.06
477.252	82.06
477.471	86.06
477.69	84.06
477.908	87.06
478.127	78.06
478.346	90.06
478.564	83.06
478.783	84.06
479.002	94.06
479.22	87.06
479.439	101.06
479.658	99.06
479.876	89.06
480.095	78.06
480.313	101.06
480.532	67.06
480.751	93.06
480.969	90.06
481.188	104.06
481.406	98.06
481.624	76.06
481.843	91.06
482.061	79.06
482.28	86.06
482.498	93.06
482.717	100.06
482.935	83.06
483.153	83.06
483.372	92.06
483.59	83.06
483.808	87.06
484.027	85.06
484.245	93.06
484.463	87.06
484.681	105.06
484.9	77.06
485.118	105.06
485.336	85.06
485.554	110.06
485.772	91.06
485.99	100.06
486.209	95.06
486.427	97.06
486.645	103.06
486.863	107.06
487.081	112.06
487.299	87.06
487.517	93.06
487.735	93.06
487.953	92.06
488.171	87.06
488.389	88.06
488.607	85.06
488.825	83.06
489.043	93.06
489.261	90.06
489.479	76.06
489.696	92.06
489.914	87.06
490.132	75.06
490.35	90.06
490.568	87.06
490.786	87.06
491.003	82.06
491.221	82.06
491.439	105.06
491.657	102.06
491.874	86.06
492.092	87.06
492.31	80.06
492.527	79.06
492.745	93.06
492.963	103.06
493.18	98.06
493.398	80.06
493.615	86.06
493.833	85.06
494.05	93.06
494.268	84.06
494.485	84.06
494.703	93.06
494.92	96.06
495.138	88.06
495.355	89.06
495.573	97.06
495.79	96.06
496.008	87.06
496.225	96.06
496.442	85.06
496.66	91.06
496.877	94.06
497.094	89.06
497.312	89.06
497.529	92.06
497.746	89.06
497.963	81.06
498.181	80.06
498.398	86.06
498.615	103.06
498.832	87.06
499.049	84.06
499.267	93.06
499.484	93.06
499.701	94.06
499.918	99.06
500.135	101.06
500.352	77.06
500.569	92.06
500.786	91.06
501.003	93.06
501.22	91.06
501.437	96.06
501.654	88.06
501.871	109.06
502.088	89.06
502.305	97.06
502.522	74.06
502.739	95.06
502.956	81.06
503.172	84.06
503.389	85.06
503.606	98.06
503.823	91.06
504.04	92.06
504.256	97.06
504.473	75.06
504.69	98.06
504.907	108.06
505.123	85.06
505.34	91.06
505.557	88.06
505.773	91.06
505.99	92.06
506.207	90.06
506.423	88.06
506.64	90.06
506.856	77.06
507.073	87.06
507.289	86.06
507.506	89.06
507.722	106.06
507.939	95.06
508.155	95.06
508.372	78.06
508.588	104.06
508.805	108.06
509.021	98.06
509.238	101.06
509.454	84.06
509.67	85.06
509.887	106.06
510.103	127.06
510.319	172.06
510.536	705.06
510.752	2111.06
510.968	563.06
511.184	123.06
511.401	109.06
511.617	90.06
511.833	92.06
512.049	95.06
512.265	78.06
512.481	93.06
512.698	89.06
512.914	89.06
513.13	90.06
513.346	100.06
513.562	84.06
513.778	105.06
513.994	92.06
514.21	91.06
514.426	115.06
514.642	131.06
514.858	113.06
515.074	166.06
515.29	407.06
515.506	1287.06
515.721	477.06
515.937	145.06
516.153	104.06
516.369	80.06
516.585	94.06
516.801	94.06
