Data from Uncirc_1988_H10_HRD10591_00008.txt Node
Date: Wed Jan 03 12:04:06 EST 2024
User: Yrep
Spectrometer: HR+D1059
Trigger mode: 1
Integration Time (sec): 1.000000E-1
Scans to average: 1
Electric dark correction enabled: true
Nonlinearity correction enabled: false
Boxcar width: 0
XAxis mode: Wavelengths
Number of Pixels in Spectrum: 2048
>>>>>Begin Spectral Data<<<<<
223.165	-15.94
223.4	-15.94
223.635	-15.94
223.869	-9.94
224.104	-15.94
224.338	-23.94
224.573	-8.94
224.808	-7.94
225.042	3.06
225.277	-20.94
225.511	-13.94
225.746	-0.94
225.98	0.06
226.215	3.06
226.449	23.06
226.683	26.06
226.918	36.06
227.152	27.06
227.387	32.06
227.621	33.06
227.856	45.06
228.09	42.06
228.324	31.06
228.559	58.06
228.793	47.06
229.027	60.06
229.262	56.06
229.496	76.06
229.73	81.06
229.964	73.06
230.199	81.06
230.433	71.06
230.667	85.06
230.901	81.06
231.136	80.06
231.37	83.06
231.604	80.06
231.838	77.06
232.072	69.06
232.306	88.06
232.541	83.06
232.775	77.06
233.009	94.06
233.243	65.06
233.477	75.06
233.711	78.06
233.945	87.06
234.179	68.06
234.413	89.06
234.647	88.06
234.881	91.06
235.115	70.06
235.349	81.06
235.583	67.06
235.817	80.06
236.051	75.06
236.285	88.06
236.519	73.06
236.753	79.06
236.987	77.06
237.221	91.06
237.455	81.06
237.689	72.06
237.922	73.06
238.156	81.06
238.39	74.06
238.624	68.06
238.858	76.06
239.091	86.06
239.325	79.06
239.559	65.06
239.793	76.06
240.027	77.06
240.26	71.06
240.494	78.06
240.728	84.06
240.961	79.06
241.195	61.06
241.429	75.06
241.662	84.06
241.896	69.06
242.13	85.06
242.363	85.06
242.597	79.06
242.83	70.06
243.064	82.06
243.298	84.06
243.531	76.06
243.765	84.06
243.998	87.06
244.232	96.06
244.465	71.06
244.699	77.06
244.932	87.06
245.166	83.06
245.399	72.06
245.633	58.06
245.866	78.06
246.099	79.06
246.333	75.06
246.566	73.06
246.8	79.06
247.033	83.06
247.266	73.06
247.5	86.06
247.733	67.06
247.966	101.06
248.2	93.06
248.433	65.06
248.666	78.06
248.899	79.06
249.133	79.06
249.366	89.06
249.599	96.06
249.832	83.06
250.066	81.06
250.299	68.06
250.532	79.06
250.765	77.06
250.998	84.06
251.231	75.06
251.465	77.06
251.698	70.06
251.931	74.06
252.164	99.06
252.397	76.06
252.63	75.06
252.863	83.06
253.096	79.06
253.329	83.06
253.562	71.06
253.795	93.06
254.028	56.06
254.261	77.06
254.494	80.06
254.727	90.06
254.96	80.06
255.193	73.06
255.426	71.06
255.659	80.06
255.892	75.06
256.124	65.06
256.357	81.06
256.59	83.06
256.823	81.06
257.056	81.06
257.289	78.06
257.521	91.06
257.754	71.06
257.987	79.06
258.22	83.06
258.452	88.06
258.685	82.06
258.918	67.06
259.151	90.06
259.383	102.06
259.616	83.06
259.849	91.06
260.081	88.06
260.314	80.06
260.547	86.06
260.779	83.06
261.012	82.06
261.244	77.06
261.477	80.06
261.71	96.06
261.942	111.06
262.175	118.06
262.407	79.06
262.64	83.06
262.872	81.06
263.105	76.06
263.337	93.06
263.57	67.06
263.802	72.06
264.035	81.06
264.267	93.06
264.499	81.06
264.732	71.06
264.964	75.06
265.197	87.06
265.429	81.06
265.661	74.06
265.894	79.06
266.126	94.06
266.358	83.06
266.591	87.06
266.823	63.06
267.055	75.06
267.287	87.06
267.52	67.06
267.752	85.06
267.984	88.06
268.216	78.06
268.448	92.06
268.681	72.06
268.913	78.06
269.145	84.06
269.377	87.06
269.609	79.06
269.841	84.06
270.073	100.06
270.306	92.06
270.538	95.06
270.77	88.06
271.002	85.06
271.234	91.06
271.466	96.06
271.698	79.06
271.93	87.06
272.162	96.06
272.394	98.06
272.626	93.06
272.858	89.06
273.09	101.06
273.322	94.06
273.553	77.06
273.785	90.06
274.017	81.06
274.249	74.06
274.481	82.06
274.713	96.06
274.945	87.06
275.176	85.06
275.408	81.06
275.64	94.06
275.872	89.06
276.104	83.06
276.335	84.06
276.567	92.06
276.799	99.06
277.031	103.06
277.262	94.06
277.494	99.06
277.726	99.06
277.957	80.06
278.189	81.06
278.421	69.06
278.652	72.06
278.884	84.06
279.115	85.06
279.347	73.06
279.579	77.06
279.81	90.06
280.042	79.06
280.273	82.06
280.505	87.06
280.736	84.06
280.968	83.06
281.199	90.06
281.431	85.06
281.662	84.06
281.894	98.06
282.125	78.06
282.356	101.06
282.588	123.06
282.819	113.06
283.051	85.06
283.282	79.06
283.513	78.06
283.745	85.06
283.976	76.06
284.207	98.06
284.439	89.06
284.67	85.06
284.901	76.06
285.132	84.06
285.364	86.06
285.595	92.06
285.826	82.06
286.057	89.06
286.288	92.06
286.52	85.06
286.751	93.06
286.982	98.06
287.213	75.06
287.444	86.06
287.675	88.06
287.906	81.06
288.138	87.06
288.369	86.06
288.6	80.06
288.831	82.06
289.062	80.06
289.293	73.06
289.524	101.06
289.755	80.06
289.986	92.06
290.217	87.06
290.448	87.06
290.679	93.06
290.91	79.06
291.141	80.06
291.371	93.06
291.602	82.06
291.833	88.06
292.064	83.06
292.295	92.06
292.526	87.06
292.757	77.06
292.987	91.06
293.218	96.06
293.449	97.06
293.68	91.06
293.91	85.06
294.141	101.06
294.372	89.06
294.603	86.06
294.833	84.06
295.064	70.06
295.295	88.06
295.525	105.06
295.756	108.06
295.987	100.06
296.217	126.06
296.448	112.06
296.679	102.06
296.909	83.06
297.14	84.06
297.37	84.06
297.601	79.06
297.831	99.06
298.062	96.06
298.292	98.06
298.523	91.06
298.753	80.06
298.984	83.06
299.214	75.06
299.445	96.06
299.675	108.06
299.905	80.06
300.136	84.06
300.366	79.06
300.597	87.06
300.827	97.06
301.057	87.06
301.288	83.06
301.518	94.06
301.748	91.06
301.979	87.06
302.209	100.06
302.439	93.06
302.669	86.06
302.9	91.06
303.13	98.06
303.36	93.06
303.59	91.06
303.82	101.06
304.051	88.06
304.281	81.06
304.511	88.06
304.741	83.06
304.971	94.06
305.201	96.06
305.431	90.06
305.661	96.06
305.891	91.06
306.121	110.06
306.352	96.06
306.582	76.06
306.812	99.06
307.042	83.06
307.272	87.06
307.502	86.06
307.731	99.06
307.961	92.06
308.191	92.06
308.421	79.06
308.651	82.06
308.881	92.06
309.111	99.06
309.341	84.06
309.571	96.06
309.8	82.06
310.03	87.06
310.26	82.06
310.49	99.06
310.72	99.06
310.949	94.06
311.179	88.06
311.409	83.06
311.639	81.06
311.868	97.06
312.098	104.06
312.328	93.06
312.557	91.06
312.787	107.06
313.017	88.06
313.246	91.06
313.476	87.06
313.706	91.06
313.935	98.06
314.165	92.06
314.394	79.06
314.624	87.06
314.853	87.06
315.083	93.06
315.312	93.06
315.542	91.06
315.771	102.06
316.001	80.06
316.23	94.06
316.46	81.06
316.689	91.06
316.919	86.06
317.148	84.06
317.377	105.06
317.607	83.06
317.836	92.06
318.065	86.06
318.295	103.06
318.524	89.06
318.753	88.06
318.983	92.06
319.212	93.06
319.441	105.06
319.67	98.06
319.9	89.06
320.129	87.06
320.358	99.06
320.587	108.06
320.816	85.06
321.046	87.06
321.275	89.06
321.504	90.06
321.733	107.06
321.962	105.06
322.191	112.06
322.42	105.06
322.649	98.06
322.878	116.06
323.108	103.06
323.337	112.06
323.566	114.06
323.795	144.06
324.024	199.06
324.253	354.06
324.482	773.06
324.71	1600.06
324.939	2177.06
325.168	783.06
325.397	237.06
325.626	132.06
325.855	126.06
326.084	110.06
326.313	130.06
326.542	131.06
326.77	218.06
326.999	427.06
327.228	934.06
327.457	1671.06
327.686	1331.06
327.914	357.06
328.143	175.06
328.372	138.06
328.6	103.06
328.829	113.06
329.058	117.06
329.287	135.06
329.515	101.06
329.744	85.06
329.972	88.06
330.201	94.06
330.43	89.06
330.658	119.06
330.887	120.06
331.115	105.06
331.344	96.06
331.572	99.06
331.801	84.06
332.03	93.06
332.258	92.06
332.486	94.06
332.715	89.06
332.943	95.06
333.172	96.06
333.4	88.06
333.629	109.06
333.857	105.06
334.085	111.06
334.314	100.06
334.542	107.06
334.771	85.06
334.999	90.06
335.227	97.06
335.455	86.06
335.684	94.06
335.912	92.06
336.14	103.06
336.369	83.06
336.597	93.06
336.825	99.06
337.053	87.06
337.281	98.06
337.51	100.06
337.738	89.06
337.966	100.06
338.194	88.06
338.422	86.06
338.65	92.06
338.878	88.06
339.106	87.06
339.334	91.06
339.562	85.06
339.79	110.06
340.018	95.06
340.246	89.06
340.474	97.06
340.702	104.06
340.93	95.06
341.158	76.06
341.386	87.06
341.614	87.06
341.842	101.06
342.07	99.06
342.298	86.06
342.526	86.06
342.754	86.06
342.981	85.06
343.209	78.06
343.437	102.06
343.665	98.06
343.893	86.06
344.12	102.06
344.348	93.06
344.576	77.06
344.804	100.06
345.031	89.06
345.259	94.06
345.487	91.06
345.714	91.06
345.942	101.06
346.17	100.06
346.397	95.06
346.625	89.06
346.853	98.06
347.08	90.06
347.308	88.06
347.535	92.06
347.763	103.06
347.99	100.06
348.218	96.06
348.445	99.06
348.673	94.06
348.9	100.06
349.128	91.06
349.355	95.06
349.583	95.06
349.81	105.06
350.037	111.06
350.265	103.06
350.492	100.06
350.72	86.06
350.947	96.06
351.174	95.06
351.402	115.06
351.629	103.06
351.856	98.06
352.083	109.06
352.311	106.06
352.538	100.06
352.765	108.06
352.992	116.06
353.22	103.06
353.447	105.06
353.674	105.06
353.901	95.06
354.128	103.06
354.355	97.06
354.583	102.06
354.81	110.06
355.037	109.06
355.264	89.06
355.491	94.06
355.718	90.06
355.945	96.06
356.172	82.06
356.399	109.06
356.626	103.06
356.853	79.06
357.08	68.06
357.307	93.06
357.534	97.06
357.761	93.06
357.988	88.06
358.215	93.06
358.441	101.06
358.668	83.06
358.895	85.06
359.122	101.06
359.349	92.06
359.576	100.06
359.802	84.06
360.029	102.06
360.256	111.06
360.483	95.06
360.709	93.06
360.936	107.06
361.163	97.06
361.39	100.06
361.616	101.06
361.843	91.06
362.07	109.06
362.296	104.06
362.523	95.06
362.749	84.06
362.976	85.06
363.203	93.06
363.429	87.06
363.656	70.06
363.882	87.06
364.109	87.06
364.335	89.06
364.562	81.06
364.788	82.06
365.015	94.06
365.241	106.06
365.468	105.06
365.694	96.06
365.92	83.06
366.147	96.06
366.373	89.06
366.599	97.06
366.826	84.06
367.052	78.06
367.278	80.06
367.505	97.06
367.731	84.06
367.957	104.06
368.184	98.06
368.41	100.06
368.636	109.06
368.862	102.06
369.089	108.06
369.315	104.06
369.541	92.06
369.767	79.06
369.993	89.06
370.219	96.06
370.445	96.06
370.672	78.06
370.898	75.06
371.124	85.06
371.35	88.06
371.576	96.06
371.802	90.06
372.028	103.06
372.254	87.06
372.48	99.06
372.706	85.06
372.932	76.06
373.158	83.06
373.384	83.06
373.61	93.06
373.835	76.06
374.061	95.06
374.287	95.06
374.513	101.06
374.739	75.06
374.965	96.06
375.191	93.06
375.416	93.06
375.642	82.06
375.868	88.06
376.094	96.06
376.319	100.06
376.545	92.06
376.771	88.06
376.997	101.06
377.222	83.06
377.448	91.06
377.674	93.06
377.899	85.06
378.125	81.06
378.35	102.06
378.576	88.06
378.802	96.06
379.027	80.06
379.253	102.06
379.478	93.06
379.704	103.06
379.929	91.06
380.155	92.06
380.38	77.06
380.606	103.06
380.831	84.06
381.057	84.06
381.282	104.06
381.507	97.06
381.733	89.06
381.958	95.06
382.184	99.06
382.409	86.06
382.634	101.06
382.86	107.06
383.085	111.06
383.31	102.06
383.535	111.06
383.761	115.06
383.986	92.06
384.211	111.06
384.436	81.06
384.662	98.06
384.887	97.06
385.112	96.06
385.337	89.06
385.562	113.06
385.787	96.06
386.013	106.06
386.238	103.06
386.463	122.06
386.688	102.06
386.913	100.06
387.138	95.06
387.363	97.06
387.588	109.06
387.813	96.06
388.038	104.06
388.263	106.06
388.488	113.06
388.713	91.06
388.938	86.06
389.163	88.06
389.387	95.06
389.612	81.06
389.837	102.06
390.062	89.06
390.287	83.06
390.512	95.06
390.736	77.06
390.961	77.06
391.186	101.06
391.411	105.06
391.636	88.06
391.86	96.06
392.085	87.06
392.31	80.06
392.534	103.06
392.759	84.06
392.984	96.06
393.208	97.06
393.433	99.06
393.658	111.06
393.882	95.06
394.107	96.06
394.331	102.06
394.556	91.06
394.78	75.06
395.005	79.06
395.229	89.06
395.454	99.06
395.678	83.06
395.903	85.06
396.127	84.06
396.352	95.06
396.576	99.06
396.801	92.06
397.025	93.06
397.249	87.06
397.474	91.06
397.698	91.06
397.922	87.06
398.147	89.06
398.371	84.06
398.595	87.06
398.82	89.06
399.044	91.06
399.268	82.06
399.492	87.06
399.717	92.06
399.941	88.06
400.165	93.06
400.389	97.06
400.613	87.06
400.837	85.06
401.062	109.06
401.286	95.06
401.51	84.06
401.734	91.06
401.958	96.06
402.182	108.06
402.406	132.06
402.63	102.06
402.854	79.06
403.078	81.06
403.302	83.06
403.526	79.06
403.75	95.06
403.974	81.06
404.198	90.06
404.422	94.06
404.645	85.06
404.869	84.06
405.093	91.06
405.317	92.06
405.541	98.06
405.765	110.06
405.988	94.06
406.212	150.06
406.436	181.06
406.66	127.06
406.883	88.06
407.107	85.06
407.331	92.06
407.555	107.06
407.778	105.06
408.002	87.06
408.226	90.06
408.449	91.06
408.673	89.06
408.896	94.06
409.12	92.06
409.344	97.06
409.567	89.06
409.791	82.06
410.014	87.06
410.238	96.06
410.461	103.06
410.685	106.06
410.908	103.06
411.132	114.06
411.355	91.06
411.578	94.06
411.802	97.06
412.025	88.06
412.249	86.06
412.472	91.06
412.695	93.06
412.919	82.06
413.142	85.06
413.365	95.06
413.589	89.06
413.812	96.06
414.035	85.06
414.258	87.06
414.482	87.06
414.705	86.06
414.928	76.06
415.151	94.06
415.374	92.06
415.597	96.06
415.821	87.06
416.044	70.06
416.267	74.06
416.49	86.06
416.713	89.06
416.936	88.06
417.159	91.06
417.382	103.06
417.605	98.06
417.828	91.06
418.051	90.06
418.274	88.06
418.497	93.06
418.72	81.06
418.943	94.06
419.166	98.06
419.389	96.06
419.611	97.06
419.834	93.06
420.057	82.06
420.28	81.06
420.503	86.06
420.726	64.06
420.948	87.06
421.171	88.06
421.394	104.06
421.617	102.06
421.839	82.06
422.062	97.06
422.285	105.06
422.507	94.06
422.73	105.06
422.953	99.06
423.175	80.06
423.398	91.06
423.621	97.06
423.843	91.06
424.066	97.06
424.288	65.06
424.511	88.06
424.733	103.06
424.956	116.06
425.178	99.06
425.401	117.06
425.623	93.06
425.846	87.06
426.068	89.06
426.291	87.06
426.513	86.06
426.735	97.06
426.958	111.06
427.18	104.06
427.402	136.06
427.625	155.06
427.847	102.06
428.069	103.06
428.292	87.06
428.514	95.06
428.736	88.06
428.958	87.06
429.181	91.06
429.403	103.06
429.625	99.06
429.847	86.06
430.069	90.06
430.292	91.06
430.514	96.06
430.736	86.06
430.958	87.06
431.18	79.06
431.402	92.06
431.624	94.06
431.846	79.06
432.068	88.06
432.29	83.06
432.512	82.06
432.734	88.06
432.956	89.06
433.178	97.06
433.4	103.06
433.622	78.06
433.844	96.06
434.066	88.06
434.287	112.06
434.509	87.06
434.731	98.06
434.953	95.06
435.175	91.06
435.397	87.06
435.618	92.06
435.84	102.06
436.062	105.06
436.284	120.06
436.505	95.06
436.727	110.06
436.949	99.06
437.17	93.06
437.392	99.06
437.614	87.06
437.835	94.06
438.057	102.06
438.278	116.06
438.5	104.06
438.721	118.06
438.943	113.06
439.165	91.06
439.386	79.06
439.608	99.06
439.829	102.06
440.05	116.06
440.272	148.06
440.493	107.06
440.715	75.06
440.936	97.06
441.158	92.06
441.379	90.06
441.6	82.06
441.822	72.06
442.043	104.06
442.264	121.06
442.486	110.06
442.707	102.06
442.928	101.06
443.149	111.06
443.371	120.06
443.592	103.06
443.813	117.06
444.034	100.06
444.255	91.06
444.476	85.06
444.698	71.06
444.919	85.06
445.14	142.06
445.361	127.06
445.582	107.06
445.803	136.06
446.024	139.06
446.245	137.06
446.466	118.06
446.687	92.06
446.908	89.06
447.129	78.06
447.35	75.06
447.571	79.06
447.792	91.06
448.013	79.06
448.234	84.06
448.455	101.06
448.675	106.06
448.896	108.06
449.117	104.06
449.338	104.06
449.559	124.06
449.779	153.06
450	92.06
450.221	87.06
450.442	103.06
450.662	96.06
450.883	113.06
451.104	105.06
451.324	85.06
451.545	96.06
451.766	86.06
451.986	94.06
452.207	87.06
452.428	93.06
452.648	96.06
452.869	105.06
453.089	104.06
453.31	100.06
453.53	80.06
453.751	93.06
453.971	99.06
454.192	107.06
454.412	102.06
454.633	83.06
454.853	85.06
455.073	83.06
455.294	94.06
455.514	101.06
455.734	79.06
455.955	85.06
456.175	85.06
456.395	93.06
456.616	85.06
456.836	81.06
457.056	84.06
457.276	75.06
457.497	96.06
457.717	85.06
457.937	80.06
458.157	81.06
458.377	95.06
458.598	102.06
458.818	130.06
459.038	141.06
459.258	124.06
459.478	96.06
459.698	79.06
459.918	86.06
460.138	97.06
460.358	85.06
460.578	83.06
460.798	82.06
461.018	87.06
461.238	76.06
461.458	84.06
461.678	80.06
461.898	93.06
462.118	85.06
462.338	83.06
462.558	86.06
462.777	91.06
462.997	95.06
463.217	83.06
463.437	76.06
463.657	86.06
463.876	96.06
464.096	85.06
464.316	89.06
464.536	76.06
464.755	98.06
464.975	94.06
465.195	126.06
465.414	121.06
465.634	88.06
465.854	88.06
466.073	82.06
466.293	89.06
466.512	94.06
466.732	75.06
466.951	75.06
467.171	70.06
467.391	100.06
467.61	107.06
467.829	87.06
468.049	92.06
468.268	100.06
468.488	86.06
468.707	77.06
468.927	85.06
469.146	75.06
469.365	97.06
469.585	93.06
469.804	81.06
470.023	85.06
470.243	94.06
470.462	92.06
470.681	105.06
470.901	93.06
471.12	95.06
471.339	87.06
471.558	86.06
471.777	80.06
471.997	100.06
472.216	80.06
472.435	115.06
472.654	86.06
472.873	83.06
473.092	88.06
473.311	94.06
473.53	91.06
473.749	99.06
473.968	96.06
474.187	98.06
474.406	96.06
474.625	93.06
474.844	95.06
475.063	86.06
475.282	86.06
475.501	87.06
475.72	84.06
475.939	83.06
476.158	87.06
476.377	96.06
476.596	100.06
476.814	86.06
477.033	87.06
477.252	83.06
477.471	94.06
477.69	96.06
477.908	85.06
478.127	103.06
478.346	96.06
478.564	93.06
478.783	88.06
479.002	92.06
479.22	77.06
479.439	94.06
479.658	97.06
479.876	98.06
480.095	106.06
480.313	103.06
480.532	96.06
480.751	100.06
480.969	85.06
481.188	104.06
481.406	87.06
481.624	85.06
481.843	81.06
482.061	96.06
482.28	90.06
482.498	82.06
482.717	88.06
482.935	83.06
483.153	86.06
483.372	98.06
483.59	105.06
483.808	88.06
484.027	79.06
484.245	87.06
484.463	100.06
484.681	82.06
484.9	98.06
485.118	104.06
485.336	94.06
485.554	101.06
485.772	95.06
485.99	107.06
486.209	114.06
486.427	121.06
486.645	116.06
486.863	103.06
487.081	104.06
487.299	87.06
487.517	97.06
487.735	107.06
487.953	101.06
488.171	95.06
488.389	102.06
488.607	103.06
488.825	89.06
489.043	93.06
489.261	86.06
489.479	93.06
489.696	86.06
489.914	86.06
490.132	85.06
490.35	87.06
490.568	96.06
490.786	75.06
491.003	91.06
491.221	86.06
491.439	83.06
491.657	91.06
491.874	92.06
492.092	87.06
492.31	98.06
492.527	96.06
492.745	99.06
492.963	80.06
493.18	95.06
493.398	88.06
493.615	93.06
493.833	95.06
494.05	97.06
494.268	103.06
494.485	89.06
494.703	96.06
494.92	81.06
495.138	89.06
495.355	99.06
495.573	89.06
495.79	87.06
496.008	103.06
496.225	108.06
496.442	92.06
496.66	83.06
496.877	93.06
497.094	96.06
497.312	85.06
497.529	91.06
497.746	93.06
497.963	86.06
498.181	86.06
498.398	85.06
498.615	122.06
498.832	107.06
499.049	83.06
499.267	92.06
499.484	91.06
499.701	103.06
499.918	93.06
500.135	90.06
500.352	87.06
500.569	88.06
500.786	82.06
501.003	99.06
501.22	85.06
501.437	89.06
501.654	95.06
501.871	98.06
502.088	87.06
502.305	92.06
502.522	83.06
502.739	97.06
502.956	84.06
503.172	85.06
503.389	94.06
503.606	88.06
503.823	99.06
504.04	100.06
504.256	78.06
504.473	89.06
504.69	95.06
504.907	109.06
505.123	91.06
505.34	99.06
505.557	89.06
505.773	88.06
505.99	92.06
506.207	98.06
506.423	97.06
506.64	84.06
506.856	81.06
507.073	92.06
507.289	89.06
507.506	91.06
507.722	111.06
507.939	98.06
508.155	83.06
508.372	98.06
508.588	86.06
508.805	94.06
509.021	102.06
509.238	92.06
509.454	110.06
509.67	99.06
509.887	107.06
510.103	134.06
510.319	187.06
510.536	607.06
510.752	1765.06
510.968	508.06
511.184	145.06
511.401	115.06
511.617	91.06
511.833	92.06
512.049	106.06
512.265	86.06
512.481	95.06
512.698	91.06
512.914	96.06
513.13	99.06
513.346	89.06
513.562	87.06
513.778	84.06
513.994	79.06
514.21	98.06
514.426	112.06
514.642	117.06
514.858	128.06
515.074	148.06
515.29	366.06
515.506	1153.06
515.721	437.06
515.937	142.06
