Data from Uncirc_1988_H10_HRD10591_00004.txt Node
Date: Wed Jan 03 12:04:05 EST 2024
User: Yrep
Spectrometer: HR+D1059
Trigger mode: 1
Integration Time (sec): 1.000000E-1
Scans to average: 1
Electric dark correction enabled: true
Nonlinearity correction enabled: false
Boxcar width: 0
XAxis mode: Wavelengths
Number of Pixels in Spectrum: 2048
>>>>>Begin Spectral Data<<<<<
223.165	-27.25
223.4	-27.25
223.635	-27.25
223.869	-10.25
224.104	-26.25
224.338	-22.25
224.573	-14.25
224.808	-22.25
225.042	-15.25
225.277	3.75
225.511	-0.25
225.746	11.75
225.98	9.75
226.215	8.75
226.449	22.75
226.683	29.75
226.918	16.75
227.152	34.75
227.387	42.75
227.621	33.75
227.856	51.75
228.09	42.75
228.324	45.75
228.559	43.75
228.793	73.75
229.027	71.75
229.262	64.75
229.496	61.75
229.73	82.75
229.964	66.75
230.199	77.75
230.433	93.75
230.667	82.75
230.901	83.75
231.136	70.75
231.37	74.75
231.604	66.75
231.838	70.75
232.072	80.75
232.306	83.75
232.541	68.75
232.775	85.75
233.009	77.75
233.243	76.75
233.477	70.75
233.711	71.75
233.945	77.75
234.179	71.75
234.413	77.75
234.647	75.75
234.881	81.75
235.115	81.75
235.349	78.75
235.583	72.75
235.817	85.75
236.051	78.75
236.285	74.75
236.519	69.75
236.753	77.75
236.987	78.75
237.221	64.75
237.455	82.75
237.689	64.75
237.922	64.75
238.156	66.75
238.39	74.75
238.624	69.75
238.858	82.75
239.091	74.75
239.325	75.75
239.559	83.75
239.793	81.75
240.027	79.75
240.26	72.75
240.494	89.75
240.728	75.75
240.961	63.75
241.195	81.75
241.429	78.75
241.662	79.75
241.896	65.75
242.13	78.75
242.363	83.75
242.597	86.75
242.83	74.75
243.064	70.75
243.298	80.75
243.531	65.75
243.765	74.75
243.998	58.75
244.232	76.75
244.465	63.75
244.699	78.75
244.932	70.75
245.166	86.75
245.399	79.75
245.633	84.75
245.866	82.75
246.099	67.75
246.333	81.75
246.566	81.75
246.8	63.75
247.033	69.75
247.266	71.75
247.5	94.75
247.733	70.75
247.966	71.75
248.2	82.75
248.433	73.75
248.666	78.75
248.899	79.75
249.133	89.75
249.366	89.75
249.599	94.75
249.832	77.75
250.066	83.75
250.299	60.75
250.532	61.75
250.765	65.75
250.998	82.75
251.231	78.75
251.465	75.75
251.698	92.75
251.931	69.75
252.164	69.75
252.397	84.75
252.63	75.75
252.863	79.75
253.096	77.75
253.329	80.75
253.562	83.75
253.795	94.75
254.028	79.75
254.261	75.75
254.494	85.75
254.727	77.75
254.96	62.75
255.193	78.75
255.426	81.75
255.659	71.75
255.892	79.75
256.124	76.75
256.357	87.75
256.59	60.75
256.823	90.75
257.056	74.75
257.289	82.75
257.521	81.75
257.754	68.75
257.987	75.75
258.22	80.75
258.452	82.75
258.685	84.75
258.918	69.75
259.151	74.75
259.383	69.75
259.616	78.75
259.849	81.75
260.081	74.75
260.314	77.75
260.547	71.75
260.779	88.75
261.012	84.75
261.244	82.75
261.477	85.75
261.71	82.75
261.942	102.75
262.175	93.75
262.407	87.75
262.64	70.75
262.872	66.75
263.105	81.75
263.337	82.75
263.57	82.75
263.802	74.75
264.035	77.75
264.267	97.75
264.499	77.75
264.732	90.75
264.964	90.75
265.197	81.75
265.429	97.75
265.661	100.75
265.894	90.75
266.126	77.75
266.358	70.75
266.591	89.75
266.823	72.75
267.055	95.75
267.287	91.75
267.52	86.75
267.752	89.75
267.984	82.75
268.216	89.75
268.448	86.75
268.681	95.75
268.913	85.75
269.145	93.75
269.377	77.75
269.609	85.75
269.841	78.75
270.073	91.75
270.306	73.75
270.538	70.75
270.77	82.75
271.002	86.75
271.234	82.75
271.466	88.75
271.698	81.75
271.93	92.75
272.162	88.75
272.394	91.75
272.626	79.75
272.858	78.75
273.09	80.75
273.322	85.75
273.553	85.75
273.785	81.75
274.017	76.75
274.249	70.75
274.481	73.75
274.713	70.75
274.945	82.75
275.176	74.75
275.408	98.75
275.64	76.75
275.872	87.75
276.104	81.75
276.335	94.75
276.567	83.75
276.799	101.75
277.031	87.75
277.262	81.75
277.494	83.75
277.726	83.75
277.957	78.75
278.189	90.75
278.421	89.75
278.652	78.75
278.884	86.75
279.115	78.75
279.347	80.75
279.579	77.75
279.81	89.75
280.042	95.75
280.273	81.75
280.505	101.75
280.736	87.75
280.968	80.75
281.199	97.75
281.431	105.75
281.662	83.75
281.894	82.75
282.125	83.75
282.356	100.75
282.588	116.75
282.819	95.75
283.051	93.75
283.282	82.75
283.513	83.75
283.745	81.75
283.976	82.75
284.207	69.75
284.439	73.75
284.67	84.75
284.901	96.75
285.132	78.75
285.364	83.75
285.595	73.75
285.826	69.75
286.057	95.75
286.288	85.75
286.52	90.75
286.751	83.75
286.982	77.75
287.213	79.75
287.444	87.75
287.675	84.75
287.906	68.75
288.138	81.75
288.369	89.75
288.6	82.75
288.831	89.75
289.062	73.75
289.293	82.75
289.524	83.75
289.755	82.75
289.986	90.75
290.217	90.75
290.448	92.75
290.679	83.75
290.91	93.75
291.141	85.75
291.371	72.75
291.602	91.75
291.833	94.75
292.064	88.75
292.295	77.75
292.526	83.75
292.757	83.75
292.987	83.75
293.218	86.75
293.449	81.75
293.68	94.75
293.91	91.75
294.141	94.75
294.372	86.75
294.603	81.75
294.833	92.75
295.064	79.75
295.295	99.75
295.525	81.75
295.756	90.75
295.987	93.75
296.217	117.75
296.448	102.75
296.679	95.75
296.909	91.75
297.14	92.75
297.37	86.75
297.601	91.75
297.831	88.75
298.062	85.75
298.292	98.75
298.523	91.75
298.753	92.75
298.984	89.75
299.214	85.75
299.445	82.75
299.675	85.75
299.905	94.75
300.136	79.75
300.366	92.75
300.597	79.75
300.827	108.75
301.057	89.75
301.288	104.75
301.518	96.75
301.748	75.75
301.979	86.75
302.209	82.75
302.439	83.75
302.669	84.75
302.9	81.75
303.13	89.75
303.36	92.75
303.59	104.75
303.82	109.75
304.051	104.75
304.281	83.75
304.511	77.75
304.741	98.75
304.971	93.75
305.201	83.75
305.431	97.75
305.661	93.75
305.891	92.75
306.121	91.75
306.352	99.75
306.582	107.75
306.812	83.75
307.042	99.75
307.272	99.75
307.502	88.75
307.731	102.75
307.961	82.75
308.191	82.75
308.421	91.75
308.651	86.75
308.881	88.75
309.111	84.75
309.341	89.75
309.571	86.75
309.8	95.75
310.03	84.75
310.26	91.75
310.49	99.75
310.72	83.75
310.949	86.75
311.179	88.75
311.409	98.75
311.639	98.75
311.868	87.75
312.098	81.75
312.328	95.75
312.557	103.75
312.787	97.75
313.017	96.75
313.246	94.75
313.476	86.75
313.706	70.75
313.935	82.75
314.165	89.75
314.394	88.75
314.624	76.75
314.853	93.75
315.083	88.75
315.312	87.75
315.542	94.75
315.771	82.75
316.001	94.75
316.23	78.75
316.46	91.75
316.689	94.75
316.919	92.75
317.148	105.75
317.377	76.75
317.607	90.75
317.836	97.75
318.065	89.75
318.295	93.75
318.524	94.75
318.753	93.75
318.983	88.75
319.212	108.75
319.441	86.75
319.67	87.75
319.9	79.75
320.129	93.75
320.358	86.75
320.587	99.75
320.816	91.75
321.046	100.75
321.275	99.75
321.504	85.75
321.733	100.75
321.962	102.75
322.191	80.75
322.42	89.75
322.649	94.75
322.878	104.75
323.108	114.75
323.337	111.75
323.566	136.75
323.795	141.75
324.024	195.75
324.253	338.75
324.482	742.75
324.71	1462.75
324.939	1965.75
325.168	722.75
325.397	225.75
325.626	134.75
325.855	131.75
326.084	102.75
326.313	131.75
326.542	155.75
326.77	226.75
326.999	422.75
327.228	871.75
327.457	1551.75
327.686	1241.75
327.914	329.75
328.143	151.75
328.372	147.75
328.6	118.75
328.829	105.75
329.058	112.75
329.287	105.75
329.515	110.75
329.744	110.75
329.972	101.75
330.201	102.75
330.43	106.75
330.658	116.75
330.887	126.75
331.115	107.75
331.344	103.75
331.572	103.75
331.801	73.75
332.03	95.75
332.258	101.75
332.486	91.75
332.715	103.75
332.943	88.75
333.172	82.75
333.4	96.75
333.629	95.75
333.857	98.75
334.085	100.75
334.314	98.75
334.542	102.75
334.771	99.75
334.999	106.75
335.227	93.75
335.455	81.75
335.684	98.75
335.912	90.75
336.14	83.75
336.369	89.75
336.597	94.75
336.825	98.75
337.053	90.75
337.281	95.75
337.51	96.75
337.738	78.75
337.966	83.75
338.194	96.75
338.422	94.75
338.65	105.75
338.878	84.75
339.106	96.75
339.334	95.75
339.562	79.75
339.79	95.75
340.018	94.75
340.246	89.75
340.474	88.75
340.702	101.75
340.93	82.75
341.158	98.75
341.386	82.75
341.614	79.75
341.842	93.75
342.07	91.75
342.298	97.75
342.526	87.75
342.754	84.75
342.981	76.75
343.209	90.75
343.437	85.75
343.665	74.75
343.893	95.75
344.12	87.75
344.348	86.75
344.576	92.75
344.804	101.75
345.031	101.75
345.259	108.75
345.487	92.75
345.714	78.75
345.942	93.75
346.17	98.75
346.397	100.75
346.625	100.75
346.853	85.75
347.08	78.75
347.308	99.75
347.535	94.75
347.763	97.75
347.99	94.75
348.218	85.75
348.445	96.75
348.673	102.75
348.9	94.75
349.128	107.75
349.355	82.75
349.583	79.75
349.81	67.75
350.037	89.75
350.265	104.75
350.492	95.75
350.72	98.75
350.947	99.75
351.174	101.75
351.402	111.75
351.629	97.75
351.856	95.75
352.083	88.75
352.311	106.75
352.538	107.75
352.765	105.75
352.992	101.75
353.22	116.75
353.447	109.75
353.674	100.75
353.901	96.75
354.128	97.75
354.355	93.75
354.583	103.75
354.81	108.75
355.037	104.75
355.264	97.75
355.491	114.75
355.718	85.75
355.945	81.75
356.172	106.75
356.399	104.75
356.626	89.75
356.853	84.75
357.08	89.75
357.307	78.75
357.534	94.75
357.761	108.75
357.988	103.75
358.215	98.75
358.441	93.75
358.668	99.75
358.895	108.75
359.122	106.75
359.349	82.75
359.576	83.75
359.802	96.75
360.029	107.75
360.256	98.75
360.483	101.75
360.709	97.75
360.936	84.75
361.163	95.75
361.39	86.75
361.616	88.75
361.843	82.75
362.07	87.75
362.296	80.75
362.523	94.75
362.749	81.75
362.976	81.75
363.203	89.75
363.429	99.75
363.656	91.75
363.882	89.75
364.109	92.75
364.335	94.75
364.562	84.75
364.788	92.75
365.015	93.75
365.241	102.75
365.468	95.75
365.694	81.75
365.92	87.75
366.147	83.75
366.373	87.75
366.599	80.75
366.826	90.75
367.052	98.75
367.278	85.75
367.505	81.75
367.731	80.75
367.957	91.75
368.184	86.75
368.41	91.75
368.636	107.75
368.862	115.75
369.089	95.75
369.315	85.75
369.541	86.75
369.767	96.75
369.993	87.75
370.219	85.75
370.445	92.75
370.672	94.75
370.898	78.75
371.124	89.75
371.35	87.75
371.576	84.75
371.802	74.75
372.028	77.75
372.254	94.75
372.48	87.75
372.706	95.75
372.932	90.75
373.158	72.75
373.384	87.75
373.61	98.75
373.835	85.75
374.061	94.75
374.287	93.75
374.513	90.75
374.739	101.75
374.965	96.75
375.191	78.75
375.416	80.75
375.642	87.75
375.868	86.75
376.094	96.75
376.319	83.75
376.545	94.75
376.771	90.75
376.997	77.75
377.222	83.75
377.448	90.75
377.674	79.75
377.899	79.75
378.125	89.75
378.35	93.75
378.576	84.75
378.802	95.75
379.027	95.75
379.253	82.75
379.478	96.75
379.704	96.75
379.929	84.75
380.155	85.75
380.38	87.75
380.606	85.75
380.831	93.75
381.057	99.75
381.282	96.75
381.507	88.75
381.733	94.75
381.958	86.75
382.184	87.75
382.409	91.75
382.634	97.75
382.86	88.75
383.085	109.75
383.31	108.75
383.535	109.75
383.761	87.75
383.986	91.75
384.211	92.75
384.436	97.75
384.662	93.75
384.887	99.75
385.112	109.75
385.337	113.75
385.562	85.75
385.787	89.75
386.013	95.75
386.238	128.75
386.463	107.75
386.688	117.75
386.913	94.75
387.138	105.75
387.363	105.75
387.588	95.75
387.813	94.75
388.038	118.75
388.263	119.75
388.488	99.75
388.713	104.75
388.938	91.75
389.163	86.75
389.387	93.75
389.612	82.75
389.837	86.75
390.062	98.75
390.287	88.75
390.512	78.75
390.736	94.75
390.961	87.75
391.186	93.75
391.411	97.75
391.636	86.75
391.86	86.75
392.085	82.75
392.31	95.75
392.534	82.75
392.759	97.75
392.984	84.75
393.208	92.75
393.433	104.75
393.658	95.75
393.882	100.75
394.107	87.75
394.331	90.75
394.556	81.75
394.78	83.75
395.005	80.75
395.229	76.75
395.454	92.75
395.678	90.75
395.903	95.75
396.127	88.75
396.352	93.75
396.576	74.75
396.801	89.75
397.025	98.75
397.249	79.75
397.474	89.75
397.698	89.75
397.922	93.75
398.147	85.75
398.371	85.75
398.595	83.75
398.82	94.75
399.044	98.75
399.268	77.75
399.492	83.75
399.717	85.75
399.941	96.75
400.165	92.75
400.389	86.75
400.613	91.75
400.837	64.75
401.062	87.75
401.286	92.75
401.51	89.75
401.734	100.75
401.958	95.75
402.182	107.75
402.406	132.75
402.63	109.75
402.854	86.75
403.078	93.75
403.302	92.75
403.526	74.75
403.75	93.75
403.974	83.75
404.198	81.75
404.422	92.75
404.645	85.75
404.869	81.75
405.093	88.75
405.317	94.75
405.541	86.75
405.765	95.75
405.988	105.75
406.212	145.75
406.436	193.75
406.66	147.75
406.883	105.75
407.107	97.75
407.331	94.75
407.555	90.75
407.778	89.75
408.002	95.75
408.226	83.75
408.449	81.75
408.673	73.75
408.896	87.75
409.12	85.75
409.344	82.75
409.567	87.75
409.791	76.75
410.014	97.75
410.238	82.75
410.461	89.75
410.685	91.75
410.908	93.75
411.132	81.75
411.355	93.75
411.578	76.75
411.802	88.75
412.025	81.75
412.249	83.75
412.472	91.75
412.695	69.75
412.919	73.75
413.142	78.75
413.365	97.75
413.589	85.75
413.812	80.75
414.035	106.75
414.258	93.75
414.482	82.75
414.705	71.75
414.928	82.75
415.151	109.75
415.374	83.75
415.597	81.75
415.821	89.75
416.044	93.75
416.267	86.75
416.49	82.75
416.713	95.75
416.936	92.75
417.159	86.75
417.382	79.75
417.605	105.75
417.828	91.75
418.051	95.75
418.274	92.75
418.497	88.75
418.72	101.75
418.943	92.75
419.166	73.75
419.389	76.75
419.611	86.75
419.834	73.75
420.057	77.75
420.28	81.75
420.503	95.75
420.726	84.75
420.948	78.75
421.171	100.75
421.394	90.75
421.617	97.75
421.839	96.75
422.062	79.75
422.285	95.75
422.507	103.75
422.73	101.75
422.953	89.75
423.175	84.75
423.398	91.75
423.621	91.75
423.843	94.75
424.066	77.75
424.288	88.75
424.511	97.75
424.733	92.75
424.956	99.75
425.178	91.75
425.401	92.75
425.623	89.75
425.846	98.75
426.068	89.75
426.291	91.75
426.513	84.75
426.735	85.75
426.958	87.75
427.18	108.75
427.402	128.75
427.625	151.75
427.847	121.75
428.069	103.75
428.292	87.75
428.514	89.75
428.736	65.75
428.958	81.75
429.181	70.75
429.403	73.75
429.625	77.75
429.847	96.75
430.069	96.75
430.292	85.75
430.514	98.75
430.736	84.75
430.958	77.75
431.18	86.75
431.402	79.75
431.624	80.75
431.846	78.75
432.068	87.75
432.29	90.75
432.512	73.75
432.734	70.75
432.956	93.75
433.178	88.75
433.4	101.75
433.622	88.75
433.844	84.75
434.066	96.75
434.287	83.75
434.509	75.75
434.731	91.75
434.953	89.75
435.175	86.75
435.397	87.75
435.618	89.75
435.84	93.75
436.062	104.75
436.284	111.75
436.505	97.75
436.727	98.75
436.949	83.75
437.17	82.75
437.392	103.75
437.614	86.75
437.835	94.75
438.057	107.75
438.278	113.75
438.5	97.75
438.721	110.75
438.943	94.75
439.165	85.75
439.386	92.75
439.608	82.75
439.829	89.75
440.05	114.75
440.272	140.75
440.493	88.75
440.715	79.75
440.936	93.75
441.158	78.75
441.379	85.75
441.6	92.75
441.822	88.75
442.043	87.75
442.264	102.75
442.486	82.75
442.707	93.75
442.928	103.75
443.149	125.75
443.371	114.75
443.592	105.75
443.813	117.75
444.034	95.75
444.255	87.75
444.476	88.75
444.698	99.75
444.919	69.75
445.14	130.75
445.361	124.75
445.582	101.75
445.803	124.75
446.024	124.75
446.245	118.75
446.466	97.75
446.687	86.75
446.908	87.75
447.129	94.75
447.35	82.75
447.571	86.75
447.792	94.75
448.013	91.75
448.234	104.75
448.455	83.75
448.675	123.75
448.896	111.75
449.117	100.75
449.338	97.75
449.559	126.75
449.779	130.75
450	108.75
450.221	93.75
450.442	84.75
450.662	85.75
450.883	98.75
451.104	101.75
451.324	95.75
451.545	76.75
451.766	81.75
451.986	69.75
452.207	88.75
452.428	91.75
452.648	89.75
452.869	82.75
453.089	92.75
453.31	114.75
453.53	109.75
453.751	111.75
453.971	98.75
454.192	92.75
454.412	83.75
454.633	76.75
454.853	85.75
455.073	82.75
455.294	89.75
455.514	96.75
455.734	81.75
455.955	75.75
456.175	83.75
456.395	73.75
456.616	79.75
456.836	85.75
457.056	67.75
457.276	75.75
457.497	72.75
457.717	69.75
457.937	66.75
458.157	89.75
458.377	98.75
458.598	112.75
458.818	141.75
459.038	140.75
459.258	115.75
459.478	70.75
459.698	86.75
459.918	89.75
460.138	89.75
460.358	79.75
460.578	88.75
460.798	82.75
461.018	98.75
461.238	94.75
461.458	79.75
461.678	84.75
461.898	85.75
462.118	93.75
462.338	81.75
462.558	81.75
462.777	87.75
462.997	82.75
463.217	76.75
463.437	87.75
463.657	81.75
463.876	87.75
464.096	86.75
464.316	86.75
464.536	79.75
464.755	107.75
464.975	86.75
465.195	153.75
465.414	124.75
465.634	82.75
465.854	83.75
466.073	82.75
466.293	81.75
466.512	91.75
466.732	80.75
466.951	79.75
467.171	88.75
467.391	86.75
467.61	97.75
467.829	86.75
468.049	82.75
468.268	74.75
468.488	78.75
468.707	84.75
468.927	83.75
469.146	74.75
469.365	77.75
469.585	85.75
469.804	88.75
470.023	90.75
470.243	82.75
470.462	92.75
470.681	97.75
470.901	73.75
471.12	86.75
471.339	77.75
471.558	94.75
471.777	107.75
471.997	80.75
472.216	93.75
472.435	108.75
472.654	79.75
472.873	99.75
473.092	79.75
473.311	83.75
473.53	88.75
473.749	71.75
473.968	85.75
474.187	97.75
474.406	86.75
474.625	87.75
474.844	97.75
475.063	87.75
475.282	87.75
475.501	97.75
475.72	86.75
475.939	80.75
476.158	76.75
476.377	92.75
476.596	89.75
476.814	89.75
477.033	90.75
477.252	86.75
477.471	79.75
477.69	83.75
477.908	84.75
478.127	78.75
478.346	83.75
478.564	70.75
478.783	97.75
479.002	85.75
479.22	96.75
479.439	103.75
479.658	107.75
479.876	91.75
480.095	78.75
480.313	90.75
480.532	81.75
480.751	80.75
480.969	86.75
481.188	91.75
481.406	84.75
481.624	79.75
481.843	67.75
482.061	89.75
482.28	81.75
482.498	82.75
482.717	86.75
482.935	93.75
483.153	77.75
483.372	82.75
483.59	104.75
483.808	85.75
484.027	65.75
484.245	92.75
484.463	82.75
484.681	91.75
484.9	102.75
485.118	92.75
485.336	86.75
485.554	69.75
485.772	101.75
485.99	112.75
486.209	104.75
486.427	85.75
486.645	100.75
486.863	102.75
487.081	86.75
487.299	103.75
487.517	95.75
487.735	85.75
487.953	86.75
488.171	101.75
488.389	87.75
488.607	90.75
488.825	92.75
489.043	73.75
489.261	81.75
489.479	100.75
489.696	84.75
489.914	74.75
490.132	79.75
490.35	91.75
490.568	74.75
490.786	69.75
491.003	86.75
491.221	78.75
491.439	87.75
491.657	103.75
491.874	102.75
492.092	95.75
492.31	86.75
492.527	80.75
492.745	93.75
492.963	100.75
493.18	97.75
493.398	99.75
493.615	100.75
493.833	80.75
494.05	89.75
494.268	98.75
494.485	71.75
494.703	94.75
494.92	85.75
495.138	73.75
495.355	89.75
495.573	84.75
495.79	78.75
496.008	86.75
496.225	84.75
496.442	88.75
496.66	85.75
496.877	92.75
497.094	99.75
497.312	88.75
497.529	86.75
497.746	85.75
497.963	96.75
498.181	74.75
498.398	79.75
498.615	94.75
498.832	80.75
499.049	81.75
499.267	97.75
499.484	87.75
499.701	91.75
499.918	73.75
500.135	87.75
500.352	100.75
500.569	91.75
500.786	100.75
501.003	69.75
501.22	91.75
501.437	106.75
501.654	103.75
501.871	106.75
502.088	97.75
502.305	93.75
502.522	91.75
502.739	89.75
502.956	85.75
503.172	86.75
503.389	103.75
503.606	108.75
503.823	94.75
504.04	81.75
504.256	91.75
504.473	84.75
504.69	90.75
504.907	109.75
505.123	87.75
505.34	89.75
505.557	98.75
505.773	95.75
505.99	85.75
506.207	104.75
506.423	81.75
506.64	92.75
506.856	94.75
507.073	82.75
507.289	89.75
507.506	82.75
507.722	102.75
507.939	106.75
508.155	95.75
508.372	89.75
508.588	86.75
508.805	91.75
509.021	101.75
509.238	101.75
509.454	89.75
509.67	92.75
509.887	102.75
510.103	121.75
510.319	190.75
510.536	639.75
510.752	1858.75
510.968	533.75
511.184	147.75
511.401	101.75
511.617	83.75
511.833	105.75
512.049	91.75
512.265	81.75
512.481	94.75
512.698	105.75
512.914	82.75
513.13	87.75
513.346	87.75
513.562	99.75
513.778	97.75
513.994	106.75
514.21	98.75
514.426	96.75
514.642	137.75
514.858	124.75
515.074	166.75
515.29	420.75
515.506	1228.75
515.721	465.75
515.937	139.75
516.153	89.75
516.369	101.75
516.585	103.75
516.801	95.75
