Data from Uncirc_1988_H10_HRD10591_00033.txt Node
Date: Wed Jan 03 12:04:11 EST 2024
User: Yrep
Spectrometer: HR+D1059
Trigger mode: 1
Integration Time (sec): 1.000000E-1
Scans to average: 1
Electric dark correction enabled: true
Nonlinearity correction enabled: false
Boxcar width: 0
XAxis mode: Wavelengths
Number of Pixels in Spectrum: 2048
>>>>>Begin Spectral Data<<<<<
223.165	-22.75
223.4	-22.75
223.635	-22.75
223.869	-21.75
224.104	-21.75
224.338	-14.75
224.573	-14.75
224.808	-9.75
225.042	-12.75
225.277	-4.75
225.511	-0.75
225.746	3.25
225.98	9.25
226.215	0.25
226.449	14.25
226.683	27.25
226.918	29.25
227.152	40.25
227.387	52.25
227.621	45.25
227.856	38.25
228.09	44.25
228.324	33.25
228.559	64.25
228.793	61.25
229.027	69.25
229.262	80.25
229.496	77.25
229.73	84.25
229.964	75.25
230.199	71.25
230.433	81.25
230.667	78.25
230.901	93.25
231.136	92.25
231.37	77.25
231.604	83.25
231.838	94.25
232.072	70.25
232.306	94.25
232.541	80.25
232.775	93.25
233.009	90.25
233.243	98.25
233.477	85.25
233.711	85.25
233.945	89.25
234.179	78.25
234.413	91.25
234.647	84.25
234.881	79.25
235.115	77.25
235.349	87.25
235.583	64.25
235.817	72.25
236.051	73.25
236.285	74.25
236.519	80.25
236.753	69.25
236.987	87.25
237.221	83.25
237.455	88.25
237.689	73.25
237.922	75.25
238.156	71.25
238.39	77.25
238.624	77.25
238.858	85.25
239.091	78.25
239.325	88.25
239.559	78.25
239.793	69.25
240.027	65.25
240.26	68.25
240.494	78.25
240.728	79.25
240.961	78.25
241.195	89.25
241.429	83.25
241.662	70.25
241.896	73.25
242.13	77.25
242.363	82.25
242.597	62.25
242.83	79.25
243.064	69.25
243.298	99.25
243.531	85.25
243.765	81.25
243.998	70.25
244.232	79.25
244.465	93.25
244.699	71.25
244.932	88.25
245.166	79.25
245.399	78.25
245.633	81.25
245.866	82.25
246.099	85.25
246.333	86.25
246.566	70.25
246.8	77.25
247.033	68.25
247.266	93.25
247.5	68.25
247.733	88.25
247.966	92.25
248.2	91.25
248.433	73.25
248.666	89.25
248.899	80.25
249.133	92.25
249.366	119.25
249.599	101.25
249.832	78.25
250.066	78.25
250.299	88.25
250.532	82.25
250.765	61.25
250.998	80.25
251.231	70.25
251.465	82.25
251.698	71.25
251.931	84.25
252.164	88.25
252.397	72.25
252.63	81.25
252.863	93.25
253.096	77.25
253.329	89.25
253.562	86.25
253.795	85.25
254.028	66.25
254.261	85.25
254.494	85.25
254.727	84.25
254.96	86.25
255.193	79.25
255.426	88.25
255.659	77.25
255.892	94.25
256.124	90.25
256.357	81.25
256.59	75.25
256.823	72.25
257.056	74.25
257.289	86.25
257.521	84.25
257.754	84.25
257.987	91.25
258.22	82.25
258.452	84.25
258.685	79.25
258.918	96.25
259.151	96.25
259.383	85.25
259.616	86.25
259.849	102.25
260.081	82.25
260.314	63.25
260.547	68.25
260.779	93.25
261.012	75.25
261.244	94.25
261.477	88.25
261.71	99.25
261.942	102.25
262.175	125.25
262.407	99.25
262.64	83.25
262.872	97.25
263.105	78.25
263.337	78.25
263.57	94.25
263.802	84.25
264.035	95.25
264.267	87.25
264.499	76.25
264.732	79.25
264.964	80.25
265.197	90.25
265.429	87.25
265.661	100.25
265.894	86.25
266.126	96.25
266.358	81.25
266.591	93.25
266.823	88.25
267.055	85.25
267.287	96.25
267.52	78.25
267.752	99.25
267.984	100.25
268.216	90.25
268.448	103.25
268.681	75.25
268.913	96.25
269.145	91.25
269.377	95.25
269.609	74.25
269.841	92.25
270.073	89.25
270.306	99.25
270.538	79.25
270.77	94.25
271.002	89.25
271.234	80.25
271.466	75.25
271.698	92.25
271.93	89.25
272.162	86.25
272.394	88.25
272.626	82.25
272.858	85.25
273.09	97.25
273.322	96.25
273.553	82.25
273.785	95.25
274.017	91.25
274.249	84.25
274.481	78.25
274.713	77.25
274.945	101.25
275.176	107.25
275.408	71.25
275.64	92.25
275.872	99.25
276.104	101.25
276.335	82.25
276.567	102.25
276.799	107.25
277.031	104.25
277.262	96.25
277.494	98.25
277.726	89.25
277.957	81.25
278.189	81.25
278.421	94.25
278.652	92.25
278.884	80.25
279.115	88.25
279.347	76.25
279.579	99.25
279.81	80.25
280.042	90.25
280.273	79.25
280.505	91.25
280.736	84.25
280.968	78.25
281.199	88.25
281.431	91.25
281.662	80.25
281.894	91.25
282.125	102.25
282.356	118.25
282.588	145.25
282.819	137.25
283.051	97.25
283.282	93.25
283.513	97.25
283.745	99.25
283.976	92.25
284.207	90.25
284.439	90.25
284.67	81.25
284.901	85.25
285.132	95.25
285.364	93.25
285.595	95.25
285.826	87.25
286.057	86.25
286.288	110.25
286.52	87.25
286.751	71.25
286.982	78.25
287.213	85.25
287.444	95.25
287.675	90.25
287.906	89.25
288.138	100.25
288.369	104.25
288.6	105.25
288.831	91.25
289.062	85.25
289.293	85.25
289.524	86.25
289.755	81.25
289.986	96.25
290.217	86.25
290.448	89.25
290.679	69.25
290.91	85.25
291.141	80.25
291.371	88.25
291.602	83.25
291.833	89.25
292.064	83.25
292.295	102.25
292.526	91.25
292.757	105.25
292.987	102.25
293.218	90.25
293.449	81.25
293.68	100.25
293.91	91.25
294.141	84.25
294.372	85.25
294.603	69.25
294.833	74.25
295.064	86.25
295.295	96.25
295.525	104.25
295.756	104.25
295.987	129.25
296.217	148.25
296.448	139.25
296.679	95.25
296.909	93.25
297.14	94.25
297.37	90.25
297.601	92.25
297.831	86.25
298.062	94.25
298.292	98.25
298.523	97.25
298.753	92.25
298.984	93.25
299.214	80.25
299.445	95.25
299.675	98.25
299.905	98.25
300.136	86.25
300.366	88.25
300.597	83.25
300.827	85.25
301.057	94.25
301.288	101.25
301.518	105.25
301.748	94.25
301.979	100.25
302.209	100.25
302.439	95.25
302.669	90.25
302.9	90.25
303.13	96.25
303.36	97.25
303.59	105.25
303.82	101.25
304.051	87.25
304.281	99.25
304.511	91.25
304.741	81.25
304.971	90.25
305.201	94.25
305.431	95.25
305.661	94.25
305.891	89.25
306.121	84.25
306.352	108.25
306.582	130.25
306.812	102.25
307.042	78.25
307.272	96.25
307.502	101.25
307.731	97.25
307.961	95.25
308.191	90.25
308.421	94.25
308.651	96.25
308.881	86.25
309.111	94.25
309.341	106.25
309.571	91.25
309.8	107.25
310.03	107.25
310.26	78.25
310.49	98.25
310.72	91.25
310.949	113.25
311.179	117.25
311.409	106.25
311.639	89.25
311.868	89.25
312.098	101.25
312.328	102.25
312.557	109.25
312.787	113.25
313.017	103.25
313.246	103.25
313.476	89.25
313.706	90.25
313.935	74.25
314.165	100.25
314.394	93.25
314.624	101.25
314.853	88.25
315.083	81.25
315.312	88.25
315.542	87.25
315.771	90.25
316.001	95.25
316.23	91.25
316.46	85.25
316.689	77.25
316.919	92.25
317.148	90.25
317.377	91.25
317.607	95.25
317.836	93.25
318.065	94.25
318.295	90.25
318.524	92.25
318.753	99.25
318.983	97.25
319.212	91.25
319.441	111.25
319.67	125.25
319.9	106.25
320.129	97.25
320.358	104.25
320.587	90.25
320.816	109.25
321.046	107.25
321.275	102.25
321.504	96.25
321.733	91.25
321.962	101.25
322.191	110.25
322.42	117.25
322.649	126.25
322.878	113.25
323.108	114.25
323.337	129.25
323.566	158.25
323.795	159.25
324.024	233.25
324.253	485.25
324.482	1030.25
324.71	2200.25
324.939	2857.25
325.168	1007.25
325.397	287.25
325.626	171.25
325.855	146.25
326.084	138.25
326.313	129.25
326.542	162.25
326.77	261.25
326.999	523.25
327.228	1156.25
327.457	2199.25
327.686	1681.25
327.914	426.25
328.143	202.25
328.372	157.25
328.6	130.25
328.829	121.25
329.058	146.25
329.287	151.25
329.515	122.25
329.744	107.25
329.972	100.25
330.201	120.25
330.43	97.25
330.658	110.25
330.887	163.25
331.115	110.25
331.344	100.25
331.572	102.25
331.801	108.25
332.03	109.25
332.258	105.25
332.486	91.25
332.715	103.25
332.943	114.25
333.172	96.25
333.4	92.25
333.629	111.25
333.857	113.25
334.085	121.25
334.314	117.25
334.542	111.25
334.771	99.25
334.999	99.25
335.227	96.25
335.455	93.25
335.684	108.25
335.912	109.25
336.14	93.25
336.369	95.25
336.597	106.25
336.825	110.25
337.053	91.25
337.281	105.25
337.51	101.25
337.738	112.25
337.966	99.25
338.194	111.25
338.422	103.25
338.65	102.25
338.878	93.25
339.106	88.25
339.334	99.25
339.562	101.25
339.79	102.25
340.018	78.25
340.246	95.25
340.474	109.25
340.702	103.25
340.93	72.25
341.158	82.25
341.386	93.25
341.614	105.25
341.842	93.25
342.07	89.25
342.298	87.25
342.526	95.25
342.754	99.25
342.981	89.25
343.209	94.25
343.437	98.25
343.665	94.25
343.893	102.25
344.12	89.25
344.348	90.25
344.576	106.25
344.804	107.25
345.031	95.25
345.259	91.25
345.487	90.25
345.714	101.25
345.942	89.25
346.17	96.25
346.397	87.25
346.625	94.25
346.853	91.25
347.08	85.25
347.308	110.25
347.535	93.25
347.763	106.25
347.99	114.25
348.218	99.25
348.445	106.25
348.673	97.25
348.9	85.25
349.128	103.25
349.355	98.25
349.583	101.25
349.81	93.25
350.037	99.25
350.265	90.25
350.492	94.25
350.72	89.25
350.947	93.25
351.174	118.25
351.402	111.25
351.629	108.25
351.856	110.25
352.083	98.25
352.311	108.25
352.538	128.25
352.765	110.25
352.992	118.25
353.22	104.25
353.447	102.25
353.674	89.25
353.901	95.25
354.128	87.25
354.355	104.25
354.583	91.25
354.81	93.25
355.037	96.25
355.264	101.25
355.491	92.25
355.718	100.25
355.945	94.25
356.172	99.25
356.399	113.25
356.626	99.25
356.853	94.25
357.08	95.25
357.307	103.25
357.534	106.25
357.761	97.25
357.988	90.25
358.215	96.25
358.441	84.25
358.668	92.25
358.895	95.25
359.122	96.25
359.349	70.25
359.576	97.25
359.802	98.25
360.029	102.25
360.256	110.25
360.483	110.25
360.709	99.25
360.936	102.25
361.163	94.25
361.39	102.25
361.616	89.25
361.843	93.25
362.07	97.25
362.296	101.25
362.523	92.25
362.749	98.25
362.976	87.25
363.203	88.25
363.429	77.25
363.656	95.25
363.882	89.25
364.109	106.25
364.335	105.25
364.562	107.25
364.788	111.25
365.015	95.25
365.241	102.25
365.468	111.25
365.694	119.25
365.92	111.25
366.147	88.25
366.373	91.25
366.599	96.25
366.826	83.25
367.052	78.25
367.278	94.25
367.505	100.25
367.731	99.25
367.957	118.25
368.184	96.25
368.41	89.25
368.636	110.25
368.862	121.25
369.089	108.25
369.315	96.25
369.541	84.25
369.767	86.25
369.993	94.25
370.219	101.25
370.445	105.25
370.672	88.25
370.898	87.25
371.124	88.25
371.35	99.25
371.576	84.25
371.802	100.25
372.028	99.25
372.254	90.25
372.48	91.25
372.706	80.25
372.932	93.25
373.158	85.25
373.384	88.25
373.61	85.25
373.835	79.25
374.061	89.25
374.287	82.25
374.513	95.25
374.739	90.25
374.965	94.25
375.191	92.25
375.416	91.25
375.642	83.25
375.868	102.25
376.094	98.25
376.319	81.25
376.545	81.25
376.771	85.25
376.997	91.25
377.222	82.25
377.448	95.25
377.674	94.25
377.899	96.25
378.125	70.25
378.35	95.25
378.576	96.25
378.802	88.25
379.027	102.25
379.253	89.25
379.478	98.25
379.704	103.25
379.929	99.25
380.155	117.25
380.38	107.25
380.606	102.25
380.831	81.25
381.057	105.25
381.282	104.25
381.507	98.25
381.733	88.25
381.958	89.25
382.184	102.25
382.409	90.25
382.634	109.25
382.86	106.25
383.085	98.25
383.31	90.25
383.535	96.25
383.761	99.25
383.986	100.25
384.211	90.25
384.436	106.25
384.662	91.25
384.887	91.25
385.112	90.25
385.337	87.25
385.562	105.25
385.787	104.25
386.013	111.25
386.238	111.25
386.463	100.25
386.688	101.25
386.913	93.25
387.138	113.25
387.363	96.25
387.588	94.25
387.813	86.25
388.038	105.25
388.263	110.25
388.488	120.25
388.713	86.25
388.938	77.25
389.163	94.25
389.387	101.25
389.612	95.25
389.837	83.25
390.062	89.25
390.287	97.25
390.512	93.25
390.736	74.25
390.961	87.25
391.186	93.25
391.411	100.25
391.636	73.25
391.86	82.25
392.085	81.25
392.31	75.25
392.534	82.25
392.759	79.25
392.984	79.25
393.208	97.25
393.433	109.25
393.658	100.25
393.882	78.25
394.107	84.25
394.331	96.25
394.556	89.25
394.78	94.25
395.005	74.25
395.229	86.25
395.454	91.25
395.678	106.25
395.903	78.25
396.127	89.25
396.352	99.25
396.576	93.25
396.801	102.25
397.025	95.25
397.249	81.25
397.474	83.25
397.698	102.25
397.922	87.25
398.147	92.25
398.371	85.25
398.595	73.25
398.82	83.25
399.044	82.25
399.268	98.25
399.492	94.25
399.717	97.25
399.941	87.25
400.165	94.25
400.389	79.25
400.613	85.25
400.837	88.25
401.062	90.25
401.286	101.25
401.51	94.25
401.734	102.25
401.958	95.25
402.182	128.25
402.406	169.25
402.63	120.25
402.854	85.25
403.078	96.25
403.302	94.25
403.526	100.25
403.75	98.25
403.974	84.25
404.198	93.25
404.422	100.25
404.645	85.25
404.869	83.25
405.093	99.25
405.317	96.25
405.541	101.25
405.765	101.25
405.988	122.25
406.212	207.25
406.436	276.25
406.66	161.25
406.883	102.25
407.107	88.25
407.331	109.25
407.555	101.25
407.778	98.25
408.002	102.25
408.226	84.25
408.449	82.25
408.673	92.25
408.896	102.25
409.12	89.25
409.344	87.25
409.567	86.25
409.791	90.25
410.014	107.25
410.238	93.25
410.461	78.25
410.685	90.25
410.908	113.25
411.132	125.25
411.355	98.25
411.578	95.25
411.802	90.25
412.025	88.25
412.249	88.25
412.472	90.25
412.695	84.25
412.919	98.25
413.142	83.25
413.365	86.25
413.589	92.25
413.812	90.25
414.035	95.25
414.258	87.25
414.482	82.25
414.705	81.25
414.928	89.25
415.151	102.25
415.374	102.25
415.597	95.25
415.821	104.25
416.044	86.25
416.267	90.25
416.49	77.25
416.713	81.25
416.936	90.25
417.159	105.25
417.382	90.25
417.605	79.25
417.828	113.25
418.051	87.25
418.274	94.25
418.497	92.25
418.72	90.25
418.943	88.25
419.166	93.25
419.389	93.25
419.611	94.25
419.834	79.25
420.057	87.25
420.28	88.25
420.503	89.25
420.726	86.25
420.948	72.25
421.171	103.25
421.394	100.25
421.617	79.25
421.839	98.25
422.062	80.25
422.285	83.25
422.507	105.25
422.73	108.25
422.953	87.25
423.175	89.25
423.398	82.25
423.621	105.25
423.843	85.25
424.066	77.25
424.288	79.25
424.511	84.25
424.733	111.25
424.956	115.25
425.178	98.25
425.401	108.25
425.623	99.25
425.846	99.25
426.068	97.25
426.291	97.25
426.513	99.25
426.735	95.25
426.958	100.25
427.18	107.25
427.402	149.25
427.625	185.25
427.847	131.25
428.069	113.25
428.292	100.25
428.514	103.25
428.736	85.25
428.958	83.25
429.181	83.25
429.403	104.25
429.625	90.25
429.847	92.25
430.069	95.25
430.292	102.25
430.514	85.25
430.736	97.25
430.958	85.25
431.18	90.25
431.402	94.25
431.624	94.25
431.846	88.25
432.068	91.25
432.29	90.25
432.512	94.25
432.734	91.25
432.956	95.25
433.178	89.25
433.4	95.25
433.622	85.25
433.844	97.25
434.066	97.25
434.287	100.25
434.509	94.25
434.731	83.25
434.953	100.25
435.175	81.25
435.397	75.25
435.618	102.25
435.84	109.25
436.062	127.25
436.284	120.25
436.505	107.25
436.727	99.25
436.949	91.25
437.17	93.25
437.392	91.25
437.614	95.25
437.835	113.25
438.057	111.25
438.278	115.25
438.5	95.25
438.721	121.25
438.943	90.25
439.165	89.25
439.386	84.25
439.608	88.25
439.829	89.25
440.05	129.25
440.272	161.25
440.493	114.25
440.715	102.25
440.936	99.25
441.158	75.25
441.379	90.25
441.6	91.25
441.822	83.25
442.043	103.25
442.264	105.25
442.486	89.25
442.707	87.25
442.928	122.25
443.149	130.25
443.371	144.25
443.592	118.25
443.813	101.25
444.034	113.25
444.255	89.25
444.476	87.25
444.698	84.25
444.919	101.25
445.14	127.25
445.361	129.25
445.582	118.25
445.803	152.25
446.024	154.25
446.245	142.25
446.466	111.25
446.687	97.25
446.908	102.25
447.129	89.25
447.35	84.25
447.571	97.25
447.792	98.25
448.013	86.25
448.234	112.25
448.455	115.25
448.675	107.25
448.896	141.25
449.117	96.25
449.338	97.25
449.559	126.25
449.779	132.25
450	102.25
450.221	83.25
450.442	104.25
450.662	103.25
450.883	113.25
451.104	110.25
451.324	103.25
451.545	91.25
451.766	90.25
451.986	81.25
452.207	82.25
452.428	85.25
452.648	111.25
452.869	121.25
453.089	123.25
453.31	119.25
453.53	96.25
453.751	106.25
453.971	105.25
454.192	97.25
454.412	97.25
454.633	87.25
454.853	87.25
455.073	98.25
455.294	79.25
455.514	100.25
455.734	99.25
455.955	80.25
456.175	87.25
456.395	101.25
456.616	72.25
456.836	83.25
457.056	79.25
457.276	69.25
457.497	99.25
457.717	109.25
457.937	83.25
458.157	98.25
458.377	96.25
458.598	108.25
458.818	179.25
459.038	186.25
459.258	120.25
459.478	81.25
459.698	95.25
459.918	81.25
460.138	95.25
460.358	88.25
460.578	88.25
460.798	77.25
461.018	97.25
461.238	87.25
461.458	80.25
461.678	95.25
461.898	93.25
462.118	93.25
462.338	83.25
462.558	97.25
462.777	89.25
462.997	77.25
463.217	90.25
463.437	91.25
463.657	89.25
463.876	79.25
464.096	93.25
464.316	94.25
464.536	97.25
464.755	96.25
464.975	120.25
465.195	190.25
465.414	187.25
465.634	101.25
465.854	96.25
466.073	111.25
466.293	89.25
466.512	84.25
466.732	92.25
466.951	93.25
467.171	87.25
467.391	111.25
467.61	98.25
467.829	103.25
468.049	94.25
468.268	94.25
468.488	73.25
468.707	100.25
468.927	98.25
469.146	78.25
469.365	90.25
469.585	117.25
469.804	94.25
470.023	90.25
470.243	102.25
470.462	109.25
470.681	120.25
470.901	86.25
471.12	95.25
471.339	92.25
471.558	94.25
471.777	89.25
471.997	86.25
472.216	93.25
472.435	80.25
472.654	93.25
472.873	85.25
473.092	78.25
473.311	91.25
473.53	81.25
473.749	102.25
473.968	95.25
474.187	120.25
474.406	94.25
474.625	89.25
474.844	96.25
475.063	82.25
475.282	100.25
475.501	88.25
475.72	94.25
475.939	98.25
476.158	82.25
476.377	86.25
476.596	93.25
476.814	96.25
477.033	95.25
477.252	89.25
477.471	87.25
477.69	89.25
477.908	81.25
478.127	109.25
478.346	82.25
478.564	96.25
478.783	103.25
479.002	89.25
479.22	95.25
479.439	108.25
479.658	116.25
479.876	103.25
480.095	92.25
480.313	73.25
480.532	77.25
480.751	89.25
480.969	93.25
481.188	122.25
481.406	107.25
481.624	87.25
481.843	81.25
482.061	108.25
482.28	87.25
482.498	86.25
482.717	76.25
482.935	103.25
483.153	82.25
483.372	83.25
483.59	98.25
483.808	86.25
484.027	100.25
484.245	97.25
484.463	92.25
484.681	105.25
484.9	99.25
485.118	101.25
485.336	96.25
485.554	117.25
485.772	96.25
485.99	91.25
486.209	94.25
486.427	110.25
486.645	113.25
486.863	114.25
487.081	110.25
487.299	111.25
487.517	88.25
487.735	81.25
487.953	90.25
488.171	108.25
488.389	101.25
488.607	96.25
488.825	92.25
489.043	85.25
489.261	78.25
489.479	91.25
489.696	89.25
489.914	100.25
490.132	79.25
490.35	83.25
490.568	94.25
490.786	102.25
491.003	98.25
491.221	72.25
491.439	96.25
491.657	101.25
491.874	85.25
492.092	90.25
492.31	89.25
492.527	90.25
492.745	97.25
492.963	99.25
493.18	110.25
493.398	100.25
493.615	109.25
493.833	100.25
494.05	103.25
494.268	98.25
494.485	87.25
494.703	90.25
494.92	82.25
495.138	81.25
495.355	93.25
495.573	106.25
495.79	101.25
496.008	93.25
496.225	87.25
496.442	82.25
496.66	93.25
496.877	83.25
497.094	107.25
497.312	94.25
497.529	87.25
497.746	93.25
497.963	102.25
498.181	103.25
498.398	104.25
498.615	119.25
498.832	106.25
499.049	89.25
499.267	97.25
499.484	83.25
499.701	85.25
499.918	81.25
500.135	98.25
500.352	103.25
500.569	85.25
500.786	94.25
501.003	98.25
501.22	79.25
501.437	83.25
501.654	88.25
501.871	116.25
502.088	85.25
502.305	75.25
502.522	101.25
502.739	100.25
502.956	89.25
503.172	99.25
503.389	96.25
503.606	125.25
503.823	99.25
504.04	104.25
504.256	87.25
504.473	99.25
504.69	94.25
504.907	90.25
505.123	81.25
505.34	93.25
505.557	74.25
505.773	97.25
505.99	85.25
506.207	93.25
506.423	105.25
506.64	77.25
506.856	84.25
507.073	91.25
507.289	96.25
507.506	103.25
507.722	104.25
507.939	128.25
508.155	107.25
508.372	106.25
508.588	110.25
508.805	100.25
509.021	112.25
509.238	98.25
509.454	99.25
509.67	114.25
509.887	113.25
510.103	141.25
510.319	245.25
510.536	935.25
510.752	2965.25
510.968	794.25
511.184	168.25
511.401	116.25
511.617	108.25
511.833	105.25
512.049	108.25
512.265	88.25
512.481	98.25
512.698	104.25
512.914	111.25
513.13	98.25
513.346	77.25
513.562	97.25
513.778	105.25
513.994	101.25
514.21	98.25
514.426	130.25
