Data from Uncirc_1988_H10_HRD10591_00099.txt Node
Date: Wed Jan 03 12:04:24 EST 2024
User: Yrep
Spectrometer: HR+D1059
Trigger mode: 1
Integration Time (sec): 1.000000E-1
Scans to average: 1
Electric dark correction enabled: true
Nonlinearity correction enabled: false
Boxcar width: 0
XAxis mode: Wavelengths
Number of Pixels in Spectrum: 2048
>>>>>Begin Spectral Data<<<<<
223.165	-21.31
223.4	-21.31
223.635	-21.31
223.869	-22.31
224.104	-19.31
224.338	-16.31
224.573	-26.31
224.808	-5.31
225.042	-13.31
225.277	-14.31
225.511	13.69
225.746	4.69
225.98	17.69
226.215	-0.31
226.449	25.69
226.683	17.69
226.918	31.69
227.152	27.69
227.387	46.69
227.621	44.69
227.856	45.69
228.09	51.69
228.324	41.69
228.559	48.69
228.793	61.69
229.027	58.69
229.262	61.69
229.496	59.69
229.73	93.69
229.964	83.69
230.199	72.69
230.433	94.69
230.667	77.69
230.901	88.69
231.136	87.69
231.37	77.69
231.604	85.69
231.838	79.69
232.072	84.69
232.306	71.69
232.541	95.69
232.775	75.69
233.009	81.69
233.243	89.69
233.477	84.69
233.711	86.69
233.945	90.69
234.179	82.69
234.413	86.69
234.647	101.69
234.881	78.69
235.115	74.69
235.349	82.69
235.583	80.69
235.817	73.69
236.051	69.69
236.285	69.69
236.519	84.69
236.753	78.69
236.987	88.69
237.221	93.69
237.455	96.69
237.689	66.69
237.922	78.69
238.156	70.69
238.39	75.69
238.624	78.69
238.858	62.69
239.091	84.69
239.325	82.69
239.559	90.69
239.793	71.69
240.027	79.69
240.26	86.69
240.494	75.69
240.728	84.69
240.961	78.69
241.195	80.69
241.429	81.69
241.662	94.69
241.896	70.69
242.13	85.69
242.363	87.69
242.597	87.69
242.83	89.69
243.064	93.69
243.298	97.69
243.531	68.69
243.765	81.69
243.998	92.69
244.232	75.69
244.465	75.69
244.699	80.69
244.932	80.69
245.166	74.69
245.399	86.69
245.633	86.69
245.866	95.69
246.099	97.69
246.333	82.69
246.566	70.69
246.8	86.69
247.033	79.69
247.266	72.69
247.5	81.69
247.733	77.69
247.966	63.69
248.2	82.69
248.433	76.69
248.666	72.69
248.899	73.69
249.133	97.69
249.366	98.69
249.599	100.69
249.832	79.69
250.066	79.69
250.299	88.69
250.532	70.69
250.765	75.69
250.998	78.69
251.231	86.69
251.465	82.69
251.698	77.69
251.931	82.69
252.164	90.69
252.397	87.69
252.63	73.69
252.863	87.69
253.096	84.69
253.329	95.69
253.562	87.69
253.795	96.69
254.028	91.69
254.261	73.69
254.494	82.69
254.727	72.69
254.96	91.69
255.193	77.69
255.426	77.69
255.659	78.69
255.892	85.69
256.124	82.69
256.357	96.69
256.59	72.69
256.823	74.69
257.056	89.69
257.289	87.69
257.521	78.69
257.754	76.69
257.987	78.69
258.22	85.69
258.452	86.69
258.685	93.69
258.918	83.69
259.151	68.69
259.383	96.69
259.616	73.69
259.849	77.69
260.081	82.69
260.314	73.69
260.547	90.69
260.779	86.69
261.012	89.69
261.244	81.69
261.477	105.69
261.71	89.69
261.942	115.69
262.175	120.69
262.407	101.69
262.64	67.69
262.872	93.69
263.105	83.69
263.337	83.69
263.57	103.69
263.802	93.69
264.035	82.69
264.267	91.69
264.499	94.69
264.732	103.69
264.964	90.69
265.197	82.69
265.429	98.69
265.661	90.69
265.894	74.69
266.126	89.69
266.358	83.69
266.591	65.69
266.823	81.69
267.055	87.69
267.287	88.69
267.52	77.69
267.752	87.69
267.984	85.69
268.216	95.69
268.448	83.69
268.681	80.69
268.913	91.69
269.145	86.69
269.377	83.69
269.609	89.69
269.841	90.69
270.073	85.69
270.306	88.69
270.538	85.69
270.77	87.69
271.002	88.69
271.234	83.69
271.466	102.69
271.698	86.69
271.93	79.69
272.162	100.69
272.394	83.69
272.626	78.69
272.858	101.69
273.09	70.69
273.322	82.69
273.553	87.69
273.785	79.69
274.017	88.69
274.249	100.69
274.481	86.69
274.713	74.69
274.945	94.69
275.176	81.69
275.408	99.69
275.64	104.69
275.872	93.69
276.104	103.69
276.335	105.69
276.567	107.69
276.799	105.69
277.031	115.69
277.262	87.69
277.494	102.69
277.726	89.69
277.957	77.69
278.189	88.69
278.421	106.69
278.652	91.69
278.884	93.69
279.115	83.69
279.347	93.69
279.579	87.69
279.81	89.69
280.042	89.69
280.273	94.69
280.505	87.69
280.736	93.69
280.968	86.69
281.199	101.69
281.431	75.69
281.662	78.69
281.894	83.69
282.125	90.69
282.356	128.69
282.588	154.69
282.819	113.69
283.051	112.69
283.282	94.69
283.513	88.69
283.745	90.69
283.976	81.69
284.207	89.69
284.439	91.69
284.67	90.69
284.901	84.69
285.132	72.69
285.364	97.69
285.595	98.69
285.826	93.69
286.057	92.69
286.288	91.69
286.52	96.69
286.751	81.69
286.982	85.69
287.213	86.69
287.444	94.69
287.675	89.69
287.906	101.69
288.138	95.69
288.369	92.69
288.6	96.69
288.831	101.69
289.062	91.69
289.293	94.69
289.524	86.69
289.755	88.69
289.986	83.69
290.217	95.69
290.448	96.69
290.679	105.69
290.91	97.69
291.141	89.69
291.371	89.69
291.602	90.69
291.833	80.69
292.064	98.69
292.295	94.69
292.526	89.69
292.757	90.69
292.987	88.69
293.218	98.69
293.449	97.69
293.68	97.69
293.91	88.69
294.141	89.69
294.372	105.69
294.603	99.69
294.833	99.69
295.064	85.69
295.295	110.69
295.525	89.69
295.756	93.69
295.987	127.69
296.217	144.69
296.448	128.69
296.679	95.69
296.909	83.69
297.14	81.69
297.37	80.69
297.601	95.69
297.831	97.69
298.062	104.69
298.292	82.69
298.523	89.69
298.753	86.69
298.984	91.69
299.214	103.69
299.445	94.69
299.675	112.69
299.905	106.69
300.136	98.69
300.366	102.69
300.597	93.69
300.827	98.69
301.057	99.69
301.288	109.69
301.518	104.69
301.748	83.69
301.979	93.69
302.209	99.69
302.439	101.69
302.669	86.69
302.9	94.69
303.13	92.69
303.36	93.69
303.59	104.69
303.82	101.69
304.051	102.69
304.281	93.69
304.511	96.69
304.741	104.69
304.971	93.69
305.201	106.69
305.431	88.69
305.661	84.69
305.891	97.69
306.121	87.69
306.352	113.69
306.582	101.69
306.812	121.69
307.042	96.69
307.272	98.69
307.502	102.69
307.731	94.69
307.961	97.69
308.191	85.69
308.421	104.69
308.651	92.69
308.881	90.69
309.111	101.69
309.341	105.69
309.571	104.69
309.8	102.69
310.03	113.69
310.26	95.69
310.49	90.69
310.72	100.69
310.949	125.69
311.179	107.69
311.409	93.69
311.639	101.69
311.868	99.69
312.098	111.69
312.328	99.69
312.557	101.69
312.787	119.69
313.017	111.69
313.246	96.69
313.476	101.69
313.706	86.69
313.935	102.69
314.165	96.69
314.394	107.69
314.624	101.69
314.853	109.69
315.083	83.69
315.312	100.69
315.542	88.69
315.771	87.69
316.001	90.69
316.23	102.69
316.46	107.69
316.689	93.69
316.919	86.69
317.148	99.69
317.377	104.69
317.607	101.69
317.836	100.69
318.065	95.69
318.295	102.69
318.524	86.69
318.753	88.69
318.983	98.69
319.212	109.69
319.441	114.69
319.67	107.69
319.9	105.69
320.129	81.69
320.358	102.69
320.587	106.69
320.816	103.69
321.046	110.69
321.275	107.69
321.504	105.69
321.733	90.69
321.962	82.69
322.191	104.69
322.42	110.69
322.649	127.69
322.878	110.69
323.108	129.69
323.337	134.69
323.566	155.69
323.795	172.69
324.024	223.69
324.253	485.69
324.482	1104.69
324.71	2288.69
324.939	3050.69
325.168	1074.69
325.397	315.69
325.626	169.69
325.855	141.69
326.084	144.69
326.313	142.69
326.542	178.69
326.77	278.69
326.999	606.69
327.228	1209.69
327.457	2273.69
327.686	1836.69
327.914	496.69
328.143	225.69
328.372	191.69
328.6	134.69
328.829	141.69
329.058	157.69
329.287	138.69
329.515	134.69
329.744	100.69
329.972	132.69
330.201	149.69
330.43	180.69
330.658	171.69
330.887	177.69
331.115	151.69
331.344	115.69
331.572	121.69
331.801	112.69
332.03	118.69
332.258	103.69
332.486	99.69
332.715	98.69
332.943	85.69
333.172	114.69
333.4	113.69
333.629	110.69
333.857	110.69
334.085	141.69
334.314	157.69
334.542	186.69
334.771	191.69
334.999	110.69
335.227	117.69
335.455	101.69
335.684	100.69
335.912	102.69
336.14	123.69
336.369	102.69
336.597	115.69
336.825	93.69
337.053	102.69
337.281	93.69
337.51	92.69
337.738	98.69
337.966	81.69
338.194	104.69
338.422	111.69
338.65	93.69
338.878	86.69
339.106	93.69
339.334	99.69
339.562	86.69
339.79	103.69
340.018	92.69
340.246	93.69
340.474	100.69
340.702	91.69
340.93	99.69
341.158	105.69
341.386	100.69
341.614	105.69
341.842	107.69
342.07	88.69
342.298	100.69
342.526	116.69
342.754	102.69
342.981	79.69
343.209	85.69
343.437	102.69
343.665	86.69
343.893	96.69
344.12	94.69
344.348	96.69
344.576	101.69
344.804	94.69
345.031	99.69
345.259	112.69
345.487	101.69
345.714	94.69
345.942	87.69
346.17	93.69
346.397	94.69
346.625	101.69
346.853	112.69
347.08	88.69
347.308	90.69
347.535	89.69
347.763	109.69
347.99	93.69
348.218	100.69
348.445	106.69
348.673	98.69
348.9	89.69
349.128	101.69
349.355	91.69
349.583	87.69
349.81	74.69
350.037	88.69
350.265	89.69
350.492	91.69
350.72	94.69
350.947	107.69
351.174	105.69
351.402	124.69
351.629	106.69
351.856	111.69
352.083	116.69
352.311	115.69
352.538	121.69
352.765	114.69
352.992	120.69
353.22	120.69
353.447	111.69
353.674	105.69
353.901	97.69
354.128	90.69
354.355	90.69
354.583	81.69
354.81	88.69
355.037	98.69
355.264	96.69
355.491	88.69
355.718	93.69
355.945	91.69
356.172	93.69
356.399	97.69
356.626	98.69
356.853	94.69
357.08	94.69
357.307	92.69
357.534	93.69
357.761	96.69
357.988	78.69
358.215	91.69
358.441	91.69
358.668	100.69
358.895	95.69
359.122	100.69
359.349	97.69
359.576	99.69
359.802	104.69
360.029	127.69
360.256	134.69
360.483	116.69
360.709	98.69
360.936	91.69
361.163	103.69
361.39	103.69
361.616	104.69
361.843	97.69
362.07	110.69
362.296	101.69
362.523	100.69
362.749	89.69
362.976	93.69
363.203	99.69
363.429	89.69
363.656	83.69
363.882	89.69
364.109	86.69
364.335	101.69
364.562	80.69
364.788	90.69
365.015	84.69
365.241	93.69
365.468	112.69
365.694	120.69
365.92	106.69
366.147	85.69
366.373	95.69
366.599	92.69
366.826	95.69
367.052	98.69
367.278	113.69
367.505	87.69
367.731	83.69
367.957	101.69
368.184	98.69
368.41	99.69
368.636	116.69
368.862	128.69
369.089	104.69
369.315	103.69
369.541	98.69
369.767	98.69
369.993	100.69
370.219	104.69
370.445	101.69
370.672	98.69
370.898	95.69
371.124	93.69
371.35	76.69
371.576	84.69
371.802	68.69
372.028	90.69
372.254	102.69
372.48	91.69
372.706	86.69
372.932	100.69
373.158	95.69
373.384	84.69
373.61	80.69
373.835	73.69
374.061	92.69
374.287	89.69
374.513	83.69
374.739	80.69
374.965	90.69
375.191	99.69
375.416	74.69
375.642	90.69
375.868	78.69
376.094	88.69
376.319	74.69
376.545	83.69
376.771	92.69
376.997	85.69
377.222	87.69
377.448	101.69
377.674	99.69
377.899	91.69
378.125	98.69
378.35	92.69
378.576	89.69
378.802	102.69
379.027	81.69
379.253	97.69
379.478	85.69
379.704	97.69
379.929	88.69
380.155	93.69
380.38	96.69
380.606	86.69
380.831	94.69
381.057	95.69
381.282	94.69
381.507	89.69
381.733	94.69
381.958	87.69
382.184	97.69
382.409	107.69
382.634	95.69
382.86	90.69
383.085	114.69
383.31	103.69
383.535	93.69
383.761	100.69
383.986	99.69
384.211	93.69
384.436	100.69
384.662	106.69
384.887	93.69
385.112	97.69
385.337	89.69
385.562	102.69
385.787	103.69
386.013	105.69
386.238	105.69
386.463	98.69
386.688	105.69
386.913	100.69
387.138	93.69
387.363	97.69
387.588	97.69
387.813	94.69
388.038	98.69
388.263	110.69
388.488	101.69
388.713	98.69
388.938	103.69
389.163	93.69
389.387	94.69
389.612	86.69
389.837	88.69
390.062	90.69
390.287	87.69
390.512	98.69
390.736	71.69
390.961	99.69
391.186	95.69
391.411	90.69
391.636	93.69
391.86	79.69
392.085	90.69
392.31	83.69
392.534	91.69
392.759	93.69
392.984	89.69
393.208	79.69
393.433	80.69
393.658	97.69
393.882	93.69
394.107	90.69
394.331	92.69
394.556	91.69
394.78	69.69
395.005	88.69
395.229	91.69
395.454	100.69
395.678	81.69
395.903	84.69
396.127	99.69
396.352	98.69
396.576	74.69
396.801	83.69
397.025	75.69
397.249	93.69
397.474	82.69
397.698	86.69
397.922	91.69
398.147	90.69
398.371	93.69
398.595	85.69
398.82	93.69
399.044	104.69
399.268	67.69
399.492	93.69
399.717	97.69
399.941	90.69
400.165	112.69
400.389	98.69
400.613	97.69
400.837	92.69
401.062	90.69
401.286	93.69
401.51	87.69
401.734	79.69
401.958	114.69
402.182	142.69
402.406	167.69
402.63	120.69
402.854	93.69
403.078	102.69
403.302	80.69
403.526	92.69
403.75	84.69
403.974	109.69
404.198	79.69
404.422	83.69
404.645	91.69
404.869	101.69
405.093	102.69
405.317	113.69
405.541	95.69
405.765	98.69
405.988	123.69
406.212	184.69
406.436	262.69
406.66	171.69
406.883	110.69
407.107	101.69
407.331	91.69
407.555	103.69
407.778	101.69
408.002	90.69
408.226	106.69
408.449	98.69
408.673	96.69
408.896	101.69
409.12	98.69
409.344	90.69
409.567	82.69
409.791	110.69
410.014	97.69
410.238	111.69
410.461	101.69
410.685	88.69
410.908	96.69
411.132	104.69
411.355	99.69
411.578	91.69
411.802	90.69
412.025	83.69
412.249	102.69
412.472	110.69
412.695	124.69
412.919	100.69
413.142	95.69
413.365	93.69
413.589	91.69
413.812	98.69
414.035	88.69
414.258	84.69
414.482	99.69
414.705	85.69
414.928	93.69
415.151	92.69
415.374	80.69
415.597	74.69
415.821	80.69
416.044	86.69
416.267	78.69
416.49	96.69
416.713	93.69
416.936	89.69
417.159	82.69
417.382	87.69
417.605	88.69
417.828	80.69
418.051	89.69
418.274	86.69
418.497	97.69
418.72	88.69
418.943	87.69
419.166	80.69
419.389	87.69
419.611	79.69
419.834	97.69
420.057	105.69
420.28	87.69
420.503	79.69
420.726	74.69
420.948	88.69
421.171	101.69
421.394	93.69
421.617	97.69
421.839	91.69
422.062	94.69
422.285	99.69
422.507	108.69
422.73	113.69
422.953	93.69
423.175	88.69
423.398	96.69
423.621	94.69
423.843	85.69
424.066	85.69
424.288	83.69
424.511	95.69
424.733	119.69
424.956	105.69
425.178	101.69
425.401	103.69
425.623	102.69
425.846	95.69
426.068	102.69
426.291	85.69
426.513	95.69
426.735	87.69
426.958	100.69
427.18	116.69
427.402	172.69
427.625	215.69
427.847	162.69
428.069	135.69
428.292	114.69
428.514	86.69
428.736	91.69
428.958	81.69
429.181	95.69
429.403	87.69
429.625	96.69
429.847	96.69
430.069	107.69
430.292	113.69
430.514	93.69
430.736	91.69
430.958	80.69
431.18	93.69
431.402	99.69
431.624	91.69
431.846	89.69
432.068	86.69
432.29	80.69
432.512	100.69
432.734	97.69
432.956	99.69
433.178	106.69
433.4	106.69
433.622	94.69
433.844	93.69
434.066	102.69
434.287	102.69
434.509	95.69
434.731	108.69
434.953	81.69
435.175	90.69
435.397	90.69
435.618	96.69
435.84	123.69
436.062	127.69
436.284	123.69
436.505	102.69
436.727	120.69
436.949	100.69
437.17	87.69
437.392	90.69
437.614	91.69
437.835	96.69
438.057	125.69
438.278	120.69
438.5	121.69
438.721	131.69
438.943	92.69
439.165	98.69
439.386	90.69
439.608	102.69
439.829	95.69
440.05	119.69
440.272	168.69
440.493	108.69
440.715	96.69
440.936	94.69
441.158	96.69
441.379	104.69
441.6	97.69
441.822	96.69
442.043	89.69
442.264	113.69
442.486	89.69
442.707	105.69
442.928	110.69
443.149	157.69
443.371	155.69
443.592	125.69
443.813	136.69
444.034	127.69
444.255	92.69
444.476	94.69
444.698	85.69
444.919	86.69
445.14	138.69
445.361	134.69
445.582	129.69
445.803	149.69
446.024	159.69
446.245	163.69
446.466	112.69
446.687	92.69
446.908	91.69
447.129	83.69
447.35	92.69
447.571	102.69
447.792	83.69
448.013	111.69
448.234	129.69
448.455	112.69
448.675	133.69
448.896	140.69
449.117	101.69
449.338	111.69
449.559	155.69
449.779	150.69
450	103.69
450.221	94.69
450.442	95.69
450.662	94.69
450.883	120.69
451.104	121.69
451.324	98.69
451.545	99.69
451.766	89.69
451.986	93.69
452.207	85.69
452.428	107.69
452.648	106.69
452.869	110.69
453.089	111.69
453.31	117.69
453.53	106.69
453.751	97.69
453.971	106.69
454.192	111.69
454.412	90.69
454.633	89.69
454.853	99.69
455.073	101.69
455.294	104.69
455.514	100.69
455.734	95.69
455.955	74.69
456.175	89.69
456.395	95.69
456.616	87.69
456.836	71.69
457.056	73.69
457.276	82.69
457.497	79.69
457.717	80.69
457.937	85.69
458.157	88.69
458.377	87.69
458.598	121.69
458.818	171.69
459.038	175.69
459.258	139.69
459.478	96.69
459.698	87.69
459.918	99.69
460.138	84.69
460.358	86.69
460.578	100.69
460.798	99.69
461.018	106.69
461.238	69.69
461.458	90.69
461.678	81.69
461.898	93.69
462.118	84.69
462.338	89.69
462.558	85.69
462.777	78.69
462.997	110.69
463.217	86.69
463.437	80.69
463.657	91.69
463.876	63.69
464.096	103.69
464.316	102.69
464.536	98.69
464.755	107.69
464.975	115.69
465.195	195.69
465.414	194.69
465.634	97.69
465.854	89.69
466.073	97.69
466.293	104.69
466.512	94.69
466.732	91.69
466.951	71.69
467.171	86.69
467.391	106.69
467.61	99.69
467.829	100.69
468.049	108.69
468.268	129.69
468.488	94.69
468.707	94.69
468.927	94.69
469.146	84.69
469.365	81.69
469.585	74.69
469.804	111.69
470.023	111.69
470.243	100.69
470.462	98.69
470.681	126.69
470.901	91.69
471.12	79.69
471.339	85.69
471.558	94.69
471.777	80.69
471.997	101.69
472.216	129.69
472.435	223.69
472.654	122.69
472.873	107.69
473.092	91.69
473.311	85.69
473.53	84.69
473.749	81.69
473.968	99.69
474.187	123.69
474.406	118.69
474.625	108.69
474.844	86.69
475.063	97.69
475.282	75.69
475.501	80.69
475.72	97.69
475.939	92.69
476.158	101.69
476.377	95.69
476.596	88.69
476.814	93.69
477.033	105.69
477.252	93.69
477.471	100.69
477.69	99.69
477.908	93.69
478.127	85.69
478.346	83.69
478.564	90.69
478.783	90.69
479.002	101.69
479.22	91.69
479.439	108.69
479.658	123.69
479.876	109.69
480.095	97.69
480.313	98.69
480.532	104.69
480.751	98.69
480.969	142.69
481.188	312.69
481.406	234.69
481.624	96.69
481.843	103.69
482.061	97.69
482.28	99.69
482.498	97.69
482.717	90.69
482.935	82.69
483.153	79.69
483.372	101.69
483.59	87.69
483.808	93.69
484.027	90.69
484.245	103.69
484.463	94.69
484.681	97.69
484.9	98.69
485.118	85.69
485.336	106.69
485.554	102.69
485.772	97.69
485.99	103.69
486.209	101.69
486.427	106.69
486.645	109.69
486.863	116.69
487.081	102.69
487.299	103.69
487.517	91.69
487.735	103.69
487.953	83.69
488.171	109.69
488.389	98.69
488.607	98.69
488.825	102.69
489.043	85.69
489.261	99.69
489.479	96.69
489.696	91.69
489.914	89.69
490.132	95.69
490.35	82.69
490.568	89.69
490.786	93.69
491.003	95.69
491.221	90.69
491.439	87.69
491.657	87.69
491.874	103.69
492.092	96.69
492.31	93.69
492.527	74.69
492.745	78.69
492.963	90.69
493.18	96.69
493.398	104.69
493.615	108.69
493.833	110.69
494.05	86.69
494.268	84.69
494.485	86.69
494.703	93.69
494.92	82.69
495.138	93.69
495.355	91.69
495.573	97.69
495.79	95.69
496.008	98.69
496.225	100.69
496.442	97.69
496.66	97.69
496.877	82.69
497.094	110.69
497.312	95.69
497.529	97.69
497.746	93.69
497.963	100.69
498.181	90.69
498.398	103.69
498.615	111.69
498.832	112.69
499.049	96.69
499.267	93.69
499.484	98.69
499.701	88.69
499.918	79.69
500.135	85.69
500.352	78.69
500.569	102.69
500.786	104.69
501.003	96.69
501.22	104.69
501.437	103.69
501.654	99.69
501.871	128.69
502.088	98.69
502.305	97.69
502.522	91.69
502.739	97.69
502.956	97.69
503.172	84.69
503.389	90.69
503.606	114.69
503.823	95.69
504.04	96.69
504.256	83.69
504.473	90.69
504.69	90.69
504.907	87.69
505.123	90.69
505.34	104.69
505.557	90.69
505.773	93.69
505.99	98.69
506.207	92.69
506.423	83.69
506.64	106.69
506.856	98.69
507.073	94.69
507.289	105.69
507.506	105.69
507.722	101.69
507.939	111.69
508.155	80.69
508.372	99.69
508.588	90.69
508.805	77.69
509.021	93.69
509.238	99.69
509.454	96.69
509.67	107.69
509.887	108.69
510.103	126.69
510.319	230.69
510.536	906.69
510.752	2797.69
510.968	745.69
511.184	182.69
511.401	135.69
511.617	97.69
511.833	96.69
512.049	87.69
512.265	103.69
512.481	97.69
512.698	88.69
512.914	90.69
513.13	94.69
513.346	94.69
513.562	83.69
513.778	97.69
513.994	113.69
