Data from Uncirc_1988_H10_HRD10591_00095.txt Node
Date: Wed Jan 03 12:04:23 EST 2024
User: Yrep
Spectrometer: HR+D1059
Trigger mode: 1
Integration Time (sec): 1.000000E-1
Scans to average: 1
Electric dark correction enabled: true
Nonlinearity correction enabled: false
Boxcar width: 0
XAxis mode: Wavelengths
Number of Pixels in Spectrum: 2048
>>>>>Begin Spectral Data<<<<<
223.165	-22
223.4	-22
223.635	-22
223.869	-15
224.104	-19
224.338	-15
224.573	-10
224.808	-20
225.042	-6
225.277	-12
225.511	4
225.746	2
225.98	4
226.215	25
226.449	23
226.683	17
226.918	12
227.152	32
227.387	44
227.621	43
227.856	38
228.09	50
228.324	56
228.559	50
228.793	56
229.027	59
229.262	68
229.496	73
229.73	82
229.964	86
230.199	81
230.433	73
230.667	71
230.901	74
231.136	73
231.37	79
231.604	87
231.838	89
232.072	68
232.306	79
232.541	89
232.775	76
233.009	85
233.243	78
233.477	88
233.711	80
233.945	73
234.179	74
234.413	76
234.647	77
234.881	86
235.115	72
235.349	86
235.583	92
235.817	89
236.051	82
236.285	91
236.519	80
236.753	72
236.987	70
237.221	94
237.455	76
237.689	67
237.922	79
238.156	80
238.39	80
238.624	71
238.858	70
239.091	82
239.325	81
239.559	73
239.793	73
240.027	90
240.26	67
240.494	81
240.728	76
240.961	86
241.195	87
241.429	82
241.662	96
241.896	66
242.13	73
242.363	87
242.597	66
242.83	84
243.064	71
243.298	65
243.531	76
243.765	79
243.998	73
244.232	86
244.465	83
244.699	84
244.932	64
245.166	70
245.399	79
245.633	86
245.866	76
246.099	85
246.333	84
246.566	86
246.8	85
247.033	80
247.266	88
247.5	81
247.733	79
247.966	71
248.2	82
248.433	99
248.666	90
248.899	76
249.133	84
249.366	95
249.599	79
249.832	86
250.066	90
250.299	83
250.532	86
250.765	79
250.998	85
251.231	89
251.465	86
251.698	92
251.931	76
252.164	73
252.397	82
252.63	83
252.863	89
253.096	77
253.329	93
253.562	88
253.795	90
254.028	84
254.261	72
254.494	93
254.727	88
254.96	86
255.193	87
255.426	86
255.659	67
255.892	86
256.124	86
256.357	72
256.59	86
256.823	85
257.056	79
257.289	83
257.521	70
257.754	89
257.987	92
258.22	78
258.452	91
258.685	90
258.918	87
259.151	80
259.383	92
259.616	97
259.849	80
260.081	70
260.314	97
260.547	84
260.779	95
261.012	76
261.244	82
261.477	94
261.71	74
261.942	109
262.175	106
262.407	80
262.64	81
262.872	79
263.105	86
263.337	82
263.57	76
263.802	73
264.035	82
264.267	78
264.499	80
264.732	91
264.964	78
265.197	74
265.429	81
265.661	82
265.894	92
266.126	80
266.358	88
266.591	94
266.823	92
267.055	77
267.287	97
267.52	85
267.752	84
267.984	95
268.216	76
268.448	92
268.681	87
268.913	84
269.145	80
269.377	83
269.609	87
269.841	81
270.073	74
270.306	82
270.538	87
270.77	82
271.002	89
271.234	111
271.466	85
271.698	87
271.93	88
272.162	99
272.394	73
272.626	86
272.858	76
273.09	86
273.322	95
273.553	91
273.785	87
274.017	82
274.249	90
274.481	85
274.713	90
274.945	99
275.176	89
275.408	104
275.64	86
275.872	76
276.104	78
276.335	97
276.567	96
276.799	107
277.031	84
277.262	93
277.494	94
277.726	92
277.957	85
278.189	78
278.421	85
278.652	92
278.884	80
279.115	84
279.347	90
279.579	86
279.81	92
280.042	103
280.273	83
280.505	80
280.736	87
280.968	98
281.199	86
281.431	86
281.662	91
281.894	89
282.125	98
282.356	123
282.588	121
282.819	96
283.051	85
283.282	70
283.513	84
283.745	82
283.976	96
284.207	86
284.439	86
284.67	89
284.901	88
285.132	88
285.364	75
285.595	89
285.826	79
286.057	92
286.288	96
286.52	77
286.751	102
286.982	79
287.213	81
287.444	79
287.675	101
287.906	102
288.138	102
288.369	85
288.6	96
288.831	89
289.062	87
289.293	78
289.524	84
289.755	92
289.986	88
290.217	90
290.448	89
290.679	100
290.91	96
291.141	89
291.371	93
291.602	92
291.833	82
292.064	99
292.295	90
292.526	86
292.757	79
292.987	95
293.218	96
293.449	95
293.68	84
293.91	80
294.141	92
294.372	79
294.603	86
294.833	89
295.064	90
295.295	102
295.525	92
295.756	103
295.987	95
296.217	138
296.448	116
296.679	100
296.909	87
297.14	89
297.37	74
297.601	88
297.831	97
298.062	85
298.292	84
298.523	81
298.753	83
298.984	91
299.214	85
299.445	95
299.675	102
299.905	102
300.136	81
300.366	95
300.597	85
300.827	98
301.057	92
301.288	106
301.518	103
301.748	99
301.979	93
302.209	84
302.439	90
302.669	106
302.9	88
303.13	91
303.36	87
303.59	99
303.82	105
304.051	88
304.281	102
304.511	96
304.741	88
304.971	90
305.201	80
305.431	94
305.661	80
305.891	104
306.121	101
306.352	97
306.582	104
306.812	86
307.042	96
307.272	87
307.502	88
307.731	93
307.961	87
308.191	84
308.421	81
308.651	94
308.881	98
309.111	96
309.341	98
309.571	106
309.8	103
310.03	96
310.26	102
310.49	89
310.72	99
310.949	95
311.179	107
311.409	88
311.639	87
311.868	92
312.098	97
312.328	105
312.557	101
312.787	107
313.017	104
313.246	102
313.476	92
313.706	84
313.935	110
314.165	92
314.394	89
314.624	95
314.853	84
315.083	83
315.312	97
315.542	101
315.771	90
316.001	88
316.23	109
316.46	94
316.689	97
316.919	100
317.148	104
317.377	92
317.607	109
317.836	81
318.065	85
318.295	78
318.524	88
318.753	89
318.983	87
319.212	89
319.441	110
319.67	120
319.9	91
320.129	95
320.358	113
320.587	93
320.816	97
321.046	98
321.275	93
321.504	98
321.733	96
321.962	97
322.191	93
322.42	99
322.649	104
322.878	88
323.108	119
323.337	116
323.566	134
323.795	157
324.024	206
324.253	402
324.482	822
324.71	1698
324.939	2242
325.168	802
325.397	240
325.626	140
325.855	129
326.084	130
326.313	123
326.542	153
326.77	244
326.999	425
327.228	961
327.457	1724
327.686	1369
327.914	372
328.143	188
328.372	166
328.6	129
328.829	121
329.058	122
329.287	124
329.515	96
329.744	123
329.972	100
330.201	132
330.43	140
330.658	140
330.887	120
331.115	124
331.344	90
331.572	89
331.801	92
332.03	93
332.258	92
332.486	93
332.715	99
332.943	99
333.172	100
333.4	101
333.629	107
333.857	119
334.085	110
334.314	107
334.542	154
334.771	142
334.999	104
335.227	96
335.455	90
335.684	105
335.912	97
336.14	102
336.369	94
336.597	93
336.825	100
337.053	102
337.281	100
337.51	90
337.738	93
337.966	95
338.194	85
338.422	94
338.65	90
338.878	99
339.106	95
339.334	78
339.562	85
339.79	88
340.018	83
340.246	96
340.474	107
340.702	98
340.93	94
341.158	88
341.386	102
341.614	97
341.842	98
342.07	95
342.298	95
342.526	99
342.754	98
342.981	86
343.209	83
343.437	100
343.665	96
343.893	85
344.12	83
344.348	88
344.576	103
344.804	89
345.031	89
345.259	92
345.487	106
345.714	95
345.942	86
346.17	96
346.397	85
346.625	86
346.853	89
347.08	97
347.308	96
347.535	98
347.763	97
347.99	117
348.218	107
348.445	88
348.673	109
348.9	85
349.128	82
349.355	89
349.583	99
349.81	96
350.037	89
350.265	100
350.492	106
350.72	104
350.947	94
351.174	104
351.402	106
351.629	101
351.856	89
352.083	99
352.311	88
352.538	115
352.765	99
352.992	111
353.22	106
353.447	103
353.674	89
353.901	90
354.128	101
354.355	97
354.583	89
354.81	101
355.037	97
355.264	98
355.491	85
355.718	83
355.945	90
356.172	90
356.399	99
356.626	76
356.853	98
357.08	101
357.307	96
357.534	90
357.761	87
357.988	91
358.215	85
358.441	105
358.668	82
358.895	94
359.122	82
359.349	90
359.576	81
359.802	100
360.029	109
360.256	111
360.483	88
360.709	94
360.936	88
361.163	96
361.39	91
361.616	101
361.843	86
362.07	69
362.296	90
362.523	93
362.749	86
362.976	81
363.203	85
363.429	71
363.656	86
363.882	103
364.109	97
364.335	94
364.562	84
364.788	92
365.015	101
365.241	88
365.468	99
365.694	106
365.92	86
366.147	96
366.373	81
366.599	84
366.826	80
367.052	87
367.278	80
367.505	89
367.731	88
367.957	80
368.184	70
368.41	108
368.636	105
368.862	109
369.089	94
369.315	97
369.541	82
369.767	95
369.993	95
370.219	91
370.445	94
370.672	80
370.898	89
371.124	86
371.35	90
371.576	99
371.802	96
372.028	96
372.254	87
372.48	88
372.706	88
372.932	101
373.158	69
373.384	86
373.61	92
373.835	85
374.061	91
374.287	95
374.513	87
374.739	93
374.965	86
375.191	69
375.416	81
375.642	79
375.868	70
376.094	76
376.319	76
376.545	83
376.771	89
376.997	96
377.222	85
377.448	100
377.674	84
377.899	87
378.125	82
378.35	92
378.576	99
378.802	81
379.027	92
379.253	92
379.478	83
379.704	83
379.929	89
380.155	101
380.38	91
380.606	91
380.831	76
381.057	94
381.282	88
381.507	101
381.733	93
381.958	103
382.184	101
382.409	89
382.634	88
382.86	95
383.085	95
383.31	96
383.535	105
383.761	98
383.986	96
384.211	90
384.436	92
384.662	89
384.887	87
385.112	104
385.337	100
385.562	99
385.787	90
386.013	99
386.238	103
386.463	95
386.688	98
386.913	92
387.138	104
387.363	70
387.588	100
387.813	109
388.038	112
388.263	100
388.488	110
388.713	99
388.938	92
389.163	96
389.387	96
389.612	85
389.837	90
390.062	83
390.287	94
390.512	74
390.736	85
390.961	92
391.186	108
391.411	93
391.636	100
391.86	92
392.085	89
392.31	91
392.534	88
392.759	84
392.984	89
393.208	80
393.433	87
393.658	97
393.882	90
394.107	95
394.331	84
394.556	82
394.78	89
395.005	81
395.229	98
395.454	93
395.678	81
395.903	89
396.127	92
396.352	87
396.576	96
396.801	94
397.025	93
397.249	92
397.474	104
397.698	108
397.922	75
398.147	86
398.371	73
398.595	89
398.82	79
399.044	93
399.268	76
399.492	87
399.717	95
399.941	100
400.165	88
400.389	90
400.613	77
400.837	92
401.062	94
401.286	98
401.51	89
401.734	81
401.958	93
402.182	115
402.406	155
402.63	111
402.854	87
403.078	90
403.302	97
403.526	92
403.75	96
403.974	89
404.198	85
404.422	82
404.645	94
404.869	95
405.093	92
405.317	94
405.541	96
405.765	98
405.988	99
406.212	158
406.436	204
406.66	126
406.883	98
407.107	106
407.331	97
407.555	92
407.778	84
408.002	89
408.226	87
408.449	84
408.673	85
408.896	93
409.12	90
409.344	103
409.567	95
409.791	100
410.014	90
410.238	91
410.461	96
410.685	81
410.908	96
411.132	104
411.355	104
411.578	91
411.802	76
412.025	93
412.249	82
412.472	96
412.695	95
412.919	101
413.142	92
413.365	94
413.589	92
413.812	84
414.035	100
414.258	90
414.482	97
414.705	85
414.928	95
415.151	92
415.374	97
415.597	84
415.821	97
416.044	97
416.267	84
416.49	78
416.713	91
416.936	84
417.159	88
417.382	84
417.605	88
417.828	97
418.051	90
418.274	88
418.497	73
418.72	77
418.943	76
419.166	84
419.389	73
419.611	75
419.834	81
420.057	102
420.28	79
420.503	77
420.726	86
420.948	81
421.171	95
421.394	88
421.617	96
421.839	92
422.062	84
422.285	89
422.507	87
422.73	111
422.953	99
423.175	92
423.398	89
423.621	92
423.843	92
424.066	85
424.288	87
424.511	91
424.733	99
424.956	104
425.178	95
425.401	98
425.623	109
425.846	88
426.068	85
426.291	85
426.513	86
426.735	93
426.958	83
427.18	104
427.402	148
427.625	149
427.847	126
428.069	117
428.292	96
428.514	102
428.736	102
428.958	96
429.181	89
429.403	73
429.625	95
429.847	89
430.069	106
430.292	95
430.514	89
430.736	87
430.958	86
431.18	85
431.402	77
431.624	103
431.846	89
432.068	80
432.29	80
432.512	81
432.734	88
432.956	82
433.178	92
433.4	88
433.622	88
433.844	99
434.066	83
434.287	96
434.509	96
434.731	104
434.953	93
435.175	88
435.397	91
435.618	73
435.84	86
436.062	125
436.284	107
436.505	110
436.727	110
436.949	84
437.17	80
437.392	84
437.614	95
437.835	102
438.057	108
438.278	113
438.5	96
438.721	129
438.943	106
439.165	86
439.386	89
439.608	101
439.829	87
440.05	127
440.272	128
440.493	100
440.715	105
440.936	85
441.158	94
441.379	82
441.6	110
441.822	86
442.043	95
442.264	94
442.486	97
442.707	93
442.928	96
443.149	117
443.371	115
443.592	104
443.813	105
444.034	99
444.255	96
444.476	89
444.698	102
444.919	88
445.14	116
445.361	120
445.582	109
445.803	142
446.024	129
446.245	133
446.466	97
446.687	96
446.908	83
447.129	78
447.35	93
447.571	85
447.792	96
448.013	95
448.234	96
448.455	105
448.675	108
448.896	108
449.117	93
449.338	114
449.559	133
449.779	132
450	97
450.221	78
450.442	83
450.662	82
450.883	90
451.104	105
451.324	85
451.545	89
451.766	90
451.986	83
452.207	92
452.428	88
452.648	103
452.869	109
453.089	105
453.31	110
453.53	93
453.751	85
453.971	94
454.192	112
454.412	99
454.633	82
454.853	90
455.073	89
455.294	84
455.514	82
455.734	106
455.955	78
456.175	102
456.395	89
456.616	95
456.836	85
457.056	78
457.276	81
457.497	84
457.717	97
457.937	105
458.157	83
458.377	83
458.598	100
458.818	147
459.038	144
459.258	112
459.478	84
459.698	90
459.918	75
460.138	81
460.358	87
460.578	80
460.798	91
461.018	88
461.238	70
461.458	78
461.678	84
461.898	104
462.118	89
462.338	80
462.558	79
462.777	93
462.997	97
463.217	90
463.437	96
463.657	84
463.876	78
464.096	80
464.316	81
464.536	93
464.755	81
464.975	92
465.195	164
465.414	150
465.634	101
465.854	93
466.073	86
466.293	93
466.512	90
466.732	94
466.951	82
467.171	88
467.391	104
467.61	101
467.829	102
468.049	91
468.268	95
468.488	95
468.707	82
468.927	92
469.146	83
469.365	95
469.585	85
469.804	104
470.023	94
470.243	80
470.462	89
470.681	101
470.901	84
471.12	76
471.339	99
471.558	90
471.777	95
471.997	81
472.216	125
472.435	168
472.654	103
472.873	79
473.092	84
473.311	104
473.53	88
473.749	80
473.968	87
474.187	100
474.406	97
474.625	87
474.844	100
475.063	92
475.282	89
475.501	97
475.72	98
475.939	78
476.158	73
476.377	80
476.596	81
476.814	87
477.033	98
477.252	91
477.471	88
477.69	84
477.908	89
478.127	102
478.346	89
478.564	80
478.783	89
479.002	79
479.22	82
479.439	90
479.658	100
479.876	81
480.095	102
480.313	82
480.532	89
480.751	112
480.969	121
481.188	222
481.406	163
481.624	94
481.843	100
482.061	92
482.28	80
482.498	82
482.717	86
482.935	85
483.153	82
483.372	87
483.59	104
483.808	92
484.027	86
484.245	88
484.463	101
484.681	90
484.9	100
485.118	98
485.336	88
485.554	98
485.772	106
485.99	97
486.209	103
486.427	120
486.645	100
486.863	104
487.081	116
487.299	103
487.517	94
487.735	92
487.953	92
488.171	92
488.389	96
488.607	110
488.825	89
489.043	87
489.261	96
489.479	93
489.696	87
489.914	93
490.132	93
490.35	89
490.568	94
490.786	89
491.003	83
491.221	86
491.439	106
491.657	96
491.874	104
492.092	97
492.31	98
492.527	89
492.745	65
492.963	80
493.18	86
493.398	83
493.615	100
493.833	91
494.05	99
494.268	72
494.485	101
494.703	87
494.92	97
495.138	82
495.355	102
495.573	79
495.79	86
496.008	73
496.225	86
496.442	83
496.66	102
496.877	83
497.094	100
497.312	98
497.529	92
497.746	89
497.963	76
498.181	82
498.398	97
498.615	110
498.832	100
499.049	93
499.267	102
499.484	98
499.701	91
499.918	102
500.135	100
500.352	94
500.569	97
500.786	84
501.003	90
501.22	86
501.437	97
501.654	107
501.871	90
502.088	83
502.305	88
502.522	100
502.739	90
502.956	96
503.172	87
503.389	102
503.606	103
503.823	85
504.04	92
504.256	92
504.473	77
504.69	97
504.907	91
505.123	73
505.34	78
505.557	95
505.773	98
505.99	90
506.207	78
506.423	101
506.64	96
506.856	95
507.073	82
507.289	112
507.506	90
507.722	120
507.939	97
508.155	88
508.372	103
508.588	96
508.805	100
509.021	101
509.238	90
509.454	98
509.67	106
509.887	113
510.103	129
510.319	203
510.536	682
510.752	2097
510.968	575
511.184	136
511.401	99
511.617	77
511.833	92
512.049	99
512.265	102
512.481	93
512.698	97
512.914	84
513.13	94
513.346	98
513.562	103
513.778	101
513.994	98
514.21	97
514.426	118
514.642	127
514.858	116
515.074	166
515.29	403
515.506	1327
515.721	479
515.937	144
516.153	106
516.369	102
516.585	97
516.801	85
517.016	88
517.232	101
517.448	97
517.664	111
517.879	97
518.095	87
518.311	85
518.527	93
518.742	93
518.958	93
519.173	99
519.389	96
519.605	92
519.82	97
520.036	117
520.251	109
520.467	108
520.682	118
520.898	95
521.113	108
521.329	139
521.544	198
521.76	528
521.975	2155
522.19	1280
522.406	301
522.621	134
522.836	116
523.052	88
523.267	91
523.482	96
523.698	109
523.913	117
524.128	105
524.343	104
524.559	99
524.774	92
524.989	94
525.204	100
525.419	92
525.634	97
525.849	104
526.064	92
526.28	85
526.495	103
526.71	85
526.925	80
527.14	84
527.355	81
527.57	92
527.785	82
527.999	82
528.214	94
528.429	90
528.644	76
528.859	92
529.074	90
529.289	126
529.503	169
529.718	111
529.933	109
530.148	85
530.363	103
530.577	89
530.792	92
531.007	101
531.221	87
531.436	72
531.651	105
531.865	97
532.08	90
532.295	96
532.509	73
532.724	95
532.938	89
533.153	97
533.367	92
533.582	102
533.796	81
534.011	92
534.225	81
534.44	97
534.654	112
534.868	85
535.083	105
535.297	97
535.511	101
535.726	98
535.94	106
536.154	96
536.369	102
536.583	88
536.797	88
537.011	87
537.225	86
537.44	100
537.654	88
537.868	89
538.082	94
538.296	96
538.51	92
538.724	96
538.938	88
539.153	101
539.367	102
539.581	94
539.795	95
540.009	85
540.222	98
540.436	82
540.65	78
540.864	100
541.078	95
541.292	85
541.506	82
541.72	91
541.934	90
542.147	102
542.361	87
542.575	92
542.789	93
543.002	87
543.216	101
543.43	89
543.644	89
543.857	86
544.071	97
544.285	85
544.498	81
544.712	93
544.925	99
545.139	89
545.352	93
545.566	78
545.779	101
545.993	100
546.206	74
546.42	86
546.633	73
546.847	68
547.06	78
547.274	84
547.487	87
547.7	81
547.914	88
548.127	82
548.34	90
548.554	79
548.767	92
548.98	96
549.193	90
549.407	98
549.62	82
549.833	92
550.046	84
550.259	95
550.473	100
550.686	79
550.899	89
551.112	90
551.325	90
551.538	88
551.751	76
551.964	83
552.177	87
552.39	91
552.603	79
552.816	88
553.029	89
553.242	89
553.455	105
553.667	101
553.88	105
554.093	85
554.306	93
554.519	85
554.732	93
554.944	102
555.157	94
555.37	85
555.583	102
555.795	86
556.008	77
556.221	99
556.433	94
556.646	105
556.859	78
557.071	82
557.284	92
557.496	99
557.709	90
557.921	86
558.134	90
558.346	89
558.559	81
558.771	92
558.984	87
559.196	96
559.409	79
559.621	85
559.833	81
560.046	81
560.258	89
560.47	83
560.683	100
560.895	92
561.107	89
561.32	86
561.532	82
561.744	86
561.956	99
562.168	96
562.381	105
562.593	93
562.805	89
563.017	91
563.229	93
563.441	86
563.653	72
563.865	74
564.077	86
564.289	111
564.501	82
564.713	98
564.925	84
565.137	89
565.349	95
565.561	92
565.773	94
565.985	98
566.197	81
566.408	75
566.62	92
566.832	78
567.044	84
567.255	83
567.467	88
567.679	87
567.891	86
568.102	72
568.314	93
568.526	96
568.737	85
568.949	84
569.161	94
569.372	92
569.584	88
569.795	92
570.007	100
570.218	209
570.43	126
570.641	89
570.853	78
571.064	88
571.276	61
571.487	97
571.698	99
571.91	99
572.121	81
572.333	95
572.544	88
572.755	86
572.966	87
573.178	69
573.389	100
573.6	81
573.811	87
574.023	98
574.234	93
574.445	86
574.656	88
574.867	87
575.078	89
575.289	91
575.501	87
575.712	86
575.923	95
576.134	101
576.345	91
576.556	88
576.767	79
576.978	88
577.188	92
577.399	95
577.61	85
577.821	93
578.032	127
578.243	263
578.454	680
578.665	206
578.875	85
579.086	73
579.297	80
579.508	89
579.718	90
579.929	93
580.14	90
580.35	80
580.561	87
580.772	87
580.982	84
581.193	92
581.403	94
581.614	88
581.825	89
582.035	89
582.246	97
582.456	98
582.667	87
582.877	84
583.087	89
583.298	100
583.508	97
583.719	89
583.929	86
584.139	72
584.35	90
584.56	91
