Data from Uncirc_1988_H10_HRD10591_00084.txt Node
Date: Wed Jan 03 12:04:21 EST 2024
User: Yrep
Spectrometer: HR+D1059
Trigger mode: 1
Integration Time (sec): 1.000000E-1
Scans to average: 1
Electric dark correction enabled: true
Nonlinearity correction enabled: false
Boxcar width: 0
XAxis mode: Wavelengths
Number of Pixels in Spectrum: 2048
>>>>>Begin Spectral Data<<<<<
223.165	-11.5
223.4	-11.5
223.635	-11.5
223.869	-12.5
224.104	-14.5
224.338	-3.5
224.573	-23.5
224.808	-15.5
225.042	-11.5
225.277	-28.5
225.511	-17.5
225.746	4.5
225.98	5.5
226.215	18.5
226.449	10.5
226.683	33.5
226.918	26.5
227.152	39.5
227.387	26.5
227.621	54.5
227.856	37.5
228.09	35.5
228.324	38.5
228.559	62.5
228.793	56.5
229.027	60.5
229.262	62.5
229.496	83.5
229.73	87.5
229.964	86.5
230.199	69.5
230.433	77.5
230.667	69.5
230.901	88.5
231.136	84.5
231.37	69.5
231.604	76.5
231.838	83.5
232.072	80.5
232.306	75.5
232.541	80.5
232.775	77.5
233.009	76.5
233.243	68.5
233.477	74.5
233.711	72.5
233.945	75.5
234.179	82.5
234.413	77.5
234.647	80.5
234.881	80.5
235.115	72.5
235.349	80.5
235.583	80.5
235.817	66.5
236.051	72.5
236.285	84.5
236.519	78.5
236.753	75.5
236.987	82.5
237.221	82.5
237.455	101.5
237.689	67.5
237.922	61.5
238.156	77.5
238.39	66.5
238.624	77.5
238.858	76.5
239.091	83.5
239.325	82.5
239.559	76.5
239.793	60.5
240.027	72.5
240.26	74.5
240.494	79.5
240.728	74.5
240.961	77.5
241.195	71.5
241.429	74.5
241.662	78.5
241.896	83.5
242.13	64.5
242.363	81.5
242.597	74.5
242.83	77.5
243.064	87.5
243.298	76.5
243.531	82.5
243.765	78.5
243.998	87.5
244.232	77.5
244.465	88.5
244.699	74.5
244.932	82.5
245.166	69.5
245.399	77.5
245.633	80.5
245.866	89.5
246.099	69.5
246.333	58.5
246.566	74.5
246.8	76.5
247.033	87.5
247.266	87.5
247.5	88.5
247.733	59.5
247.966	83.5
248.2	86.5
248.433	70.5
248.666	87.5
248.899	92.5
249.133	83.5
249.366	98.5
249.599	86.5
249.832	77.5
250.066	83.5
250.299	84.5
250.532	68.5
250.765	82.5
250.998	74.5
251.231	78.5
251.465	84.5
251.698	82.5
251.931	68.5
252.164	75.5
252.397	65.5
252.63	78.5
252.863	72.5
253.096	80.5
253.329	78.5
253.562	82.5
253.795	77.5
254.028	75.5
254.261	73.5
254.494	82.5
254.727	75.5
254.96	80.5
255.193	66.5
255.426	68.5
255.659	79.5
255.892	95.5
256.124	84.5
256.357	71.5
256.59	72.5
256.823	71.5
257.056	74.5
257.289	66.5
257.521	79.5
257.754	90.5
257.987	78.5
258.22	86.5
258.452	77.5
258.685	91.5
258.918	94.5
259.151	90.5
259.383	90.5
259.616	82.5
259.849	79.5
260.081	74.5
260.314	76.5
260.547	71.5
260.779	80.5
261.012	74.5
261.244	88.5
261.477	92.5
261.71	79.5
261.942	101.5
262.175	112.5
262.407	88.5
262.64	81.5
262.872	84.5
263.105	86.5
263.337	86.5
263.57	69.5
263.802	100.5
264.035	79.5
264.267	99.5
264.499	82.5
264.732	86.5
264.964	95.5
265.197	82.5
265.429	79.5
265.661	88.5
265.894	101.5
266.126	83.5
266.358	82.5
266.591	80.5
266.823	87.5
267.055	78.5
267.287	79.5
267.52	68.5
267.752	86.5
267.984	89.5
268.216	66.5
268.448	98.5
268.681	82.5
268.913	85.5
269.145	89.5
269.377	78.5
269.609	78.5
269.841	104.5
270.073	82.5
270.306	69.5
270.538	78.5
270.77	84.5
271.002	89.5
271.234	95.5
271.466	80.5
271.698	89.5
271.93	90.5
272.162	85.5
272.394	88.5
272.626	86.5
272.858	84.5
273.09	84.5
273.322	90.5
273.553	86.5
273.785	72.5
274.017	78.5
274.249	77.5
274.481	88.5
274.713	77.5
274.945	81.5
275.176	86.5
275.408	84.5
275.64	100.5
275.872	98.5
276.104	88.5
276.335	97.5
276.567	101.5
276.799	118.5
277.031	107.5
277.262	94.5
277.494	82.5
277.726	79.5
277.957	81.5
278.189	77.5
278.421	78.5
278.652	84.5
278.884	79.5
279.115	78.5
279.347	86.5
279.579	78.5
279.81	87.5
280.042	83.5
280.273	91.5
280.505	83.5
280.736	86.5
280.968	91.5
281.199	76.5
281.431	94.5
281.662	87.5
281.894	96.5
282.125	109.5
282.356	133.5
282.588	145.5
282.819	112.5
283.051	92.5
283.282	87.5
283.513	92.5
283.745	68.5
283.976	90.5
284.207	78.5
284.439	84.5
284.67	92.5
284.901	89.5
285.132	82.5
285.364	75.5
285.595	86.5
285.826	95.5
286.057	86.5
286.288	81.5
286.52	92.5
286.751	89.5
286.982	99.5
287.213	80.5
287.444	85.5
287.675	85.5
287.906	88.5
288.138	102.5
288.369	101.5
288.6	81.5
288.831	87.5
289.062	87.5
289.293	85.5
289.524	82.5
289.755	80.5
289.986	79.5
290.217	85.5
290.448	97.5
290.679	94.5
290.91	90.5
291.141	72.5
291.371	85.5
291.602	80.5
291.833	85.5
292.064	77.5
292.295	82.5
292.526	86.5
292.757	85.5
292.987	89.5
293.218	86.5
293.449	74.5
293.68	79.5
293.91	90.5
294.141	103.5
294.372	84.5
294.603	90.5
294.833	81.5
295.064	91.5
295.295	93.5
295.525	86.5
295.756	103.5
295.987	124.5
296.217	151.5
296.448	116.5
296.679	93.5
296.909	90.5
297.14	76.5
297.37	94.5
297.601	94.5
297.831	99.5
298.062	100.5
298.292	96.5
298.523	96.5
298.753	78.5
298.984	88.5
299.214	95.5
299.445	97.5
299.675	99.5
299.905	95.5
300.136	96.5
300.366	96.5
300.597	75.5
300.827	94.5
301.057	106.5
301.288	103.5
301.518	116.5
301.748	82.5
301.979	107.5
302.209	94.5
302.439	72.5
302.669	96.5
302.9	85.5
303.13	98.5
303.36	101.5
303.59	101.5
303.82	123.5
304.051	94.5
304.281	95.5
304.511	78.5
304.741	86.5
304.971	82.5
305.201	107.5
305.431	108.5
305.661	80.5
305.891	95.5
306.121	91.5
306.352	114.5
306.582	112.5
306.812	88.5
307.042	92.5
307.272	93.5
307.502	87.5
307.731	98.5
307.961	83.5
308.191	82.5
308.421	96.5
308.651	87.5
308.881	83.5
309.111	81.5
309.341	90.5
309.571	94.5
309.8	95.5
310.03	90.5
310.26	98.5
310.49	98.5
310.72	100.5
310.949	103.5
311.179	96.5
311.409	99.5
311.639	100.5
311.868	88.5
312.098	104.5
312.328	93.5
312.557	92.5
312.787	106.5
313.017	102.5
313.246	85.5
313.476	89.5
313.706	93.5
313.935	103.5
314.165	101.5
314.394	115.5
314.624	110.5
314.853	101.5
315.083	88.5
315.312	107.5
315.542	84.5
315.771	86.5
316.001	84.5
316.23	89.5
316.46	83.5
316.689	92.5
316.919	94.5
317.148	83.5
317.377	102.5
317.607	94.5
317.836	85.5
318.065	83.5
318.295	98.5
318.524	82.5
318.753	85.5
318.983	95.5
319.212	108.5
319.441	98.5
319.67	97.5
319.9	100.5
320.129	96.5
320.358	110.5
320.587	83.5
320.816	100.5
321.046	83.5
321.275	102.5
321.504	99.5
321.733	103.5
321.962	104.5
322.191	97.5
322.42	101.5
322.649	114.5
322.878	126.5
323.108	116.5
323.337	129.5
323.566	139.5
323.795	164.5
324.024	211.5
324.253	439.5
324.482	937.5
324.71	1938.5
324.939	2676.5
325.168	945.5
325.397	277.5
325.626	143.5
325.855	108.5
326.084	138.5
326.313	138.5
326.542	156.5
326.77	252.5
326.999	495.5
327.228	1077.5
327.457	2024.5
327.686	1618.5
327.914	431.5
328.143	210.5
328.372	186.5
328.6	133.5
328.829	122.5
329.058	134.5
329.287	158.5
329.515	105.5
329.744	115.5
329.972	113.5
330.201	156.5
330.43	141.5
330.658	131.5
330.887	158.5
331.115	138.5
331.344	120.5
331.572	100.5
331.801	112.5
332.03	97.5
332.258	107.5
332.486	95.5
332.715	82.5
332.943	94.5
333.172	82.5
333.4	100.5
333.629	101.5
333.857	125.5
334.085	119.5
334.314	132.5
334.542	167.5
334.771	150.5
334.999	118.5
335.227	100.5
335.455	102.5
335.684	98.5
335.912	104.5
336.14	102.5
336.369	109.5
336.597	106.5
336.825	90.5
337.053	106.5
337.281	90.5
337.51	99.5
337.738	88.5
337.966	97.5
338.194	108.5
338.422	102.5
338.65	91.5
338.878	99.5
339.106	89.5
339.334	85.5
339.562	84.5
339.79	87.5
340.018	86.5
340.246	102.5
340.474	109.5
340.702	95.5
340.93	94.5
341.158	109.5
341.386	105.5
341.614	99.5
341.842	102.5
342.07	106.5
342.298	86.5
342.526	100.5
342.754	82.5
342.981	83.5
343.209	92.5
343.437	97.5
343.665	91.5
343.893	90.5
344.12	96.5
344.348	84.5
344.576	83.5
344.804	95.5
345.031	101.5
345.259	99.5
345.487	93.5
345.714	93.5
345.942	95.5
346.17	101.5
346.397	94.5
346.625	88.5
346.853	95.5
347.08	100.5
347.308	110.5
347.535	110.5
347.763	103.5
347.99	111.5
348.218	104.5
348.445	99.5
348.673	101.5
348.9	100.5
349.128	86.5
349.355	87.5
349.583	94.5
349.81	91.5
350.037	88.5
350.265	80.5
350.492	91.5
350.72	115.5
350.947	127.5
351.174	110.5
351.402	100.5
351.629	107.5
351.856	101.5
352.083	116.5
352.311	100.5
352.538	104.5
352.765	107.5
352.992	110.5
353.22	122.5
353.447	112.5
353.674	92.5
353.901	93.5
354.128	114.5
354.355	109.5
354.583	96.5
354.81	95.5
355.037	104.5
355.264	100.5
355.491	101.5
355.718	78.5
355.945	83.5
356.172	108.5
356.399	98.5
356.626	92.5
356.853	78.5
357.08	90.5
357.307	94.5
357.534	87.5
357.761	84.5
357.988	86.5
358.215	97.5
358.441	102.5
358.668	81.5
358.895	100.5
359.122	89.5
359.349	93.5
359.576	85.5
359.802	112.5
360.029	111.5
360.256	122.5
360.483	103.5
360.709	84.5
360.936	80.5
361.163	93.5
361.39	86.5
361.616	94.5
361.843	81.5
362.07	91.5
362.296	101.5
362.523	94.5
362.749	90.5
362.976	102.5
363.203	101.5
363.429	90.5
363.656	90.5
363.882	84.5
364.109	99.5
364.335	90.5
364.562	105.5
364.788	93.5
365.015	79.5
365.241	90.5
365.468	120.5
365.694	100.5
365.92	93.5
366.147	89.5
366.373	88.5
366.599	90.5
366.826	98.5
367.052	92.5
367.278	82.5
367.505	92.5
367.731	91.5
367.957	88.5
368.184	90.5
368.41	96.5
368.636	119.5
368.862	109.5
369.089	108.5
369.315	107.5
369.541	83.5
369.767	93.5
369.993	92.5
370.219	88.5
370.445	95.5
370.672	88.5
370.898	90.5
371.124	79.5
371.35	90.5
371.576	98.5
371.802	87.5
372.028	87.5
372.254	84.5
372.48	85.5
372.706	87.5
372.932	96.5
373.158	90.5
373.384	86.5
373.61	104.5
373.835	108.5
374.061	90.5
374.287	85.5
374.513	94.5
374.739	90.5
374.965	82.5
375.191	84.5
375.416	81.5
375.642	88.5
375.868	99.5
376.094	92.5
376.319	84.5
376.545	99.5
376.771	78.5
376.997	88.5
377.222	77.5
377.448	103.5
377.674	93.5
377.899	91.5
378.125	81.5
378.35	88.5
378.576	85.5
378.802	93.5
379.027	100.5
379.253	96.5
379.478	86.5
379.704	86.5
379.929	78.5
380.155	87.5
380.38	97.5
380.606	97.5
380.831	82.5
381.057	93.5
381.282	103.5
381.507	91.5
381.733	89.5
381.958	76.5
382.184	103.5
382.409	99.5
382.634	93.5
382.86	82.5
383.085	89.5
383.31	87.5
383.535	95.5
383.761	111.5
383.986	94.5
384.211	95.5
384.436	98.5
384.662	95.5
384.887	91.5
385.112	94.5
385.337	103.5
385.562	97.5
385.787	86.5
386.013	98.5
386.238	99.5
386.463	89.5
386.688	94.5
386.913	96.5
387.138	95.5
387.363	104.5
387.588	103.5
387.813	101.5
388.038	97.5
388.263	111.5
388.488	102.5
388.713	90.5
388.938	87.5
389.163	98.5
389.387	93.5
389.612	95.5
389.837	99.5
390.062	93.5
390.287	92.5
390.512	84.5
390.736	93.5
390.961	90.5
391.186	94.5
391.411	96.5
391.636	94.5
391.86	80.5
392.085	93.5
392.31	78.5
392.534	75.5
392.759	92.5
392.984	74.5
393.208	87.5
393.433	102.5
393.658	76.5
393.882	78.5
394.107	86.5
394.331	89.5
394.556	83.5
394.78	65.5
395.005	95.5
395.229	84.5
395.454	89.5
395.678	82.5
395.903	81.5
396.127	71.5
396.352	90.5
396.576	88.5
396.801	86.5
397.025	75.5
397.249	82.5
397.474	91.5
397.698	90.5
397.922	80.5
398.147	70.5
398.371	69.5
398.595	86.5
398.82	88.5
399.044	85.5
399.268	83.5
399.492	97.5
399.717	101.5
399.941	95.5
400.165	109.5
400.389	96.5
400.613	84.5
400.837	90.5
401.062	80.5
401.286	92.5
401.51	81.5
401.734	85.5
401.958	99.5
402.182	142.5
402.406	178.5
402.63	110.5
402.854	92.5
403.078	84.5
403.302	89.5
403.526	84.5
403.75	74.5
403.974	82.5
404.198	86.5
404.422	84.5
404.645	79.5
404.869	94.5
405.093	94.5
405.317	114.5
405.541	100.5
405.765	88.5
405.988	115.5
406.212	194.5
406.436	253.5
406.66	160.5
406.883	104.5
407.107	112.5
407.331	101.5
407.555	112.5
407.778	98.5
408.002	90.5
408.226	82.5
408.449	90.5
408.673	87.5
408.896	106.5
409.12	112.5
409.344	93.5
409.567	92.5
409.791	99.5
410.014	109.5
410.238	92.5
410.461	101.5
410.685	99.5
410.908	91.5
411.132	97.5
411.355	104.5
411.578	85.5
411.802	86.5
412.025	104.5
412.249	88.5
412.472	96.5
412.695	107.5
412.919	86.5
413.142	98.5
413.365	92.5
413.589	82.5
413.812	90.5
414.035	107.5
414.258	89.5
414.482	89.5
414.705	81.5
414.928	95.5
415.151	88.5
415.374	87.5
415.597	84.5
415.821	99.5
416.044	71.5
416.267	92.5
416.49	86.5
416.713	87.5
416.936	84.5
417.159	102.5
417.382	78.5
417.605	83.5
417.828	114.5
418.051	91.5
418.274	83.5
418.497	91.5
418.72	94.5
418.943	86.5
419.166	79.5
419.389	90.5
419.611	78.5
419.834	82.5
420.057	86.5
420.28	82.5
420.503	82.5
420.726	92.5
420.948	86.5
421.171	92.5
421.394	92.5
421.617	90.5
421.839	86.5
422.062	94.5
422.285	93.5
422.507	101.5
422.73	111.5
422.953	101.5
423.175	79.5
423.398	93.5
423.621	87.5
423.843	67.5
424.066	78.5
424.288	86.5
424.511	97.5
424.733	106.5
424.956	120.5
425.178	101.5
425.401	124.5
425.623	101.5
425.846	88.5
426.068	86.5
426.291	91.5
426.513	91.5
426.735	88.5
426.958	94.5
427.18	117.5
427.402	154.5
427.625	187.5
427.847	147.5
428.069	125.5
428.292	100.5
428.514	78.5
428.736	87.5
428.958	80.5
429.181	85.5
429.403	90.5
429.625	70.5
429.847	74.5
430.069	109.5
430.292	102.5
430.514	94.5
430.736	91.5
430.958	75.5
431.18	77.5
431.402	88.5
431.624	74.5
431.846	85.5
432.068	107.5
432.29	73.5
432.512	86.5
432.734	76.5
432.956	101.5
433.178	90.5
433.4	110.5
433.622	91.5
433.844	90.5
434.066	84.5
434.287	84.5
434.509	89.5
434.731	87.5
434.953	76.5
435.175	94.5
435.397	92.5
435.618	103.5
435.84	101.5
436.062	125.5
436.284	127.5
436.505	114.5
436.727	108.5
436.949	77.5
437.17	75.5
437.392	87.5
437.614	101.5
437.835	113.5
438.057	131.5
438.278	132.5
438.5	117.5
438.721	128.5
438.943	108.5
439.165	88.5
439.386	87.5
439.608	90.5
439.829	96.5
440.05	149.5
440.272	164.5
440.493	109.5
440.715	102.5
440.936	94.5
441.158	81.5
441.379	99.5
441.6	101.5
441.822	102.5
442.043	109.5
442.264	114.5
442.486	93.5
442.707	90.5
442.928	101.5
443.149	141.5
443.371	139.5
443.592	123.5
443.813	123.5
444.034	108.5
444.255	90.5
444.476	83.5
444.698	82.5
444.919	77.5
445.14	123.5
445.361	128.5
445.582	143.5
445.803	158.5
446.024	168.5
446.245	157.5
446.466	116.5
446.687	87.5
446.908	96.5
447.129	88.5
447.35	76.5
447.571	83.5
447.792	95.5
448.013	88.5
448.234	108.5
448.455	102.5
448.675	129.5
448.896	148.5
449.117	104.5
449.338	88.5
449.559	140.5
449.779	151.5
450	100.5
450.221	91.5
450.442	85.5
450.662	86.5
450.883	105.5
451.104	125.5
451.324	103.5
451.545	90.5
451.766	89.5
451.986	98.5
452.207	88.5
452.428	87.5
452.648	90.5
452.869	124.5
453.089	107.5
453.31	112.5
453.53	94.5
453.751	78.5
453.971	99.5
454.192	119.5
454.412	89.5
454.633	102.5
454.853	95.5
455.073	82.5
455.294	97.5
455.514	118.5
455.734	84.5
455.955	77.5
456.175	86.5
456.395	74.5
456.616	85.5
456.836	72.5
457.056	88.5
457.276	83.5
457.497	76.5
457.717	78.5
457.937	95.5
458.157	113.5
458.377	103.5
458.598	110.5
458.818	167.5
459.038	168.5
459.258	107.5
459.478	92.5
459.698	84.5
459.918	81.5
460.138	93.5
460.358	80.5
460.578	89.5
460.798	81.5
461.018	84.5
461.238	89.5
461.458	82.5
461.678	78.5
461.898	82.5
462.118	85.5
462.338	94.5
462.558	80.5
462.777	90.5
462.997	93.5
463.217	78.5
463.437	76.5
463.657	85.5
463.876	76.5
464.096	92.5
464.316	95.5
464.536	100.5
464.755	104.5
464.975	126.5
465.195	177.5
465.414	176.5
465.634	93.5
465.854	68.5
466.073	80.5
466.293	80.5
466.512	91.5
466.732	86.5
466.951	101.5
467.171	76.5
467.391	90.5
467.61	101.5
467.829	101.5
468.049	110.5
468.268	102.5
468.488	94.5
468.707	84.5
468.927	85.5
469.146	64.5
469.365	79.5
469.585	90.5
469.804	95.5
470.023	94.5
470.243	98.5
470.462	100.5
470.681	110.5
470.901	87.5
471.12	77.5
471.339	76.5
471.558	89.5
471.777	92.5
471.997	98.5
472.216	111.5
472.435	168.5
472.654	93.5
472.873	103.5
473.092	96.5
473.311	96.5
473.53	91.5
473.749	92.5
473.968	109.5
474.187	121.5
474.406	90.5
474.625	100.5
474.844	93.5
475.063	98.5
475.282	72.5
475.501	84.5
475.72	83.5
475.939	95.5
476.158	86.5
476.377	80.5
476.596	76.5
476.814	94.5
477.033	87.5
477.252	87.5
477.471	87.5
477.69	90.5
477.908	86.5
478.127	80.5
478.346	86.5
478.564	87.5
478.783	100.5
479.002	90.5
479.22	94.5
479.439	98.5
479.658	102.5
479.876	86.5
480.095	91.5
480.313	98.5
480.532	92.5
480.751	94.5
480.969	133.5
481.188	237.5
481.406	183.5
481.624	109.5
481.843	91.5
482.061	94.5
482.28	92.5
482.498	76.5
482.717	89.5
482.935	88.5
483.153	81.5
483.372	80.5
483.59	101.5
483.808	91.5
484.027	84.5
484.245	89.5
484.463	100.5
484.681	93.5
484.9	71.5
485.118	94.5
485.336	87.5
485.554	88.5
485.772	107.5
485.99	91.5
486.209	120.5
486.427	104.5
486.645	104.5
486.863	91.5
487.081	96.5
487.299	97.5
487.517	92.5
487.735	102.5
487.953	92.5
488.171	99.5
488.389	93.5
488.607	98.5
488.825	85.5
489.043	80.5
489.261	81.5
489.479	86.5
489.696	94.5
489.914	91.5
490.132	85.5
490.35	82.5
490.568	85.5
490.786	96.5
491.003	86.5
491.221	93.5
491.439	104.5
491.657	100.5
491.874	85.5
492.092	92.5
492.31	90.5
492.527	88.5
492.745	90.5
492.963	98.5
493.18	93.5
493.398	86.5
493.615	84.5
493.833	87.5
494.05	87.5
494.268	90.5
494.485	84.5
494.703	87.5
494.92	90.5
495.138	99.5
495.355	91.5
495.573	90.5
495.79	83.5
496.008	92.5
496.225	86.5
496.442	88.5
496.66	85.5
496.877	104.5
497.094	96.5
497.312	104.5
497.529	98.5
497.746	88.5
497.963	93.5
498.181	89.5
498.398	87.5
498.615	107.5
498.832	119.5
499.049	92.5
499.267	85.5
499.484	74.5
499.701	86.5
499.918	72.5
500.135	76.5
500.352	80.5
500.569	91.5
500.786	103.5
501.003	85.5
501.22	92.5
501.437	110.5
501.654	100.5
501.871	116.5
502.088	90.5
502.305	110.5
502.522	86.5
502.739	80.5
502.956	84.5
503.172	100.5
503.389	100.5
503.606	109.5
503.823	85.5
504.04	88.5
504.256	98.5
504.473	89.5
504.69	88.5
504.907	79.5
505.123	101.5
505.34	82.5
505.557	76.5
505.773	93.5
505.99	89.5
506.207	78.5
506.423	93.5
506.64	92.5
506.856	85.5
507.073	83.5
507.289	95.5
507.506	107.5
507.722	106.5
507.939	105.5
508.155	93.5
508.372	87.5
508.588	102.5
508.805	103.5
509.021	99.5
509.238	100.5
509.454	110.5
509.67	86.5
509.887	119.5
510.103	131.5
510.319	218.5
510.536	850.5
510.752	2758.5
510.968	758.5
511.184	166.5
511.401	108.5
511.617	111.5
511.833	87.5
512.049	81.5
512.265	92.5
512.481	82.5
512.698	93.5
512.914	87.5
513.13	103.5
513.346	92.5
513.562	82.5
513.778	98.5
513.994	94.5
514.21	96.5
514.426	134.5
514.642	138.5
514.858	146.5
515.074	178.5
515.29	536.5
515.506	1850.5
515.721	670.5
515.937	177.5
516.153	122.5
516.369	104.5
516.585	91.5
516.801	77.5
517.016	98.5
517.232	89.5
517.448	99.5
517.664	90.5
517.879	100.5
518.095	98.5
518.311	94.5
518.527	93.5
518.742	87.5
518.958	94.5
519.173	78.5
519.389	85.5
519.605	101.5
519.82	101.5
520.036	119.5
520.251	130.5
520.467	114.5
520.682	109.5
520.898	104.5
521.113	118.5
521.329	158.5
521.544	235.5
521.76	701.5
521.975	3184.5
522.19	1820.5
522.406	372.5
522.621	144.5
522.836	106.5
523.052	98.5
523.267	104.5
523.482	95.5
523.698	95.5
523.913	132.5
524.128	111.5
524.343	96.5
524.559	78.5
524.774	91.5
524.989	90.5
525.204	106.5
525.419	98.5
525.634	95.5
525.849	99.5
526.064	84.5
526.28	90.5
526.495	91.5
526.71	86.5
526.925	80.5
527.14	95.5
527.355	77.5
527.57	91.5
527.785	89.5
527.999	92.5
528.214	96.5
528.429	91.5
528.644	69.5
528.859	79.5
529.074	89.5
529.289	143.5
529.503	223.5
529.718	101.5
529.933	100.5
530.148	86.5
530.363	98.5
530.577	81.5
530.792	77.5
531.007	89.5
531.221	90.5
531.436	80.5
531.651	95.5
531.865	92.5
532.08	77.5
532.295	95.5
532.509	76.5
532.724	87.5
532.938	89.5
533.153	104.5
533.367	92.5
533.582	98.5
533.796	84.5
534.011	75.5
534.225	103.5
534.44	95.5
534.654	88.5
