Data from Uncirc_1988_H10_HRD10591_00063.txt Node
Date: Wed Jan 03 12:04:17 EST 2024
User: Yrep
Spectrometer: HR+D1059
Trigger mode: 1
Integration Time (sec): 1.000000E-1
Scans to average: 1
Electric dark correction enabled: true
Nonlinearity correction enabled: false
Boxcar width: 0
XAxis mode: Wavelengths
Number of Pixels in Spectrum: 2048
>>>>>Begin Spectral Data<<<<<
223.165	-30.56
223.4	-30.56
223.635	-30.56
223.869	-11.56
224.104	-27.56
224.338	-22.56
224.573	-21.56
224.808	-13.56
225.042	4.44
225.277	-9.56
225.511	-5.56
225.746	12.44
225.98	5.44
226.215	12.44
226.449	18.44
226.683	14.44
226.918	38.44
227.152	36.44
227.387	39.44
227.621	31.44
227.856	24.44
228.09	34.44
228.324	56.44
228.559	35.44
228.793	49.44
229.027	59.44
229.262	66.44
229.496	85.44
229.73	88.44
229.964	84.44
230.199	65.44
230.433	59.44
230.667	62.44
230.901	84.44
231.136	74.44
231.37	60.44
231.604	56.44
231.838	67.44
232.072	88.44
232.306	76.44
232.541	76.44
232.775	88.44
233.009	74.44
233.243	81.44
233.477	72.44
233.711	64.44
233.945	89.44
234.179	67.44
234.413	85.44
234.647	76.44
234.881	78.44
235.115	78.44
235.349	81.44
235.583	80.44
235.817	80.44
236.051	69.44
236.285	76.44
236.519	70.44
236.753	88.44
236.987	79.44
237.221	94.44
237.455	91.44
237.689	57.44
237.922	75.44
238.156	72.44
238.39	86.44
238.624	72.44
238.858	62.44
239.091	80.44
239.325	53.44
239.559	78.44
239.793	80.44
240.027	80.44
240.26	79.44
240.494	81.44
240.728	59.44
240.961	66.44
241.195	88.44
241.429	72.44
241.662	72.44
241.896	88.44
242.13	70.44
242.363	44.44
242.597	81.44
242.83	77.44
243.064	97.44
243.298	85.44
243.531	84.44
243.765	76.44
243.998	85.44
244.232	86.44
244.465	92.44
244.699	91.44
244.932	69.44
245.166	89.44
245.399	80.44
245.633	90.44
245.866	69.44
246.099	69.44
246.333	90.44
246.566	74.44
246.8	81.44
247.033	77.44
247.266	84.44
247.5	81.44
247.733	82.44
247.966	71.44
248.2	71.44
248.433	81.44
248.666	68.44
248.899	70.44
249.133	89.44
249.366	110.44
249.599	112.44
249.832	83.44
250.066	73.44
250.299	66.44
250.532	63.44
250.765	75.44
250.998	74.44
251.231	74.44
251.465	60.44
251.698	76.44
251.931	81.44
252.164	72.44
252.397	77.44
252.63	62.44
252.863	81.44
253.096	74.44
253.329	100.44
253.562	76.44
253.795	76.44
254.028	77.44
254.261	85.44
254.494	75.44
254.727	72.44
254.96	80.44
255.193	83.44
255.426	66.44
255.659	78.44
255.892	67.44
256.124	77.44
256.357	66.44
256.59	74.44
256.823	85.44
257.056	92.44
257.289	92.44
257.521	77.44
257.754	80.44
257.987	81.44
258.22	82.44
258.452	62.44
258.685	76.44
258.918	68.44
259.151	85.44
259.383	92.44
259.616	81.44
259.849	65.44
260.081	80.44
260.314	78.44
260.547	78.44
260.779	72.44
261.012	84.44
261.244	71.44
261.477	77.44
261.71	106.44
261.942	101.44
262.175	110.44
262.407	88.44
262.64	75.44
262.872	67.44
263.105	89.44
263.337	82.44
263.57	81.44
263.802	80.44
264.035	76.44
264.267	81.44
264.499	86.44
264.732	68.44
264.964	100.44
265.197	85.44
265.429	79.44
265.661	78.44
265.894	76.44
266.126	94.44
266.358	77.44
266.591	70.44
266.823	77.44
267.055	87.44
267.287	77.44
267.52	77.44
267.752	83.44
267.984	93.44
268.216	77.44
268.448	72.44
268.681	83.44
268.913	96.44
269.145	70.44
269.377	68.44
269.609	73.44
269.841	90.44
270.073	79.44
270.306	76.44
270.538	89.44
270.77	85.44
271.002	90.44
271.234	84.44
271.466	86.44
271.698	78.44
271.93	80.44
272.162	82.44
272.394	67.44
272.626	60.44
272.858	81.44
273.09	89.44
273.322	82.44
273.553	72.44
273.785	77.44
274.017	82.44
274.249	73.44
274.481	67.44
274.713	80.44
274.945	94.44
275.176	95.44
275.408	83.44
275.64	71.44
275.872	92.44
276.104	89.44
276.335	100.44
276.567	94.44
276.799	102.44
277.031	92.44
277.262	85.44
277.494	94.44
277.726	93.44
277.957	85.44
278.189	86.44
278.421	99.44
278.652	83.44
278.884	81.44
279.115	84.44
279.347	76.44
279.579	84.44
279.81	80.44
280.042	90.44
280.273	74.44
280.505	97.44
280.736	93.44
280.968	84.44
281.199	98.44
281.431	80.44
281.662	88.44
281.894	94.44
282.125	99.44
282.356	120.44
282.588	154.44
282.819	95.44
283.051	88.44
283.282	90.44
283.513	85.44
283.745	93.44
283.976	74.44
284.207	94.44
284.439	79.44
284.67	67.44
284.901	74.44
285.132	87.44
285.364	86.44
285.595	103.44
285.826	96.44
286.057	101.44
286.288	89.44
286.52	86.44
286.751	70.44
286.982	90.44
287.213	87.44
287.444	73.44
287.675	95.44
287.906	84.44
288.138	83.44
288.369	100.44
288.6	90.44
288.831	72.44
289.062	86.44
289.293	92.44
289.524	75.44
289.755	79.44
289.986	82.44
290.217	81.44
290.448	98.44
290.679	78.44
290.91	83.44
291.141	81.44
291.371	65.44
291.602	80.44
291.833	85.44
292.064	89.44
292.295	80.44
292.526	91.44
292.757	88.44
292.987	84.44
293.218	90.44
293.449	85.44
293.68	86.44
293.91	89.44
294.141	78.44
294.372	80.44
294.603	95.44
294.833	76.44
295.064	82.44
295.295	81.44
295.525	95.44
295.756	102.44
295.987	118.44
296.217	149.44
296.448	134.44
296.679	92.44
296.909	83.44
297.14	90.44
297.37	89.44
297.601	79.44
297.831	88.44
298.062	83.44
298.292	94.44
298.523	76.44
298.753	86.44
298.984	77.44
299.214	86.44
299.445	91.44
299.675	80.44
299.905	89.44
300.136	96.44
300.366	97.44
300.597	82.44
300.827	104.44
301.057	91.44
301.288	106.44
301.518	92.44
301.748	91.44
301.979	92.44
302.209	85.44
302.439	90.44
302.669	75.44
302.9	96.44
303.13	77.44
303.36	86.44
303.59	96.44
303.82	109.44
304.051	95.44
304.281	95.44
304.511	85.44
304.741	81.44
304.971	90.44
305.201	84.44
305.431	86.44
305.661	79.44
305.891	92.44
306.121	85.44
306.352	86.44
306.582	99.44
306.812	85.44
307.042	87.44
307.272	85.44
307.502	97.44
307.731	96.44
307.961	96.44
308.191	98.44
308.421	92.44
308.651	77.44
308.881	70.44
309.111	77.44
309.341	102.44
309.571	90.44
309.8	86.44
310.03	106.44
310.26	97.44
310.49	94.44
310.72	95.44
310.949	103.44
311.179	97.44
311.409	96.44
311.639	110.44
311.868	95.44
312.098	86.44
312.328	92.44
312.557	98.44
312.787	107.44
313.017	97.44
313.246	92.44
313.476	81.44
313.706	93.44
313.935	102.44
314.165	101.44
314.394	110.44
314.624	94.44
314.853	98.44
315.083	94.44
315.312	85.44
315.542	90.44
315.771	105.44
316.001	97.44
316.23	93.44
316.46	94.44
316.689	86.44
316.919	88.44
317.148	85.44
317.377	87.44
317.607	84.44
317.836	81.44
318.065	90.44
318.295	83.44
318.524	92.44
318.753	93.44
318.983	96.44
319.212	96.44
319.441	108.44
319.67	106.44
319.9	96.44
320.129	81.44
320.358	88.44
320.587	99.44
320.816	103.44
321.046	104.44
321.275	112.44
321.504	92.44
321.733	100.44
321.962	100.44
322.191	98.44
322.42	110.44
322.649	116.44
322.878	119.44
323.108	110.44
323.337	136.44
323.566	146.44
323.795	160.44
324.024	218.44
324.253	469.44
324.482	1018.44
324.71	2112.44
324.939	2829.44
325.168	1016.44
325.397	288.44
325.626	158.44
325.855	134.44
326.084	140.44
326.313	130.44
326.542	164.44
326.77	260.44
326.999	526.44
327.228	1140.44
327.457	2206.44
327.686	1740.44
327.914	446.44
328.143	226.44
328.372	164.44
328.6	119.44
328.829	130.44
329.058	149.44
329.287	142.44
329.515	121.44
329.744	97.44
329.972	94.44
330.201	109.44
330.43	106.44
330.658	155.44
330.887	149.44
331.115	118.44
331.344	107.44
331.572	104.44
331.801	94.44
332.03	100.44
332.258	101.44
332.486	97.44
332.715	91.44
332.943	89.44
333.172	85.44
333.4	92.44
333.629	100.44
333.857	110.44
334.085	121.44
334.314	100.44
334.542	115.44
334.771	117.44
334.999	102.44
335.227	106.44
335.455	101.44
335.684	84.44
335.912	92.44
336.14	105.44
336.369	95.44
336.597	101.44
336.825	91.44
337.053	102.44
337.281	95.44
337.51	66.44
337.738	91.44
337.966	84.44
338.194	91.44
338.422	85.44
338.65	92.44
338.878	85.44
339.106	68.44
339.334	96.44
339.562	88.44
339.79	94.44
340.018	86.44
340.246	95.44
340.474	106.44
340.702	88.44
340.93	89.44
341.158	79.44
341.386	92.44
341.614	91.44
341.842	89.44
342.07	77.44
342.298	100.44
342.526	89.44
342.754	82.44
342.981	92.44
343.209	86.44
343.437	94.44
343.665	82.44
343.893	76.44
344.12	92.44
344.348	82.44
344.576	91.44
344.804	95.44
345.031	96.44
345.259	84.44
345.487	98.44
345.714	93.44
345.942	80.44
346.17	76.44
346.397	92.44
346.625	89.44
346.853	86.44
347.08	86.44
347.308	82.44
347.535	94.44
347.763	102.44
347.99	109.44
348.218	101.44
348.445	95.44
348.673	110.44
348.9	94.44
349.128	94.44
349.355	75.44
349.583	88.44
349.81	95.44
350.037	83.44
350.265	96.44
350.492	85.44
350.72	85.44
350.947	94.44
351.174	111.44
351.402	104.44
351.629	98.44
351.856	102.44
352.083	114.44
352.311	99.44
352.538	108.44
352.765	109.44
352.992	124.44
353.22	123.44
353.447	105.44
353.674	107.44
353.901	103.44
354.128	94.44
354.355	76.44
354.583	95.44
354.81	96.44
355.037	89.44
355.264	82.44
355.491	78.44
355.718	84.44
355.945	93.44
356.172	83.44
356.399	81.44
356.626	98.44
356.853	112.44
357.08	99.44
357.307	92.44
357.534	84.44
357.761	80.44
357.988	98.44
358.215	85.44
358.441	71.44
358.668	87.44
358.895	76.44
359.122	72.44
359.349	89.44
359.576	78.44
359.802	93.44
360.029	119.44
360.256	114.44
360.483	88.44
360.709	79.44
360.936	85.44
361.163	103.44
361.39	91.44
361.616	106.44
361.843	100.44
362.07	86.44
362.296	97.44
362.523	94.44
362.749	99.44
362.976	82.44
363.203	77.44
363.429	88.44
363.656	85.44
363.882	90.44
364.109	85.44
364.335	82.44
364.562	92.44
364.788	90.44
365.015	94.44
365.241	91.44
365.468	113.44
365.694	110.44
365.92	79.44
366.147	100.44
366.373	85.44
366.599	90.44
366.826	95.44
367.052	88.44
367.278	74.44
367.505	84.44
367.731	99.44
367.957	89.44
368.184	89.44
368.41	98.44
368.636	114.44
368.862	124.44
369.089	104.44
369.315	95.44
369.541	97.44
369.767	85.44
369.993	67.44
370.219	74.44
370.445	82.44
370.672	87.44
370.898	72.44
371.124	74.44
371.35	76.44
371.576	68.44
371.802	89.44
372.028	93.44
372.254	73.44
372.48	97.44
372.706	79.44
372.932	78.44
373.158	81.44
373.384	75.44
373.61	83.44
373.835	90.44
374.061	76.44
374.287	89.44
374.513	84.44
374.739	102.44
374.965	85.44
375.191	83.44
375.416	91.44
375.642	92.44
375.868	95.44
376.094	84.44
376.319	70.44
376.545	82.44
376.771	77.44
376.997	81.44
377.222	89.44
377.448	94.44
377.674	83.44
377.899	92.44
378.125	89.44
378.35	85.44
378.576	77.44
378.802	82.44
379.027	88.44
379.253	97.44
379.478	106.44
379.704	99.44
379.929	95.44
380.155	85.44
380.38	77.44
380.606	94.44
380.831	99.44
381.057	63.44
381.282	89.44
381.507	80.44
381.733	86.44
381.958	92.44
382.184	90.44
382.409	93.44
382.634	89.44
382.86	110.44
383.085	93.44
383.31	91.44
383.535	94.44
383.761	100.44
383.986	104.44
384.211	100.44
384.436	95.44
384.662	84.44
384.887	92.44
385.112	89.44
385.337	90.44
385.562	76.44
385.787	100.44
386.013	93.44
386.238	111.44
386.463	94.44
386.688	104.44
386.913	98.44
387.138	90.44
387.363	99.44
387.588	97.44
387.813	97.44
388.038	98.44
388.263	99.44
388.488	95.44
388.713	107.44
388.938	88.44
389.163	84.44
389.387	92.44
389.612	85.44
389.837	86.44
390.062	92.44
390.287	79.44
390.512	65.44
390.736	94.44
390.961	89.44
391.186	81.44
391.411	90.44
391.636	76.44
391.86	88.44
392.085	80.44
392.31	93.44
392.534	86.44
392.759	76.44
392.984	76.44
393.208	90.44
393.433	67.44
393.658	76.44
393.882	81.44
394.107	82.44
394.331	95.44
394.556	85.44
394.78	90.44
395.005	85.44
395.229	90.44
395.454	76.44
395.678	84.44
395.903	85.44
396.127	90.44
396.352	94.44
396.576	73.44
396.801	68.44
397.025	80.44
397.249	77.44
397.474	81.44
397.698	87.44
397.922	74.44
398.147	84.44
398.371	95.44
398.595	84.44
398.82	82.44
399.044	78.44
399.268	90.44
399.492	81.44
399.717	87.44
399.941	72.44
400.165	96.44
400.389	93.44
400.613	76.44
400.837	77.44
401.062	66.44
401.286	82.44
401.51	93.44
401.734	74.44
401.958	101.44
402.182	139.44
402.406	141.44
402.63	109.44
402.854	92.44
403.078	80.44
403.302	91.44
403.526	61.44
403.75	82.44
403.974	98.44
404.198	71.44
404.422	92.44
404.645	80.44
404.869	91.44
405.093	91.44
405.317	93.44
405.541	89.44
405.765	98.44
405.988	115.44
406.212	165.44
406.436	232.44
406.66	150.44
406.883	94.44
407.107	85.44
407.331	91.44
407.555	106.44
407.778	96.44
408.002	78.44
408.226	85.44
408.449	70.44
408.673	88.44
408.896	93.44
409.12	107.44
409.344	98.44
409.567	84.44
409.791	85.44
410.014	92.44
410.238	93.44
410.461	93.44
410.685	88.44
410.908	95.44
411.132	98.44
411.355	103.44
411.578	98.44
411.802	90.44
412.025	100.44
412.249	89.44
412.472	84.44
412.695	91.44
412.919	66.44
413.142	76.44
413.365	95.44
413.589	94.44
413.812	84.44
414.035	74.44
414.258	72.44
414.482	90.44
414.705	67.44
414.928	93.44
415.151	77.44
415.374	93.44
415.597	81.44
415.821	88.44
416.044	83.44
416.267	89.44
416.49	84.44
416.713	80.44
416.936	76.44
417.159	80.44
417.382	90.44
417.605	82.44
417.828	92.44
418.051	97.44
418.274	84.44
418.497	78.44
418.72	76.44
418.943	81.44
419.166	90.44
419.389	99.44
419.611	87.44
419.834	83.44
420.057	99.44
420.28	95.44
420.503	85.44
420.726	89.44
420.948	80.44
421.171	92.44
421.394	80.44
421.617	83.44
421.839	89.44
422.062	89.44
422.285	88.44
422.507	98.44
422.73	109.44
422.953	102.44
423.175	88.44
423.398	78.44
423.621	88.44
423.843	80.44
424.066	72.44
424.288	93.44
424.511	92.44
424.733	94.44
424.956	114.44
425.178	103.44
425.401	100.44
425.623	102.44
425.846	86.44
426.068	89.44
426.291	70.44
426.513	78.44
426.735	91.44
426.958	93.44
427.18	117.44
427.402	158.44
427.625	180.44
427.847	127.44
428.069	115.44
428.292	97.44
428.514	94.44
428.736	80.44
428.958	76.44
429.181	102.44
429.403	94.44
429.625	83.44
429.847	81.44
430.069	99.44
430.292	90.44
430.514	89.44
430.736	86.44
430.958	86.44
431.18	76.44
431.402	79.44
431.624	63.44
431.846	93.44
432.068	85.44
432.29	95.44
432.512	75.44
432.734	82.44
432.956	92.44
433.178	92.44
433.4	104.44
433.622	104.44
433.844	78.44
434.066	106.44
434.287	97.44
434.509	92.44
434.731	91.44
434.953	80.44
435.175	93.44
435.397	78.44
435.618	88.44
435.84	105.44
436.062	142.44
436.284	128.44
436.505	105.44
436.727	104.44
436.949	87.44
437.17	90.44
437.392	86.44
437.614	87.44
437.835	107.44
438.057	118.44
438.278	90.44
438.5	112.44
438.721	129.44
438.943	92.44
439.165	83.44
439.386	91.44
439.608	83.44
439.829	85.44
440.05	131.44
440.272	157.44
440.493	99.44
440.715	79.44
440.936	88.44
441.158	96.44
441.379	84.44
441.6	87.44
441.822	98.44
442.043	88.44
442.264	107.44
442.486	104.44
442.707	102.44
442.928	115.44
443.149	133.44
443.371	136.44
443.592	130.44
443.813	125.44
444.034	119.44
444.255	85.44
444.476	85.44
444.698	99.44
444.919	84.44
445.14	127.44
445.361	130.44
445.582	129.44
445.803	151.44
446.024	131.44
446.245	148.44
446.466	129.44
446.687	88.44
446.908	90.44
447.129	95.44
447.35	92.44
447.571	81.44
447.792	78.44
448.013	92.44
448.234	108.44
448.455	93.44
448.675	110.44
448.896	128.44
449.117	100.44
449.338	94.44
449.559	140.44
449.779	132.44
450	91.44
450.221	92.44
450.442	105.44
450.662	90.44
450.883	108.44
451.104	116.44
451.324	100.44
451.545	101.44
451.766	83.44
451.986	96.44
452.207	95.44
452.428	83.44
452.648	90.44
452.869	114.44
453.089	121.44
453.31	115.44
453.53	97.44
453.751	115.44
453.971	103.44
454.192	127.44
454.412	99.44
454.633	81.44
454.853	93.44
455.073	86.44
455.294	80.44
455.514	96.44
455.734	97.44
455.955	88.44
456.175	76.44
456.395	72.44
456.616	83.44
456.836	78.44
457.056	75.44
457.276	102.44
457.497	80.44
457.717	88.44
457.937	95.44
458.157	81.44
458.377	87.44
458.598	129.44
458.818	164.44
459.038	180.44
459.258	131.44
459.478	85.44
459.698	72.44
459.918	84.44
460.138	84.44
460.358	81.44
460.578	86.44
460.798	91.44
461.018	86.44
461.238	97.44
461.458	80.44
461.678	84.44
461.898	104.44
462.118	75.44
462.338	83.44
462.558	96.44
462.777	93.44
462.997	72.44
463.217	94.44
463.437	86.44
463.657	102.44
463.876	92.44
464.096	100.44
464.316	96.44
464.536	97.44
464.755	83.44
464.975	110.44
465.195	158.44
465.414	134.44
465.634	86.44
465.854	89.44
466.073	88.44
466.293	87.44
466.512	88.44
466.732	77.44
466.951	88.44
467.171	91.44
467.391	93.44
467.61	102.44
467.829	81.44
468.049	98.44
468.268	115.44
468.488	100.44
468.707	74.44
468.927	80.44
469.146	74.44
469.365	77.44
469.585	85.44
469.804	83.44
470.023	96.44
470.243	98.44
470.462	108.44
470.681	98.44
470.901	85.44
471.12	72.44
471.339	80.44
471.558	74.44
471.777	93.44
471.997	84.44
472.216	106.44
472.435	129.44
472.654	82.44
472.873	75.44
473.092	88.44
473.311	81.44
473.53	80.44
473.749	86.44
473.968	90.44
474.187	109.44
474.406	96.44
474.625	85.44
474.844	99.44
475.063	97.44
475.282	90.44
475.501	73.44
475.72	95.44
475.939	81.44
476.158	95.44
476.377	93.44
476.596	92.44
476.814	94.44
477.033	102.44
477.252	88.44
477.471	94.44
477.69	96.44
477.908	99.44
478.127	96.44
478.346	105.44
478.564	97.44
478.783	108.44
479.002	96.44
479.22	83.44
479.439	95.44
479.658	93.44
479.876	100.44
480.095	91.44
480.313	85.44
480.532	88.44
480.751	78.44
480.969	97.44
481.188	152.44
481.406	138.44
481.624	91.44
481.843	80.44
482.061	84.44
482.28	76.44
482.498	77.44
482.717	78.44
482.935	93.44
483.153	80.44
483.372	92.44
483.59	84.44
483.808	86.44
484.027	84.44
484.245	86.44
484.463	96.44
484.681	80.44
484.9	86.44
485.118	101.44
485.336	91.44
485.554	87.44
485.772	97.44
485.99	95.44
486.209	96.44
486.427	92.44
486.645	108.44
486.863	99.44
487.081	92.44
487.299	91.44
487.517	96.44
487.735	94.44
487.953	72.44
488.171	96.44
488.389	84.44
488.607	90.44
488.825	93.44
489.043	88.44
489.261	88.44
489.479	85.44
489.696	92.44
489.914	91.44
490.132	69.44
490.35	89.44
490.568	75.44
490.786	82.44
491.003	92.44
491.221	88.44
491.439	81.44
491.657	86.44
491.874	84.44
492.092	83.44
492.31	95.44
492.527	86.44
492.745	93.44
492.963	92.44
493.18	78.44
493.398	79.44
493.615	94.44
493.833	96.44
494.05	73.44
494.268	62.44
494.485	95.44
494.703	93.44
494.92	96.44
495.138	96.44
495.355	89.44
495.573	80.44
495.79	80.44
496.008	97.44
496.225	93.44
496.442	92.44
496.66	99.44
496.877	100.44
497.094	107.44
497.312	82.44
497.529	93.44
497.746	101.44
497.963	83.44
498.181	93.44
498.398	101.44
498.615	104.44
498.832	104.44
499.049	85.44
499.267	95.44
499.484	85.44
499.701	87.44
499.918	92.44
500.135	76.44
500.352	84.44
500.569	85.44
500.786	89.44
501.003	80.44
501.22	81.44
501.437	93.44
501.654	103.44
501.871	116.44
502.088	92.44
502.305	85.44
502.522	108.44
502.739	91.44
502.956	110.44
503.172	93.44
503.389	85.44
503.606	101.44
503.823	98.44
504.04	99.44
504.256	86.44
504.473	86.44
504.69	80.44
504.907	93.44
505.123	82.44
505.34	85.44
505.557	85.44
505.773	95.44
505.99	90.44
506.207	92.44
506.423	94.44
506.64	92.44
506.856	86.44
507.073	84.44
507.289	80.44
507.506	95.44
507.722	102.44
507.939	117.44
508.155	94.44
508.372	89.44
508.588	90.44
508.805	98.44
509.021	95.44
509.238	88.44
509.454	98.44
509.67	114.44
509.887	110.44
510.103	135.44
510.319	235.44
510.536	836.44
510.752	2747.44
510.968	704.44
511.184	164.44
511.401	105.44
511.617	95.44
511.833	86.44
512.049	100.44
512.265	84.44
512.481	88.44
512.698	88.44
512.914	82.44
513.13	91.44
513.346	93.44
513.562	99.44
513.778	84.44
513.994	98.44
514.21	103.44
514.426	122.44
514.642	150.44
514.858	138.44
515.074	168.44
515.29	532.44
515.506	1764.44
515.721	634.44
515.937	164.44
516.153	110.44
516.369	98.44
