Data from Uncirc_1988_H10_HRD10591_00024.txt Node
Date: Wed Jan 03 12:04:09 EST 2024
User: Yrep
Spectrometer: HR+D1059
Trigger mode: 1
Integration Time (sec): 1.000000E-1
Scans to average: 1
Electric dark correction enabled: true
Nonlinearity correction enabled: false
Boxcar width: 0
XAxis mode: Wavelengths
Number of Pixels in Spectrum: 2048
>>>>>Begin Spectral Data<<<<<
223.165	-20.5
223.4	-20.5
223.635	-20.5
223.869	-19.5
224.104	-25.5
224.338	-16.5
224.573	-4.5
224.808	-9.5
225.042	-2.5
225.277	1.5
225.511	-0.5
225.746	15.5
225.98	10.5
226.215	0.5
226.449	16.5
226.683	8.5
226.918	22.5
227.152	23.5
227.387	29.5
227.621	29.5
227.856	41.5
228.09	44.5
228.324	27.5
228.559	46.5
228.793	54.5
229.027	76.5
229.262	68.5
229.496	56.5
229.73	71.5
229.964	86.5
230.199	80.5
230.433	76.5
230.667	78.5
230.901	81.5
231.136	67.5
231.37	71.5
231.604	85.5
231.838	82.5
232.072	66.5
232.306	75.5
232.541	70.5
232.775	81.5
233.009	90.5
233.243	90.5
233.477	68.5
233.711	78.5
233.945	74.5
234.179	80.5
234.413	76.5
234.647	70.5
234.881	82.5
235.115	74.5
235.349	91.5
235.583	77.5
235.817	72.5
236.051	75.5
236.285	82.5
236.519	91.5
236.753	71.5
236.987	78.5
237.221	79.5
237.455	82.5
237.689	67.5
237.922	71.5
238.156	72.5
238.39	65.5
238.624	73.5
238.858	76.5
239.091	58.5
239.325	83.5
239.559	75.5
239.793	70.5
240.027	80.5
240.26	83.5
240.494	69.5
240.728	68.5
240.961	71.5
241.195	87.5
241.429	78.5
241.662	88.5
241.896	62.5
242.13	83.5
242.363	73.5
242.597	68.5
242.83	70.5
243.064	77.5
243.298	86.5
243.531	73.5
243.765	88.5
243.998	80.5
244.232	63.5
244.465	89.5
244.699	80.5
244.932	78.5
245.166	68.5
245.399	63.5
245.633	94.5
245.866	78.5
246.099	88.5
246.333	84.5
246.566	76.5
246.8	78.5
247.033	78.5
247.266	73.5
247.5	78.5
247.733	71.5
247.966	69.5
248.2	64.5
248.433	64.5
248.666	67.5
248.899	78.5
249.133	82.5
249.366	96.5
249.599	91.5
249.832	81.5
250.066	89.5
250.299	83.5
250.532	66.5
250.765	76.5
250.998	76.5
251.231	68.5
251.465	65.5
251.698	88.5
251.931	75.5
252.164	71.5
252.397	72.5
252.63	80.5
252.863	71.5
253.096	81.5
253.329	85.5
253.562	91.5
253.795	80.5
254.028	85.5
254.261	88.5
254.494	80.5
254.727	74.5
254.96	84.5
255.193	70.5
255.426	85.5
255.659	62.5
255.892	68.5
256.124	66.5
256.357	78.5
256.59	78.5
256.823	69.5
257.056	68.5
257.289	84.5
257.521	66.5
257.754	64.5
257.987	69.5
258.22	78.5
258.452	90.5
258.685	83.5
258.918	77.5
259.151	67.5
259.383	75.5
259.616	78.5
259.849	93.5
260.081	79.5
260.314	64.5
260.547	86.5
260.779	82.5
261.012	81.5
261.244	76.5
261.477	79.5
261.71	85.5
261.942	94.5
262.175	106.5
262.407	82.5
262.64	77.5
262.872	88.5
263.105	85.5
263.337	80.5
263.57	86.5
263.802	88.5
264.035	77.5
264.267	94.5
264.499	81.5
264.732	87.5
264.964	76.5
265.197	84.5
265.429	94.5
265.661	85.5
265.894	87.5
266.126	74.5
266.358	84.5
266.591	81.5
266.823	91.5
267.055	88.5
267.287	69.5
267.52	71.5
267.752	72.5
267.984	82.5
268.216	92.5
268.448	71.5
268.681	85.5
268.913	84.5
269.145	64.5
269.377	85.5
269.609	73.5
269.841	84.5
270.073	82.5
270.306	70.5
270.538	81.5
270.77	85.5
271.002	80.5
271.234	95.5
271.466	97.5
271.698	86.5
271.93	98.5
272.162	91.5
272.394	86.5
272.626	80.5
272.858	86.5
273.09	80.5
273.322	103.5
273.553	86.5
273.785	96.5
274.017	101.5
274.249	86.5
274.481	66.5
274.713	95.5
274.945	76.5
275.176	76.5
275.408	83.5
275.64	93.5
275.872	88.5
276.104	90.5
276.335	83.5
276.567	77.5
276.799	100.5
277.031	98.5
277.262	93.5
277.494	85.5
277.726	75.5
277.957	91.5
278.189	84.5
278.421	81.5
278.652	87.5
278.884	90.5
279.115	93.5
279.347	86.5
279.579	79.5
279.81	76.5
280.042	89.5
280.273	75.5
280.505	79.5
280.736	99.5
280.968	80.5
281.199	75.5
281.431	84.5
281.662	87.5
281.894	88.5
282.125	102.5
282.356	103.5
282.588	108.5
282.819	95.5
283.051	84.5
283.282	84.5
283.513	83.5
283.745	89.5
283.976	93.5
284.207	82.5
284.439	74.5
284.67	83.5
284.901	86.5
285.132	78.5
285.364	79.5
285.595	84.5
285.826	80.5
286.057	73.5
286.288	87.5
286.52	91.5
286.751	72.5
286.982	76.5
287.213	93.5
287.444	86.5
287.675	78.5
287.906	89.5
288.138	90.5
288.369	90.5
288.6	91.5
288.831	91.5
289.062	76.5
289.293	98.5
289.524	86.5
289.755	87.5
289.986	76.5
290.217	74.5
290.448	88.5
290.679	79.5
290.91	83.5
291.141	73.5
291.371	82.5
291.602	89.5
291.833	82.5
292.064	86.5
292.295	89.5
292.526	98.5
292.757	81.5
292.987	79.5
293.218	82.5
293.449	91.5
293.68	80.5
293.91	86.5
294.141	86.5
294.372	95.5
294.603	90.5
294.833	87.5
295.064	100.5
295.295	90.5
295.525	96.5
295.756	91.5
295.987	120.5
296.217	133.5
296.448	112.5
296.679	84.5
296.909	92.5
297.14	75.5
297.37	96.5
297.601	75.5
297.831	79.5
298.062	79.5
298.292	79.5
298.523	87.5
298.753	84.5
298.984	87.5
299.214	91.5
299.445	95.5
299.675	86.5
299.905	92.5
300.136	76.5
300.366	81.5
300.597	87.5
300.827	89.5
301.057	89.5
301.288	95.5
301.518	75.5
301.748	73.5
301.979	85.5
302.209	78.5
302.439	80.5
302.669	75.5
302.9	87.5
303.13	90.5
303.36	79.5
303.59	80.5
303.82	93.5
304.051	92.5
304.281	88.5
304.511	84.5
304.741	85.5
304.971	84.5
305.201	78.5
305.431	90.5
305.661	85.5
305.891	100.5
306.121	83.5
306.352	95.5
306.582	110.5
306.812	95.5
307.042	78.5
307.272	90.5
307.502	90.5
307.731	92.5
307.961	77.5
308.191	77.5
308.421	85.5
308.651	94.5
308.881	90.5
309.111	87.5
309.341	90.5
309.571	86.5
309.8	84.5
310.03	75.5
310.26	88.5
310.49	95.5
310.72	94.5
310.949	89.5
311.179	106.5
311.409	84.5
311.639	95.5
311.868	99.5
312.098	105.5
312.328	98.5
312.557	93.5
312.787	89.5
313.017	102.5
313.246	93.5
313.476	79.5
313.706	81.5
313.935	86.5
314.165	96.5
314.394	100.5
314.624	98.5
314.853	104.5
315.083	87.5
315.312	96.5
315.542	82.5
315.771	94.5
316.001	87.5
316.23	95.5
316.46	98.5
316.689	78.5
316.919	100.5
317.148	92.5
317.377	80.5
317.607	81.5
317.836	98.5
318.065	92.5
318.295	83.5
318.524	107.5
318.753	92.5
318.983	105.5
319.212	85.5
319.441	89.5
319.67	93.5
319.9	99.5
320.129	87.5
320.358	91.5
320.587	88.5
320.816	95.5
321.046	93.5
321.275	91.5
321.504	98.5
321.733	85.5
321.962	82.5
322.191	102.5
322.42	93.5
322.649	108.5
322.878	95.5
323.108	99.5
323.337	112.5
323.566	120.5
323.795	152.5
324.024	207.5
324.253	379.5
324.482	806.5
324.71	1684.5
324.939	2165.5
325.168	764.5
325.397	214.5
325.626	129.5
325.855	120.5
326.084	111.5
326.313	127.5
326.542	132.5
326.77	218.5
326.999	438.5
327.228	922.5
327.457	1735.5
327.686	1353.5
327.914	353.5
328.143	174.5
328.372	125.5
328.6	118.5
328.829	107.5
329.058	99.5
329.287	126.5
329.515	106.5
329.744	95.5
329.972	90.5
330.201	90.5
330.43	93.5
330.658	110.5
330.887	120.5
331.115	107.5
331.344	103.5
331.572	102.5
331.801	99.5
332.03	102.5
332.258	95.5
332.486	96.5
332.715	94.5
332.943	93.5
333.172	83.5
333.4	90.5
333.629	97.5
333.857	104.5
334.085	100.5
334.314	99.5
334.542	92.5
334.771	99.5
334.999	108.5
335.227	82.5
335.455	96.5
335.684	95.5
335.912	98.5
336.14	104.5
336.369	93.5
336.597	92.5
336.825	84.5
337.053	101.5
337.281	82.5
337.51	99.5
337.738	84.5
337.966	99.5
338.194	98.5
338.422	103.5
338.65	91.5
338.878	94.5
339.106	89.5
339.334	77.5
339.562	78.5
339.79	78.5
340.018	91.5
340.246	83.5
340.474	94.5
340.702	78.5
340.93	90.5
341.158	98.5
341.386	87.5
341.614	87.5
341.842	97.5
342.07	100.5
342.298	84.5
342.526	86.5
342.754	75.5
342.981	96.5
343.209	86.5
343.437	102.5
343.665	93.5
343.893	95.5
344.12	95.5
344.348	81.5
344.576	90.5
344.804	80.5
345.031	93.5
345.259	84.5
345.487	86.5
345.714	88.5
345.942	90.5
346.17	97.5
346.397	97.5
346.625	90.5
346.853	82.5
347.08	88.5
347.308	88.5
347.535	85.5
347.763	110.5
347.99	86.5
348.218	107.5
348.445	97.5
348.673	105.5
348.9	87.5
349.128	84.5
349.355	97.5
349.583	93.5
349.81	83.5
350.037	90.5
350.265	94.5
350.492	98.5
350.72	96.5
350.947	94.5
351.174	94.5
351.402	103.5
351.629	87.5
351.856	90.5
352.083	88.5
352.311	94.5
352.538	95.5
352.765	96.5
352.992	107.5
353.22	106.5
353.447	110.5
353.674	108.5
353.901	83.5
354.128	94.5
354.355	99.5
354.583	87.5
354.81	89.5
355.037	95.5
355.264	82.5
355.491	86.5
355.718	83.5
355.945	96.5
356.172	108.5
356.399	111.5
356.626	89.5
356.853	91.5
357.08	95.5
357.307	85.5
357.534	76.5
357.761	104.5
357.988	76.5
358.215	90.5
358.441	81.5
358.668	100.5
358.895	88.5
359.122	77.5
359.349	90.5
359.576	82.5
359.802	95.5
360.029	113.5
360.256	105.5
360.483	86.5
360.709	90.5
360.936	94.5
361.163	93.5
361.39	77.5
361.616	88.5
361.843	90.5
362.07	84.5
362.296	94.5
362.523	100.5
362.749	99.5
362.976	76.5
363.203	93.5
363.429	93.5
363.656	91.5
363.882	82.5
364.109	85.5
364.335	90.5
364.562	93.5
364.788	76.5
365.015	74.5
365.241	96.5
365.468	110.5
365.694	93.5
365.92	87.5
366.147	91.5
366.373	74.5
366.599	91.5
366.826	100.5
367.052	92.5
367.278	72.5
367.505	97.5
367.731	99.5
367.957	100.5
368.184	109.5
368.41	96.5
368.636	100.5
368.862	114.5
369.089	86.5
369.315	87.5
369.541	82.5
369.767	95.5
369.993	82.5
370.219	95.5
370.445	100.5
370.672	83.5
370.898	71.5
371.124	78.5
371.35	82.5
371.576	99.5
371.802	98.5
372.028	76.5
372.254	91.5
372.48	84.5
372.706	84.5
372.932	69.5
373.158	72.5
373.384	84.5
373.61	74.5
373.835	91.5
374.061	85.5
374.287	102.5
374.513	94.5
374.739	89.5
374.965	96.5
375.191	83.5
375.416	93.5
375.642	87.5
375.868	80.5
376.094	81.5
376.319	82.5
376.545	80.5
376.771	109.5
376.997	91.5
377.222	84.5
377.448	89.5
377.674	85.5
377.899	84.5
378.125	79.5
378.35	98.5
378.576	78.5
378.802	80.5
379.027	84.5
379.253	100.5
379.478	100.5
379.704	82.5
379.929	85.5
380.155	93.5
380.38	98.5
380.606	106.5
380.831	95.5
381.057	103.5
381.282	100.5
381.507	80.5
381.733	88.5
381.958	111.5
382.184	93.5
382.409	92.5
382.634	97.5
382.86	95.5
383.085	93.5
383.31	106.5
383.535	88.5
383.761	106.5
383.986	93.5
384.211	88.5
384.436	96.5
384.662	95.5
384.887	104.5
385.112	90.5
385.337	96.5
385.562	93.5
385.787	113.5
386.013	99.5
386.238	94.5
386.463	107.5
386.688	100.5
386.913	90.5
387.138	109.5
387.363	95.5
387.588	93.5
387.813	99.5
388.038	109.5
388.263	96.5
388.488	90.5
388.713	81.5
388.938	86.5
389.163	100.5
389.387	102.5
389.612	86.5
389.837	83.5
390.062	107.5
390.287	103.5
390.512	100.5
390.736	79.5
390.961	81.5
391.186	91.5
391.411	82.5
391.636	92.5
391.86	97.5
392.085	92.5
392.31	81.5
392.534	85.5
392.759	80.5
392.984	87.5
393.208	94.5
393.433	97.5
393.658	102.5
393.882	98.5
394.107	92.5
394.331	89.5
394.556	82.5
394.78	88.5
395.005	89.5
395.229	66.5
395.454	94.5
395.678	77.5
395.903	91.5
396.127	83.5
396.352	79.5
396.576	79.5
396.801	85.5
397.025	86.5
397.249	97.5
397.474	97.5
397.698	93.5
397.922	85.5
398.147	98.5
398.371	93.5
398.595	85.5
398.82	69.5
399.044	84.5
399.268	93.5
399.492	85.5
399.717	94.5
399.941	85.5
400.165	95.5
400.389	87.5
400.613	83.5
400.837	86.5
401.062	86.5
401.286	86.5
401.51	87.5
401.734	91.5
401.958	93.5
402.182	110.5
402.406	140.5
402.63	99.5
402.854	94.5
403.078	90.5
403.302	90.5
403.526	98.5
403.75	89.5
403.974	83.5
404.198	82.5
404.422	85.5
404.645	81.5
404.869	81.5
405.093	97.5
405.317	88.5
405.541	84.5
405.765	90.5
405.988	123.5
406.212	157.5
406.436	204.5
406.66	128.5
406.883	91.5
407.107	69.5
407.331	89.5
407.555	102.5
407.778	97.5
408.002	92.5
408.226	93.5
408.449	88.5
408.673	75.5
408.896	93.5
409.12	94.5
409.344	84.5
409.567	78.5
409.791	97.5
410.014	80.5
410.238	82.5
410.461	86.5
410.685	82.5
410.908	94.5
411.132	114.5
411.355	104.5
411.578	77.5
411.802	83.5
412.025	80.5
412.249	80.5
412.472	90.5
412.695	92.5
412.919	86.5
413.142	92.5
413.365	81.5
413.589	98.5
413.812	81.5
414.035	95.5
414.258	86.5
414.482	78.5
414.705	93.5
414.928	84.5
415.151	90.5
415.374	94.5
415.597	92.5
415.821	101.5
416.044	89.5
416.267	95.5
416.49	78.5
416.713	89.5
416.936	85.5
417.159	81.5
417.382	78.5
417.605	85.5
417.828	108.5
418.051	93.5
418.274	80.5
418.497	77.5
418.72	84.5
418.943	80.5
419.166	88.5
419.389	86.5
419.611	79.5
419.834	81.5
420.057	87.5
420.28	77.5
420.503	79.5
420.726	81.5
420.948	93.5
421.171	86.5
421.394	95.5
421.617	83.5
421.839	97.5
422.062	84.5
422.285	80.5
422.507	85.5
422.73	105.5
422.953	90.5
423.175	78.5
423.398	86.5
423.621	87.5
423.843	79.5
424.066	78.5
424.288	76.5
424.511	94.5
424.733	93.5
424.956	83.5
425.178	91.5
425.401	101.5
425.623	111.5
425.846	93.5
426.068	86.5
426.291	77.5
426.513	91.5
426.735	90.5
426.958	100.5
427.18	106.5
427.402	132.5
427.625	146.5
427.847	119.5
428.069	101.5
428.292	91.5
428.514	86.5
428.736	101.5
428.958	92.5
429.181	83.5
429.403	89.5
429.625	92.5
429.847	78.5
430.069	109.5
430.292	104.5
430.514	84.5
430.736	89.5
430.958	92.5
431.18	87.5
431.402	86.5
431.624	80.5
431.846	96.5
432.068	79.5
432.29	65.5
432.512	78.5
432.734	85.5
432.956	93.5
433.178	102.5
433.4	87.5
433.622	98.5
433.844	91.5
434.066	95.5
434.287	91.5
434.509	79.5
434.731	85.5
434.953	93.5
435.175	95.5
435.397	98.5
435.618	86.5
435.84	90.5
436.062	111.5
436.284	122.5
436.505	107.5
436.727	82.5
436.949	84.5
437.17	92.5
437.392	78.5
437.614	98.5
437.835	103.5
438.057	122.5
438.278	106.5
438.5	109.5
438.721	115.5
438.943	104.5
439.165	87.5
439.386	88.5
439.608	76.5
439.829	95.5
440.05	110.5
440.272	133.5
440.493	101.5
440.715	91.5
440.936	83.5
441.158	76.5
441.379	104.5
441.6	96.5
441.822	105.5
442.043	87.5
442.264	98.5
442.486	104.5
442.707	103.5
442.928	99.5
443.149	120.5
443.371	131.5
443.592	106.5
443.813	100.5
444.034	101.5
444.255	88.5
444.476	88.5
444.698	82.5
444.919	79.5
445.14	143.5
445.361	118.5
445.582	90.5
445.803	124.5
446.024	125.5
446.245	135.5
446.466	89.5
446.687	94.5
446.908	67.5
447.129	86.5
447.35	85.5
447.571	80.5
447.792	95.5
448.013	107.5
448.234	109.5
448.455	101.5
448.675	92.5
448.896	105.5
449.117	94.5
449.338	103.5
449.559	122.5
449.779	108.5
450	78.5
450.221	94.5
450.442	90.5
450.662	102.5
450.883	108.5
451.104	110.5
451.324	87.5
451.545	80.5
451.766	75.5
451.986	104.5
452.207	76.5
452.428	87.5
452.648	104.5
452.869	101.5
453.089	104.5
453.31	99.5
453.53	86.5
453.751	81.5
453.971	104.5
454.192	95.5
454.412	104.5
454.633	100.5
454.853	93.5
455.073	82.5
455.294	79.5
455.514	95.5
455.734	92.5
455.955	96.5
456.175	86.5
456.395	70.5
456.616	86.5
456.836	82.5
457.056	84.5
457.276	83.5
457.497	88.5
457.717	89.5
457.937	82.5
458.157	95.5
458.377	77.5
458.598	98.5
458.818	154.5
459.038	144.5
459.258	113.5
459.478	86.5
459.698	87.5
459.918	78.5
460.138	74.5
460.358	86.5
460.578	88.5
460.798	82.5
461.018	84.5
461.238	69.5
461.458	94.5
461.678	88.5
461.898	96.5
462.118	99.5
462.338	86.5
462.558	90.5
462.777	100.5
462.997	92.5
463.217	81.5
463.437	83.5
463.657	85.5
463.876	81.5
464.096	88.5
464.316	89.5
464.536	92.5
464.755	83.5
464.975	102.5
465.195	152.5
465.414	148.5
465.634	102.5
465.854	86.5
466.073	78.5
466.293	90.5
466.512	80.5
466.732	63.5
466.951	80.5
467.171	91.5
467.391	95.5
467.61	105.5
467.829	90.5
468.049	86.5
468.268	78.5
468.488	92.5
468.707	91.5
468.927	86.5
469.146	67.5
469.365	92.5
469.585	89.5
469.804	100.5
470.023	92.5
470.243	78.5
470.462	90.5
470.681	97.5
470.901	87.5
471.12	69.5
471.339	90.5
471.558	83.5
471.777	85.5
471.997	82.5
472.216	87.5
472.435	100.5
472.654	85.5
472.873	98.5
473.092	87.5
473.311	85.5
473.53	90.5
473.749	84.5
473.968	88.5
474.187	100.5
474.406	111.5
474.625	72.5
474.844	96.5
475.063	92.5
475.282	88.5
475.501	83.5
475.72	88.5
475.939	88.5
476.158	79.5
476.377	95.5
476.596	87.5
476.814	90.5
477.033	106.5
477.252	80.5
477.471	88.5
477.69	94.5
477.908	87.5
478.127	87.5
478.346	96.5
478.564	85.5
478.783	92.5
479.002	75.5
479.22	90.5
479.439	99.5
479.658	95.5
479.876	97.5
480.095	96.5
480.313	87.5
480.532	92.5
480.751	74.5
480.969	84.5
481.188	99.5
481.406	86.5
481.624	96.5
481.843	78.5
482.061	89.5
482.28	86.5
482.498	87.5
482.717	95.5
482.935	83.5
483.153	87.5
483.372	91.5
483.59	94.5
483.808	88.5
484.027	83.5
484.245	79.5
484.463	82.5
484.681	94.5
484.9	88.5
485.118	89.5
485.336	98.5
485.554	104.5
485.772	113.5
485.99	107.5
486.209	111.5
486.427	94.5
486.645	90.5
486.863	91.5
487.081	109.5
487.299	90.5
487.517	110.5
487.735	95.5
487.953	85.5
488.171	89.5
488.389	101.5
488.607	84.5
488.825	101.5
489.043	83.5
489.261	79.5
489.479	86.5
489.696	77.5
489.914	98.5
490.132	97.5
490.35	98.5
490.568	86.5
490.786	78.5
491.003	81.5
491.221	95.5
491.439	93.5
491.657	91.5
491.874	94.5
492.092	83.5
492.31	95.5
492.527	99.5
492.745	94.5
492.963	80.5
493.18	94.5
493.398	97.5
493.615	93.5
493.833	92.5
494.05	93.5
494.268	75.5
494.485	91.5
494.703	100.5
494.92	94.5
495.138	86.5
495.355	95.5
495.573	87.5
495.79	83.5
496.008	99.5
496.225	94.5
496.442	94.5
496.66	95.5
496.877	94.5
497.094	74.5
497.312	76.5
497.529	81.5
497.746	89.5
497.963	82.5
498.181	79.5
498.398	90.5
498.615	111.5
498.832	115.5
499.049	92.5
499.267	90.5
499.484	79.5
499.701	89.5
499.918	75.5
500.135	79.5
500.352	77.5
500.569	95.5
500.786	98.5
501.003	82.5
501.22	99.5
501.437	96.5
501.654	97.5
501.871	97.5
502.088	83.5
502.305	96.5
502.522	76.5
502.739	94.5
502.956	95.5
503.172	90.5
503.389	99.5
503.606	88.5
503.823	103.5
504.04	100.5
504.256	98.5
504.473	89.5
504.69	81.5
504.907	90.5
505.123	84.5
505.34	90.5
505.557	85.5
505.773	98.5
505.99	80.5
506.207	90.5
506.423	90.5
506.64	75.5
506.856	88.5
507.073	90.5
507.289	96.5
507.506	82.5
507.722	117.5
507.939	112.5
508.155	101.5
508.372	76.5
508.588	94.5
508.805	92.5
509.021	88.5
509.238	100.5
509.454	102.5
509.67	92.5
509.887	98.5
510.103	116.5
510.319	198.5
510.536	688.5
510.752	2036.5
510.968	556.5
511.184	137.5
511.401	95.5
511.617	95.5
511.833	104.5
512.049	102.5
512.265	90.5
512.481	96.5
512.698	99.5
512.914	82.5
513.13	86.5
513.346	100.5
513.562	99.5
513.778	92.5
513.994	101.5
514.21	113.5
514.426	117.5
514.642	136.5
514.858	129.5
515.074	142.5
515.29	412.5
515.506	1284.5
515.721	453.5
515.937	128.5
516.153	100.5
516.369	83.5
516.585	96.5
516.801	82.5
517.016	90.5
517.232	90.5
517.448	99.5
517.664	86.5
517.879	97.5
518.095	97.5
518.311	83.5
518.527	78.5
518.742	69.5
518.958	94.5
519.173	86.5
519.389	98.5
519.605	78.5
519.82	103.5
520.036	104.5
520.251	107.5
520.467	121.5
520.682	100.5
520.898	103.5
521.113	110.5
521.329	116.5
521.544	177.5
521.76	493.5
521.975	2088.5
522.19	1253.5
522.406	272.5
522.621	123.5
522.836	97.5
523.052	93.5
523.267	92.5
523.482	88.5
523.698	88.5
523.913	108.5
524.128	105.5
524.343	99.5
524.559	86.5
524.774	80.5
524.989	98.5
525.204	109.5
525.419	93.5
525.634	84.5
525.849	95.5
526.064	76.5
526.28	96.5
526.495	100.5
526.71	90.5
526.925	93.5
527.14	88.5
527.355	63.5
527.57	92.5
527.785	100.5
527.999	88.5
528.214	102.5
528.429	83.5
528.644	94.5
528.859	101.5
529.074	93.5
529.289	109.5
529.503	161.5
529.718	101.5
529.933	85.5
530.148	98.5
530.363	81.5
530.577	81.5
530.792	97.5
531.007	76.5
531.221	88.5
531.436	96.5
531.651	92.5
531.865	93.5
532.08	86.5
532.295	104.5
532.509	82.5
532.724	97.5
532.938	92.5
533.153	88.5
533.367	92.5
533.582	88.5
533.796	90.5
534.011	92.5
534.225	95.5
534.44	89.5
534.654	94.5
534.868	91.5
535.083	84.5
535.297	84.5
535.511	99.5
535.726	92.5
535.94	90.5
536.154	94.5
536.369	88.5
536.583	73.5
