Data from Uncirc_1988_H10_HRD10591_00029.txt Node
Date: Wed Jan 03 12:04:10 EST 2024
User: Yrep
Spectrometer: HR+D1059
Trigger mode: 1
Integration Time (sec): 1.000000E-1
Scans to average: 1
Electric dark correction enabled: true
Nonlinearity correction enabled: false
Boxcar width: 0
XAxis mode: Wavelengths
Number of Pixels in Spectrum: 2048
>>>>>Begin Spectral Data<<<<<
223.165	-10.62
223.4	-10.62
223.635	-10.62
223.869	-9.62
224.104	-24.62
224.338	-23.62
224.573	-18.62
224.808	-5.62
225.042	-10.62
225.277	-5.62
225.511	-1.62
225.746	-11.62
225.98	-6.62
226.215	22.38
226.449	22.38
226.683	16.38
226.918	26.38
227.152	41.38
227.387	42.38
227.621	34.38
227.856	43.38
228.09	48.38
228.324	44.38
228.559	49.38
228.793	66.38
229.027	62.38
229.262	63.38
229.496	67.38
229.73	83.38
229.964	75.38
230.199	71.38
230.433	83.38
230.667	82.38
230.901	64.38
231.136	82.38
231.37	74.38
231.604	75.38
231.838	79.38
232.072	88.38
232.306	89.38
232.541	67.38
232.775	82.38
233.009	76.38
233.243	85.38
233.477	76.38
233.711	80.38
233.945	90.38
234.179	88.38
234.413	112.38
234.647	83.38
234.881	84.38
235.115	88.38
235.349	86.38
235.583	87.38
235.817	78.38
236.051	71.38
236.285	83.38
236.519	80.38
236.753	71.38
236.987	70.38
237.221	80.38
237.455	99.38
237.689	91.38
237.922	65.38
238.156	78.38
238.39	82.38
238.624	82.38
238.858	85.38
239.091	64.38
239.325	68.38
239.559	63.38
239.793	70.38
240.027	78.38
240.26	72.38
240.494	68.38
240.728	67.38
240.961	64.38
241.195	96.38
241.429	85.38
241.662	72.38
241.896	78.38
242.13	67.38
242.363	75.38
242.597	86.38
242.83	68.38
243.064	71.38
243.298	89.38
243.531	88.38
243.765	78.38
243.998	75.38
244.232	80.38
244.465	80.38
244.699	84.38
244.932	85.38
245.166	70.38
245.399	70.38
245.633	72.38
245.866	88.38
246.099	70.38
246.333	84.38
246.566	92.38
246.8	75.38
247.033	82.38
247.266	79.38
247.5	83.38
247.733	84.38
247.966	87.38
248.2	85.38
248.433	79.38
248.666	70.38
248.899	88.38
249.133	89.38
249.366	90.38
249.599	96.38
249.832	76.38
250.066	76.38
250.299	65.38
250.532	83.38
250.765	73.38
250.998	71.38
251.231	86.38
251.465	88.38
251.698	84.38
251.931	87.38
252.164	82.38
252.397	86.38
252.63	79.38
252.863	75.38
253.096	75.38
253.329	92.38
253.562	88.38
253.795	80.38
254.028	85.38
254.261	82.38
254.494	79.38
254.727	86.38
254.96	82.38
255.193	66.38
255.426	67.38
255.659	88.38
255.892	73.38
256.124	87.38
256.357	81.38
256.59	80.38
256.823	74.38
257.056	102.38
257.289	90.38
257.521	95.38
257.754	76.38
257.987	79.38
258.22	78.38
258.452	74.38
258.685	90.38
258.918	83.38
259.151	71.38
259.383	73.38
259.616	90.38
259.849	92.38
260.081	86.38
260.314	74.38
260.547	87.38
260.779	75.38
261.012	80.38
261.244	94.38
261.477	89.38
261.71	76.38
261.942	119.38
262.175	114.38
262.407	96.38
262.64	98.38
262.872	95.38
263.105	88.38
263.337	89.38
263.57	71.38
263.802	72.38
264.035	94.38
264.267	88.38
264.499	83.38
264.732	98.38
264.964	86.38
265.197	77.38
265.429	80.38
265.661	85.38
265.894	80.38
266.126	89.38
266.358	78.38
266.591	86.38
266.823	97.38
267.055	74.38
267.287	95.38
267.52	75.38
267.752	78.38
267.984	75.38
268.216	83.38
268.448	83.38
268.681	78.38
268.913	78.38
269.145	79.38
269.377	93.38
269.609	87.38
269.841	91.38
270.073	98.38
270.306	90.38
270.538	79.38
270.77	83.38
271.002	77.38
271.234	89.38
271.466	88.38
271.698	78.38
271.93	75.38
272.162	84.38
272.394	86.38
272.626	94.38
272.858	82.38
273.09	87.38
273.322	85.38
273.553	71.38
273.785	79.38
274.017	78.38
274.249	83.38
274.481	88.38
274.713	104.38
274.945	86.38
275.176	89.38
275.408	83.38
275.64	87.38
275.872	93.38
276.104	86.38
276.335	88.38
276.567	91.38
276.799	107.38
277.031	93.38
277.262	104.38
277.494	95.38
277.726	71.38
277.957	87.38
278.189	85.38
278.421	87.38
278.652	80.38
278.884	84.38
279.115	91.38
279.347	81.38
279.579	87.38
279.81	88.38
280.042	82.38
280.273	94.38
280.505	72.38
280.736	80.38
280.968	86.38
281.199	94.38
281.431	90.38
281.662	96.38
281.894	84.38
282.125	110.38
282.356	121.38
282.588	147.38
282.819	114.38
283.051	91.38
283.282	87.38
283.513	85.38
283.745	88.38
283.976	87.38
284.207	95.38
284.439	86.38
284.67	68.38
284.901	79.38
285.132	78.38
285.364	82.38
285.595	98.38
285.826	93.38
286.057	84.38
286.288	78.38
286.52	65.38
286.751	82.38
286.982	93.38
287.213	91.38
287.444	83.38
287.675	92.38
287.906	91.38
288.138	91.38
288.369	98.38
288.6	82.38
288.831	78.38
289.062	95.38
289.293	81.38
289.524	78.38
289.755	83.38
289.986	91.38
290.217	67.38
290.448	86.38
290.679	110.38
290.91	83.38
291.141	97.38
291.371	94.38
291.602	84.38
291.833	75.38
292.064	83.38
292.295	86.38
292.526	75.38
292.757	84.38
292.987	69.38
293.218	70.38
293.449	98.38
293.68	95.38
293.91	88.38
294.141	99.38
294.372	82.38
294.603	82.38
294.833	95.38
295.064	80.38
295.295	86.38
295.525	95.38
295.756	103.38
295.987	123.38
296.217	146.38
296.448	119.38
296.679	92.38
296.909	88.38
297.14	88.38
297.37	94.38
297.601	92.38
297.831	102.38
298.062	98.38
298.292	93.38
298.523	94.38
298.753	71.38
298.984	98.38
299.214	84.38
299.445	75.38
299.675	91.38
299.905	104.38
300.136	111.38
300.366	103.38
300.597	98.38
300.827	97.38
301.057	108.38
301.288	104.38
301.518	89.38
301.748	96.38
301.979	97.38
302.209	94.38
302.439	84.38
302.669	91.38
302.9	93.38
303.13	88.38
303.36	92.38
303.59	91.38
303.82	104.38
304.051	87.38
304.281	86.38
304.511	92.38
304.741	96.38
304.971	77.38
305.201	101.38
305.431	88.38
305.661	80.38
305.891	98.38
306.121	93.38
306.352	109.38
306.582	106.38
306.812	101.38
307.042	94.38
307.272	86.38
307.502	98.38
307.731	103.38
307.961	99.38
308.191	88.38
308.421	94.38
308.651	85.38
308.881	94.38
309.111	96.38
309.341	99.38
309.571	105.38
309.8	107.38
310.03	103.38
310.26	106.38
310.49	90.38
310.72	99.38
310.949	94.38
311.179	105.38
311.409	95.38
311.639	97.38
311.868	89.38
312.098	91.38
312.328	96.38
312.557	101.38
312.787	97.38
313.017	100.38
313.246	99.38
313.476	100.38
313.706	92.38
313.935	105.38
314.165	95.38
314.394	102.38
314.624	100.38
314.853	88.38
315.083	95.38
315.312	91.38
315.542	87.38
315.771	97.38
316.001	100.38
316.23	85.38
316.46	99.38
316.689	99.38
316.919	83.38
317.148	76.38
317.377	88.38
317.607	83.38
317.836	88.38
318.065	114.38
318.295	92.38
318.524	108.38
318.753	103.38
318.983	106.38
319.212	102.38
319.441	110.38
319.67	98.38
319.9	82.38
320.129	103.38
320.358	81.38
320.587	94.38
320.816	110.38
321.046	106.38
321.275	96.38
321.504	109.38
321.733	109.38
321.962	105.38
322.191	111.38
322.42	96.38
322.649	103.38
322.878	107.38
323.108	123.38
323.337	137.38
323.566	128.38
323.795	148.38
324.024	208.38
324.253	392.38
324.482	831.38
324.71	1742.38
324.939	2264.38
325.168	804.38
325.397	251.38
325.626	135.38
325.855	133.38
326.084	135.38
326.313	150.38
326.542	146.38
326.77	233.38
326.999	474.38
327.228	954.38
327.457	1819.38
327.686	1369.38
327.914	376.38
328.143	182.38
328.372	146.38
328.6	128.38
328.829	117.38
329.058	132.38
329.287	128.38
329.515	114.38
329.744	109.38
329.972	107.38
330.201	108.38
330.43	115.38
330.658	117.38
330.887	148.38
331.115	137.38
331.344	112.38
331.572	99.38
331.801	102.38
332.03	103.38
332.258	115.38
332.486	90.38
332.715	90.38
332.943	94.38
333.172	98.38
333.4	82.38
333.629	99.38
333.857	112.38
334.085	110.38
334.314	91.38
334.542	94.38
334.771	92.38
334.999	87.38
335.227	94.38
335.455	102.38
335.684	101.38
335.912	96.38
336.14	82.38
336.369	96.38
336.597	106.38
336.825	103.38
337.053	88.38
337.281	71.38
337.51	88.38
337.738	84.38
337.966	89.38
338.194	99.38
338.422	96.38
338.65	88.38
338.878	86.38
339.106	90.38
339.334	96.38
339.562	106.38
339.79	88.38
340.018	98.38
340.246	106.38
340.474	88.38
340.702	103.38
340.93	91.38
341.158	85.38
341.386	103.38
341.614	114.38
341.842	107.38
342.07	87.38
342.298	103.38
342.526	98.38
342.754	80.38
342.981	93.38
343.209	100.38
343.437	102.38
343.665	92.38
343.893	92.38
344.12	86.38
344.348	86.38
344.576	99.38
344.804	86.38
345.031	90.38
345.259	88.38
345.487	99.38
345.714	107.38
345.942	101.38
346.17	80.38
346.397	113.38
346.625	89.38
346.853	93.38
347.08	92.38
347.308	89.38
347.535	98.38
347.763	103.38
347.99	93.38
348.218	109.38
348.445	98.38
348.673	102.38
348.9	98.38
349.128	98.38
349.355	99.38
349.583	107.38
349.81	92.38
350.037	98.38
350.265	90.38
350.492	92.38
350.72	100.38
350.947	98.38
351.174	105.38
351.402	99.38
351.629	104.38
351.856	100.38
352.083	107.38
352.311	98.38
352.538	97.38
352.765	98.38
352.992	103.38
353.22	126.38
353.447	102.38
353.674	106.38
353.901	104.38
354.128	104.38
354.355	92.38
354.583	108.38
354.81	75.38
355.037	100.38
355.264	85.38
355.491	93.38
355.718	90.38
355.945	109.38
356.172	87.38
356.399	82.38
356.626	106.38
356.853	81.38
357.08	99.38
357.307	100.38
357.534	103.38
357.761	104.38
357.988	112.38
358.215	88.38
358.441	79.38
358.668	92.38
358.895	76.38
359.122	88.38
359.349	90.38
359.576	97.38
359.802	97.38
360.029	113.38
360.256	118.38
360.483	105.38
360.709	102.38
360.936	108.38
361.163	98.38
361.39	83.38
361.616	103.38
361.843	73.38
362.07	94.38
362.296	100.38
362.523	85.38
362.749	81.38
362.976	87.38
363.203	101.38
363.429	89.38
363.656	87.38
363.882	85.38
364.109	100.38
364.335	86.38
364.562	83.38
364.788	85.38
365.015	87.38
365.241	96.38
365.468	111.38
365.694	107.38
365.92	107.38
366.147	91.38
366.373	86.38
366.599	86.38
366.826	101.38
367.052	97.38
367.278	106.38
367.505	93.38
367.731	93.38
367.957	98.38
368.184	93.38
368.41	95.38
368.636	116.38
368.862	121.38
369.089	113.38
369.315	78.38
369.541	92.38
369.767	102.38
369.993	81.38
370.219	90.38
370.445	108.38
370.672	103.38
370.898	83.38
371.124	92.38
371.35	89.38
371.576	97.38
371.802	78.38
372.028	93.38
372.254	94.38
372.48	82.38
372.706	84.38
372.932	100.38
373.158	76.38
373.384	98.38
373.61	87.38
373.835	99.38
374.061	106.38
374.287	80.38
374.513	102.38
374.739	85.38
374.965	83.38
375.191	86.38
375.416	79.38
375.642	72.38
375.868	88.38
376.094	98.38
376.319	76.38
376.545	89.38
376.771	91.38
376.997	98.38
377.222	96.38
377.448	89.38
377.674	90.38
377.899	92.38
378.125	82.38
378.35	89.38
378.576	86.38
378.802	91.38
379.027	86.38
379.253	88.38
379.478	90.38
379.704	75.38
379.929	96.38
380.155	89.38
380.38	106.38
380.606	97.38
380.831	98.38
381.057	101.38
381.282	89.38
381.507	107.38
381.733	92.38
381.958	94.38
382.184	94.38
382.409	107.38
382.634	111.38
382.86	98.38
383.085	96.38
383.31	101.38
383.535	104.38
383.761	104.38
383.986	104.38
384.211	104.38
384.436	104.38
384.662	104.38
384.887	90.38
385.112	82.38
385.337	81.38
385.562	104.38
385.787	103.38
386.013	114.38
386.238	113.38
386.463	113.38
386.688	103.38
386.913	95.38
387.138	112.38
387.363	112.38
387.588	99.38
387.813	96.38
388.038	109.38
388.263	108.38
388.488	98.38
388.713	86.38
388.938	109.38
389.163	95.38
389.387	99.38
389.612	83.38
389.837	91.38
390.062	88.38
390.287	92.38
390.512	89.38
390.736	75.38
390.961	87.38
391.186	108.38
391.411	98.38
391.636	100.38
391.86	90.38
392.085	107.38
392.31	88.38
392.534	89.38
392.759	78.38
392.984	98.38
393.208	106.38
393.433	85.38
393.658	104.38
393.882	95.38
394.107	100.38
394.331	87.38
394.556	91.38
394.78	80.38
395.005	98.38
395.229	83.38
395.454	86.38
395.678	82.38
395.903	83.38
396.127	100.38
396.352	90.38
396.576	82.38
396.801	91.38
397.025	96.38
397.249	97.38
397.474	106.38
397.698	89.38
397.922	81.38
398.147	80.38
398.371	100.38
398.595	87.38
398.82	86.38
399.044	81.38
399.268	89.38
399.492	79.38
399.717	81.38
399.941	97.38
400.165	95.38
400.389	94.38
400.613	86.38
400.837	98.38
401.062	89.38
401.286	78.38
401.51	102.38
401.734	94.38
401.958	90.38
402.182	126.38
402.406	143.38
402.63	120.38
402.854	92.38
403.078	86.38
403.302	104.38
403.526	102.38
403.75	86.38
403.974	86.38
404.198	83.38
404.422	87.38
404.645	97.38
404.869	87.38
405.093	91.38
405.317	103.38
405.541	95.38
405.765	93.38
405.988	107.38
406.212	176.38
406.436	215.38
406.66	143.38
406.883	99.38
407.107	99.38
407.331	92.38
407.555	104.38
407.778	95.38
408.002	96.38
408.226	87.38
408.449	81.38
408.673	87.38
408.896	91.38
409.12	83.38
409.344	94.38
409.567	87.38
409.791	94.38
410.014	96.38
410.238	89.38
410.461	76.38
410.685	84.38
410.908	96.38
411.132	111.38
411.355	91.38
411.578	97.38
411.802	85.38
412.025	84.38
412.249	99.38
412.472	98.38
412.695	90.38
412.919	88.38
413.142	94.38
413.365	92.38
413.589	85.38
413.812	88.38
414.035	97.38
414.258	91.38
414.482	86.38
414.705	87.38
414.928	91.38
415.151	95.38
415.374	89.38
415.597	78.38
415.821	91.38
416.044	75.38
416.267	92.38
416.49	94.38
416.713	98.38
416.936	98.38
417.159	71.38
417.382	78.38
417.605	102.38
417.828	97.38
418.051	81.38
418.274	87.38
418.497	108.38
418.72	91.38
418.943	86.38
419.166	82.38
419.389	88.38
419.611	85.38
419.834	75.38
420.057	78.38
420.28	80.38
420.503	98.38
420.726	91.38
420.948	92.38
421.171	95.38
421.394	101.38
421.617	98.38
421.839	90.38
422.062	96.38
422.285	98.38
422.507	98.38
422.73	105.38
422.953	96.38
423.175	94.38
423.398	102.38
423.621	81.38
423.843	83.38
424.066	76.38
424.288	87.38
424.511	87.38
424.733	104.38
424.956	118.38
425.178	103.38
425.401	100.38
425.623	113.38
425.846	96.38
426.068	93.38
426.291	98.38
426.513	102.38
426.735	86.38
426.958	106.38
427.18	107.38
427.402	132.38
427.625	159.38
427.847	115.38
428.069	92.38
428.292	90.38
428.514	86.38
428.736	89.38
428.958	101.38
429.181	97.38
429.403	95.38
429.625	110.38
429.847	94.38
430.069	120.38
430.292	102.38
430.514	87.38
430.736	88.38
430.958	100.38
431.18	74.38
431.402	101.38
431.624	92.38
431.846	93.38
432.068	93.38
432.29	94.38
432.512	90.38
432.734	73.38
432.956	97.38
433.178	97.38
433.4	102.38
433.622	112.38
433.844	91.38
434.066	88.38
434.287	80.38
434.509	85.38
434.731	92.38
434.953	91.38
435.175	87.38
435.397	104.38
435.618	99.38
435.84	115.38
436.062	129.38
436.284	113.38
436.505	108.38
436.727	109.38
436.949	89.38
437.17	98.38
437.392	95.38
437.614	90.38
437.835	112.38
438.057	122.38
438.278	113.38
438.5	113.38
438.721	122.38
438.943	97.38
439.165	94.38
439.386	83.38
439.608	91.38
439.829	110.38
440.05	126.38
440.272	137.38
440.493	101.38
440.715	94.38
440.936	103.38
441.158	91.38
441.379	83.38
441.6	93.38
441.822	108.38
442.043	88.38
442.264	101.38
442.486	99.38
442.707	115.38
442.928	99.38
443.149	125.38
443.371	124.38
443.592	103.38
443.813	112.38
444.034	108.38
444.255	109.38
444.476	86.38
444.698	87.38
444.919	101.38
445.14	132.38
445.361	119.38
445.582	105.38
445.803	139.38
446.024	135.38
446.245	132.38
446.466	108.38
446.687	99.38
446.908	90.38
447.129	93.38
447.35	96.38
447.571	92.38
447.792	86.38
448.013	105.38
448.234	98.38
448.455	107.38
448.675	120.38
448.896	124.38
449.117	102.38
449.338	106.38
449.559	114.38
449.779	125.38
450	100.38
450.221	82.38
450.442	81.38
450.662	91.38
450.883	109.38
451.104	98.38
451.324	99.38
451.545	86.38
451.766	88.38
451.986	93.38
452.207	77.38
452.428	98.38
452.648	103.38
452.869	113.38
453.089	108.38
453.31	119.38
453.53	92.38
453.751	92.38
453.971	106.38
454.192	107.38
454.412	80.38
454.633	96.38
454.853	78.38
455.073	84.38
455.294	93.38
455.514	108.38
455.734	107.38
455.955	90.38
456.175	91.38
456.395	83.38
456.616	96.38
456.836	73.38
457.056	86.38
457.276	84.38
457.497	82.38
457.717	106.38
457.937	112.38
458.157	94.38
458.377	93.38
458.598	105.38
458.818	153.38
459.038	151.38
459.258	113.38
459.478	87.38
459.698	83.38
459.918	93.38
460.138	97.38
460.358	91.38
460.578	95.38
460.798	106.38
461.018	91.38
461.238	90.38
461.458	81.38
461.678	100.38
461.898	84.38
462.118	78.38
462.338	86.38
462.558	89.38
462.777	81.38
462.997	65.38
463.217	82.38
463.437	82.38
463.657	98.38
463.876	92.38
464.096	92.38
464.316	87.38
464.536	105.38
464.755	98.38
464.975	114.38
465.195	161.38
465.414	149.38
465.634	98.38
465.854	93.38
466.073	85.38
466.293	95.38
466.512	81.38
466.732	76.38
466.951	80.38
467.171	91.38
467.391	101.38
467.61	85.38
467.829	103.38
468.049	83.38
468.268	84.38
468.488	85.38
468.707	94.38
468.927	80.38
469.146	86.38
469.365	91.38
469.585	99.38
469.804	95.38
470.023	97.38
470.243	99.38
470.462	96.38
470.681	102.38
470.901	91.38
471.12	72.38
471.339	88.38
471.558	90.38
471.777	88.38
471.997	74.38
472.216	96.38
472.435	84.38
472.654	84.38
472.873	91.38
473.092	76.38
473.311	93.38
473.53	90.38
473.749	88.38
473.968	107.38
474.187	92.38
474.406	99.38
474.625	87.38
474.844	97.38
475.063	94.38
475.282	79.38
475.501	92.38
475.72	96.38
475.939	86.38
476.158	95.38
476.377	86.38
476.596	94.38
476.814	106.38
477.033	96.38
477.252	88.38
477.471	91.38
477.69	92.38
477.908	93.38
478.127	91.38
478.346	87.38
478.564	95.38
478.783	110.38
479.002	90.38
479.22	103.38
479.439	103.38
479.658	96.38
479.876	97.38
480.095	94.38
480.313	95.38
480.532	103.38
480.751	100.38
480.969	98.38
481.188	108.38
481.406	104.38
481.624	100.38
481.843	98.38
482.061	84.38
482.28	95.38
482.498	71.38
482.717	89.38
482.935	83.38
483.153	95.38
483.372	73.38
483.59	102.38
483.808	96.38
484.027	84.38
484.245	81.38
484.463	80.38
484.681	92.38
484.9	96.38
485.118	98.38
485.336	88.38
485.554	82.38
485.772	101.38
485.99	101.38
486.209	98.38
486.427	115.38
486.645	112.38
486.863	116.38
487.081	92.38
487.299	102.38
487.517	90.38
487.735	93.38
487.953	93.38
488.171	96.38
488.389	100.38
488.607	114.38
488.825	92.38
489.043	87.38
489.261	99.38
489.479	95.38
489.696	91.38
489.914	94.38
490.132	94.38
490.35	100.38
490.568	98.38
490.786	96.38
491.003	81.38
491.221	94.38
491.439	98.38
491.657	108.38
491.874	90.38
492.092	97.38
492.31	90.38
492.527	73.38
492.745	83.38
492.963	95.38
493.18	81.38
493.398	97.38
493.615	90.38
493.833	93.38
494.05	98.38
494.268	111.38
494.485	107.38
494.703	79.38
494.92	86.38
495.138	89.38
495.355	90.38
495.573	86.38
495.79	99.38
496.008	92.38
496.225	86.38
496.442	102.38
496.66	92.38
496.877	83.38
497.094	89.38
497.312	90.38
497.529	76.38
497.746	78.38
497.963	84.38
498.181	80.38
498.398	100.38
498.615	113.38
498.832	97.38
499.049	90.38
499.267	94.38
499.484	87.38
499.701	104.38
499.918	91.38
500.135	102.38
500.352	106.38
500.569	94.38
500.786	95.38
501.003	96.38
501.22	90.38
501.437	83.38
501.654	96.38
501.871	109.38
502.088	91.38
502.305	98.38
502.522	94.38
502.739	83.38
502.956	98.38
503.172	93.38
503.389	84.38
503.606	112.38
503.823	84.38
504.04	94.38
504.256	89.38
504.473	94.38
504.69	90.38
504.907	102.38
505.123	100.38
505.34	94.38
505.557	94.38
505.773	82.38
505.99	94.38
506.207	90.38
506.423	97.38
506.64	96.38
506.856	94.38
507.073	98.38
507.289	95.38
507.506	97.38
507.722	118.38
507.939	114.38
508.155	105.38
508.372	96.38
508.588	97.38
508.805	105.38
509.021	83.38
509.238	105.38
509.454	97.38
509.67	107.38
509.887	102.38
510.103	131.38
510.319	209.38
510.536	743.38
510.752	2326.38
510.968	640.38
511.184	152.38
511.401	107.38
511.617	96.38
511.833	97.38
512.049	85.38
512.265	95.38
512.481	102.38
512.698	91.38
512.914	90.38
513.13	92.38
513.346	91.38
513.562	84.38
513.778	99.38
513.994	94.38
514.21	120.38
514.426	100.38
514.642	122.38
514.858	127.38
515.074	172.38
