Data from Uncirc_1988_H10_HRD10591_00055.txt Node
Date: Wed Jan 03 12:04:15 EST 2024
User: Yrep
Spectrometer: HR+D1059
Trigger mode: 1
Integration Time (sec): 1.000000E-1
Scans to average: 1
Electric dark correction enabled: true
Nonlinearity correction enabled: false
Boxcar width: 0
XAxis mode: Wavelengths
Number of Pixels in Spectrum: 2048
>>>>>Begin Spectral Data<<<<<
223.165	-21.88
223.4	-21.88
223.635	-21.88
223.869	-19.88
224.104	-35.88
224.338	-12.88
224.573	-22.88
224.808	-22.88
225.042	1.12
225.277	6.12
225.511	4.12
225.746	5.12
225.98	9.12
226.215	5.12
226.449	25.12
226.683	26.12
226.918	22.12
227.152	32.12
227.387	46.12
227.621	49.12
227.856	36.12
228.09	52.12
228.324	53.12
228.559	54.12
228.793	58.12
229.027	51.12
229.262	66.12
229.496	70.12
229.73	77.12
229.964	91.12
230.199	71.12
230.433	65.12
230.667	81.12
230.901	86.12
231.136	67.12
231.37	76.12
231.604	81.12
231.838	70.12
232.072	84.12
232.306	88.12
232.541	88.12
232.775	79.12
233.009	77.12
233.243	86.12
233.477	84.12
233.711	99.12
233.945	80.12
234.179	91.12
234.413	86.12
234.647	82.12
234.881	84.12
235.115	89.12
235.349	86.12
235.583	66.12
235.817	82.12
236.051	80.12
236.285	87.12
236.519	86.12
236.753	82.12
236.987	92.12
237.221	91.12
237.455	74.12
237.689	80.12
237.922	74.12
238.156	87.12
238.39	75.12
238.624	75.12
238.858	74.12
239.091	80.12
239.325	89.12
239.559	85.12
239.793	81.12
240.027	75.12
240.26	78.12
240.494	91.12
240.728	76.12
240.961	77.12
241.195	78.12
241.429	75.12
241.662	87.12
241.896	85.12
242.13	89.12
242.363	74.12
242.597	70.12
242.83	85.12
243.064	80.12
243.298	76.12
243.531	73.12
243.765	81.12
243.998	85.12
244.232	84.12
244.465	82.12
244.699	84.12
244.932	80.12
245.166	81.12
245.399	74.12
245.633	88.12
245.866	78.12
246.099	83.12
246.333	72.12
246.566	97.12
246.8	103.12
247.033	81.12
247.266	87.12
247.5	77.12
247.733	62.12
247.966	78.12
248.2	73.12
248.433	86.12
248.666	94.12
248.899	88.12
249.133	93.12
249.366	93.12
249.599	99.12
249.832	100.12
250.066	96.12
250.299	85.12
250.532	89.12
250.765	83.12
250.998	91.12
251.231	77.12
251.465	86.12
251.698	83.12
251.931	56.12
252.164	86.12
252.397	84.12
252.63	84.12
252.863	83.12
253.096	72.12
253.329	90.12
253.562	83.12
253.795	81.12
254.028	91.12
254.261	91.12
254.494	82.12
254.727	81.12
254.96	79.12
255.193	80.12
255.426	73.12
255.659	90.12
255.892	93.12
256.124	91.12
256.357	85.12
256.59	80.12
256.823	66.12
257.056	80.12
257.289	88.12
257.521	81.12
257.754	90.12
257.987	85.12
258.22	77.12
258.452	84.12
258.685	95.12
258.918	92.12
259.151	100.12
259.383	81.12
259.616	71.12
259.849	86.12
260.081	90.12
260.314	89.12
260.547	77.12
260.779	84.12
261.012	96.12
261.244	90.12
261.477	93.12
261.71	108.12
261.942	113.12
262.175	116.12
262.407	91.12
262.64	90.12
262.872	81.12
263.105	89.12
263.337	86.12
263.57	71.12
263.802	91.12
264.035	90.12
264.267	93.12
264.499	80.12
264.732	92.12
264.964	98.12
265.197	90.12
265.429	89.12
265.661	85.12
265.894	98.12
266.126	93.12
266.358	87.12
266.591	83.12
266.823	94.12
267.055	91.12
267.287	82.12
267.52	88.12
267.752	97.12
267.984	101.12
268.216	94.12
268.448	92.12
268.681	95.12
268.913	95.12
269.145	75.12
269.377	94.12
269.609	85.12
269.841	100.12
270.073	87.12
270.306	80.12
270.538	85.12
270.77	96.12
271.002	77.12
271.234	87.12
271.466	83.12
271.698	83.12
271.93	92.12
272.162	92.12
272.394	96.12
272.626	91.12
272.858	92.12
273.09	98.12
273.322	84.12
273.553	78.12
273.785	88.12
274.017	88.12
274.249	81.12
274.481	87.12
274.713	83.12
274.945	90.12
275.176	69.12
275.408	99.12
275.64	88.12
275.872	90.12
276.104	87.12
276.335	84.12
276.567	91.12
276.799	109.12
277.031	87.12
277.262	86.12
277.494	82.12
277.726	92.12
277.957	81.12
278.189	93.12
278.421	86.12
278.652	85.12
278.884	105.12
279.115	86.12
279.347	73.12
279.579	98.12
279.81	102.12
280.042	86.12
280.273	91.12
280.505	86.12
280.736	88.12
280.968	96.12
281.199	95.12
281.431	89.12
281.662	87.12
281.894	78.12
282.125	104.12
282.356	118.12
282.588	141.12
282.819	110.12
283.051	110.12
283.282	94.12
283.513	84.12
283.745	90.12
283.976	97.12
284.207	89.12
284.439	94.12
284.67	97.12
284.901	89.12
285.132	88.12
285.364	101.12
285.595	88.12
285.826	72.12
286.057	84.12
286.288	84.12
286.52	81.12
286.751	98.12
286.982	101.12
287.213	88.12
287.444	83.12
287.675	109.12
287.906	106.12
288.138	86.12
288.369	92.12
288.6	93.12
288.831	88.12
289.062	91.12
289.293	86.12
289.524	88.12
289.755	92.12
289.986	87.12
290.217	94.12
290.448	90.12
290.679	93.12
290.91	85.12
291.141	91.12
291.371	78.12
291.602	83.12
291.833	91.12
292.064	96.12
292.295	96.12
292.526	95.12
292.757	90.12
292.987	87.12
293.218	92.12
293.449	88.12
293.68	87.12
293.91	83.12
294.141	94.12
294.372	97.12
294.603	102.12
294.833	107.12
295.064	96.12
295.295	85.12
295.525	89.12
295.756	95.12
295.987	116.12
296.217	129.12
296.448	124.12
296.679	109.12
296.909	90.12
297.14	86.12
297.37	94.12
297.601	77.12
297.831	102.12
298.062	84.12
298.292	102.12
298.523	97.12
298.753	91.12
298.984	92.12
299.214	92.12
299.445	91.12
299.675	84.12
299.905	101.12
300.136	94.12
300.366	103.12
300.597	93.12
300.827	108.12
301.057	109.12
301.288	106.12
301.518	96.12
301.748	104.12
301.979	107.12
302.209	99.12
302.439	98.12
302.669	98.12
302.9	88.12
303.13	100.12
303.36	101.12
303.59	97.12
303.82	104.12
304.051	87.12
304.281	93.12
304.511	82.12
304.741	97.12
304.971	98.12
305.201	93.12
305.431	106.12
305.661	88.12
305.891	92.12
306.121	91.12
306.352	116.12
306.582	118.12
306.812	97.12
307.042	93.12
307.272	93.12
307.502	80.12
307.731	97.12
307.961	91.12
308.191	92.12
308.421	104.12
308.651	93.12
308.881	100.12
309.111	104.12
309.341	91.12
309.571	97.12
309.8	99.12
310.03	98.12
310.26	100.12
310.49	109.12
310.72	109.12
310.949	107.12
311.179	121.12
311.409	98.12
311.639	101.12
311.868	88.12
312.098	93.12
312.328	102.12
312.557	110.12
312.787	113.12
313.017	93.12
313.246	108.12
313.476	88.12
313.706	95.12
313.935	98.12
314.165	98.12
314.394	106.12
314.624	98.12
314.853	108.12
315.083	95.12
315.312	91.12
315.542	86.12
315.771	89.12
316.001	91.12
316.23	96.12
316.46	99.12
316.689	88.12
316.919	95.12
317.148	97.12
317.377	96.12
317.607	93.12
317.836	107.12
318.065	98.12
318.295	94.12
318.524	96.12
318.753	84.12
318.983	107.12
319.212	100.12
319.441	108.12
319.67	120.12
319.9	86.12
320.129	94.12
320.358	83.12
320.587	100.12
320.816	102.12
321.046	115.12
321.275	110.12
321.504	92.12
321.733	96.12
321.962	98.12
322.191	100.12
322.42	95.12
322.649	106.12
322.878	106.12
323.108	108.12
323.337	108.12
323.566	119.12
323.795	157.12
324.024	219.12
324.253	388.12
324.482	836.12
324.71	1757.12
324.939	2267.12
325.168	829.12
325.397	248.12
325.626	156.12
325.855	150.12
326.084	118.12
326.313	148.12
326.542	165.12
326.77	225.12
326.999	471.12
327.228	962.12
327.457	1796.12
327.686	1398.12
327.914	382.12
328.143	193.12
328.372	150.12
328.6	142.12
328.829	130.12
329.058	143.12
329.287	142.12
329.515	116.12
329.744	110.12
329.972	112.12
330.201	109.12
330.43	130.12
330.658	132.12
330.887	142.12
331.115	118.12
331.344	116.12
331.572	103.12
331.801	117.12
332.03	120.12
332.258	114.12
332.486	84.12
332.715	97.12
332.943	98.12
333.172	92.12
333.4	96.12
333.629	118.12
333.857	99.12
334.085	114.12
334.314	121.12
334.542	133.12
334.771	137.12
334.999	93.12
335.227	109.12
335.455	105.12
335.684	108.12
335.912	109.12
336.14	102.12
336.369	107.12
336.597	101.12
336.825	107.12
337.053	93.12
337.281	99.12
337.51	107.12
337.738	98.12
337.966	105.12
338.194	93.12
338.422	98.12
338.65	101.12
338.878	99.12
339.106	81.12
339.334	99.12
339.562	90.12
339.79	77.12
340.018	94.12
340.246	96.12
340.474	117.12
340.702	100.12
340.93	98.12
341.158	105.12
341.386	97.12
341.614	97.12
341.842	101.12
342.07	105.12
342.298	89.12
342.526	91.12
342.754	106.12
342.981	90.12
343.209	99.12
343.437	112.12
343.665	97.12
343.893	91.12
344.12	102.12
344.348	88.12
344.576	82.12
344.804	102.12
345.031	106.12
345.259	107.12
345.487	98.12
345.714	97.12
345.942	101.12
346.17	103.12
346.397	93.12
346.625	88.12
346.853	98.12
347.08	104.12
347.308	108.12
347.535	100.12
347.763	105.12
347.99	96.12
348.218	109.12
348.445	91.12
348.673	104.12
348.9	112.12
349.128	109.12
349.355	101.12
349.583	93.12
349.81	93.12
350.037	98.12
350.265	118.12
350.492	101.12
350.72	105.12
350.947	108.12
351.174	126.12
351.402	120.12
351.629	115.12
351.856	98.12
352.083	100.12
352.311	129.12
352.538	107.12
352.765	108.12
352.992	121.12
353.22	109.12
353.447	101.12
353.674	105.12
353.901	105.12
354.128	94.12
354.355	94.12
354.583	98.12
354.81	97.12
355.037	105.12
355.264	98.12
355.491	93.12
355.718	95.12
355.945	85.12
356.172	101.12
356.399	84.12
356.626	92.12
356.853	99.12
357.08	102.12
357.307	99.12
357.534	99.12
357.761	82.12
357.988	85.12
358.215	107.12
358.441	93.12
358.668	87.12
358.895	102.12
359.122	92.12
359.349	91.12
359.576	86.12
359.802	101.12
360.029	104.12
360.256	103.12
360.483	101.12
360.709	95.12
360.936	101.12
361.163	98.12
361.39	99.12
361.616	81.12
361.843	94.12
362.07	102.12
362.296	96.12
362.523	96.12
362.749	101.12
362.976	94.12
363.203	102.12
363.429	88.12
363.656	75.12
363.882	84.12
364.109	85.12
364.335	107.12
364.562	83.12
364.788	89.12
365.015	97.12
365.241	108.12
365.468	107.12
365.694	95.12
365.92	84.12
366.147	89.12
366.373	90.12
366.599	87.12
366.826	98.12
367.052	91.12
367.278	124.12
367.505	92.12
367.731	103.12
367.957	83.12
368.184	76.12
368.41	112.12
368.636	103.12
368.862	123.12
369.089	112.12
369.315	97.12
369.541	96.12
369.767	91.12
369.993	103.12
370.219	89.12
370.445	98.12
370.672	83.12
370.898	92.12
371.124	87.12
371.35	96.12
371.576	101.12
371.802	88.12
372.028	87.12
372.254	88.12
372.48	103.12
372.706	90.12
372.932	97.12
373.158	96.12
373.384	108.12
373.61	96.12
373.835	92.12
374.061	113.12
374.287	97.12
374.513	96.12
374.739	104.12
374.965	83.12
375.191	97.12
375.416	91.12
375.642	101.12
375.868	91.12
376.094	87.12
376.319	87.12
376.545	99.12
376.771	99.12
376.997	98.12
377.222	104.12
377.448	97.12
377.674	101.12
377.899	90.12
378.125	84.12
378.35	88.12
378.576	110.12
378.802	94.12
379.027	87.12
379.253	92.12
379.478	96.12
379.704	96.12
379.929	105.12
380.155	108.12
380.38	93.12
380.606	88.12
380.831	77.12
381.057	90.12
381.282	95.12
381.507	98.12
381.733	97.12
381.958	103.12
382.184	94.12
382.409	92.12
382.634	100.12
382.86	97.12
383.085	110.12
383.31	102.12
383.535	89.12
383.761	99.12
383.986	111.12
384.211	110.12
384.436	105.12
384.662	88.12
384.887	98.12
385.112	90.12
385.337	104.12
385.562	101.12
385.787	91.12
386.013	108.12
386.238	113.12
386.463	104.12
386.688	112.12
386.913	114.12
387.138	114.12
387.363	100.12
387.588	112.12
387.813	96.12
388.038	121.12
388.263	100.12
388.488	112.12
388.713	101.12
388.938	87.12
389.163	95.12
389.387	110.12
389.612	104.12
389.837	100.12
390.062	105.12
390.287	84.12
390.512	99.12
390.736	103.12
390.961	100.12
391.186	91.12
391.411	111.12
391.636	99.12
391.86	105.12
392.085	96.12
392.31	90.12
392.534	88.12
392.759	77.12
392.984	107.12
393.208	100.12
393.433	90.12
393.658	88.12
393.882	84.12
394.107	93.12
394.331	85.12
394.556	98.12
394.78	103.12
395.005	89.12
395.229	98.12
395.454	93.12
395.678	82.12
395.903	84.12
396.127	102.12
396.352	88.12
396.576	98.12
396.801	103.12
397.025	103.12
397.249	86.12
397.474	102.12
397.698	97.12
397.922	91.12
398.147	83.12
398.371	100.12
398.595	94.12
398.82	89.12
399.044	93.12
399.268	89.12
399.492	89.12
399.717	91.12
399.941	86.12
400.165	110.12
400.389	101.12
400.613	96.12
400.837	98.12
401.062	100.12
401.286	94.12
401.51	98.12
401.734	107.12
401.958	114.12
402.182	141.12
402.406	167.12
402.63	135.12
402.854	100.12
403.078	106.12
403.302	103.12
403.526	93.12
403.75	106.12
403.974	93.12
404.198	93.12
404.422	97.12
404.645	93.12
404.869	98.12
405.093	102.12
405.317	88.12
405.541	122.12
405.765	104.12
405.988	121.12
406.212	167.12
406.436	214.12
406.66	144.12
406.883	108.12
407.107	102.12
407.331	114.12
407.555	107.12
407.778	111.12
408.002	103.12
408.226	101.12
408.449	86.12
408.673	98.12
408.896	96.12
409.12	94.12
409.344	90.12
409.567	85.12
409.791	93.12
410.014	101.12
410.238	116.12
410.461	94.12
410.685	105.12
410.908	96.12
411.132	94.12
411.355	90.12
411.578	92.12
411.802	89.12
412.025	105.12
412.249	93.12
412.472	108.12
412.695	120.12
412.919	104.12
413.142	92.12
413.365	99.12
413.589	80.12
413.812	87.12
414.035	99.12
414.258	88.12
414.482	108.12
414.705	107.12
414.928	90.12
415.151	93.12
415.374	102.12
415.597	103.12
415.821	98.12
416.044	76.12
416.267	80.12
416.49	99.12
416.713	102.12
416.936	98.12
417.159	96.12
417.382	92.12
417.605	85.12
417.828	92.12
418.051	106.12
418.274	89.12
418.497	93.12
418.72	96.12
418.943	91.12
419.166	89.12
419.389	84.12
419.611	87.12
419.834	94.12
420.057	98.12
420.28	93.12
420.503	81.12
420.726	90.12
420.948	107.12
421.171	110.12
421.394	104.12
421.617	83.12
421.839	91.12
422.062	96.12
422.285	99.12
422.507	102.12
422.73	112.12
422.953	94.12
423.175	91.12
423.398	97.12
423.621	96.12
423.843	93.12
424.066	94.12
424.288	101.12
424.511	100.12
424.733	100.12
424.956	118.12
425.178	97.12
425.401	114.12
425.623	102.12
425.846	92.12
426.068	113.12
426.291	106.12
426.513	92.12
426.735	102.12
426.958	73.12
427.18	105.12
427.402	149.12
427.625	184.12
427.847	138.12
428.069	105.12
428.292	83.12
428.514	81.12
428.736	90.12
428.958	75.12
429.181	85.12
429.403	96.12
429.625	97.12
429.847	86.12
430.069	113.12
430.292	94.12
430.514	98.12
430.736	82.12
430.958	101.12
431.18	89.12
431.402	83.12
431.624	106.12
431.846	83.12
432.068	87.12
432.29	77.12
432.512	94.12
432.734	84.12
432.956	97.12
433.178	112.12
433.4	113.12
433.622	104.12
433.844	96.12
434.066	90.12
434.287	106.12
434.509	81.12
434.731	89.12
434.953	91.12
435.175	90.12
435.397	94.12
435.618	86.12
435.84	123.12
436.062	121.12
436.284	99.12
436.505	110.12
436.727	107.12
436.949	101.12
437.17	103.12
437.392	90.12
437.614	89.12
437.835	104.12
438.057	129.12
438.278	110.12
438.5	120.12
438.721	134.12
438.943	107.12
439.165	80.12
439.386	90.12
439.608	102.12
439.829	90.12
440.05	140.12
440.272	153.12
440.493	98.12
440.715	97.12
440.936	96.12
441.158	101.12
441.379	100.12
441.6	103.12
441.822	98.12
442.043	104.12
442.264	102.12
442.486	114.12
442.707	98.12
442.928	110.12
443.149	117.12
443.371	140.12
443.592	118.12
443.813	121.12
444.034	105.12
444.255	96.12
444.476	92.12
444.698	81.12
444.919	82.12
445.14	149.12
445.361	131.12
445.582	120.12
445.803	150.12
446.024	147.12
446.245	152.12
446.466	123.12
446.687	101.12
446.908	102.12
447.129	100.12
447.35	87.12
447.571	91.12
447.792	101.12
448.013	99.12
448.234	91.12
448.455	97.12
448.675	126.12
448.896	118.12
449.117	108.12
449.338	105.12
449.559	130.12
449.779	132.12
450	97.12
450.221	106.12
450.442	94.12
450.662	96.12
450.883	101.12
451.104	112.12
451.324	100.12
451.545	102.12
451.766	100.12
451.986	97.12
452.207	88.12
452.428	101.12
452.648	101.12
452.869	123.12
453.089	119.12
453.31	129.12
453.53	92.12
453.751	93.12
453.971	103.12
454.192	109.12
454.412	101.12
454.633	110.12
454.853	93.12
455.073	89.12
455.294	88.12
455.514	95.12
455.734	96.12
455.955	97.12
456.175	105.12
456.395	97.12
456.616	97.12
456.836	101.12
457.056	86.12
457.276	80.12
457.497	102.12
457.717	96.12
457.937	98.12
458.157	107.12
458.377	98.12
458.598	123.12
458.818	137.12
459.038	169.12
459.258	134.12
459.478	87.12
459.698	93.12
459.918	87.12
460.138	89.12
460.358	80.12
460.578	100.12
460.798	88.12
461.018	91.12
461.238	89.12
461.458	95.12
461.678	95.12
461.898	82.12
462.118	89.12
462.338	97.12
462.558	98.12
462.777	91.12
462.997	94.12
463.217	77.12
463.437	91.12
463.657	90.12
463.876	84.12
464.096	102.12
464.316	82.12
464.536	96.12
464.755	96.12
464.975	106.12
465.195	164.12
465.414	157.12
465.634	102.12
465.854	91.12
466.073	93.12
466.293	110.12
466.512	92.12
466.732	96.12
466.951	95.12
467.171	106.12
467.391	110.12
467.61	111.12
467.829	110.12
468.049	109.12
468.268	100.12
468.488	81.12
468.707	77.12
468.927	89.12
469.146	87.12
469.365	103.12
469.585	97.12
469.804	101.12
470.023	96.12
470.243	96.12
470.462	109.12
470.681	115.12
470.901	108.12
471.12	88.12
471.339	91.12
471.558	85.12
471.777	94.12
471.997	99.12
472.216	114.12
472.435	111.12
472.654	102.12
472.873	93.12
473.092	94.12
473.311	87.12
473.53	87.12
473.749	97.12
473.968	97.12
474.187	114.12
474.406	102.12
474.625	82.12
474.844	109.12
475.063	86.12
475.282	87.12
475.501	102.12
475.72	100.12
475.939	84.12
476.158	95.12
476.377	101.12
476.596	106.12
476.814	109.12
477.033	100.12
477.252	102.12
477.471	94.12
477.69	86.12
477.908	96.12
478.127	97.12
478.346	87.12
478.564	103.12
478.783	105.12
479.002	97.12
479.22	89.12
479.439	110.12
479.658	98.12
479.876	96.12
480.095	86.12
480.313	94.12
480.532	94.12
480.751	88.12
480.969	115.12
481.188	157.12
481.406	134.12
481.624	97.12
481.843	80.12
482.061	80.12
482.28	97.12
482.498	89.12
482.717	94.12
482.935	100.12
483.153	84.12
483.372	92.12
483.59	98.12
483.808	90.12
484.027	97.12
484.245	100.12
484.463	104.12
484.681	91.12
484.9	112.12
485.118	90.12
485.336	83.12
485.554	97.12
485.772	90.12
485.99	112.12
486.209	100.12
486.427	105.12
486.645	121.12
486.863	116.12
487.081	99.12
487.299	110.12
487.517	97.12
487.735	101.12
487.953	94.12
488.171	86.12
488.389	87.12
488.607	90.12
488.825	91.12
489.043	97.12
489.261	97.12
489.479	91.12
489.696	106.12
489.914	82.12
490.132	97.12
490.35	89.12
490.568	92.12
490.786	93.12
491.003	83.12
491.221	87.12
491.439	91.12
491.657	92.12
491.874	108.12
492.092	115.12
492.31	84.12
492.527	77.12
492.745	96.12
492.963	80.12
493.18	89.12
493.398	104.12
493.615	97.12
493.833	101.12
494.05	103.12
494.268	84.12
494.485	96.12
494.703	88.12
494.92	90.12
495.138	91.12
495.355	106.12
495.573	106.12
495.79	86.12
496.008	97.12
496.225	83.12
496.442	70.12
496.66	96.12
496.877	99.12
497.094	94.12
497.312	108.12
497.529	94.12
497.746	88.12
497.963	92.12
498.181	103.12
498.398	102.12
498.615	102.12
498.832	100.12
499.049	93.12
499.267	89.12
499.484	88.12
499.701	101.12
499.918	94.12
500.135	96.12
500.352	94.12
500.569	89.12
500.786	92.12
501.003	88.12
501.22	97.12
501.437	88.12
501.654	100.12
501.871	114.12
502.088	89.12
502.305	86.12
502.522	90.12
502.739	100.12
502.956	96.12
503.172	92.12
503.389	103.12
503.606	105.12
503.823	96.12
504.04	99.12
504.256	89.12
504.473	82.12
504.69	96.12
504.907	98.12
505.123	88.12
505.34	107.12
505.557	92.12
505.773	104.12
505.99	86.12
506.207	100.12
506.423	98.12
506.64	90.12
506.856	106.12
507.073	91.12
507.289	104.12
507.506	101.12
507.722	108.12
507.939	112.12
508.155	106.12
508.372	98.12
508.588	102.12
508.805	101.12
509.021	103.12
509.238	110.12
509.454	108.12
509.67	110.12
509.887	123.12
510.103	152.12
510.319	210.12
510.536	738.12
510.752	2247.12
510.968	633.12
511.184	149.12
511.401	112.12
511.617	100.12
511.833	97.12
512.049	99.12
512.265	98.12
512.481	92.12
512.698	102.12
512.914	88.12
513.13	94.12
513.346	87.12
513.562	76.12
