Data from Uncirc_1988_H10_HRD10591_00022.txt Node
Date: Wed Jan 03 12:04:08 EST 2024
User: Yrep
Spectrometer: HR+D1059
Trigger mode: 1
Integration Time (sec): 1.000000E-1
Scans to average: 1
Electric dark correction enabled: true
Nonlinearity correction enabled: false
Boxcar width: 0
XAxis mode: Wavelengths
Number of Pixels in Spectrum: 2048
>>>>>Begin Spectral Data<<<<<
223.165	-21.44
223.4	-21.44
223.635	-21.44
223.869	-14.44
224.104	-19.44
224.338	-17.44
224.573	-17.44
224.808	-22.44
225.042	-3.44
225.277	-17.44
225.511	4.56
225.746	12.56
225.98	2.56
226.215	9.56
226.449	20.56
226.683	14.56
226.918	23.56
227.152	45.56
227.387	28.56
227.621	49.56
227.856	49.56
228.09	55.56
228.324	44.56
228.559	51.56
228.793	32.56
229.027	66.56
229.262	66.56
229.496	67.56
229.73	98.56
229.964	67.56
230.199	67.56
230.433	85.56
230.667	88.56
230.901	71.56
231.136	72.56
231.37	78.56
231.604	82.56
231.838	74.56
232.072	85.56
232.306	69.56
232.541	76.56
232.775	75.56
233.009	83.56
233.243	74.56
233.477	89.56
233.711	76.56
233.945	82.56
234.179	89.56
234.413	76.56
234.647	78.56
234.881	101.56
235.115	83.56
235.349	75.56
235.583	82.56
235.817	64.56
236.051	67.56
236.285	67.56
236.519	100.56
236.753	76.56
236.987	96.56
237.221	87.56
237.455	82.56
237.689	76.56
237.922	77.56
238.156	75.56
238.39	68.56
238.624	84.56
238.858	75.56
239.091	78.56
239.325	82.56
239.559	78.56
239.793	81.56
240.027	88.56
240.26	64.56
240.494	77.56
240.728	63.56
240.961	84.56
241.195	78.56
241.429	86.56
241.662	80.56
241.896	71.56
242.13	63.56
242.363	87.56
242.597	88.56
242.83	82.56
243.064	83.56
243.298	71.56
243.531	86.56
243.765	76.56
243.998	76.56
244.232	68.56
244.465	96.56
244.699	74.56
244.932	88.56
245.166	93.56
245.399	88.56
245.633	73.56
245.866	73.56
246.099	87.56
246.333	86.56
246.566	82.56
246.8	81.56
247.033	72.56
247.266	78.56
247.5	73.56
247.733	78.56
247.966	83.56
248.2	82.56
248.433	82.56
248.666	72.56
248.899	78.56
249.133	94.56
249.366	102.56
249.599	107.56
249.832	75.56
250.066	68.56
250.299	68.56
250.532	91.56
250.765	90.56
250.998	88.56
251.231	95.56
251.465	73.56
251.698	74.56
251.931	70.56
252.164	83.56
252.397	77.56
252.63	90.56
252.863	74.56
253.096	78.56
253.329	78.56
253.562	84.56
253.795	86.56
254.028	81.56
254.261	85.56
254.494	78.56
254.727	81.56
254.96	88.56
255.193	81.56
255.426	71.56
255.659	94.56
255.892	85.56
256.124	80.56
256.357	81.56
256.59	75.56
256.823	73.56
257.056	80.56
257.289	70.56
257.521	82.56
257.754	80.56
257.987	76.56
258.22	90.56
258.452	68.56
258.685	84.56
258.918	88.56
259.151	73.56
259.383	89.56
259.616	84.56
259.849	92.56
260.081	75.56
260.314	90.56
260.547	90.56
260.779	82.56
261.012	94.56
261.244	74.56
261.477	86.56
261.71	99.56
261.942	103.56
262.175	108.56
262.407	99.56
262.64	75.56
262.872	76.56
263.105	87.56
263.337	82.56
263.57	64.56
263.802	90.56
264.035	89.56
264.267	74.56
264.499	78.56
264.732	97.56
264.964	81.56
265.197	85.56
265.429	90.56
265.661	79.56
265.894	91.56
266.126	90.56
266.358	80.56
266.591	83.56
266.823	94.56
267.055	80.56
267.287	65.56
267.52	81.56
267.752	87.56
267.984	76.56
268.216	80.56
268.448	95.56
268.681	74.56
268.913	67.56
269.145	81.56
269.377	82.56
269.609	88.56
269.841	83.56
270.073	84.56
270.306	86.56
270.538	96.56
270.77	94.56
271.002	86.56
271.234	84.56
271.466	86.56
271.698	97.56
271.93	82.56
272.162	83.56
272.394	84.56
272.626	87.56
272.858	93.56
273.09	73.56
273.322	100.56
273.553	107.56
273.785	85.56
274.017	81.56
274.249	85.56
274.481	95.56
274.713	80.56
274.945	80.56
275.176	91.56
275.408	99.56
275.64	78.56
275.872	77.56
276.104	99.56
276.335	97.56
276.567	97.56
276.799	112.56
277.031	94.56
277.262	99.56
277.494	107.56
277.726	89.56
277.957	88.56
278.189	92.56
278.421	92.56
278.652	80.56
278.884	86.56
279.115	82.56
279.347	87.56
279.579	76.56
279.81	86.56
280.042	96.56
280.273	86.56
280.505	88.56
280.736	91.56
280.968	77.56
281.199	94.56
281.431	81.56
281.662	99.56
281.894	96.56
282.125	110.56
282.356	110.56
282.588	126.56
282.819	102.56
283.051	96.56
283.282	87.56
283.513	88.56
283.745	97.56
283.976	71.56
284.207	84.56
284.439	94.56
284.67	96.56
284.901	104.56
285.132	94.56
285.364	86.56
285.595	92.56
285.826	86.56
286.057	85.56
286.288	79.56
286.52	90.56
286.751	96.56
286.982	87.56
287.213	91.56
287.444	91.56
287.675	94.56
287.906	89.56
288.138	80.56
288.369	84.56
288.6	101.56
288.831	95.56
289.062	90.56
289.293	87.56
289.524	88.56
289.755	89.56
289.986	87.56
290.217	82.56
290.448	88.56
290.679	98.56
290.91	90.56
291.141	87.56
291.371	85.56
291.602	93.56
291.833	85.56
292.064	91.56
292.295	88.56
292.526	97.56
292.757	95.56
292.987	92.56
293.218	88.56
293.449	82.56
293.68	87.56
293.91	94.56
294.141	97.56
294.372	100.56
294.603	85.56
294.833	91.56
295.064	87.56
295.295	81.56
295.525	100.56
295.756	107.56
295.987	114.56
296.217	138.56
296.448	119.56
296.679	104.56
296.909	109.56
297.14	86.56
297.37	110.56
297.601	88.56
297.831	96.56
298.062	92.56
298.292	95.56
298.523	90.56
298.753	88.56
298.984	83.56
299.214	95.56
299.445	81.56
299.675	95.56
299.905	100.56
300.136	89.56
300.366	92.56
300.597	85.56
300.827	98.56
301.057	90.56
301.288	102.56
301.518	94.56
301.748	82.56
301.979	98.56
302.209	71.56
302.439	97.56
302.669	87.56
302.9	100.56
303.13	90.56
303.36	100.56
303.59	94.56
303.82	94.56
304.051	99.56
304.281	91.56
304.511	82.56
304.741	90.56
304.971	80.56
305.201	86.56
305.431	87.56
305.661	86.56
305.891	96.56
306.121	101.56
306.352	96.56
306.582	101.56
306.812	88.56
307.042	97.56
307.272	107.56
307.502	99.56
307.731	104.56
307.961	99.56
308.191	92.56
308.421	100.56
308.651	90.56
308.881	85.56
309.111	97.56
309.341	101.56
309.571	100.56
309.8	102.56
310.03	95.56
310.26	99.56
310.49	98.56
310.72	88.56
310.949	110.56
311.179	105.56
311.409	108.56
311.639	98.56
311.868	94.56
312.098	96.56
312.328	89.56
312.557	103.56
312.787	108.56
313.017	104.56
313.246	103.56
313.476	90.56
313.706	92.56
313.935	91.56
314.165	107.56
314.394	94.56
314.624	91.56
314.853	113.56
315.083	105.56
315.312	96.56
315.542	91.56
315.771	96.56
316.001	84.56
316.23	73.56
316.46	91.56
316.689	88.56
316.919	101.56
317.148	85.56
317.377	108.56
317.607	86.56
317.836	91.56
318.065	80.56
318.295	89.56
318.524	99.56
318.753	80.56
318.983	87.56
319.212	92.56
319.441	104.56
319.67	105.56
319.9	94.56
320.129	91.56
320.358	75.56
320.587	104.56
320.816	90.56
321.046	98.56
321.275	104.56
321.504	98.56
321.733	104.56
321.962	117.56
322.191	109.56
322.42	106.56
322.649	120.56
322.878	107.56
323.108	111.56
323.337	136.56
323.566	128.56
323.795	147.56
324.024	206.56
324.253	431.56
324.482	894.56
324.71	1888.56
324.939	2547.56
325.168	931.56
325.397	247.56
325.626	157.56
325.855	127.56
326.084	111.56
326.313	130.56
326.542	155.56
326.77	244.56
326.999	479.56
327.228	1047.56
327.457	1970.56
327.686	1572.56
327.914	400.56
328.143	190.56
328.372	142.56
328.6	120.56
328.829	108.56
329.058	134.56
329.287	135.56
329.515	101.56
329.744	105.56
329.972	103.56
330.201	105.56
330.43	104.56
330.658	113.56
330.887	145.56
331.115	124.56
331.344	98.56
331.572	108.56
331.801	111.56
332.03	105.56
332.258	102.56
332.486	102.56
332.715	101.56
332.943	106.56
333.172	112.56
333.4	90.56
333.629	112.56
333.857	116.56
334.085	117.56
334.314	101.56
334.542	105.56
334.771	101.56
334.999	100.56
335.227	105.56
335.455	75.56
335.684	83.56
335.912	100.56
336.14	102.56
336.369	102.56
336.597	106.56
336.825	103.56
337.053	98.56
337.281	96.56
337.51	94.56
337.738	91.56
337.966	84.56
338.194	100.56
338.422	82.56
338.65	88.56
338.878	98.56
339.106	86.56
339.334	95.56
339.562	97.56
339.79	73.56
340.018	98.56
340.246	92.56
340.474	105.56
340.702	94.56
340.93	97.56
341.158	113.56
341.386	97.56
341.614	81.56
341.842	102.56
342.07	86.56
342.298	94.56
342.526	77.56
342.754	84.56
342.981	96.56
343.209	94.56
343.437	98.56
343.665	92.56
343.893	98.56
344.12	92.56
344.348	116.56
344.576	87.56
344.804	89.56
345.031	97.56
345.259	104.56
345.487	105.56
345.714	92.56
345.942	91.56
346.17	82.56
346.397	95.56
346.625	105.56
346.853	103.56
347.08	96.56
347.308	91.56
347.535	89.56
347.763	108.56
347.99	98.56
348.218	107.56
348.445	92.56
348.673	98.56
348.9	107.56
349.128	106.56
349.355	103.56
349.583	104.56
349.81	95.56
350.037	102.56
350.265	101.56
350.492	102.56
350.72	79.56
350.947	84.56
351.174	114.56
351.402	111.56
351.629	103.56
351.856	117.56
352.083	100.56
352.311	107.56
352.538	109.56
352.765	106.56
352.992	106.56
353.22	105.56
353.447	116.56
353.674	76.56
353.901	100.56
354.128	107.56
354.355	106.56
354.583	110.56
354.81	106.56
355.037	105.56
355.264	97.56
355.491	91.56
355.718	94.56
355.945	111.56
356.172	88.56
356.399	76.56
356.626	84.56
356.853	99.56
357.08	83.56
357.307	97.56
357.534	97.56
357.761	86.56
357.988	90.56
358.215	97.56
358.441	90.56
358.668	104.56
358.895	88.56
359.122	85.56
359.349	85.56
359.576	100.56
359.802	115.56
360.029	116.56
360.256	102.56
360.483	91.56
360.709	82.56
360.936	89.56
361.163	96.56
361.39	85.56
361.616	100.56
361.843	87.56
362.07	90.56
362.296	96.56
362.523	92.56
362.749	94.56
362.976	87.56
363.203	91.56
363.429	86.56
363.656	81.56
363.882	96.56
364.109	96.56
364.335	91.56
364.562	90.56
364.788	103.56
365.015	106.56
365.241	98.56
365.468	106.56
365.694	113.56
365.92	92.56
366.147	91.56
366.373	86.56
366.599	91.56
366.826	92.56
367.052	87.56
367.278	90.56
367.505	85.56
367.731	87.56
367.957	91.56
368.184	80.56
368.41	95.56
368.636	115.56
368.862	124.56
369.089	108.56
369.315	95.56
369.541	102.56
369.767	97.56
369.993	79.56
370.219	109.56
370.445	95.56
370.672	94.56
370.898	94.56
371.124	96.56
371.35	96.56
371.576	86.56
371.802	99.56
372.028	91.56
372.254	102.56
372.48	97.56
372.706	91.56
372.932	93.56
373.158	91.56
373.384	104.56
373.61	101.56
373.835	87.56
374.061	82.56
374.287	74.56
374.513	86.56
374.739	80.56
374.965	87.56
375.191	107.56
375.416	92.56
375.642	92.56
375.868	101.56
376.094	88.56
376.319	80.56
376.545	78.56
376.771	104.56
376.997	92.56
377.222	83.56
377.448	101.56
377.674	82.56
377.899	94.56
378.125	92.56
378.35	84.56
378.576	106.56
378.802	82.56
379.027	98.56
379.253	93.56
379.478	90.56
379.704	102.56
379.929	92.56
380.155	95.56
380.38	92.56
380.606	86.56
380.831	86.56
381.057	98.56
381.282	93.56
381.507	104.56
381.733	100.56
381.958	107.56
382.184	108.56
382.409	89.56
382.634	104.56
382.86	106.56
383.085	120.56
383.31	94.56
383.535	96.56
383.761	82.56
383.986	84.56
384.211	86.56
384.436	83.56
384.662	113.56
384.887	112.56
385.112	105.56
385.337	101.56
385.562	99.56
385.787	100.56
386.013	106.56
386.238	113.56
386.463	108.56
386.688	96.56
386.913	106.56
387.138	104.56
387.363	95.56
387.588	111.56
387.813	88.56
388.038	101.56
388.263	94.56
388.488	98.56
388.713	85.56
388.938	98.56
389.163	82.56
389.387	101.56
389.612	117.56
389.837	90.56
390.062	91.56
390.287	95.56
390.512	106.56
390.736	89.56
390.961	102.56
391.186	99.56
391.411	90.56
391.636	95.56
391.86	96.56
392.085	87.56
392.31	86.56
392.534	89.56
392.759	86.56
392.984	87.56
393.208	100.56
393.433	91.56
393.658	77.56
393.882	77.56
394.107	81.56
394.331	82.56
394.556	94.56
394.78	79.56
395.005	101.56
395.229	107.56
395.454	97.56
395.678	93.56
395.903	101.56
396.127	86.56
396.352	102.56
396.576	91.56
396.801	86.56
397.025	107.56
397.249	88.56
397.474	86.56
397.698	73.56
397.922	84.56
398.147	94.56
398.371	90.56
398.595	91.56
398.82	100.56
399.044	80.56
399.268	92.56
399.492	91.56
399.717	90.56
399.941	86.56
400.165	99.56
400.389	98.56
400.613	86.56
400.837	90.56
401.062	91.56
401.286	100.56
401.51	97.56
401.734	95.56
401.958	106.56
402.182	135.56
402.406	157.56
402.63	119.56
402.854	108.56
403.078	103.56
403.302	90.56
403.526	88.56
403.75	90.56
403.974	86.56
404.198	99.56
404.422	90.56
404.645	91.56
404.869	95.56
405.093	88.56
405.317	106.56
405.541	94.56
405.765	103.56
405.988	109.56
406.212	163.56
406.436	228.56
406.66	147.56
406.883	102.56
407.107	94.56
407.331	95.56
407.555	103.56
407.778	117.56
408.002	94.56
408.226	71.56
408.449	90.56
408.673	95.56
408.896	98.56
409.12	94.56
409.344	97.56
409.567	94.56
409.791	78.56
410.014	97.56
410.238	88.56
410.461	96.56
410.685	103.56
410.908	118.56
411.132	106.56
411.355	103.56
411.578	98.56
411.802	95.56
412.025	91.56
412.249	85.56
412.472	91.56
412.695	86.56
412.919	90.56
413.142	87.56
413.365	90.56
413.589	94.56
413.812	99.56
414.035	88.56
414.258	78.56
414.482	85.56
414.705	94.56
414.928	88.56
415.151	85.56
415.374	97.56
415.597	91.56
415.821	80.56
416.044	99.56
416.267	95.56
416.49	100.56
416.713	77.56
416.936	86.56
417.159	105.56
417.382	99.56
417.605	88.56
417.828	98.56
418.051	91.56
418.274	84.56
418.497	77.56
418.72	87.56
418.943	96.56
419.166	90.56
419.389	91.56
419.611	83.56
419.834	89.56
420.057	91.56
420.28	84.56
420.503	84.56
420.726	99.56
420.948	87.56
421.171	100.56
421.394	102.56
421.617	98.56
421.839	97.56
422.062	85.56
422.285	110.56
422.507	101.56
422.73	102.56
422.953	94.56
423.175	93.56
423.398	89.56
423.621	91.56
423.843	89.56
424.066	99.56
424.288	103.56
424.511	92.56
424.733	92.56
424.956	118.56
425.178	112.56
425.401	100.56
425.623	101.56
425.846	89.56
426.068	80.56
426.291	90.56
426.513	104.56
426.735	95.56
426.958	98.56
427.18	95.56
427.402	142.56
427.625	185.56
427.847	118.56
428.069	106.56
428.292	97.56
428.514	84.56
428.736	73.56
428.958	78.56
429.181	86.56
429.403	74.56
429.625	76.56
429.847	87.56
430.069	97.56
430.292	96.56
430.514	79.56
430.736	93.56
430.958	100.56
431.18	95.56
431.402	91.56
431.624	99.56
431.846	76.56
432.068	87.56
432.29	82.56
432.512	98.56
432.734	83.56
432.956	90.56
433.178	98.56
433.4	108.56
433.622	95.56
433.844	102.56
434.066	90.56
434.287	89.56
434.509	89.56
434.731	79.56
434.953	83.56
435.175	91.56
435.397	88.56
435.618	105.56
435.84	118.56
436.062	137.56
436.284	125.56
436.505	120.56
436.727	114.56
436.949	91.56
437.17	91.56
437.392	84.56
437.614	90.56
437.835	95.56
438.057	106.56
438.278	104.56
438.5	101.56
438.721	127.56
438.943	121.56
439.165	98.56
439.386	89.56
439.608	99.56
439.829	103.56
440.05	123.56
440.272	157.56
440.493	87.56
440.715	86.56
440.936	89.56
441.158	94.56
441.379	83.56
441.6	94.56
441.822	96.56
442.043	110.56
442.264	112.56
442.486	112.56
442.707	102.56
442.928	114.56
443.149	144.56
443.371	142.56
443.592	115.56
443.813	121.56
444.034	117.56
444.255	105.56
444.476	79.56
444.698	81.56
444.919	95.56
445.14	133.56
445.361	148.56
445.582	127.56
445.803	143.56
446.024	143.56
446.245	130.56
446.466	124.56
446.687	91.56
446.908	88.56
447.129	88.56
447.35	103.56
447.571	82.56
447.792	99.56
448.013	103.56
448.234	109.56
448.455	111.56
448.675	126.56
448.896	131.56
449.117	112.56
449.338	108.56
449.559	164.56
449.779	146.56
450	87.56
450.221	97.56
450.442	112.56
450.662	87.56
450.883	95.56
451.104	114.56
451.324	95.56
451.545	95.56
451.766	99.56
451.986	87.56
452.207	98.56
452.428	92.56
452.648	89.56
452.869	112.56
453.089	110.56
453.31	109.56
453.53	98.56
453.751	97.56
453.971	114.56
454.192	94.56
454.412	99.56
454.633	83.56
454.853	92.56
455.073	93.56
455.294	97.56
455.514	95.56
455.734	96.56
455.955	95.56
456.175	92.56
456.395	80.56
456.616	74.56
456.836	88.56
457.056	88.56
457.276	80.56
457.497	80.56
457.717	69.56
457.937	88.56
458.157	84.56
458.377	93.56
458.598	111.56
458.818	147.56
459.038	156.56
459.258	128.56
459.478	89.56
459.698	85.56
459.918	100.56
460.138	99.56
460.358	75.56
460.578	84.56
460.798	99.56
461.018	94.56
461.238	87.56
461.458	82.56
461.678	81.56
461.898	80.56
462.118	82.56
462.338	82.56
462.558	98.56
462.777	98.56
462.997	90.56
463.217	89.56
463.437	103.56
463.657	79.56
463.876	92.56
464.096	97.56
464.316	95.56
464.536	94.56
464.755	105.56
464.975	109.56
465.195	156.56
465.414	173.56
465.634	99.56
465.854	88.56
466.073	82.56
466.293	94.56
466.512	84.56
466.732	76.56
466.951	108.56
467.171	95.56
467.391	88.56
467.61	111.56
467.829	107.56
468.049	87.56
468.268	80.56
468.488	75.56
468.707	82.56
468.927	78.56
469.146	78.56
469.365	91.56
469.585	92.56
469.804	83.56
470.023	85.56
470.243	96.56
470.462	93.56
470.681	105.56
470.901	89.56
471.12	88.56
471.339	95.56
471.558	70.56
471.777	90.56
471.997	92.56
472.216	78.56
472.435	88.56
472.654	91.56
472.873	87.56
473.092	81.56
473.311	96.56
473.53	86.56
473.749	89.56
473.968	86.56
474.187	110.56
474.406	96.56
474.625	89.56
474.844	89.56
475.063	97.56
475.282	86.56
475.501	74.56
475.72	86.56
475.939	88.56
476.158	86.56
476.377	100.56
476.596	93.56
476.814	103.56
477.033	82.56
477.252	87.56
477.471	86.56
477.69	85.56
477.908	89.56
478.127	87.56
478.346	98.56
478.564	99.56
478.783	85.56
479.002	91.56
479.22	98.56
479.439	98.56
479.658	85.56
479.876	94.56
480.095	90.56
480.313	90.56
480.532	96.56
480.751	98.56
480.969	71.56
481.188	101.56
481.406	97.56
481.624	95.56
481.843	88.56
482.061	89.56
482.28	103.56
482.498	89.56
482.717	93.56
482.935	98.56
483.153	102.56
483.372	87.56
483.59	69.56
483.808	87.56
484.027	101.56
484.245	88.56
484.463	87.56
484.681	101.56
484.9	89.56
485.118	91.56
485.336	98.56
485.554	101.56
485.772	99.56
485.99	99.56
486.209	107.56
486.427	118.56
486.645	115.56
486.863	107.56
487.081	109.56
487.299	89.56
487.517	98.56
487.735	96.56
487.953	99.56
488.171	94.56
488.389	95.56
488.607	96.56
488.825	105.56
489.043	82.56
489.261	75.56
489.479	90.56
489.696	96.56
489.914	95.56
490.132	102.56
490.35	79.56
490.568	75.56
490.786	100.56
491.003	86.56
491.221	87.56
491.439	92.56
491.657	94.56
491.874	95.56
492.092	86.56
492.31	95.56
492.527	106.56
492.745	82.56
492.963	84.56
493.18	102.56
493.398	98.56
493.615	106.56
493.833	91.56
494.05	90.56
494.268	78.56
494.485	89.56
494.703	94.56
494.92	83.56
495.138	98.56
495.355	92.56
495.573	76.56
495.79	96.56
496.008	92.56
496.225	98.56
496.442	110.56
496.66	96.56
496.877	98.56
497.094	94.56
497.312	81.56
497.529	82.56
497.746	90.56
497.963	95.56
498.181	95.56
498.398	95.56
498.615	123.56
498.832	98.56
499.049	102.56
499.267	88.56
499.484	84.56
499.701	87.56
499.918	102.56
500.135	75.56
500.352	88.56
500.569	95.56
500.786	83.56
501.003	81.56
501.22	87.56
501.437	92.56
501.654	97.56
501.871	125.56
502.088	86.56
502.305	96.56
502.522	90.56
502.739	88.56
502.956	79.56
503.172	104.56
503.389	98.56
503.606	101.56
503.823	124.56
504.04	100.56
504.256	86.56
504.473	100.56
504.69	86.56
504.907	105.56
505.123	88.56
505.34	86.56
505.557	88.56
505.773	99.56
505.99	94.56
506.207	82.56
506.423	78.56
506.64	103.56
506.856	80.56
507.073	96.56
507.289	95.56
507.506	86.56
507.722	119.56
507.939	102.56
508.155	109.56
508.372	100.56
508.588	87.56
508.805	87.56
509.021	113.56
509.238	108.56
509.454	105.56
509.67	99.56
509.887	98.56
510.103	132.56
510.319	198.56
510.536	752.56
510.752	2224.56
510.968	603.56
511.184	144.56
511.401	116.56
511.617	107.56
511.833	92.56
512.049	82.56
512.265	91.56
512.481	105.56
512.698	102.56
512.914	99.56
513.13	97.56
513.346	97.56
513.562	99.56
513.778	94.56
513.994	108.56
514.21	119.56
514.426	128.56
514.642	127.56
514.858	119.56
