Data from Uncirc_1988_H10_HRD10591_00086.txt Node
Date: Wed Jan 03 12:04:21 EST 2024
User: Yrep
Spectrometer: HR+D1059
Trigger mode: 1
Integration Time (sec): 1.000000E-1
Scans to average: 1
Electric dark correction enabled: true
Nonlinearity correction enabled: false
Boxcar width: 0
XAxis mode: Wavelengths
Number of Pixels in Spectrum: 2048
>>>>>Begin Spectral Data<<<<<
223.165	-25.56
223.4	-25.56
223.635	-25.56
223.869	-19.56
224.104	-18.56
224.338	-13.56
224.573	-14.56
224.808	-5.56
225.042	-13.56
225.277	-6.56
225.511	1.44
225.746	-5.56
225.98	9.44
226.215	9.44
226.449	26.44
226.683	20.44
226.918	32.44
227.152	23.44
227.387	29.44
227.621	50.44
227.856	49.44
228.09	44.44
228.324	35.44
228.559	55.44
228.793	50.44
229.027	66.44
229.262	76.44
229.496	72.44
229.73	80.44
229.964	93.44
230.199	85.44
230.433	72.44
230.667	76.44
230.901	90.44
231.136	80.44
231.37	67.44
231.604	74.44
231.838	83.44
232.072	74.44
232.306	87.44
232.541	76.44
232.775	61.44
233.009	83.44
233.243	83.44
233.477	87.44
233.711	81.44
233.945	75.44
234.179	83.44
234.413	95.44
234.647	92.44
234.881	76.44
235.115	76.44
235.349	95.44
235.583	81.44
235.817	86.44
236.051	72.44
236.285	78.44
236.519	84.44
236.753	74.44
236.987	87.44
237.221	83.44
237.455	87.44
237.689	80.44
237.922	69.44
238.156	73.44
238.39	66.44
238.624	83.44
238.858	82.44
239.091	81.44
239.325	77.44
239.559	75.44
239.793	74.44
240.027	79.44
240.26	79.44
240.494	84.44
240.728	83.44
240.961	87.44
241.195	85.44
241.429	81.44
241.662	86.44
241.896	91.44
242.13	76.44
242.363	87.44
242.597	71.44
242.83	80.44
243.064	93.44
243.298	79.44
243.531	67.44
243.765	87.44
243.998	83.44
244.232	98.44
244.465	84.44
244.699	74.44
244.932	74.44
245.166	77.44
245.399	85.44
245.633	78.44
245.866	76.44
246.099	77.44
246.333	82.44
246.566	89.44
246.8	88.44
247.033	77.44
247.266	69.44
247.5	87.44
247.733	85.44
247.966	82.44
248.2	81.44
248.433	84.44
248.666	90.44
248.899	98.44
249.133	101.44
249.366	96.44
249.599	100.44
249.832	83.44
250.066	72.44
250.299	84.44
250.532	89.44
250.765	75.44
250.998	75.44
251.231	75.44
251.465	99.44
251.698	91.44
251.931	86.44
252.164	72.44
252.397	96.44
252.63	85.44
252.863	79.44
253.096	93.44
253.329	83.44
253.562	80.44
253.795	89.44
254.028	77.44
254.261	75.44
254.494	79.44
254.727	88.44
254.96	89.44
255.193	73.44
255.426	85.44
255.659	82.44
255.892	81.44
256.124	67.44
256.357	79.44
256.59	107.44
256.823	81.44
257.056	96.44
257.289	82.44
257.521	102.44
257.754	91.44
257.987	77.44
258.22	81.44
258.452	83.44
258.685	93.44
258.918	99.44
259.151	84.44
259.383	90.44
259.616	73.44
259.849	83.44
260.081	74.44
260.314	79.44
260.547	79.44
260.779	74.44
261.012	81.44
261.244	87.44
261.477	99.44
261.71	87.44
261.942	106.44
262.175	115.44
262.407	95.44
262.64	95.44
262.872	97.44
263.105	80.44
263.337	81.44
263.57	92.44
263.802	76.44
264.035	97.44
264.267	75.44
264.499	81.44
264.732	77.44
264.964	81.44
265.197	85.44
265.429	72.44
265.661	79.44
265.894	83.44
266.126	80.44
266.358	84.44
266.591	97.44
266.823	89.44
267.055	75.44
267.287	92.44
267.52	85.44
267.752	94.44
267.984	83.44
268.216	88.44
268.448	87.44
268.681	75.44
268.913	79.44
269.145	92.44
269.377	101.44
269.609	87.44
269.841	91.44
270.073	95.44
270.306	87.44
270.538	93.44
270.77	88.44
271.002	88.44
271.234	88.44
271.466	83.44
271.698	95.44
271.93	92.44
272.162	91.44
272.394	95.44
272.626	96.44
272.858	95.44
273.09	89.44
273.322	90.44
273.553	81.44
273.785	91.44
274.017	99.44
274.249	87.44
274.481	89.44
274.713	107.44
274.945	96.44
275.176	81.44
275.408	89.44
275.64	102.44
275.872	80.44
276.104	87.44
276.335	101.44
276.567	107.44
276.799	105.44
277.031	104.44
277.262	93.44
277.494	87.44
277.726	97.44
277.957	91.44
278.189	90.44
278.421	81.44
278.652	83.44
278.884	86.44
279.115	96.44
279.347	95.44
279.579	89.44
279.81	93.44
280.042	94.44
280.273	82.44
280.505	109.44
280.736	87.44
280.968	95.44
281.199	104.44
281.431	91.44
281.662	103.44
281.894	101.44
282.125	105.44
282.356	111.44
282.588	146.44
282.819	109.44
283.051	94.44
283.282	85.44
283.513	97.44
283.745	90.44
283.976	94.44
284.207	86.44
284.439	90.44
284.67	74.44
284.901	87.44
285.132	89.44
285.364	76.44
285.595	86.44
285.826	106.44
286.057	82.44
286.288	85.44
286.52	90.44
286.751	61.44
286.982	89.44
287.213	96.44
287.444	96.44
287.675	101.44
287.906	91.44
288.138	91.44
288.369	85.44
288.6	101.44
288.831	100.44
289.062	108.44
289.293	84.44
289.524	94.44
289.755	88.44
289.986	85.44
290.217	107.44
290.448	101.44
290.679	101.44
290.91	109.44
291.141	94.44
291.371	96.44
291.602	98.44
291.833	84.44
292.064	92.44
292.295	93.44
292.526	98.44
292.757	83.44
292.987	89.44
293.218	91.44
293.449	103.44
293.68	110.44
293.91	91.44
294.141	99.44
294.372	93.44
294.603	86.44
294.833	89.44
295.064	77.44
295.295	88.44
295.525	94.44
295.756	101.44
295.987	105.44
296.217	138.44
296.448	118.44
296.679	93.44
296.909	95.44
297.14	100.44
297.37	82.44
297.601	93.44
297.831	97.44
298.062	101.44
298.292	92.44
298.523	102.44
298.753	88.44
298.984	83.44
299.214	78.44
299.445	86.44
299.675	89.44
299.905	90.44
300.136	93.44
300.366	92.44
300.597	84.44
300.827	100.44
301.057	98.44
301.288	98.44
301.518	103.44
301.748	81.44
301.979	88.44
302.209	107.44
302.439	96.44
302.669	83.44
302.9	103.44
303.13	95.44
303.36	91.44
303.59	106.44
303.82	94.44
304.051	88.44
304.281	93.44
304.511	104.44
304.741	98.44
304.971	91.44
305.201	82.44
305.431	94.44
305.661	93.44
305.891	86.44
306.121	97.44
306.352	113.44
306.582	112.44
306.812	90.44
307.042	91.44
307.272	98.44
307.502	95.44
307.731	94.44
307.961	105.44
308.191	89.44
308.421	93.44
308.651	98.44
308.881	103.44
309.111	100.44
309.341	103.44
309.571	89.44
309.8	103.44
310.03	91.44
310.26	94.44
310.49	111.44
310.72	109.44
310.949	119.44
311.179	89.44
311.409	102.44
311.639	104.44
311.868	97.44
312.098	108.44
312.328	106.44
312.557	111.44
312.787	117.44
313.017	98.44
313.246	96.44
313.476	103.44
313.706	91.44
313.935	106.44
314.165	107.44
314.394	96.44
314.624	89.44
314.853	99.44
315.083	98.44
315.312	97.44
315.542	93.44
315.771	105.44
316.001	92.44
316.23	101.44
316.46	87.44
316.689	101.44
316.919	106.44
317.148	85.44
317.377	100.44
317.607	81.44
317.836	113.44
318.065	109.44
318.295	102.44
318.524	93.44
318.753	92.44
318.983	105.44
319.212	97.44
319.441	114.44
319.67	116.44
319.9	84.44
320.129	91.44
320.358	93.44
320.587	108.44
320.816	101.44
321.046	103.44
321.275	106.44
321.504	109.44
321.733	108.44
321.962	103.44
322.191	101.44
322.42	101.44
322.649	103.44
322.878	104.44
323.108	96.44
323.337	115.44
323.566	133.44
323.795	152.44
324.024	192.44
324.253	374.44
324.482	797.44
324.71	1593.44
324.939	2092.44
325.168	789.44
325.397	227.44
325.626	129.44
325.855	115.44
326.084	127.44
326.313	141.44
326.542	163.44
326.77	227.44
326.999	433.44
327.228	896.44
327.457	1611.44
327.686	1289.44
327.914	345.44
328.143	195.44
328.372	159.44
328.6	133.44
328.829	113.44
329.058	140.44
329.287	133.44
329.515	119.44
329.744	113.44
329.972	117.44
330.201	122.44
330.43	128.44
330.658	138.44
330.887	137.44
331.115	117.44
331.344	103.44
331.572	100.44
331.801	120.44
332.03	109.44
332.258	103.44
332.486	101.44
332.715	96.44
332.943	99.44
333.172	111.44
333.4	106.44
333.629	108.44
333.857	119.44
334.085	118.44
334.314	114.44
334.542	152.44
334.771	148.44
334.999	103.44
335.227	86.44
335.455	96.44
335.684	99.44
335.912	106.44
336.14	101.44
336.369	100.44
336.597	95.44
336.825	102.44
337.053	99.44
337.281	104.44
337.51	91.44
337.738	104.44
337.966	91.44
338.194	107.44
338.422	104.44
338.65	101.44
338.878	106.44
339.106	90.44
339.334	96.44
339.562	103.44
339.79	96.44
340.018	101.44
340.246	93.44
340.474	104.44
340.702	108.44
340.93	91.44
341.158	96.44
341.386	83.44
341.614	91.44
341.842	98.44
342.07	93.44
342.298	91.44
342.526	83.44
342.754	92.44
342.981	85.44
343.209	96.44
343.437	107.44
343.665	101.44
343.893	92.44
344.12	88.44
344.348	89.44
344.576	77.44
344.804	96.44
345.031	93.44
345.259	100.44
345.487	101.44
345.714	77.44
345.942	101.44
346.17	103.44
346.397	97.44
346.625	99.44
346.853	88.44
347.08	87.44
347.308	115.44
347.535	104.44
347.763	101.44
347.99	104.44
348.218	122.44
348.445	102.44
348.673	100.44
348.9	104.44
349.128	106.44
349.355	84.44
349.583	100.44
349.81	90.44
350.037	107.44
350.265	105.44
350.492	89.44
350.72	112.44
350.947	109.44
351.174	113.44
351.402	115.44
351.629	113.44
351.856	85.44
352.083	108.44
352.311	113.44
352.538	103.44
352.765	108.44
352.992	107.44
353.22	104.44
353.447	113.44
353.674	97.44
353.901	106.44
354.128	101.44
354.355	100.44
354.583	94.44
354.81	110.44
355.037	101.44
355.264	84.44
355.491	105.44
355.718	99.44
355.945	104.44
356.172	115.44
356.399	107.44
356.626	96.44
356.853	97.44
357.08	99.44
357.307	100.44
357.534	93.44
357.761	87.44
357.988	86.44
358.215	90.44
358.441	84.44
358.668	89.44
358.895	81.44
359.122	91.44
359.349	106.44
359.576	92.44
359.802	102.44
360.029	97.44
360.256	108.44
360.483	104.44
360.709	87.44
360.936	99.44
361.163	87.44
361.39	93.44
361.616	85.44
361.843	101.44
362.07	93.44
362.296	91.44
362.523	91.44
362.749	92.44
362.976	103.44
363.203	100.44
363.429	91.44
363.656	87.44
363.882	101.44
364.109	96.44
364.335	92.44
364.562	93.44
364.788	79.44
365.015	93.44
365.241	107.44
365.468	91.44
365.694	101.44
365.92	106.44
366.147	101.44
366.373	103.44
366.599	112.44
366.826	92.44
367.052	94.44
367.278	107.44
367.505	87.44
367.731	89.44
367.957	100.44
368.184	87.44
368.41	107.44
368.636	117.44
368.862	113.44
369.089	113.44
369.315	96.44
369.541	100.44
369.767	89.44
369.993	98.44
370.219	87.44
370.445	98.44
370.672	98.44
370.898	89.44
371.124	82.44
371.35	95.44
371.576	95.44
371.802	92.44
372.028	91.44
372.254	86.44
372.48	89.44
372.706	107.44
372.932	98.44
373.158	85.44
373.384	92.44
373.61	97.44
373.835	91.44
374.061	95.44
374.287	95.44
374.513	97.44
374.739	83.44
374.965	88.44
375.191	69.44
375.416	86.44
375.642	88.44
375.868	96.44
376.094	96.44
376.319	100.44
376.545	85.44
376.771	87.44
376.997	92.44
377.222	92.44
377.448	99.44
377.674	90.44
377.899	89.44
378.125	83.44
378.35	83.44
378.576	81.44
378.802	82.44
379.027	84.44
379.253	100.44
379.478	105.44
379.704	92.44
379.929	77.44
380.155	96.44
380.38	103.44
380.606	90.44
380.831	103.44
381.057	104.44
381.282	88.44
381.507	83.44
381.733	97.44
381.958	95.44
382.184	96.44
382.409	102.44
382.634	97.44
382.86	102.44
383.085	115.44
383.31	99.44
383.535	101.44
383.761	91.44
383.986	101.44
384.211	102.44
384.436	84.44
384.662	92.44
384.887	97.44
385.112	91.44
385.337	96.44
385.562	109.44
385.787	102.44
386.013	98.44
386.238	108.44
386.463	105.44
386.688	107.44
386.913	83.44
387.138	105.44
387.363	99.44
387.588	91.44
387.813	99.44
388.038	109.44
388.263	93.44
388.488	103.44
388.713	93.44
388.938	79.44
389.163	93.44
389.387	111.44
389.612	97.44
389.837	89.44
390.062	104.44
390.287	94.44
390.512	99.44
390.736	96.44
390.961	95.44
391.186	98.44
391.411	111.44
391.636	91.44
391.86	98.44
392.085	88.44
392.31	73.44
392.534	92.44
392.759	106.44
392.984	70.44
393.208	75.44
393.433	103.44
393.658	93.44
393.882	94.44
394.107	94.44
394.331	100.44
394.556	94.44
394.78	98.44
395.005	78.44
395.229	93.44
395.454	91.44
395.678	83.44
395.903	81.44
396.127	83.44
396.352	99.44
396.576	88.44
396.801	85.44
397.025	76.44
397.249	90.44
397.474	96.44
397.698	81.44
397.922	95.44
398.147	87.44
398.371	83.44
398.595	91.44
398.82	83.44
399.044	81.44
399.268	67.44
399.492	80.44
399.717	88.44
399.941	89.44
400.165	97.44
400.389	93.44
400.613	85.44
400.837	95.44
401.062	90.44
401.286	92.44
401.51	103.44
401.734	109.44
401.958	101.44
402.182	116.44
402.406	143.44
402.63	93.44
402.854	91.44
403.078	104.44
403.302	109.44
403.526	73.44
403.75	81.44
403.974	93.44
404.198	105.44
404.422	92.44
404.645	99.44
404.869	96.44
405.093	103.44
405.317	95.44
405.541	107.44
405.765	96.44
405.988	115.44
406.212	157.44
406.436	211.44
406.66	140.44
406.883	103.44
407.107	93.44
407.331	87.44
407.555	117.44
407.778	112.44
408.002	91.44
408.226	98.44
408.449	93.44
408.673	87.44
408.896	109.44
409.12	107.44
409.344	83.44
409.567	96.44
409.791	104.44
410.014	89.44
410.238	94.44
410.461	108.44
410.685	102.44
410.908	98.44
411.132	103.44
411.355	101.44
411.578	97.44
411.802	90.44
412.025	90.44
412.249	91.44
412.472	89.44
412.695	108.44
412.919	98.44
413.142	94.44
413.365	76.44
413.589	101.44
413.812	97.44
414.035	91.44
414.258	83.44
414.482	93.44
414.705	91.44
414.928	89.44
415.151	102.44
415.374	92.44
415.597	95.44
415.821	90.44
416.044	83.44
416.267	92.44
416.49	98.44
416.713	102.44
416.936	91.44
417.159	74.44
417.382	83.44
417.605	89.44
417.828	104.44
418.051	105.44
418.274	95.44
418.497	86.44
418.72	87.44
418.943	91.44
419.166	101.44
419.389	92.44
419.611	90.44
419.834	88.44
420.057	86.44
420.28	86.44
420.503	96.44
420.726	102.44
420.948	105.44
421.171	93.44
421.394	105.44
421.617	92.44
421.839	95.44
422.062	104.44
422.285	101.44
422.507	103.44
422.73	109.44
422.953	95.44
423.175	95.44
423.398	91.44
423.621	100.44
423.843	96.44
424.066	90.44
424.288	90.44
424.511	101.44
424.733	93.44
424.956	99.44
425.178	90.44
425.401	111.44
425.623	92.44
425.846	88.44
426.068	94.44
426.291	93.44
426.513	82.44
426.735	84.44
426.958	108.44
427.18	106.44
427.402	132.44
427.625	165.44
427.847	132.44
428.069	117.44
428.292	98.44
428.514	100.44
428.736	82.44
428.958	81.44
429.181	89.44
429.403	85.44
429.625	89.44
429.847	98.44
430.069	91.44
430.292	81.44
430.514	92.44
430.736	91.44
430.958	71.44
431.18	73.44
431.402	81.44
431.624	91.44
431.846	89.44
432.068	86.44
432.29	82.44
432.512	98.44
432.734	83.44
432.956	94.44
433.178	84.44
433.4	127.44
433.622	103.44
433.844	101.44
434.066	91.44
434.287	85.44
434.509	84.44
434.731	89.44
434.953	104.44
435.175	99.44
435.397	99.44
435.618	88.44
435.84	103.44
436.062	133.44
436.284	105.44
436.505	127.44
436.727	103.44
436.949	88.44
437.17	95.44
437.392	86.44
437.614	97.44
437.835	110.44
438.057	121.44
438.278	108.44
438.5	107.44
438.721	126.44
438.943	101.44
439.165	98.44
439.386	95.44
439.608	98.44
439.829	103.44
440.05	125.44
440.272	154.44
440.493	115.44
440.715	108.44
440.936	98.44
441.158	92.44
441.379	88.44
441.6	97.44
441.822	99.44
442.043	80.44
442.264	105.44
442.486	96.44
442.707	90.44
442.928	92.44
443.149	125.44
443.371	121.44
443.592	122.44
443.813	115.44
444.034	112.44
444.255	91.44
444.476	98.44
444.698	104.44
444.919	93.44
445.14	153.44
445.361	127.44
445.582	121.44
445.803	133.44
446.024	138.44
446.245	144.44
446.466	113.44
446.687	109.44
446.908	104.44
447.129	95.44
447.35	107.44
447.571	89.44
447.792	102.44
448.013	102.44
448.234	103.44
448.455	104.44
448.675	112.44
448.896	128.44
449.117	107.44
449.338	88.44
449.559	125.44
449.779	120.44
450	102.44
450.221	105.44
450.442	83.44
450.662	96.44
450.883	127.44
451.104	109.44
451.324	97.44
451.545	99.44
451.766	93.44
451.986	93.44
452.207	92.44
452.428	99.44
452.648	87.44
452.869	120.44
453.089	121.44
453.31	105.44
453.53	87.44
453.751	87.44
453.971	99.44
454.192	112.44
454.412	90.44
454.633	89.44
454.853	99.44
455.073	90.44
455.294	106.44
455.514	113.44
455.734	88.44
455.955	92.44
456.175	95.44
456.395	87.44
456.616	73.44
456.836	88.44
457.056	84.44
457.276	66.44
457.497	78.44
457.717	96.44
457.937	93.44
458.157	85.44
458.377	88.44
458.598	103.44
458.818	145.44
459.038	163.44
459.258	115.44
459.478	92.44
459.698	95.44
459.918	90.44
460.138	96.44
460.358	97.44
460.578	92.44
460.798	93.44
461.018	93.44
461.238	91.44
461.458	85.44
461.678	91.44
461.898	93.44
462.118	87.44
462.338	83.44
462.558	103.44
462.777	86.44
462.997	82.44
463.217	81.44
463.437	102.44
463.657	85.44
463.876	89.44
464.096	88.44
464.316	93.44
464.536	81.44
464.755	91.44
464.975	112.44
465.195	161.44
465.414	159.44
465.634	100.44
465.854	86.44
466.073	104.44
466.293	89.44
466.512	95.44
466.732	91.44
466.951	96.44
467.171	87.44
467.391	95.44
467.61	101.44
467.829	106.44
468.049	102.44
468.268	88.44
468.488	88.44
468.707	89.44
468.927	91.44
469.146	91.44
469.365	94.44
469.585	92.44
469.804	100.44
470.023	98.44
470.243	97.44
470.462	93.44
470.681	93.44
470.901	95.44
471.12	70.44
471.339	87.44
471.558	91.44
471.777	95.44
471.997	100.44
472.216	108.44
472.435	133.44
472.654	85.44
472.873	96.44
473.092	91.44
473.311	97.44
473.53	97.44
473.749	91.44
473.968	96.44
474.187	108.44
474.406	109.44
474.625	97.44
474.844	102.44
475.063	95.44
475.282	93.44
475.501	87.44
475.72	103.44
475.939	80.44
476.158	76.44
476.377	86.44
476.596	88.44
476.814	95.44
477.033	105.44
477.252	85.44
477.471	73.44
477.69	96.44
477.908	88.44
478.127	93.44
478.346	93.44
478.564	95.44
478.783	106.44
479.002	102.44
479.22	91.44
479.439	99.44
479.658	95.44
479.876	99.44
480.095	90.44
480.313	85.44
480.532	96.44
480.751	91.44
480.969	112.44
481.188	215.44
481.406	154.44
481.624	99.44
481.843	87.44
482.061	107.44
482.28	100.44
482.498	103.44
482.717	91.44
482.935	83.44
483.153	90.44
483.372	96.44
483.59	91.44
483.808	104.44
484.027	89.44
484.245	92.44
484.463	100.44
484.681	98.44
484.9	102.44
485.118	94.44
485.336	88.44
485.554	111.44
485.772	104.44
485.99	112.44
486.209	91.44
486.427	106.44
486.645	96.44
486.863	114.44
487.081	112.44
487.299	104.44
487.517	85.44
487.735	94.44
487.953	97.44
488.171	108.44
488.389	90.44
488.607	85.44
488.825	93.44
489.043	98.44
489.261	88.44
489.479	107.44
489.696	89.44
489.914	80.44
490.132	75.44
490.35	79.44
490.568	95.44
490.786	94.44
491.003	95.44
491.221	85.44
491.439	108.44
491.657	107.44
491.874	84.44
492.092	83.44
492.31	75.44
492.527	91.44
492.745	92.44
492.963	99.44
493.18	84.44
493.398	94.44
493.615	88.44
493.833	97.44
494.05	103.44
494.268	99.44
494.485	95.44
494.703	86.44
494.92	95.44
495.138	90.44
495.355	94.44
495.573	103.44
495.79	93.44
496.008	100.44
496.225	92.44
496.442	90.44
496.66	106.44
496.877	91.44
497.094	91.44
497.312	96.44
497.529	91.44
497.746	96.44
497.963	93.44
498.181	88.44
498.398	90.44
498.615	107.44
498.832	102.44
499.049	100.44
499.267	91.44
499.484	87.44
499.701	104.44
499.918	82.44
500.135	89.44
500.352	106.44
500.569	92.44
500.786	93.44
501.003	93.44
501.22	99.44
501.437	99.44
501.654	97.44
501.871	104.44
502.088	100.44
502.305	99.44
502.522	91.44
502.739	89.44
502.956	96.44
503.172	95.44
503.389	100.44
503.606	102.44
503.823	99.44
504.04	100.44
504.256	107.44
504.473	88.44
504.69	101.44
504.907	97.44
505.123	90.44
505.34	106.44
505.557	76.44
505.773	90.44
505.99	103.44
506.207	93.44
506.423	96.44
506.64	101.44
506.856	99.44
507.073	92.44
507.289	89.44
507.506	99.44
507.722	111.44
507.939	117.44
508.155	101.44
508.372	87.44
508.588	87.44
508.805	94.44
509.021	103.44
509.238	108.44
509.454	95.44
509.67	90.44
509.887	98.44
510.103	140.44
510.319	207.44
510.536	732.44
510.752	2209.44
510.968	595.44
511.184	157.44
511.401	115.44
511.617	97.44
511.833	103.44
512.049	107.44
512.265	86.44
512.481	92.44
512.698	108.44
512.914	85.44
513.13	89.44
513.346	94.44
513.562	102.44
513.778	95.44
513.994	89.44
