Data from Uncirc_1988_H10_HRD10591_00021.txt Node
Date: Wed Jan 03 12:04:08 EST 2024
User: Yrep
Spectrometer: HR+D1059
Trigger mode: 1
Integration Time (sec): 1.000000E-1
Scans to average: 1
Electric dark correction enabled: true
Nonlinearity correction enabled: false
Boxcar width: 0
XAxis mode: Wavelengths
Number of Pixels in Spectrum: 2048
>>>>>Begin Spectral Data<<<<<
223.165	-13.75
223.4	-13.75
223.635	-13.75
223.869	-12.75
224.104	-18.75
224.338	-17.75
224.573	-10.75
224.808	-11.75
225.042	-12.75
225.277	-18.75
225.511	7.25
225.746	7.25
225.98	5.25
226.215	17.25
226.449	3.25
226.683	37.25
226.918	18.25
227.152	21.25
227.387	34.25
227.621	42.25
227.856	45.25
228.09	40.25
228.324	36.25
228.559	66.25
228.793	60.25
229.027	75.25
229.262	67.25
229.496	71.25
229.73	67.25
229.964	84.25
230.199	66.25
230.433	77.25
230.667	80.25
230.901	78.25
231.136	69.25
231.37	83.25
231.604	82.25
231.838	66.25
232.072	65.25
232.306	79.25
232.541	81.25
232.775	69.25
233.009	78.25
233.243	88.25
233.477	92.25
233.711	81.25
233.945	86.25
234.179	75.25
234.413	81.25
234.647	69.25
234.881	67.25
235.115	66.25
235.349	74.25
235.583	75.25
235.817	75.25
236.051	80.25
236.285	63.25
236.519	75.25
236.753	75.25
236.987	90.25
237.221	97.25
237.455	84.25
237.689	78.25
237.922	83.25
238.156	75.25
238.39	75.25
238.624	68.25
238.858	63.25
239.091	70.25
239.325	75.25
239.559	86.25
239.793	79.25
240.027	85.25
240.26	65.25
240.494	52.25
240.728	71.25
240.961	79.25
241.195	85.25
241.429	84.25
241.662	74.25
241.896	69.25
242.13	80.25
242.363	74.25
242.597	74.25
242.83	69.25
243.064	73.25
243.298	77.25
243.531	94.25
243.765	75.25
243.998	91.25
244.232	67.25
244.465	79.25
244.699	85.25
244.932	79.25
245.166	72.25
245.399	81.25
245.633	78.25
245.866	77.25
246.099	72.25
246.333	71.25
246.566	84.25
246.8	66.25
247.033	73.25
247.266	81.25
247.5	66.25
247.733	55.25
247.966	86.25
248.2	71.25
248.433	78.25
248.666	70.25
248.899	71.25
249.133	73.25
249.366	97.25
249.599	85.25
249.832	93.25
250.066	79.25
250.299	74.25
250.532	77.25
250.765	84.25
250.998	87.25
251.231	87.25
251.465	71.25
251.698	72.25
251.931	75.25
252.164	85.25
252.397	70.25
252.63	64.25
252.863	78.25
253.096	72.25
253.329	70.25
253.562	73.25
253.795	88.25
254.028	79.25
254.261	76.25
254.494	65.25
254.727	81.25
254.96	80.25
255.193	76.25
255.426	73.25
255.659	79.25
255.892	83.25
256.124	76.25
256.357	76.25
256.59	85.25
256.823	79.25
257.056	75.25
257.289	60.25
257.521	87.25
257.754	86.25
257.987	63.25
258.22	92.25
258.452	85.25
258.685	72.25
258.918	90.25
259.151	82.25
259.383	85.25
259.616	81.25
259.849	98.25
260.081	66.25
260.314	89.25
260.547	90.25
260.779	94.25
261.012	90.25
261.244	84.25
261.477	93.25
261.71	86.25
261.942	105.25
262.175	101.25
262.407	91.25
262.64	81.25
262.872	71.25
263.105	87.25
263.337	77.25
263.57	81.25
263.802	97.25
264.035	87.25
264.267	81.25
264.499	79.25
264.732	90.25
264.964	86.25
265.197	72.25
265.429	74.25
265.661	68.25
265.894	75.25
266.126	83.25
266.358	83.25
266.591	85.25
266.823	80.25
267.055	82.25
267.287	84.25
267.52	90.25
267.752	77.25
267.984	77.25
268.216	76.25
268.448	94.25
268.681	79.25
268.913	93.25
269.145	89.25
269.377	83.25
269.609	91.25
269.841	72.25
270.073	84.25
270.306	81.25
270.538	84.25
270.77	85.25
271.002	82.25
271.234	91.25
271.466	87.25
271.698	69.25
271.93	81.25
272.162	79.25
272.394	81.25
272.626	67.25
272.858	81.25
273.09	88.25
273.322	89.25
273.553	77.25
273.785	89.25
274.017	88.25
274.249	93.25
274.481	80.25
274.713	86.25
274.945	84.25
275.176	74.25
275.408	86.25
275.64	77.25
275.872	71.25
276.104	85.25
276.335	84.25
276.567	88.25
276.799	102.25
277.031	91.25
277.262	95.25
277.494	83.25
277.726	74.25
277.957	97.25
278.189	89.25
278.421	81.25
278.652	78.25
278.884	94.25
279.115	87.25
279.347	86.25
279.579	79.25
279.81	71.25
280.042	78.25
280.273	84.25
280.505	92.25
280.736	65.25
280.968	98.25
281.199	84.25
281.431	82.25
281.662	78.25
281.894	71.25
282.125	97.25
282.356	114.25
282.588	133.25
282.819	95.25
283.051	104.25
283.282	77.25
283.513	94.25
283.745	91.25
283.976	80.25
284.207	87.25
284.439	87.25
284.67	87.25
284.901	91.25
285.132	81.25
285.364	64.25
285.595	85.25
285.826	96.25
286.057	78.25
286.288	77.25
286.52	77.25
286.751	78.25
286.982	84.25
287.213	86.25
287.444	94.25
287.675	72.25
287.906	96.25
288.138	92.25
288.369	102.25
288.6	90.25
288.831	84.25
289.062	85.25
289.293	96.25
289.524	77.25
289.755	87.25
289.986	68.25
290.217	81.25
290.448	87.25
290.679	91.25
290.91	78.25
291.141	88.25
291.371	92.25
291.602	76.25
291.833	85.25
292.064	83.25
292.295	78.25
292.526	75.25
292.757	86.25
292.987	71.25
293.218	82.25
293.449	74.25
293.68	82.25
293.91	68.25
294.141	94.25
294.372	81.25
294.603	86.25
294.833	86.25
295.064	83.25
295.295	94.25
295.525	80.25
295.756	94.25
295.987	98.25
296.217	143.25
296.448	117.25
296.679	88.25
296.909	83.25
297.14	89.25
297.37	84.25
297.601	99.25
297.831	86.25
298.062	85.25
298.292	83.25
298.523	97.25
298.753	70.25
298.984	85.25
299.214	81.25
299.445	83.25
299.675	94.25
299.905	87.25
300.136	89.25
300.366	83.25
300.597	84.25
300.827	103.25
301.057	97.25
301.288	103.25
301.518	97.25
301.748	94.25
301.979	95.25
302.209	85.25
302.439	87.25
302.669	89.25
302.9	91.25
303.13	82.25
303.36	97.25
303.59	102.25
303.82	107.25
304.051	102.25
304.281	78.25
304.511	81.25
304.741	91.25
304.971	72.25
305.201	100.25
305.431	81.25
305.661	89.25
305.891	86.25
306.121	112.25
306.352	95.25
306.582	99.25
306.812	90.25
307.042	79.25
307.272	91.25
307.502	92.25
307.731	102.25
307.961	81.25
308.191	92.25
308.421	83.25
308.651	86.25
308.881	92.25
309.111	83.25
309.341	91.25
309.571	99.25
309.8	101.25
310.03	80.25
310.26	86.25
310.49	94.25
310.72	97.25
310.949	97.25
311.179	102.25
311.409	85.25
311.639	84.25
311.868	94.25
312.098	78.25
312.328	106.25
312.557	85.25
312.787	93.25
313.017	115.25
313.246	83.25
313.476	97.25
313.706	92.25
313.935	97.25
314.165	112.25
314.394	104.25
314.624	91.25
314.853	99.25
315.083	89.25
315.312	92.25
315.542	87.25
315.771	96.25
316.001	83.25
316.23	70.25
316.46	97.25
316.689	89.25
316.919	90.25
317.148	104.25
317.377	95.25
317.607	90.25
317.836	97.25
318.065	85.25
318.295	92.25
318.524	81.25
318.753	91.25
318.983	87.25
319.212	95.25
319.441	119.25
319.67	117.25
319.9	79.25
320.129	93.25
320.358	106.25
320.587	83.25
320.816	88.25
321.046	80.25
321.275	99.25
321.504	88.25
321.733	81.25
321.962	88.25
322.191	96.25
322.42	88.25
322.649	109.25
322.878	106.25
323.108	104.25
323.337	120.25
323.566	131.25
323.795	143.25
324.024	185.25
324.253	401.25
324.482	821.25
324.71	1683.25
324.939	2187.25
325.168	805.25
325.397	244.25
325.626	141.25
325.855	106.25
326.084	123.25
326.313	116.25
326.542	156.25
326.77	230.25
326.999	463.25
327.228	971.25
327.457	1751.25
327.686	1344.25
327.914	352.25
328.143	175.25
328.372	137.25
328.6	121.25
328.829	119.25
329.058	128.25
329.287	126.25
329.515	116.25
329.744	125.25
329.972	91.25
330.201	97.25
330.43	100.25
330.658	106.25
330.887	129.25
331.115	116.25
331.344	94.25
331.572	99.25
331.801	107.25
332.03	104.25
332.258	89.25
332.486	86.25
332.715	86.25
332.943	92.25
333.172	97.25
333.4	93.25
333.629	105.25
333.857	110.25
334.085	113.25
334.314	105.25
334.542	110.25
334.771	92.25
334.999	82.25
335.227	88.25
335.455	97.25
335.684	92.25
335.912	109.25
336.14	96.25
336.369	99.25
336.597	111.25
336.825	94.25
337.053	93.25
337.281	94.25
337.51	89.25
337.738	85.25
337.966	96.25
338.194	83.25
338.422	81.25
338.65	94.25
338.878	88.25
339.106	96.25
339.334	95.25
339.562	95.25
339.79	83.25
340.018	99.25
340.246	104.25
340.474	79.25
340.702	92.25
340.93	85.25
341.158	85.25
341.386	98.25
341.614	102.25
341.842	93.25
342.07	83.25
342.298	94.25
342.526	100.25
342.754	96.25
342.981	98.25
343.209	95.25
343.437	112.25
343.665	96.25
343.893	81.25
344.12	91.25
344.348	88.25
344.576	91.25
344.804	86.25
345.031	80.25
345.259	108.25
345.487	100.25
345.714	90.25
345.942	92.25
346.17	100.25
346.397	91.25
346.625	87.25
346.853	94.25
347.08	87.25
347.308	97.25
347.535	92.25
347.763	94.25
347.99	94.25
348.218	100.25
348.445	112.25
348.673	91.25
348.9	89.25
349.128	82.25
349.355	94.25
349.583	88.25
349.81	92.25
350.037	94.25
350.265	102.25
350.492	96.25
350.72	108.25
350.947	102.25
351.174	115.25
351.402	104.25
351.629	119.25
351.856	102.25
352.083	100.25
352.311	92.25
352.538	120.25
352.765	86.25
352.992	105.25
353.22	118.25
353.447	95.25
353.674	98.25
353.901	110.25
354.128	80.25
354.355	89.25
354.583	95.25
354.81	102.25
355.037	107.25
355.264	95.25
355.491	92.25
355.718	101.25
355.945	102.25
356.172	92.25
356.399	68.25
356.626	99.25
356.853	83.25
357.08	98.25
357.307	82.25
357.534	106.25
357.761	86.25
357.988	92.25
358.215	92.25
358.441	81.25
358.668	89.25
358.895	93.25
359.122	89.25
359.349	88.25
359.576	93.25
359.802	82.25
360.029	96.25
360.256	113.25
360.483	87.25
360.709	84.25
360.936	104.25
361.163	89.25
361.39	83.25
361.616	91.25
361.843	86.25
362.07	98.25
362.296	97.25
362.523	91.25
362.749	72.25
362.976	79.25
363.203	83.25
363.429	80.25
363.656	97.25
363.882	88.25
364.109	87.25
364.335	85.25
364.562	103.25
364.788	86.25
365.015	75.25
365.241	97.25
365.468	102.25
365.694	104.25
365.92	94.25
366.147	80.25
366.373	83.25
366.599	84.25
366.826	88.25
367.052	85.25
367.278	87.25
367.505	100.25
367.731	88.25
367.957	93.25
368.184	81.25
368.41	104.25
368.636	102.25
368.862	113.25
369.089	101.25
369.315	93.25
369.541	80.25
369.767	91.25
369.993	88.25
370.219	92.25
370.445	95.25
370.672	88.25
370.898	79.25
371.124	86.25
371.35	96.25
371.576	83.25
371.802	91.25
372.028	83.25
372.254	87.25
372.48	81.25
372.706	76.25
372.932	87.25
373.158	92.25
373.384	83.25
373.61	88.25
373.835	99.25
374.061	81.25
374.287	79.25
374.513	84.25
374.739	87.25
374.965	99.25
375.191	92.25
375.416	91.25
375.642	78.25
375.868	94.25
376.094	91.25
376.319	82.25
376.545	86.25
376.771	91.25
376.997	95.25
377.222	91.25
377.448	99.25
377.674	77.25
377.899	95.25
378.125	93.25
378.35	93.25
378.576	96.25
378.802	101.25
379.027	98.25
379.253	98.25
379.478	80.25
379.704	93.25
379.929	87.25
380.155	90.25
380.38	90.25
380.606	84.25
380.831	94.25
381.057	105.25
381.282	95.25
381.507	88.25
381.733	95.25
381.958	85.25
382.184	78.25
382.409	87.25
382.634	103.25
382.86	96.25
383.085	96.25
383.31	85.25
383.535	91.25
383.761	97.25
383.986	94.25
384.211	93.25
384.436	100.25
384.662	105.25
384.887	91.25
385.112	103.25
385.337	100.25
385.562	83.25
385.787	102.25
386.013	104.25
386.238	105.25
386.463	105.25
386.688	87.25
386.913	103.25
387.138	103.25
387.363	113.25
387.588	103.25
387.813	92.25
388.038	109.25
388.263	87.25
388.488	107.25
388.713	100.25
388.938	103.25
389.163	92.25
389.387	87.25
389.612	96.25
389.837	89.25
390.062	105.25
390.287	94.25
390.512	94.25
390.736	90.25
390.961	99.25
391.186	95.25
391.411	96.25
391.636	99.25
391.86	77.25
392.085	75.25
392.31	85.25
392.534	83.25
392.759	88.25
392.984	93.25
393.208	101.25
393.433	100.25
393.658	92.25
393.882	85.25
394.107	80.25
394.331	81.25
394.556	67.25
394.78	81.25
395.005	83.25
395.229	80.25
395.454	73.25
395.678	87.25
395.903	81.25
396.127	95.25
396.352	89.25
396.576	92.25
396.801	86.25
397.025	96.25
397.249	79.25
397.474	88.25
397.698	84.25
397.922	87.25
398.147	93.25
398.371	86.25
398.595	69.25
398.82	75.25
399.044	91.25
399.268	82.25
399.492	73.25
399.717	87.25
399.941	93.25
400.165	87.25
400.389	95.25
400.613	86.25
400.837	88.25
401.062	92.25
401.286	88.25
401.51	88.25
401.734	84.25
401.958	96.25
402.182	119.25
402.406	143.25
402.63	101.25
402.854	101.25
403.078	86.25
403.302	94.25
403.526	87.25
403.75	84.25
403.974	91.25
404.198	79.25
404.422	84.25
404.645	84.25
404.869	88.25
405.093	104.25
405.317	102.25
405.541	88.25
405.765	82.25
405.988	99.25
406.212	158.25
406.436	195.25
406.66	126.25
406.883	81.25
407.107	88.25
407.331	99.25
407.555	99.25
407.778	103.25
408.002	91.25
408.226	81.25
408.449	85.25
408.673	79.25
408.896	100.25
409.12	94.25
409.344	83.25
409.567	83.25
409.791	77.25
410.014	104.25
410.238	75.25
410.461	101.25
410.685	105.25
410.908	92.25
411.132	101.25
411.355	90.25
411.578	91.25
411.802	81.25
412.025	94.25
412.249	88.25
412.472	75.25
412.695	91.25
412.919	105.25
413.142	98.25
413.365	88.25
413.589	93.25
413.812	89.25
414.035	102.25
414.258	92.25
414.482	93.25
414.705	93.25
414.928	85.25
415.151	80.25
415.374	99.25
415.597	93.25
415.821	87.25
416.044	82.25
416.267	88.25
416.49	87.25
416.713	91.25
416.936	91.25
417.159	87.25
417.382	86.25
417.605	82.25
417.828	99.25
418.051	96.25
418.274	85.25
418.497	87.25
418.72	88.25
418.943	91.25
419.166	93.25
419.389	91.25
419.611	91.25
419.834	88.25
420.057	101.25
420.28	85.25
420.503	77.25
420.726	69.25
420.948	85.25
421.171	78.25
421.394	81.25
421.617	103.25
421.839	88.25
422.062	93.25
422.285	83.25
422.507	92.25
422.73	107.25
422.953	95.25
423.175	89.25
423.398	85.25
423.621	81.25
423.843	90.25
424.066	93.25
424.288	94.25
424.511	102.25
424.733	92.25
424.956	117.25
425.178	100.25
425.401	88.25
425.623	97.25
425.846	89.25
426.068	87.25
426.291	107.25
426.513	88.25
426.735	81.25
426.958	95.25
427.18	99.25
427.402	133.25
427.625	162.25
427.847	126.25
428.069	84.25
428.292	96.25
428.514	96.25
428.736	74.25
428.958	82.25
429.181	87.25
429.403	83.25
429.625	81.25
429.847	88.25
430.069	99.25
430.292	98.25
430.514	89.25
430.736	92.25
430.958	67.25
431.18	78.25
431.402	73.25
431.624	77.25
431.846	85.25
432.068	93.25
432.29	89.25
432.512	86.25
432.734	94.25
432.956	95.25
433.178	95.25
433.4	95.25
433.622	75.25
433.844	96.25
434.066	99.25
434.287	86.25
434.509	97.25
434.731	68.25
434.953	75.25
435.175	109.25
435.397	88.25
435.618	82.25
435.84	105.25
436.062	120.25
436.284	117.25
436.505	95.25
436.727	104.25
436.949	88.25
437.17	79.25
437.392	95.25
437.614	99.25
437.835	110.25
438.057	96.25
438.278	114.25
438.5	103.25
438.721	111.25
438.943	108.25
439.165	77.25
439.386	81.25
439.608	76.25
439.829	92.25
440.05	123.25
440.272	154.25
440.493	100.25
440.715	91.25
440.936	87.25
441.158	68.25
441.379	84.25
441.6	99.25
441.822	87.25
442.043	72.25
442.264	97.25
442.486	105.25
442.707	86.25
442.928	96.25
443.149	129.25
443.371	111.25
443.592	104.25
443.813	96.25
444.034	110.25
444.255	94.25
444.476	83.25
444.698	83.25
444.919	84.25
445.14	140.25
445.361	120.25
445.582	114.25
445.803	132.25
446.024	144.25
446.245	122.25
446.466	104.25
446.687	96.25
446.908	93.25
447.129	102.25
447.35	103.25
447.571	89.25
447.792	101.25
448.013	103.25
448.234	116.25
448.455	97.25
448.675	120.25
448.896	101.25
449.117	88.25
449.338	103.25
449.559	124.25
449.779	125.25
450	80.25
450.221	88.25
450.442	76.25
450.662	100.25
450.883	85.25
451.104	109.25
451.324	84.25
451.545	72.25
451.766	87.25
451.986	84.25
452.207	100.25
452.428	83.25
452.648	106.25
452.869	109.25
453.089	106.25
453.31	98.25
453.53	93.25
453.751	85.25
453.971	95.25
454.192	115.25
454.412	91.25
454.633	87.25
454.853	81.25
455.073	80.25
455.294	87.25
455.514	99.25
455.734	86.25
455.955	82.25
456.175	84.25
456.395	72.25
456.616	93.25
456.836	81.25
457.056	68.25
457.276	85.25
457.497	94.25
457.717	97.25
457.937	83.25
458.157	91.25
458.377	83.25
458.598	110.25
458.818	138.25
459.038	149.25
459.258	111.25
459.478	93.25
459.698	83.25
459.918	80.25
460.138	101.25
460.358	84.25
460.578	87.25
460.798	84.25
461.018	83.25
461.238	86.25
461.458	93.25
461.678	94.25
461.898	79.25
462.118	92.25
462.338	92.25
462.558	83.25
462.777	79.25
462.997	93.25
463.217	85.25
463.437	91.25
463.657	71.25
463.876	82.25
464.096	104.25
464.316	84.25
464.536	86.25
464.755	92.25
464.975	84.25
465.195	155.25
465.414	140.25
465.634	100.25
465.854	91.25
466.073	99.25
466.293	84.25
466.512	93.25
466.732	88.25
466.951	81.25
467.171	86.25
467.391	94.25
467.61	95.25
467.829	78.25
468.049	104.25
468.268	81.25
468.488	88.25
468.707	64.25
468.927	81.25
469.146	83.25
469.365	75.25
469.585	83.25
469.804	88.25
470.023	87.25
470.243	100.25
470.462	100.25
470.681	100.25
470.901	83.25
471.12	79.25
471.339	97.25
471.558	92.25
471.777	96.25
471.997	91.25
472.216	75.25
472.435	89.25
472.654	76.25
472.873	84.25
473.092	77.25
473.311	85.25
473.53	73.25
473.749	87.25
473.968	92.25
474.187	88.25
474.406	79.25
474.625	87.25
474.844	79.25
475.063	90.25
475.282	90.25
475.501	92.25
475.72	95.25
475.939	86.25
476.158	80.25
476.377	86.25
476.596	81.25
476.814	81.25
477.033	94.25
477.252	79.25
477.471	92.25
477.69	112.25
477.908	89.25
478.127	87.25
478.346	96.25
478.564	93.25
478.783	92.25
479.002	84.25
479.22	95.25
479.439	99.25
479.658	97.25
479.876	106.25
480.095	84.25
480.313	98.25
480.532	94.25
480.751	91.25
480.969	83.25
481.188	110.25
481.406	97.25
481.624	89.25
481.843	85.25
482.061	94.25
482.28	78.25
482.498	92.25
482.717	87.25
482.935	90.25
483.153	97.25
483.372	100.25
483.59	93.25
483.808	82.25
484.027	85.25
484.245	86.25
484.463	76.25
484.681	98.25
484.9	88.25
485.118	77.25
485.336	91.25
485.554	95.25
485.772	85.25
485.99	107.25
486.209	107.25
486.427	103.25
486.645	107.25
486.863	116.25
487.081	103.25
487.299	96.25
487.517	96.25
487.735	85.25
487.953	88.25
488.171	107.25
488.389	80.25
488.607	98.25
488.825	97.25
489.043	95.25
489.261	91.25
489.479	97.25
489.696	84.25
489.914	93.25
490.132	86.25
490.35	80.25
490.568	99.25
490.786	87.25
491.003	95.25
491.221	92.25
491.439	92.25
491.657	92.25
491.874	79.25
492.092	85.25
492.31	92.25
492.527	89.25
492.745	94.25
492.963	93.25
493.18	90.25
493.398	86.25
493.615	113.25
493.833	116.25
494.05	96.25
494.268	90.25
494.485	100.25
494.703	76.25
494.92	76.25
495.138	81.25
495.355	88.25
495.573	94.25
495.79	99.25
496.008	105.25
496.225	76.25
496.442	94.25
496.66	96.25
496.877	89.25
497.094	96.25
497.312	94.25
497.529	91.25
497.746	91.25
497.963	91.25
498.181	101.25
498.398	103.25
498.615	99.25
498.832	99.25
499.049	85.25
499.267	96.25
499.484	85.25
499.701	100.25
499.918	84.25
500.135	91.25
500.352	83.25
500.569	91.25
500.786	91.25
501.003	93.25
501.22	95.25
501.437	98.25
501.654	105.25
501.871	104.25
502.088	83.25
502.305	105.25
502.522	101.25
502.739	78.25
502.956	96.25
503.172	107.25
503.389	88.25
503.606	101.25
503.823	103.25
504.04	96.25
504.256	90.25
504.473	95.25
504.69	73.25
504.907	89.25
505.123	88.25
505.34	83.25
505.557	97.25
505.773	78.25
505.99	84.25
506.207	83.25
506.423	85.25
506.64	95.25
506.856	80.25
507.073	94.25
507.289	83.25
507.506	96.25
507.722	103.25
507.939	116.25
508.155	100.25
508.372	80.25
508.588	102.25
508.805	86.25
509.021	84.25
509.238	99.25
509.454	100.25
509.67	86.25
509.887	109.25
510.103	130.25
510.319	199.25
510.536	679.25
510.752	2036.25
510.968	571.25
511.184	151.25
511.401	103.25
511.617	89.25
511.833	96.25
512.049	81.25
512.265	99.25
512.481	91.25
512.698	89.25
512.914	97.25
513.13	90.25
513.346	93.25
513.562	88.25
513.778	100.25
513.994	100.25
514.21	98.25
514.426	117.25
514.642	123.25
514.858	117.25
515.074	151.25
515.29	401.25
515.506	1269.25
515.721	472.25
515.937	139.25
516.153	116.25
516.369	98.25
