Data from Uncirc_1988_H10_HRD10591_00049.txt Node
Date: Wed Jan 03 12:04:14 EST 2024
User: Yrep
Spectrometer: HR+D1059
Trigger mode: 1
Integration Time (sec): 1.000000E-1
Scans to average: 1
Electric dark correction enabled: true
Nonlinearity correction enabled: false
Boxcar width: 0
XAxis mode: Wavelengths
Number of Pixels in Spectrum: 2048
>>>>>Begin Spectral Data<<<<<
223.165	-24.5
223.4	-24.5
223.635	-24.5
223.869	-9.5
224.104	-29.5
224.338	-7.5
224.573	-14.5
224.808	-9.5
225.042	2.5
225.277	-10.5
225.511	4.5
225.746	-3.5
225.98	-0.5
226.215	8.5
226.449	23.5
226.683	19.5
226.918	24.5
227.152	26.5
227.387	43.5
227.621	29.5
227.856	59.5
228.09	39.5
228.324	24.5
228.559	47.5
228.793	61.5
229.027	84.5
229.262	77.5
229.496	86.5
229.73	81.5
229.964	93.5
230.199	73.5
230.433	81.5
230.667	79.5
230.901	83.5
231.136	70.5
231.37	79.5
231.604	85.5
231.838	63.5
232.072	81.5
232.306	69.5
232.541	82.5
232.775	83.5
233.009	83.5
233.243	88.5
233.477	61.5
233.711	82.5
233.945	79.5
234.179	72.5
234.413	95.5
234.647	83.5
234.881	88.5
235.115	82.5
235.349	79.5
235.583	77.5
235.817	69.5
236.051	81.5
236.285	66.5
236.519	76.5
236.753	79.5
236.987	83.5
237.221	90.5
237.455	77.5
237.689	66.5
237.922	67.5
238.156	81.5
238.39	67.5
238.624	70.5
238.858	64.5
239.091	81.5
239.325	52.5
239.559	75.5
239.793	63.5
240.027	80.5
240.26	86.5
240.494	64.5
240.728	76.5
240.961	81.5
241.195	75.5
241.429	64.5
241.662	68.5
241.896	71.5
242.13	71.5
242.363	69.5
242.597	79.5
242.83	71.5
243.064	67.5
243.298	76.5
243.531	84.5
243.765	98.5
243.998	86.5
244.232	87.5
244.465	84.5
244.699	72.5
244.932	76.5
245.166	76.5
245.399	92.5
245.633	77.5
245.866	76.5
246.099	75.5
246.333	67.5
246.566	85.5
246.8	83.5
247.033	67.5
247.266	76.5
247.5	96.5
247.733	86.5
247.966	79.5
248.2	87.5
248.433	73.5
248.666	80.5
248.899	67.5
249.133	97.5
249.366	96.5
249.599	95.5
249.832	82.5
250.066	82.5
250.299	65.5
250.532	89.5
250.765	66.5
250.998	62.5
251.231	76.5
251.465	70.5
251.698	70.5
251.931	71.5
252.164	76.5
252.397	89.5
252.63	77.5
252.863	83.5
253.096	70.5
253.329	92.5
253.562	77.5
253.795	87.5
254.028	85.5
254.261	83.5
254.494	92.5
254.727	85.5
254.96	86.5
255.193	62.5
255.426	88.5
255.659	81.5
255.892	93.5
256.124	80.5
256.357	79.5
256.59	77.5
256.823	92.5
257.056	70.5
257.289	79.5
257.521	87.5
257.754	80.5
257.987	70.5
258.22	80.5
258.452	94.5
258.685	91.5
258.918	86.5
259.151	86.5
259.383	92.5
259.616	83.5
259.849	78.5
260.081	72.5
260.314	72.5
260.547	66.5
260.779	94.5
261.012	72.5
261.244	80.5
261.477	81.5
261.71	93.5
261.942	123.5
262.175	123.5
262.407	84.5
262.64	98.5
262.872	87.5
263.105	68.5
263.337	93.5
263.57	72.5
263.802	87.5
264.035	79.5
264.267	71.5
264.499	77.5
264.732	85.5
264.964	80.5
265.197	73.5
265.429	81.5
265.661	81.5
265.894	93.5
266.126	91.5
266.358	80.5
266.591	89.5
266.823	81.5
267.055	84.5
267.287	71.5
267.52	84.5
267.752	93.5
267.984	101.5
268.216	89.5
268.448	83.5
268.681	87.5
268.913	81.5
269.145	91.5
269.377	74.5
269.609	81.5
269.841	72.5
270.073	79.5
270.306	82.5
270.538	84.5
270.77	90.5
271.002	92.5
271.234	86.5
271.466	84.5
271.698	94.5
271.93	87.5
272.162	78.5
272.394	81.5
272.626	83.5
272.858	96.5
273.09	88.5
273.322	89.5
273.553	87.5
273.785	92.5
274.017	91.5
274.249	88.5
274.481	92.5
274.713	84.5
274.945	109.5
275.176	90.5
275.408	80.5
275.64	92.5
275.872	75.5
276.104	88.5
276.335	85.5
276.567	105.5
276.799	109.5
277.031	103.5
277.262	86.5
277.494	81.5
277.726	84.5
277.957	94.5
278.189	102.5
278.421	97.5
278.652	90.5
278.884	88.5
279.115	84.5
279.347	89.5
279.579	95.5
279.81	80.5
280.042	91.5
280.273	97.5
280.505	96.5
280.736	79.5
280.968	76.5
281.199	92.5
281.431	90.5
281.662	99.5
281.894	87.5
282.125	93.5
282.356	138.5
282.588	159.5
282.819	113.5
283.051	96.5
283.282	89.5
283.513	93.5
283.745	88.5
283.976	89.5
284.207	92.5
284.439	96.5
284.67	93.5
284.901	81.5
285.132	101.5
285.364	93.5
285.595	95.5
285.826	77.5
286.057	78.5
286.288	92.5
286.52	88.5
286.751	97.5
286.982	97.5
287.213	96.5
287.444	87.5
287.675	89.5
287.906	79.5
288.138	75.5
288.369	94.5
288.6	99.5
288.831	86.5
289.062	98.5
289.293	89.5
289.524	77.5
289.755	77.5
289.986	88.5
290.217	88.5
290.448	96.5
290.679	94.5
290.91	98.5
291.141	79.5
291.371	78.5
291.602	88.5
291.833	77.5
292.064	99.5
292.295	90.5
292.526	89.5
292.757	94.5
292.987	101.5
293.218	88.5
293.449	98.5
293.68	100.5
293.91	81.5
294.141	93.5
294.372	87.5
294.603	93.5
294.833	80.5
295.064	70.5
295.295	81.5
295.525	73.5
295.756	103.5
295.987	123.5
296.217	147.5
296.448	133.5
296.679	110.5
296.909	93.5
297.14	91.5
297.37	89.5
297.601	85.5
297.831	85.5
298.062	107.5
298.292	90.5
298.523	104.5
298.753	85.5
298.984	82.5
299.214	87.5
299.445	91.5
299.675	91.5
299.905	91.5
300.136	93.5
300.366	81.5
300.597	105.5
300.827	86.5
301.057	89.5
301.288	107.5
301.518	95.5
301.748	95.5
301.979	91.5
302.209	93.5
302.439	90.5
302.669	91.5
302.9	87.5
303.13	87.5
303.36	102.5
303.59	103.5
303.82	102.5
304.051	88.5
304.281	91.5
304.511	89.5
304.741	91.5
304.971	92.5
305.201	81.5
305.431	73.5
305.661	88.5
305.891	83.5
306.121	84.5
306.352	95.5
306.582	102.5
306.812	94.5
307.042	92.5
307.272	87.5
307.502	95.5
307.731	93.5
307.961	69.5
308.191	79.5
308.421	97.5
308.651	85.5
308.881	91.5
309.111	102.5
309.341	89.5
309.571	95.5
309.8	103.5
310.03	93.5
310.26	105.5
310.49	95.5
310.72	100.5
310.949	112.5
311.179	103.5
311.409	101.5
311.639	92.5
311.868	92.5
312.098	99.5
312.328	96.5
312.557	109.5
312.787	107.5
313.017	101.5
313.246	92.5
313.476	102.5
313.706	102.5
313.935	93.5
314.165	92.5
314.394	93.5
314.624	103.5
314.853	108.5
315.083	86.5
315.312	110.5
315.542	101.5
315.771	91.5
316.001	89.5
316.23	89.5
316.46	105.5
316.689	102.5
316.919	97.5
317.148	100.5
317.377	95.5
317.607	99.5
317.836	97.5
318.065	94.5
318.295	87.5
318.524	86.5
318.753	105.5
318.983	100.5
319.212	92.5
319.441	98.5
319.67	111.5
319.9	100.5
320.129	89.5
320.358	99.5
320.587	102.5
320.816	94.5
321.046	108.5
321.275	94.5
321.504	93.5
321.733	83.5
321.962	109.5
322.191	95.5
322.42	107.5
322.649	117.5
322.878	116.5
323.108	112.5
323.337	133.5
323.566	133.5
323.795	172.5
324.024	221.5
324.253	422.5
324.482	951.5
324.71	1936.5
324.939	2631.5
325.168	909.5
325.397	255.5
325.626	163.5
325.855	133.5
326.084	120.5
326.313	140.5
326.542	158.5
326.77	227.5
326.999	508.5
327.228	1043.5
327.457	1983.5
327.686	1553.5
327.914	411.5
328.143	215.5
328.372	143.5
328.6	125.5
328.829	143.5
329.058	140.5
329.287	133.5
329.515	123.5
329.744	103.5
329.972	107.5
330.201	111.5
330.43	127.5
330.658	126.5
330.887	159.5
331.115	122.5
331.344	98.5
331.572	105.5
331.801	108.5
332.03	93.5
332.258	107.5
332.486	80.5
332.715	81.5
332.943	99.5
333.172	105.5
333.4	85.5
333.629	103.5
333.857	116.5
334.085	124.5
334.314	81.5
334.542	105.5
334.771	110.5
334.999	99.5
335.227	88.5
335.455	98.5
335.684	95.5
335.912	98.5
336.14	104.5
336.369	85.5
336.597	98.5
336.825	97.5
337.053	92.5
337.281	91.5
337.51	95.5
337.738	88.5
337.966	85.5
338.194	105.5
338.422	92.5
338.65	91.5
338.878	80.5
339.106	88.5
339.334	93.5
339.562	93.5
339.79	90.5
340.018	87.5
340.246	73.5
340.474	89.5
340.702	84.5
340.93	96.5
341.158	77.5
341.386	108.5
341.614	95.5
341.842	92.5
342.07	92.5
342.298	108.5
342.526	92.5
342.754	90.5
342.981	96.5
343.209	100.5
343.437	108.5
343.665	87.5
343.893	92.5
344.12	94.5
344.348	85.5
344.576	89.5
344.804	97.5
345.031	97.5
345.259	103.5
345.487	105.5
345.714	89.5
345.942	89.5
346.17	75.5
346.397	91.5
346.625	96.5
346.853	92.5
347.08	100.5
347.308	91.5
347.535	95.5
347.763	96.5
347.99	94.5
348.218	102.5
348.445	110.5
348.673	108.5
348.9	102.5
349.128	114.5
349.355	102.5
349.583	100.5
349.81	96.5
350.037	91.5
350.265	108.5
350.492	95.5
350.72	91.5
350.947	99.5
351.174	108.5
351.402	118.5
351.629	109.5
351.856	104.5
352.083	107.5
352.311	107.5
352.538	94.5
352.765	110.5
352.992	107.5
353.22	110.5
353.447	108.5
353.674	103.5
353.901	94.5
354.128	103.5
354.355	96.5
354.583	96.5
354.81	91.5
355.037	88.5
355.264	102.5
355.491	93.5
355.718	82.5
355.945	76.5
356.172	91.5
356.399	98.5
356.626	97.5
356.853	97.5
357.08	97.5
357.307	77.5
357.534	85.5
357.761	95.5
357.988	88.5
358.215	91.5
358.441	87.5
358.668	66.5
358.895	102.5
359.122	85.5
359.349	87.5
359.576	92.5
359.802	101.5
360.029	113.5
360.256	111.5
360.483	87.5
360.709	84.5
360.936	109.5
361.163	98.5
361.39	108.5
361.616	91.5
361.843	83.5
362.07	92.5
362.296	89.5
362.523	94.5
362.749	93.5
362.976	80.5
363.203	95.5
363.429	89.5
363.656	81.5
363.882	84.5
364.109	91.5
364.335	101.5
364.562	80.5
364.788	91.5
365.015	101.5
365.241	108.5
365.468	105.5
365.694	110.5
365.92	90.5
366.147	95.5
366.373	105.5
366.599	97.5
366.826	84.5
367.052	81.5
367.278	86.5
367.505	85.5
367.731	86.5
367.957	110.5
368.184	101.5
368.41	90.5
368.636	112.5
368.862	116.5
369.089	97.5
369.315	99.5
369.541	68.5
369.767	95.5
369.993	94.5
370.219	74.5
370.445	96.5
370.672	83.5
370.898	115.5
371.124	74.5
371.35	96.5
371.576	80.5
371.802	89.5
372.028	94.5
372.254	87.5
372.48	94.5
372.706	91.5
372.932	78.5
373.158	86.5
373.384	99.5
373.61	93.5
373.835	92.5
374.061	85.5
374.287	95.5
374.513	85.5
374.739	77.5
374.965	101.5
375.191	85.5
375.416	72.5
375.642	94.5
375.868	98.5
376.094	85.5
376.319	88.5
376.545	83.5
376.771	95.5
376.997	85.5
377.222	78.5
377.448	87.5
377.674	92.5
377.899	79.5
378.125	95.5
378.35	79.5
378.576	97.5
378.802	85.5
379.027	97.5
379.253	100.5
379.478	81.5
379.704	85.5
379.929	89.5
380.155	87.5
380.38	99.5
380.606	93.5
380.831	75.5
381.057	110.5
381.282	85.5
381.507	87.5
381.733	83.5
381.958	72.5
382.184	91.5
382.409	94.5
382.634	104.5
382.86	94.5
383.085	101.5
383.31	110.5
383.535	97.5
383.761	89.5
383.986	91.5
384.211	94.5
384.436	84.5
384.662	103.5
384.887	98.5
385.112	88.5
385.337	104.5
385.562	93.5
385.787	105.5
386.013	103.5
386.238	114.5
386.463	111.5
386.688	109.5
386.913	100.5
387.138	107.5
387.363	93.5
387.588	94.5
387.813	93.5
388.038	89.5
388.263	90.5
388.488	103.5
388.713	84.5
388.938	106.5
389.163	101.5
389.387	98.5
389.612	87.5
389.837	86.5
390.062	96.5
390.287	83.5
390.512	94.5
390.736	96.5
390.961	88.5
391.186	102.5
391.411	81.5
391.636	83.5
391.86	91.5
392.085	80.5
392.31	88.5
392.534	102.5
392.759	95.5
392.984	69.5
393.208	100.5
393.433	82.5
393.658	93.5
393.882	83.5
394.107	85.5
394.331	85.5
394.556	79.5
394.78	93.5
395.005	91.5
395.229	95.5
395.454	84.5
395.678	77.5
395.903	91.5
396.127	87.5
396.352	88.5
396.576	74.5
396.801	90.5
397.025	66.5
397.249	95.5
397.474	91.5
397.698	95.5
397.922	92.5
398.147	103.5
398.371	93.5
398.595	96.5
398.82	98.5
399.044	95.5
399.268	87.5
399.492	95.5
399.717	75.5
399.941	97.5
400.165	83.5
400.389	98.5
400.613	77.5
400.837	108.5
401.062	86.5
401.286	93.5
401.51	79.5
401.734	91.5
401.958	103.5
402.182	133.5
402.406	182.5
402.63	113.5
402.854	106.5
403.078	90.5
403.302	97.5
403.526	95.5
403.75	57.5
403.974	85.5
404.198	85.5
404.422	90.5
404.645	90.5
404.869	90.5
405.093	96.5
405.317	95.5
405.541	82.5
405.765	91.5
405.988	122.5
406.212	173.5
406.436	241.5
406.66	145.5
406.883	101.5
407.107	101.5
407.331	87.5
407.555	86.5
407.778	103.5
408.002	96.5
408.226	95.5
408.449	92.5
408.673	91.5
408.896	86.5
409.12	110.5
409.344	77.5
409.567	78.5
409.791	99.5
410.014	89.5
410.238	112.5
410.461	89.5
410.685	93.5
410.908	92.5
411.132	95.5
411.355	93.5
411.578	93.5
411.802	75.5
412.025	83.5
412.249	79.5
412.472	98.5
412.695	102.5
412.919	101.5
413.142	82.5
413.365	86.5
413.589	80.5
413.812	84.5
414.035	92.5
414.258	101.5
414.482	105.5
414.705	80.5
414.928	84.5
415.151	87.5
415.374	93.5
415.597	85.5
415.821	97.5
416.044	79.5
416.267	75.5
416.49	85.5
416.713	96.5
416.936	91.5
417.159	80.5
417.382	86.5
417.605	75.5
417.828	89.5
418.051	71.5
418.274	102.5
418.497	97.5
418.72	97.5
418.943	93.5
419.166	89.5
419.389	86.5
419.611	95.5
419.834	96.5
420.057	88.5
420.28	81.5
420.503	86.5
420.726	77.5
420.948	81.5
421.171	83.5
421.394	83.5
421.617	86.5
421.839	98.5
422.062	78.5
422.285	81.5
422.507	88.5
422.73	116.5
422.953	77.5
423.175	91.5
423.398	80.5
423.621	81.5
423.843	88.5
424.066	95.5
424.288	93.5
424.511	87.5
424.733	98.5
424.956	88.5
425.178	101.5
425.401	95.5
425.623	85.5
425.846	89.5
426.068	88.5
426.291	77.5
426.513	85.5
426.735	86.5
426.958	91.5
427.18	110.5
427.402	153.5
427.625	177.5
427.847	141.5
428.069	104.5
428.292	77.5
428.514	82.5
428.736	68.5
428.958	89.5
429.181	84.5
429.403	85.5
429.625	95.5
429.847	83.5
430.069	89.5
430.292	97.5
430.514	80.5
430.736	79.5
430.958	77.5
431.18	85.5
431.402	73.5
431.624	92.5
431.846	84.5
432.068	84.5
432.29	79.5
432.512	83.5
432.734	80.5
432.956	81.5
433.178	95.5
433.4	96.5
433.622	100.5
433.844	97.5
434.066	79.5
434.287	79.5
434.509	103.5
434.731	96.5
434.953	75.5
435.175	91.5
435.397	85.5
435.618	89.5
435.84	104.5
436.062	130.5
436.284	126.5
436.505	124.5
436.727	98.5
436.949	90.5
437.17	80.5
437.392	76.5
437.614	95.5
437.835	103.5
438.057	124.5
438.278	111.5
438.5	105.5
438.721	128.5
438.943	89.5
439.165	103.5
439.386	87.5
439.608	87.5
439.829	105.5
440.05	133.5
440.272	142.5
440.493	96.5
440.715	88.5
440.936	87.5
441.158	79.5
441.379	84.5
441.6	107.5
441.822	93.5
442.043	106.5
442.264	109.5
442.486	105.5
442.707	89.5
442.928	101.5
443.149	145.5
443.371	149.5
443.592	124.5
443.813	106.5
444.034	100.5
444.255	85.5
444.476	89.5
444.698	79.5
444.919	96.5
445.14	129.5
445.361	121.5
445.582	122.5
445.803	148.5
446.024	143.5
446.245	141.5
446.466	115.5
446.687	95.5
446.908	92.5
447.129	80.5
447.35	77.5
447.571	104.5
447.792	90.5
448.013	93.5
448.234	113.5
448.455	94.5
448.675	114.5
448.896	130.5
449.117	91.5
449.338	102.5
449.559	128.5
449.779	123.5
450	109.5
450.221	95.5
450.442	80.5
450.662	90.5
450.883	108.5
451.104	116.5
451.324	115.5
451.545	105.5
451.766	87.5
451.986	91.5
452.207	96.5
452.428	85.5
452.648	104.5
452.869	102.5
453.089	112.5
453.31	118.5
453.53	83.5
453.751	106.5
453.971	109.5
454.192	124.5
454.412	111.5
454.633	80.5
454.853	75.5
455.073	92.5
455.294	84.5
455.514	86.5
455.734	97.5
455.955	85.5
456.175	85.5
456.395	64.5
456.616	93.5
456.836	86.5
457.056	85.5
457.276	85.5
457.497	74.5
457.717	84.5
457.937	78.5
458.157	95.5
458.377	71.5
458.598	105.5
458.818	145.5
459.038	150.5
459.258	115.5
459.478	87.5
459.698	81.5
459.918	86.5
460.138	92.5
460.358	90.5
460.578	84.5
460.798	92.5
461.018	100.5
461.238	88.5
461.458	89.5
461.678	81.5
461.898	83.5
462.118	85.5
462.338	75.5
462.558	92.5
462.777	89.5
462.997	98.5
463.217	87.5
463.437	80.5
463.657	82.5
463.876	93.5
464.096	95.5
464.316	93.5
464.536	88.5
464.755	83.5
464.975	99.5
465.195	192.5
465.414	183.5
465.634	103.5
465.854	83.5
466.073	97.5
466.293	103.5
466.512	85.5
466.732	97.5
466.951	83.5
467.171	98.5
467.391	102.5
467.61	104.5
467.829	100.5
468.049	88.5
468.268	86.5
468.488	100.5
468.707	100.5
468.927	84.5
469.146	83.5
469.365	87.5
469.585	76.5
469.804	88.5
470.023	92.5
470.243	79.5
470.462	95.5
470.681	101.5
470.901	85.5
471.12	81.5
471.339	96.5
471.558	81.5
471.777	79.5
471.997	91.5
472.216	113.5
472.435	102.5
472.654	103.5
472.873	90.5
473.092	85.5
473.311	84.5
473.53	79.5
473.749	82.5
473.968	93.5
474.187	105.5
474.406	110.5
474.625	80.5
474.844	87.5
475.063	86.5
475.282	86.5
475.501	77.5
475.72	81.5
475.939	88.5
476.158	85.5
476.377	80.5
476.596	75.5
476.814	81.5
477.033	87.5
477.252	94.5
477.471	89.5
477.69	78.5
477.908	93.5
478.127	82.5
478.346	84.5
478.564	100.5
478.783	98.5
479.002	99.5
479.22	91.5
479.439	110.5
479.658	101.5
479.876	93.5
480.095	86.5
480.313	99.5
480.532	76.5
480.751	87.5
480.969	102.5
481.188	141.5
481.406	111.5
481.624	82.5
481.843	84.5
482.061	78.5
482.28	86.5
482.498	94.5
482.717	79.5
482.935	88.5
483.153	88.5
483.372	84.5
483.59	79.5
483.808	87.5
484.027	95.5
484.245	79.5
484.463	87.5
484.681	80.5
484.9	100.5
485.118	85.5
485.336	88.5
485.554	89.5
485.772	90.5
485.99	107.5
486.209	113.5
486.427	100.5
486.645	109.5
486.863	126.5
487.081	99.5
487.299	105.5
487.517	88.5
487.735	95.5
487.953	94.5
488.171	97.5
488.389	78.5
488.607	96.5
488.825	81.5
489.043	93.5
489.261	94.5
489.479	87.5
489.696	81.5
489.914	98.5
490.132	91.5
490.35	86.5
490.568	95.5
490.786	77.5
491.003	85.5
491.221	102.5
491.439	109.5
491.657	98.5
491.874	99.5
492.092	88.5
492.31	95.5
492.527	93.5
492.745	92.5
492.963	86.5
493.18	85.5
493.398	92.5
493.615	99.5
493.833	81.5
494.05	96.5
494.268	98.5
494.485	88.5
494.703	88.5
494.92	83.5
495.138	84.5
495.355	80.5
495.573	93.5
495.79	90.5
496.008	95.5
496.225	85.5
496.442	93.5
496.66	80.5
496.877	87.5
497.094	99.5
497.312	87.5
497.529	81.5
497.746	92.5
497.963	93.5
498.181	103.5
498.398	85.5
498.615	110.5
498.832	104.5
499.049	81.5
499.267	84.5
499.484	91.5
499.701	100.5
499.918	104.5
500.135	97.5
500.352	86.5
500.569	98.5
500.786	97.5
501.003	102.5
501.22	83.5
501.437	85.5
501.654	94.5
501.871	105.5
502.088	97.5
502.305	88.5
502.522	94.5
502.739	83.5
502.956	93.5
503.172	106.5
503.389	97.5
503.606	104.5
503.823	88.5
504.04	101.5
504.256	99.5
504.473	100.5
504.69	84.5
504.907	85.5
505.123	104.5
505.34	84.5
505.557	97.5
505.773	85.5
505.99	83.5
506.207	86.5
506.423	88.5
506.64	75.5
506.856	79.5
507.073	85.5
507.289	91.5
507.506	109.5
507.722	113.5
507.939	111.5
508.155	99.5
508.372	89.5
508.588	98.5
508.805	99.5
509.021	91.5
509.238	109.5
509.454	98.5
509.67	109.5
509.887	109.5
510.103	128.5
510.319	214.5
510.536	819.5
510.752	2667.5
510.968	697.5
511.184	161.5
511.401	117.5
511.617	112.5
511.833	89.5
512.049	85.5
512.265	89.5
512.481	89.5
512.698	99.5
512.914	91.5
513.13	119.5
513.346	87.5
513.562	95.5
513.778	84.5
513.994	91.5
514.21	100.5
514.426	108.5
514.642	129.5
514.858	138.5
515.074	194.5
515.29	543.5
515.506	1779.5
515.721	622.5
515.937	161.5
516.153	107.5
516.369	94.5
516.585	97.5
516.801	100.5
517.016	103.5
517.232	89.5
517.448	95.5
517.664	92.5
517.879	96.5
518.095	82.5
518.311	93.5
518.527	89.5
518.742	82.5
518.958	95.5
519.173	94.5
519.389	91.5
519.605	101.5
519.82	92.5
520.036	96.5
520.251	121.5
520.467	117.5
520.682	119.5
520.898	113.5
521.113	110.5
521.329	147.5
521.544	217.5
521.76	676.5
521.975	2957.5
522.19	1703.5
522.406	345.5
522.621	127.5
522.836	102.5
523.052	96.5
523.267	100.5
523.482	94.5
523.698	95.5
523.913	120.5
524.128	114.5
524.343	96.5
524.559	97.5
524.774	91.5
524.989	93.5
525.204	109.5
525.419	96.5
525.634	79.5
525.849	93.5
526.064	98.5
526.28	98.5
526.495	91.5
526.71	97.5
526.925	88.5
527.14	93.5
527.355	89.5
527.57	93.5
527.785	97.5
527.999	99.5
528.214	88.5
528.429	109.5
528.644	93.5
528.859	98.5
529.074	84.5
529.289	130.5
529.503	194.5
529.718	115.5
529.933	91.5
530.148	93.5
530.363	95.5
530.577	92.5
530.792	94.5
531.007	83.5
531.221	79.5
531.436	95.5
531.651	103.5
531.865	89.5
532.08	97.5
532.295	84.5
532.509	102.5
532.724	105.5
532.938	99.5
533.153	98.5
533.367	102.5
533.582	100.5
533.796	80.5
534.011	99.5
534.225	91.5
534.44	98.5
534.654	86.5
534.868	80.5
535.083	81.5
