Data from Uncirc_1988_H10_HRD10591_00060.txt Node
Date: Wed Jan 03 12:04:16 EST 2024
User: Yrep
Spectrometer: HR+D1059
Trigger mode: 1
Integration Time (sec): 1.000000E-1
Scans to average: 1
Electric dark correction enabled: true
Nonlinearity correction enabled: false
Boxcar width: 0
XAxis mode: Wavelengths
Number of Pixels in Spectrum: 2048
>>>>>Begin Spectral Data<<<<<
223.165	-25.38
223.4	-25.38
223.635	-25.38
223.869	-22.38
224.104	-8.38
224.338	-12.38
224.573	-8.38
224.808	-17.38
225.042	6.62
225.277	-8.38
225.511	-10.38
225.746	16.62
225.98	-3.38
226.215	1.62
226.449	17.62
226.683	28.62
226.918	16.62
227.152	28.62
227.387	41.62
227.621	37.62
227.856	36.62
228.09	36.62
228.324	44.62
228.559	53.62
228.793	44.62
229.027	64.62
229.262	76.62
229.496	81.62
229.73	79.62
229.964	75.62
230.199	69.62
230.433	81.62
230.667	77.62
230.901	62.62
231.136	61.62
231.37	79.62
231.604	86.62
231.838	69.62
232.072	71.62
232.306	72.62
232.541	64.62
232.775	80.62
233.009	77.62
233.243	87.62
233.477	59.62
233.711	83.62
233.945	71.62
234.179	74.62
234.413	85.62
234.647	82.62
234.881	78.62
235.115	80.62
235.349	80.62
235.583	75.62
235.817	85.62
236.051	72.62
236.285	77.62
236.519	74.62
236.753	81.62
236.987	81.62
237.221	81.62
237.455	90.62
237.689	80.62
237.922	80.62
238.156	69.62
238.39	81.62
238.624	85.62
238.858	75.62
239.091	82.62
239.325	79.62
239.559	87.62
239.793	82.62
240.027	74.62
240.26	78.62
240.494	88.62
240.728	72.62
240.961	69.62
241.195	76.62
241.429	67.62
241.662	79.62
241.896	65.62
242.13	71.62
242.363	71.62
242.597	69.62
242.83	83.62
243.064	80.62
243.298	67.62
243.531	87.62
243.765	86.62
243.998	81.62
244.232	86.62
244.465	72.62
244.699	80.62
244.932	97.62
245.166	94.62
245.399	75.62
245.633	85.62
245.866	73.62
246.099	78.62
246.333	79.62
246.566	86.62
246.8	86.62
247.033	91.62
247.266	87.62
247.5	80.62
247.733	83.62
247.966	72.62
248.2	79.62
248.433	77.62
248.666	85.62
248.899	88.62
249.133	84.62
249.366	91.62
249.599	99.62
249.832	82.62
250.066	82.62
250.299	81.62
250.532	64.62
250.765	68.62
250.998	87.62
251.231	75.62
251.465	80.62
251.698	70.62
251.931	77.62
252.164	89.62
252.397	75.62
252.63	89.62
252.863	91.62
253.096	75.62
253.329	85.62
253.562	82.62
253.795	87.62
254.028	79.62
254.261	71.62
254.494	81.62
254.727	94.62
254.96	76.62
255.193	87.62
255.426	86.62
255.659	93.62
255.892	93.62
256.124	80.62
256.357	84.62
256.59	90.62
256.823	80.62
257.056	69.62
257.289	78.62
257.521	75.62
257.754	76.62
257.987	98.62
258.22	85.62
258.452	73.62
258.685	83.62
258.918	95.62
259.151	93.62
259.383	66.62
259.616	71.62
259.849	83.62
260.081	84.62
260.314	85.62
260.547	73.62
260.779	80.62
261.012	90.62
261.244	93.62
261.477	84.62
261.71	97.62
261.942	104.62
262.175	96.62
262.407	95.62
262.64	80.62
262.872	72.62
263.105	98.62
263.337	95.62
263.57	87.62
263.802	83.62
264.035	87.62
264.267	76.62
264.499	89.62
264.732	87.62
264.964	85.62
265.197	91.62
265.429	83.62
265.661	93.62
265.894	76.62
266.126	92.62
266.358	76.62
266.591	80.62
266.823	89.62
267.055	84.62
267.287	102.62
267.52	79.62
267.752	87.62
267.984	93.62
268.216	96.62
268.448	81.62
268.681	96.62
268.913	84.62
269.145	86.62
269.377	91.62
269.609	78.62
269.841	88.62
270.073	85.62
270.306	94.62
270.538	89.62
270.77	83.62
271.002	89.62
271.234	91.62
271.466	81.62
271.698	80.62
271.93	86.62
272.162	85.62
272.394	105.62
272.626	87.62
272.858	78.62
273.09	91.62
273.322	87.62
273.553	92.62
273.785	85.62
274.017	83.62
274.249	84.62
274.481	75.62
274.713	85.62
274.945	84.62
275.176	89.62
275.408	92.62
275.64	84.62
275.872	89.62
276.104	86.62
276.335	97.62
276.567	96.62
276.799	112.62
277.031	91.62
277.262	85.62
277.494	91.62
277.726	81.62
277.957	83.62
278.189	85.62
278.421	75.62
278.652	84.62
278.884	86.62
279.115	83.62
279.347	85.62
279.579	85.62
279.81	86.62
280.042	87.62
280.273	95.62
280.505	67.62
280.736	83.62
280.968	83.62
281.199	92.62
281.431	85.62
281.662	88.62
281.894	80.62
282.125	95.62
282.356	111.62
282.588	108.62
282.819	113.62
283.051	88.62
283.282	81.62
283.513	80.62
283.745	94.62
283.976	95.62
284.207	91.62
284.439	89.62
284.67	83.62
284.901	85.62
285.132	80.62
285.364	96.62
285.595	70.62
285.826	89.62
286.057	77.62
286.288	73.62
286.52	87.62
286.751	78.62
286.982	95.62
287.213	83.62
287.444	83.62
287.675	95.62
287.906	100.62
288.138	89.62
288.369	80.62
288.6	85.62
288.831	72.62
289.062	88.62
289.293	90.62
289.524	80.62
289.755	82.62
289.986	79.62
290.217	82.62
290.448	69.62
290.679	82.62
290.91	87.62
291.141	88.62
291.371	92.62
291.602	77.62
291.833	85.62
292.064	93.62
292.295	94.62
292.526	97.62
292.757	85.62
292.987	72.62
293.218	83.62
293.449	90.62
293.68	81.62
293.91	76.62
294.141	84.62
294.372	88.62
294.603	63.62
294.833	93.62
295.064	92.62
295.295	99.62
295.525	101.62
295.756	101.62
295.987	120.62
296.217	129.62
296.448	111.62
296.679	83.62
296.909	91.62
297.14	84.62
297.37	92.62
297.601	85.62
297.831	61.62
298.062	80.62
298.292	71.62
298.523	82.62
298.753	84.62
298.984	65.62
299.214	78.62
299.445	85.62
299.675	93.62
299.905	93.62
300.136	91.62
300.366	94.62
300.597	85.62
300.827	96.62
301.057	99.62
301.288	109.62
301.518	86.62
301.748	73.62
301.979	106.62
302.209	74.62
302.439	83.62
302.669	88.62
302.9	80.62
303.13	87.62
303.36	95.62
303.59	91.62
303.82	105.62
304.051	101.62
304.281	86.62
304.511	88.62
304.741	97.62
304.971	89.62
305.201	107.62
305.431	90.62
305.661	92.62
305.891	93.62
306.121	84.62
306.352	99.62
306.582	89.62
306.812	101.62
307.042	86.62
307.272	96.62
307.502	88.62
307.731	88.62
307.961	99.62
308.191	89.62
308.421	89.62
308.651	83.62
308.881	93.62
309.111	87.62
309.341	86.62
309.571	110.62
309.8	98.62
310.03	99.62
310.26	108.62
310.49	95.62
310.72	101.62
310.949	102.62
311.179	94.62
311.409	100.62
311.639	89.62
311.868	88.62
312.098	100.62
312.328	97.62
312.557	111.62
312.787	92.62
313.017	100.62
313.246	96.62
313.476	90.62
313.706	99.62
313.935	106.62
314.165	105.62
314.394	96.62
314.624	100.62
314.853	106.62
315.083	89.62
315.312	83.62
315.542	82.62
315.771	96.62
316.001	90.62
316.23	88.62
316.46	84.62
316.689	102.62
316.919	83.62
317.148	89.62
317.377	93.62
317.607	100.62
317.836	90.62
318.065	97.62
318.295	97.62
318.524	93.62
318.753	84.62
318.983	95.62
319.212	91.62
319.441	106.62
319.67	99.62
319.9	102.62
320.129	97.62
320.358	93.62
320.587	96.62
320.816	107.62
321.046	97.62
321.275	87.62
321.504	81.62
321.733	85.62
321.962	92.62
322.191	109.62
322.42	104.62
322.649	107.62
322.878	107.62
323.108	108.62
323.337	119.62
323.566	118.62
323.795	141.62
324.024	190.62
324.253	344.62
324.482	742.62
324.71	1511.62
324.939	1950.62
325.168	712.62
325.397	213.62
325.626	136.62
325.855	124.62
326.084	113.62
326.313	138.62
326.542	158.62
326.77	220.62
326.999	421.62
327.228	854.62
327.457	1551.62
327.686	1189.62
327.914	329.62
328.143	180.62
328.372	130.62
328.6	100.62
328.829	109.62
329.058	123.62
329.287	107.62
329.515	97.62
329.744	112.62
329.972	108.62
330.201	113.62
330.43	130.62
330.658	110.62
330.887	117.62
331.115	108.62
331.344	104.62
331.572	109.62
331.801	110.62
332.03	106.62
332.258	104.62
332.486	95.62
332.715	81.62
332.943	96.62
333.172	90.62
333.4	89.62
333.629	95.62
333.857	112.62
334.085	110.62
334.314	91.62
334.542	112.62
334.771	111.62
334.999	100.62
335.227	103.62
335.455	94.62
335.684	100.62
335.912	93.62
336.14	98.62
336.369	110.62
336.597	100.62
336.825	83.62
337.053	81.62
337.281	105.62
337.51	93.62
337.738	97.62
337.966	96.62
338.194	105.62
338.422	96.62
338.65	92.62
338.878	93.62
339.106	87.62
339.334	90.62
339.562	91.62
339.79	98.62
340.018	89.62
340.246	85.62
340.474	97.62
340.702	86.62
340.93	86.62
341.158	91.62
341.386	86.62
341.614	93.62
341.842	80.62
342.07	105.62
342.298	92.62
342.526	83.62
342.754	91.62
342.981	86.62
343.209	87.62
343.437	94.62
343.665	96.62
343.893	103.62
344.12	102.62
344.348	89.62
344.576	89.62
344.804	90.62
345.031	96.62
345.259	95.62
345.487	100.62
345.714	86.62
345.942	97.62
346.17	76.62
346.397	90.62
346.625	78.62
346.853	77.62
347.08	89.62
347.308	96.62
347.535	109.62
347.763	93.62
347.99	98.62
348.218	93.62
348.445	97.62
348.673	92.62
348.9	89.62
349.128	98.62
349.355	82.62
349.583	104.62
349.81	95.62
350.037	95.62
350.265	80.62
350.492	92.62
350.72	101.62
350.947	97.62
351.174	107.62
351.402	102.62
351.629	101.62
351.856	87.62
352.083	106.62
352.311	110.62
352.538	99.62
352.765	91.62
352.992	120.62
353.22	100.62
353.447	95.62
353.674	93.62
353.901	99.62
354.128	108.62
354.355	95.62
354.583	98.62
354.81	98.62
355.037	85.62
355.264	100.62
355.491	94.62
355.718	102.62
355.945	95.62
356.172	97.62
356.399	96.62
356.626	88.62
356.853	94.62
357.08	93.62
357.307	90.62
357.534	97.62
357.761	83.62
357.988	78.62
358.215	84.62
358.441	95.62
358.668	92.62
358.895	98.62
359.122	83.62
359.349	102.62
359.576	77.62
359.802	95.62
360.029	106.62
360.256	98.62
360.483	84.62
360.709	69.62
360.936	91.62
361.163	84.62
361.39	99.62
361.616	90.62
361.843	99.62
362.07	89.62
362.296	90.62
362.523	100.62
362.749	76.62
362.976	79.62
363.203	95.62
363.429	88.62
363.656	78.62
363.882	94.62
364.109	96.62
364.335	87.62
364.562	90.62
364.788	85.62
365.015	97.62
365.241	96.62
365.468	105.62
365.694	107.62
365.92	102.62
366.147	97.62
366.373	101.62
366.599	84.62
366.826	77.62
367.052	80.62
367.278	94.62
367.505	70.62
367.731	91.62
367.957	87.62
368.184	86.62
368.41	90.62
368.636	101.62
368.862	120.62
369.089	102.62
369.315	85.62
369.541	88.62
369.767	86.62
369.993	94.62
370.219	85.62
370.445	77.62
370.672	89.62
370.898	86.62
371.124	81.62
371.35	92.62
371.576	83.62
371.802	73.62
372.028	90.62
372.254	102.62
372.48	97.62
372.706	85.62
372.932	70.62
373.158	87.62
373.384	92.62
373.61	91.62
373.835	89.62
374.061	99.62
374.287	82.62
374.513	83.62
374.739	85.62
374.965	98.62
375.191	82.62
375.416	81.62
375.642	81.62
375.868	95.62
376.094	93.62
376.319	87.62
376.545	88.62
376.771	95.62
376.997	85.62
377.222	88.62
377.448	82.62
377.674	88.62
377.899	91.62
378.125	93.62
378.35	80.62
378.576	86.62
378.802	84.62
379.027	85.62
379.253	81.62
379.478	93.62
379.704	84.62
379.929	94.62
380.155	89.62
380.38	106.62
380.606	99.62
380.831	86.62
381.057	87.62
381.282	83.62
381.507	98.62
381.733	91.62
381.958	89.62
382.184	100.62
382.409	86.62
382.634	94.62
382.86	95.62
383.085	84.62
383.31	94.62
383.535	98.62
383.761	97.62
383.986	85.62
384.211	86.62
384.436	92.62
384.662	101.62
384.887	113.62
385.112	81.62
385.337	100.62
385.562	100.62
385.787	93.62
386.013	116.62
386.238	107.62
386.463	105.62
386.688	105.62
386.913	84.62
387.138	103.62
387.363	103.62
387.588	100.62
387.813	94.62
388.038	93.62
388.263	104.62
388.488	109.62
388.713	94.62
388.938	92.62
389.163	101.62
389.387	105.62
389.612	101.62
389.837	98.62
390.062	98.62
390.287	96.62
390.512	90.62
390.736	93.62
390.961	94.62
391.186	103.62
391.411	105.62
391.636	101.62
391.86	84.62
392.085	83.62
392.31	92.62
392.534	80.62
392.759	79.62
392.984	81.62
393.208	77.62
393.433	87.62
393.658	81.62
393.882	96.62
394.107	83.62
394.331	81.62
394.556	77.62
394.78	81.62
395.005	86.62
395.229	70.62
395.454	95.62
395.678	84.62
395.903	98.62
396.127	89.62
396.352	89.62
396.576	93.62
396.801	87.62
397.025	84.62
397.249	94.62
397.474	97.62
397.698	86.62
397.922	95.62
398.147	77.62
398.371	82.62
398.595	81.62
398.82	92.62
399.044	88.62
399.268	94.62
399.492	92.62
399.717	101.62
399.941	85.62
400.165	98.62
400.389	84.62
400.613	86.62
400.837	82.62
401.062	84.62
401.286	95.62
401.51	84.62
401.734	83.62
401.958	112.62
402.182	120.62
402.406	126.62
402.63	102.62
402.854	88.62
403.078	78.62
403.302	91.62
403.526	88.62
403.75	82.62
403.974	90.62
404.198	72.62
404.422	77.62
404.645	79.62
404.869	85.62
405.093	81.62
405.317	108.62
405.541	104.62
405.765	96.62
405.988	110.62
406.212	144.62
406.436	179.62
406.66	143.62
406.883	96.62
407.107	93.62
407.331	91.62
407.555	98.62
407.778	95.62
408.002	91.62
408.226	91.62
408.449	72.62
408.673	75.62
408.896	100.62
409.12	97.62
409.344	92.62
409.567	87.62
409.791	91.62
410.014	93.62
410.238	96.62
410.461	94.62
410.685	95.62
410.908	86.62
411.132	97.62
411.355	114.62
411.578	95.62
411.802	72.62
412.025	100.62
412.249	72.62
412.472	88.62
412.695	99.62
412.919	88.62
413.142	82.62
413.365	80.62
413.589	101.62
413.812	101.62
414.035	88.62
414.258	86.62
414.482	79.62
414.705	97.62
414.928	81.62
415.151	95.62
415.374	93.62
415.597	97.62
415.821	90.62
416.044	91.62
416.267	71.62
416.49	83.62
416.713	79.62
416.936	81.62
417.159	93.62
417.382	86.62
417.605	107.62
417.828	96.62
418.051	99.62
418.274	92.62
418.497	86.62
418.72	97.62
418.943	103.62
419.166	84.62
419.389	79.62
419.611	81.62
419.834	88.62
420.057	91.62
420.28	96.62
420.503	79.62
420.726	97.62
420.948	86.62
421.171	99.62
421.394	84.62
421.617	80.62
421.839	83.62
422.062	82.62
422.285	91.62
422.507	92.62
422.73	97.62
422.953	100.62
423.175	85.62
423.398	85.62
423.621	87.62
423.843	93.62
424.066	84.62
424.288	96.62
424.511	89.62
424.733	94.62
424.956	109.62
425.178	106.62
425.401	97.62
425.623	107.62
425.846	75.62
426.068	87.62
426.291	89.62
426.513	112.62
426.735	85.62
426.958	80.62
427.18	101.62
427.402	127.62
427.625	136.62
427.847	111.62
428.069	109.62
428.292	83.62
428.514	81.62
428.736	83.62
428.958	65.62
429.181	93.62
429.403	94.62
429.625	73.62
429.847	78.62
430.069	88.62
430.292	99.62
430.514	89.62
430.736	84.62
430.958	95.62
431.18	77.62
431.402	83.62
431.624	85.62
431.846	81.62
432.068	94.62
432.29	84.62
432.512	94.62
432.734	93.62
432.956	78.62
433.178	91.62
433.4	105.62
433.622	82.62
433.844	102.62
434.066	83.62
434.287	80.62
434.509	85.62
434.731	85.62
434.953	86.62
435.175	91.62
435.397	102.62
435.618	91.62
435.84	104.62
436.062	118.62
436.284	112.62
436.505	96.62
436.727	106.62
436.949	85.62
437.17	105.62
437.392	79.62
437.614	87.62
437.835	99.62
438.057	101.62
438.278	101.62
438.5	94.62
438.721	126.62
438.943	97.62
439.165	87.62
439.386	85.62
439.608	92.62
439.829	97.62
440.05	111.62
440.272	130.62
440.493	92.62
440.715	100.62
440.936	85.62
441.158	78.62
441.379	86.62
441.6	77.62
441.822	85.62
442.043	100.62
442.264	90.62
442.486	105.62
442.707	84.62
442.928	107.62
443.149	108.62
443.371	126.62
443.592	96.62
443.813	105.62
444.034	95.62
444.255	84.62
444.476	79.62
444.698	89.62
444.919	80.62
445.14	131.62
445.361	134.62
445.582	115.62
445.803	118.62
446.024	122.62
446.245	111.62
446.466	96.62
446.687	82.62
446.908	103.62
447.129	93.62
447.35	105.62
447.571	76.62
447.792	93.62
448.013	97.62
448.234	109.62
448.455	95.62
448.675	118.62
448.896	132.62
449.117	87.62
449.338	94.62
449.559	119.62
449.779	132.62
450	90.62
450.221	83.62
450.442	104.62
450.662	83.62
450.883	99.62
451.104	97.62
451.324	97.62
451.545	77.62
451.766	81.62
451.986	89.62
452.207	84.62
452.428	84.62
452.648	101.62
452.869	94.62
453.089	106.62
453.31	106.62
453.53	76.62
453.751	100.62
453.971	100.62
454.192	101.62
454.412	84.62
454.633	91.62
454.853	81.62
455.073	72.62
455.294	90.62
455.514	86.62
455.734	95.62
455.955	101.62
456.175	84.62
456.395	94.62
456.616	99.62
456.836	95.62
457.056	87.62
457.276	98.62
457.497	91.62
457.717	96.62
457.937	98.62
458.157	92.62
458.377	81.62
458.598	110.62
458.818	135.62
459.038	139.62
459.258	110.62
459.478	81.62
459.698	91.62
459.918	96.62
460.138	101.62
460.358	86.62
460.578	87.62
460.798	79.62
461.018	99.62
461.238	86.62
461.458	82.62
461.678	79.62
461.898	84.62
462.118	88.62
462.338	79.62
462.558	80.62
462.777	83.62
462.997	86.62
463.217	87.62
463.437	76.62
463.657	81.62
463.876	79.62
464.096	86.62
464.316	99.62
464.536	111.62
464.755	91.62
464.975	83.62
465.195	149.62
465.414	142.62
465.634	105.62
465.854	80.62
466.073	82.62
466.293	97.62
466.512	84.62
466.732	86.62
466.951	80.62
467.171	85.62
467.391	88.62
467.61	95.62
467.829	77.62
468.049	92.62
468.268	106.62
468.488	81.62
468.707	82.62
468.927	80.62
469.146	84.62
469.365	83.62
469.585	87.62
469.804	93.62
470.023	91.62
470.243	100.62
470.462	102.62
470.681	94.62
470.901	86.62
471.12	94.62
471.339	80.62
471.558	83.62
471.777	92.62
471.997	94.62
472.216	110.62
472.435	106.62
472.654	92.62
472.873	89.62
473.092	87.62
473.311	75.62
473.53	93.62
473.749	93.62
473.968	100.62
474.187	98.62
474.406	90.62
474.625	86.62
474.844	96.62
475.063	85.62
475.282	85.62
475.501	95.62
475.72	80.62
475.939	101.62
476.158	79.62
476.377	90.62
476.596	89.62
476.814	86.62
477.033	88.62
477.252	90.62
477.471	83.62
477.69	86.62
477.908	83.62
478.127	83.62
478.346	93.62
478.564	95.62
478.783	93.62
479.002	92.62
479.22	78.62
479.439	94.62
479.658	105.62
479.876	92.62
480.095	90.62
480.313	95.62
480.532	103.62
480.751	86.62
480.969	100.62
481.188	140.62
481.406	120.62
481.624	103.62
481.843	102.62
482.061	95.62
482.28	88.62
482.498	90.62
482.717	93.62
482.935	93.62
483.153	97.62
483.372	95.62
483.59	87.62
483.808	100.62
484.027	94.62
484.245	83.62
484.463	91.62
484.681	101.62
484.9	80.62
485.118	107.62
485.336	96.62
485.554	95.62
485.772	104.62
485.99	113.62
486.209	105.62
486.427	107.62
486.645	103.62
486.863	110.62
487.081	93.62
487.299	90.62
487.517	90.62
487.735	78.62
487.953	86.62
488.171	91.62
488.389	93.62
488.607	104.62
488.825	100.62
489.043	78.62
489.261	98.62
489.479	94.62
489.696	83.62
489.914	83.62
490.132	85.62
490.35	81.62
490.568	87.62
490.786	83.62
491.003	100.62
491.221	93.62
491.439	87.62
491.657	85.62
491.874	108.62
492.092	94.62
492.31	95.62
492.527	93.62
492.745	87.62
492.963	98.62
493.18	97.62
493.398	98.62
493.615	88.62
493.833	91.62
494.05	99.62
494.268	92.62
494.485	93.62
494.703	80.62
494.92	103.62
495.138	79.62
495.355	84.62
495.573	96.62
495.79	81.62
496.008	100.62
496.225	93.62
496.442	97.62
496.66	102.62
496.877	92.62
497.094	95.62
497.312	87.62
497.529	94.62
497.746	92.62
497.963	100.62
498.181	94.62
498.398	100.62
498.615	111.62
498.832	106.62
499.049	97.62
499.267	102.62
499.484	66.62
499.701	98.62
499.918	89.62
500.135	109.62
500.352	105.62
500.569	90.62
500.786	82.62
501.003	89.62
501.22	96.62
501.437	93.62
501.654	95.62
501.871	82.62
502.088	87.62
502.305	83.62
502.522	87.62
502.739	72.62
502.956	92.62
503.172	81.62
503.389	88.62
503.606	103.62
503.823	96.62
504.04	101.62
504.256	89.62
504.473	92.62
504.69	91.62
504.907	81.62
505.123	79.62
505.34	89.62
505.557	99.62
505.773	81.62
505.99	101.62
506.207	84.62
506.423	99.62
506.64	98.62
506.856	90.62
507.073	97.62
507.289	93.62
507.506	100.62
507.722	101.62
507.939	111.62
508.155	100.62
508.372	78.62
508.588	96.62
508.805	86.62
509.021	87.62
509.238	87.62
509.454	94.62
509.67	95.62
509.887	106.62
510.103	126.62
510.319	183.62
510.536	677.62
510.752	1919.62
510.968	543.62
511.184	132.62
511.401	101.62
511.617	115.62
511.833	100.62
512.049	103.62
512.265	95.62
512.481	106.62
512.698	88.62
512.914	89.62
513.13	96.62
513.346	88.62
513.562	101.62
513.778	93.62
513.994	87.62
514.21	93.62
514.426	108.62
514.642	117.62
514.858	109.62
515.074	141.62
515.29	382.62
515.506	1201.62
515.721	452.62
515.937	140.62
