Data from Uncirc_1988_H10_HRD10591_00019.txt Node
Date: Wed Jan 03 12:04:08 EST 2024
User: Yrep
Spectrometer: HR+D1059
Trigger mode: 1
Integration Time (sec): 1.000000E-1
Scans to average: 1
Electric dark correction enabled: true
Nonlinearity correction enabled: false
Boxcar width: 0
XAxis mode: Wavelengths
Number of Pixels in Spectrum: 2048
>>>>>Begin Spectral Data<<<<<
223.165	-12.12
223.4	-12.12
223.635	-12.12
223.869	-14.12
224.104	-31.12
224.338	-14.12
224.573	-11.12
224.808	-18.12
225.042	-20.12
225.277	2.88
225.511	-11.12
225.746	11.88
225.98	9.88
226.215	-0.12
226.449	33.88
226.683	27.88
226.918	13.88
227.152	31.88
227.387	24.88
227.621	30.88
227.856	49.88
228.09	55.88
228.324	47.88
228.559	62.88
228.793	58.88
229.027	65.88
229.262	60.88
229.496	57.88
229.73	89.88
229.964	85.88
230.199	83.88
230.433	59.88
230.667	74.88
230.901	87.88
231.136	75.88
231.37	73.88
231.604	75.88
231.838	81.88
232.072	74.88
232.306	82.88
232.541	99.88
232.775	91.88
233.009	85.88
233.243	85.88
233.477	77.88
233.711	82.88
233.945	87.88
234.179	89.88
234.413	81.88
234.647	86.88
234.881	86.88
235.115	64.88
235.349	71.88
235.583	70.88
235.817	80.88
236.051	84.88
236.285	66.88
236.519	86.88
236.753	83.88
236.987	88.88
237.221	86.88
237.455	83.88
237.689	75.88
237.922	70.88
238.156	71.88
238.39	81.88
238.624	85.88
238.858	71.88
239.091	82.88
239.325	79.88
239.559	86.88
239.793	86.88
240.027	81.88
240.26	69.88
240.494	90.88
240.728	87.88
240.961	74.88
241.195	73.88
241.429	74.88
241.662	54.88
241.896	67.88
242.13	81.88
242.363	81.88
242.597	93.88
242.83	81.88
243.064	77.88
243.298	65.88
243.531	79.88
243.765	83.88
243.998	74.88
244.232	79.88
244.465	91.88
244.699	73.88
244.932	70.88
245.166	82.88
245.399	88.88
245.633	74.88
245.866	75.88
246.099	83.88
246.333	75.88
246.566	66.88
246.8	84.88
247.033	80.88
247.266	79.88
247.5	88.88
247.733	73.88
247.966	81.88
248.2	78.88
248.433	81.88
248.666	75.88
248.899	57.88
249.133	84.88
249.366	80.88
249.599	86.88
249.832	85.88
250.066	87.88
250.299	86.88
250.532	68.88
250.765	90.88
250.998	70.88
251.231	86.88
251.465	82.88
251.698	75.88
251.931	82.88
252.164	91.88
252.397	88.88
252.63	85.88
252.863	88.88
253.096	68.88
253.329	96.88
253.562	85.88
253.795	91.88
254.028	94.88
254.261	79.88
254.494	69.88
254.727	75.88
254.96	94.88
255.193	74.88
255.426	95.88
255.659	86.88
255.892	81.88
256.124	83.88
256.357	85.88
256.59	93.88
256.823	77.88
257.056	86.88
257.289	83.88
257.521	82.88
257.754	78.88
257.987	66.88
258.22	77.88
258.452	83.88
258.685	70.88
258.918	78.88
259.151	86.88
259.383	84.88
259.616	77.88
259.849	70.88
260.081	73.88
260.314	62.88
260.547	78.88
260.779	79.88
261.012	90.88
261.244	94.88
261.477	82.88
261.71	73.88
261.942	105.88
262.175	107.88
262.407	98.88
262.64	81.88
262.872	88.88
263.105	91.88
263.337	87.88
263.57	82.88
263.802	81.88
264.035	92.88
264.267	81.88
264.499	75.88
264.732	80.88
264.964	97.88
265.197	83.88
265.429	81.88
265.661	90.88
265.894	87.88
266.126	80.88
266.358	82.88
266.591	92.88
266.823	85.88
267.055	83.88
267.287	80.88
267.52	90.88
267.752	98.88
267.984	96.88
268.216	89.88
268.448	64.88
268.681	84.88
268.913	94.88
269.145	63.88
269.377	93.88
269.609	81.88
269.841	86.88
270.073	86.88
270.306	79.88
270.538	85.88
270.77	94.88
271.002	91.88
271.234	77.88
271.466	82.88
271.698	86.88
271.93	90.88
272.162	99.88
272.394	94.88
272.626	72.88
272.858	86.88
273.09	91.88
273.322	87.88
273.553	75.88
273.785	92.88
274.017	93.88
274.249	81.88
274.481	80.88
274.713	91.88
274.945	88.88
275.176	75.88
275.408	93.88
275.64	89.88
275.872	91.88
276.104	94.88
276.335	81.88
276.567	87.88
276.799	85.88
277.031	91.88
277.262	94.88
277.494	89.88
277.726	87.88
277.957	103.88
278.189	80.88
278.421	91.88
278.652	85.88
278.884	79.88
279.115	85.88
279.347	95.88
279.579	92.88
279.81	85.88
280.042	83.88
280.273	77.88
280.505	85.88
280.736	79.88
280.968	91.88
281.199	87.88
281.431	76.88
281.662	77.88
281.894	93.88
282.125	93.88
282.356	111.88
282.588	123.88
282.819	114.88
283.051	101.88
283.282	99.88
283.513	91.88
283.745	80.88
283.976	73.88
284.207	93.88
284.439	87.88
284.67	94.88
284.901	93.88
285.132	81.88
285.364	79.88
285.595	78.88
285.826	99.88
286.057	98.88
286.288	91.88
286.52	98.88
286.751	83.88
286.982	77.88
287.213	72.88
287.444	103.88
287.675	95.88
287.906	86.88
288.138	100.88
288.369	96.88
288.6	97.88
288.831	77.88
289.062	99.88
289.293	93.88
289.524	81.88
289.755	86.88
289.986	85.88
290.217	75.88
290.448	87.88
290.679	102.88
290.91	106.88
291.141	89.88
291.371	85.88
291.602	82.88
291.833	84.88
292.064	97.88
292.295	82.88
292.526	84.88
292.757	64.88
292.987	82.88
293.218	96.88
293.449	96.88
293.68	89.88
293.91	98.88
294.141	86.88
294.372	84.88
294.603	86.88
294.833	80.88
295.064	78.88
295.295	99.88
295.525	100.88
295.756	97.88
295.987	121.88
296.217	112.88
296.448	118.88
296.679	96.88
296.909	94.88
297.14	82.88
297.37	97.88
297.601	81.88
297.831	92.88
298.062	82.88
298.292	99.88
298.523	81.88
298.753	86.88
298.984	95.88
299.214	78.88
299.445	86.88
299.675	99.88
299.905	97.88
300.136	96.88
300.366	96.88
300.597	85.88
300.827	101.88
301.057	102.88
301.288	98.88
301.518	90.88
301.748	74.88
301.979	110.88
302.209	89.88
302.439	95.88
302.669	91.88
302.9	83.88
303.13	85.88
303.36	101.88
303.59	92.88
303.82	102.88
304.051	102.88
304.281	81.88
304.511	83.88
304.741	87.88
304.971	79.88
305.201	103.88
305.431	106.88
305.661	90.88
305.891	80.88
306.121	93.88
306.352	102.88
306.582	104.88
306.812	106.88
307.042	65.88
307.272	86.88
307.502	86.88
307.731	93.88
307.961	93.88
308.191	79.88
308.421	82.88
308.651	93.88
308.881	96.88
309.111	98.88
309.341	90.88
309.571	95.88
309.8	89.88
310.03	96.88
310.26	98.88
310.49	88.88
310.72	90.88
310.949	93.88
311.179	93.88
311.409	80.88
311.639	106.88
311.868	100.88
312.098	85.88
312.328	100.88
312.557	104.88
312.787	100.88
313.017	99.88
313.246	90.88
313.476	93.88
313.706	98.88
313.935	95.88
314.165	100.88
314.394	91.88
314.624	85.88
314.853	92.88
315.083	98.88
315.312	84.88
315.542	103.88
315.771	98.88
316.001	91.88
316.23	91.88
316.46	88.88
316.689	85.88
316.919	71.88
317.148	100.88
317.377	93.88
317.607	95.88
317.836	100.88
318.065	95.88
318.295	90.88
318.524	93.88
318.753	99.88
318.983	82.88
319.212	106.88
319.441	93.88
319.67	94.88
319.9	100.88
320.129	94.88
320.358	103.88
320.587	100.88
320.816	86.88
321.046	97.88
321.275	105.88
321.504	96.88
321.733	87.88
321.962	98.88
322.191	105.88
322.42	126.88
322.649	98.88
322.878	111.88
323.108	107.88
323.337	117.88
323.566	116.88
323.795	130.88
324.024	175.88
324.253	361.88
324.482	726.88
324.71	1523.88
324.939	2028.88
325.168	718.88
325.397	213.88
325.626	136.88
325.855	123.88
326.084	123.88
326.313	126.88
326.542	157.88
326.77	212.88
326.999	420.88
327.228	856.88
327.457	1570.88
327.686	1222.88
327.914	331.88
328.143	168.88
328.372	134.88
328.6	109.88
328.829	112.88
329.058	121.88
329.287	122.88
329.515	114.88
329.744	95.88
329.972	104.88
330.201	111.88
330.43	110.88
330.658	112.88
330.887	123.88
331.115	116.88
331.344	87.88
331.572	87.88
331.801	89.88
332.03	94.88
332.258	92.88
332.486	106.88
332.715	85.88
332.943	74.88
333.172	100.88
333.4	98.88
333.629	104.88
333.857	112.88
334.085	104.88
334.314	94.88
334.542	73.88
334.771	95.88
334.999	98.88
335.227	95.88
335.455	94.88
335.684	84.88
335.912	96.88
336.14	91.88
336.369	88.88
336.597	91.88
336.825	113.88
337.053	77.88
337.281	95.88
337.51	86.88
337.738	107.88
337.966	91.88
338.194	101.88
338.422	83.88
338.65	93.88
338.878	87.88
339.106	86.88
339.334	90.88
339.562	80.88
339.79	95.88
340.018	89.88
340.246	100.88
340.474	82.88
340.702	93.88
340.93	96.88
341.158	102.88
341.386	87.88
341.614	94.88
341.842	94.88
342.07	80.88
342.298	87.88
342.526	78.88
342.754	95.88
342.981	89.88
343.209	85.88
343.437	109.88
343.665	82.88
343.893	91.88
344.12	88.88
344.348	101.88
344.576	69.88
344.804	84.88
345.031	83.88
345.259	113.88
345.487	110.88
345.714	83.88
345.942	105.88
346.17	98.88
346.397	98.88
346.625	87.88
346.853	88.88
347.08	74.88
347.308	99.88
347.535	98.88
347.763	106.88
347.99	78.88
348.218	99.88
348.445	91.88
348.673	90.88
348.9	103.88
349.128	92.88
349.355	96.88
349.583	90.88
349.81	98.88
350.037	95.88
350.265	89.88
350.492	91.88
350.72	117.88
350.947	94.88
351.174	90.88
351.402	103.88
351.629	96.88
351.856	88.88
352.083	89.88
352.311	108.88
352.538	105.88
352.765	115.88
352.992	104.88
353.22	101.88
353.447	104.88
353.674	92.88
353.901	104.88
354.128	99.88
354.355	98.88
354.583	97.88
354.81	88.88
355.037	86.88
355.264	96.88
355.491	101.88
355.718	98.88
355.945	101.88
356.172	77.88
356.399	99.88
356.626	80.88
356.853	93.88
357.08	104.88
357.307	98.88
357.534	102.88
357.761	87.88
357.988	112.88
358.215	94.88
358.441	88.88
358.668	81.88
358.895	84.88
359.122	92.88
359.349	86.88
359.576	112.88
359.802	107.88
360.029	93.88
360.256	94.88
360.483	96.88
360.709	89.88
360.936	87.88
361.163	99.88
361.39	90.88
361.616	93.88
361.843	87.88
362.07	96.88
362.296	95.88
362.523	97.88
362.749	78.88
362.976	82.88
363.203	90.88
363.429	83.88
363.656	89.88
363.882	93.88
364.109	104.88
364.335	100.88
364.562	100.88
364.788	89.88
365.015	89.88
365.241	100.88
365.468	104.88
365.694	112.88
365.92	101.88
366.147	89.88
366.373	87.88
366.599	94.88
366.826	97.88
367.052	94.88
367.278	89.88
367.505	79.88
367.731	85.88
367.957	98.88
368.184	79.88
368.41	105.88
368.636	106.88
368.862	111.88
369.089	96.88
369.315	81.88
369.541	91.88
369.767	90.88
369.993	87.88
370.219	98.88
370.445	85.88
370.672	89.88
370.898	84.88
371.124	88.88
371.35	97.88
371.576	99.88
371.802	80.88
372.028	84.88
372.254	72.88
372.48	89.88
372.706	87.88
372.932	77.88
373.158	96.88
373.384	71.88
373.61	84.88
373.835	89.88
374.061	95.88
374.287	93.88
374.513	96.88
374.739	82.88
374.965	82.88
375.191	91.88
375.416	93.88
375.642	98.88
375.868	105.88
376.094	88.88
376.319	103.88
376.545	85.88
376.771	87.88
376.997	92.88
377.222	87.88
377.448	104.88
377.674	89.88
377.899	82.88
378.125	89.88
378.35	96.88
378.576	85.88
378.802	82.88
379.027	84.88
379.253	89.88
379.478	98.88
379.704	93.88
379.929	93.88
380.155	94.88
380.38	96.88
380.606	94.88
380.831	90.88
381.057	95.88
381.282	94.88
381.507	90.88
381.733	83.88
381.958	101.88
382.184	93.88
382.409	95.88
382.634	94.88
382.86	94.88
383.085	105.88
383.31	104.88
383.535	95.88
383.761	88.88
383.986	91.88
384.211	98.88
384.436	103.88
384.662	102.88
384.887	109.88
385.112	87.88
385.337	100.88
385.562	113.88
385.787	99.88
386.013	108.88
386.238	120.88
386.463	110.88
386.688	95.88
386.913	103.88
387.138	98.88
387.363	108.88
387.588	98.88
387.813	98.88
388.038	92.88
388.263	104.88
388.488	94.88
388.713	90.88
388.938	90.88
389.163	106.88
389.387	93.88
389.612	101.88
389.837	79.88
390.062	95.88
390.287	86.88
390.512	94.88
390.736	89.88
390.961	97.88
391.186	95.88
391.411	87.88
391.636	85.88
391.86	99.88
392.085	80.88
392.31	74.88
392.534	100.88
392.759	92.88
392.984	75.88
393.208	90.88
393.433	97.88
393.658	96.88
393.882	88.88
394.107	75.88
394.331	78.88
394.556	79.88
394.78	88.88
395.005	90.88
395.229	91.88
395.454	100.88
395.678	69.88
395.903	79.88
396.127	93.88
396.352	94.88
396.576	85.88
396.801	95.88
397.025	92.88
397.249	90.88
397.474	89.88
397.698	87.88
397.922	76.88
398.147	85.88
398.371	87.88
398.595	99.88
398.82	95.88
399.044	73.88
399.268	85.88
399.492	95.88
399.717	94.88
399.941	94.88
400.165	93.88
400.389	98.88
400.613	87.88
400.837	90.88
401.062	85.88
401.286	94.88
401.51	91.88
401.734	89.88
401.958	92.88
402.182	129.88
402.406	149.88
402.63	115.88
402.854	93.88
403.078	93.88
403.302	79.88
403.526	90.88
403.75	84.88
403.974	89.88
404.198	89.88
404.422	86.88
404.645	97.88
404.869	89.88
405.093	85.88
405.317	95.88
405.541	103.88
405.765	102.88
405.988	95.88
406.212	140.88
406.436	175.88
406.66	117.88
406.883	96.88
407.107	99.88
407.331	102.88
407.555	89.88
407.778	86.88
408.002	94.88
408.226	99.88
408.449	82.88
408.673	92.88
408.896	86.88
409.12	89.88
409.344	94.88
409.567	82.88
409.791	100.88
410.014	88.88
410.238	91.88
410.461	90.88
410.685	82.88
410.908	89.88
411.132	116.88
411.355	103.88
411.578	85.88
411.802	100.88
412.025	105.88
412.249	97.88
412.472	81.88
412.695	79.88
412.919	89.88
413.142	95.88
413.365	84.88
413.589	87.88
413.812	100.88
414.035	96.88
414.258	88.88
414.482	88.88
414.705	105.88
414.928	81.88
415.151	90.88
415.374	99.88
415.597	85.88
415.821	95.88
416.044	90.88
416.267	67.88
416.49	87.88
416.713	93.88
416.936	110.88
417.159	94.88
417.382	91.88
417.605	100.88
417.828	113.88
418.051	111.88
418.274	85.88
418.497	91.88
418.72	92.88
418.943	94.88
419.166	79.88
419.389	105.88
419.611	87.88
419.834	95.88
420.057	80.88
420.28	85.88
420.503	90.88
420.726	80.88
420.948	88.88
421.171	94.88
421.394	95.88
421.617	95.88
421.839	81.88
422.062	89.88
422.285	95.88
422.507	107.88
422.73	98.88
422.953	74.88
423.175	97.88
423.398	90.88
423.621	81.88
423.843	85.88
424.066	97.88
424.288	91.88
424.511	86.88
424.733	101.88
424.956	95.88
425.178	95.88
425.401	82.88
425.623	80.88
425.846	87.88
426.068	91.88
426.291	89.88
426.513	87.88
426.735	90.88
426.958	105.88
427.18	102.88
427.402	117.88
427.625	159.88
427.847	128.88
428.069	94.88
428.292	89.88
428.514	98.88
428.736	72.88
428.958	82.88
429.181	95.88
429.403	93.88
429.625	93.88
429.847	86.88
430.069	90.88
430.292	93.88
430.514	95.88
430.736	70.88
430.958	77.88
431.18	81.88
431.402	84.88
431.624	74.88
431.846	83.88
432.068	92.88
432.29	80.88
432.512	87.88
432.734	89.88
432.956	105.88
433.178	106.88
433.4	117.88
433.622	89.88
433.844	101.88
434.066	81.88
434.287	80.88
434.509	95.88
434.731	98.88
434.953	82.88
435.175	92.88
435.397	90.88
435.618	105.88
435.84	104.88
436.062	127.88
436.284	113.88
436.505	98.88
436.727	99.88
436.949	103.88
437.17	102.88
437.392	95.88
437.614	94.88
437.835	102.88
438.057	111.88
438.278	109.88
438.5	97.88
438.721	104.88
438.943	97.88
439.165	83.88
439.386	85.88
439.608	97.88
439.829	101.88
440.05	106.88
440.272	122.88
440.493	87.88
440.715	81.88
440.936	69.88
441.158	98.88
441.379	85.88
441.6	86.88
441.822	95.88
442.043	99.88
442.264	90.88
442.486	111.88
442.707	106.88
442.928	97.88
443.149	118.88
443.371	112.88
443.592	105.88
443.813	106.88
444.034	107.88
444.255	96.88
444.476	82.88
444.698	78.88
444.919	81.88
445.14	117.88
445.361	117.88
445.582	110.88
445.803	124.88
446.024	136.88
446.245	129.88
446.466	125.88
446.687	104.88
446.908	84.88
447.129	79.88
447.35	99.88
447.571	95.88
447.792	86.88
448.013	93.88
448.234	99.88
448.455	108.88
448.675	110.88
448.896	108.88
449.117	91.88
449.338	102.88
449.559	130.88
449.779	109.88
450	92.88
450.221	90.88
450.442	84.88
450.662	95.88
450.883	94.88
451.104	119.88
451.324	94.88
451.545	79.88
451.766	88.88
451.986	92.88
452.207	86.88
452.428	95.88
452.648	98.88
452.869	106.88
453.089	109.88
453.31	112.88
453.53	87.88
453.751	70.88
453.971	88.88
454.192	101.88
454.412	87.88
454.633	95.88
454.853	83.88
455.073	83.88
455.294	89.88
455.514	90.88
455.734	91.88
455.955	95.88
456.175	91.88
456.395	93.88
456.616	92.88
456.836	79.88
457.056	85.88
457.276	75.88
457.497	100.88
457.717	82.88
457.937	80.88
458.157	76.88
458.377	89.88
458.598	97.88
458.818	126.88
459.038	124.88
459.258	111.88
459.478	98.88
459.698	89.88
459.918	85.88
460.138	90.88
460.358	84.88
460.578	80.88
460.798	104.88
461.018	73.88
461.238	85.88
461.458	87.88
461.678	83.88
461.898	99.88
462.118	78.88
462.338	81.88
462.558	104.88
462.777	97.88
462.997	78.88
463.217	102.88
463.437	95.88
463.657	80.88
463.876	89.88
464.096	99.88
464.316	99.88
464.536	97.88
464.755	86.88
464.975	89.88
465.195	149.88
465.414	128.88
465.634	93.88
465.854	86.88
466.073	84.88
466.293	82.88
466.512	91.88
466.732	84.88
466.951	89.88
467.171	95.88
467.391	102.88
467.61	94.88
467.829	102.88
468.049	92.88
468.268	77.88
468.488	65.88
468.707	85.88
468.927	79.88
469.146	87.88
469.365	87.88
469.585	94.88
469.804	93.88
470.023	93.88
470.243	91.88
470.462	109.88
470.681	100.88
470.901	97.88
471.12	92.88
471.339	82.88
471.558	85.88
471.777	105.88
471.997	98.88
472.216	95.88
472.435	80.88
472.654	87.88
472.873	87.88
473.092	84.88
473.311	91.88
473.53	93.88
473.749	78.88
473.968	91.88
474.187	74.88
474.406	74.88
474.625	72.88
474.844	83.88
475.063	90.88
475.282	96.88
475.501	92.88
475.72	100.88
475.939	71.88
476.158	75.88
476.377	68.88
476.596	83.88
476.814	77.88
477.033	83.88
477.252	105.88
477.471	82.88
477.69	77.88
477.908	84.88
478.127	100.88
478.346	81.88
478.564	93.88
478.783	94.88
479.002	82.88
479.22	88.88
479.439	87.88
479.658	99.88
479.876	86.88
480.095	89.88
480.313	98.88
480.532	89.88
480.751	72.88
480.969	87.88
481.188	98.88
481.406	97.88
481.624	86.88
481.843	85.88
482.061	89.88
482.28	96.88
482.498	90.88
482.717	87.88
482.935	85.88
483.153	97.88
483.372	89.88
483.59	87.88
483.808	83.88
484.027	101.88
484.245	93.88
484.463	96.88
484.681	95.88
484.9	94.88
485.118	94.88
485.336	98.88
485.554	106.88
485.772	104.88
485.99	99.88
486.209	108.88
486.427	105.88
486.645	106.88
486.863	112.88
487.081	101.88
487.299	104.88
487.517	82.88
487.735	87.88
487.953	91.88
488.171	92.88
488.389	87.88
488.607	106.88
488.825	78.88
489.043	85.88
489.261	98.88
489.479	95.88
489.696	81.88
489.914	87.88
490.132	83.88
490.35	100.88
490.568	79.88
490.786	89.88
491.003	106.88
491.221	93.88
491.439	104.88
491.657	96.88
491.874	104.88
492.092	103.88
492.31	90.88
492.527	91.88
492.745	96.88
492.963	97.88
493.18	114.88
493.398	95.88
493.615	107.88
493.833	106.88
494.05	104.88
494.268	82.88
494.485	94.88
494.703	104.88
494.92	79.88
495.138	93.88
495.355	72.88
495.573	85.88
495.79	96.88
496.008	98.88
496.225	91.88
496.442	98.88
496.66	106.88
496.877	91.88
497.094	91.88
497.312	85.88
497.529	93.88
497.746	83.88
497.963	97.88
498.181	94.88
498.398	87.88
498.615	99.88
498.832	111.88
499.049	91.88
499.267	99.88
499.484	81.88
499.701	83.88
499.918	92.88
500.135	81.88
500.352	92.88
500.569	93.88
500.786	87.88
501.003	97.88
501.22	84.88
501.437	80.88
501.654	103.88
501.871	107.88
502.088	113.88
502.305	99.88
502.522	93.88
502.739	90.88
502.956	87.88
503.172	87.88
503.389	98.88
503.606	107.88
503.823	95.88
504.04	95.88
504.256	88.88
504.473	90.88
504.69	89.88
504.907	96.88
505.123	77.88
505.34	94.88
505.557	99.88
505.773	88.88
505.99	96.88
506.207	97.88
506.423	102.88
506.64	95.88
506.856	97.88
507.073	93.88
507.289	92.88
507.506	79.88
507.722	89.88
507.939	101.88
508.155	98.88
508.372	99.88
508.588	91.88
508.805	86.88
509.021	89.88
509.238	74.88
509.454	109.88
509.67	81.88
509.887	103.88
510.103	117.88
510.319	177.88
510.536	633.88
510.752	1814.88
510.968	509.88
511.184	147.88
511.401	102.88
511.617	92.88
511.833	102.88
512.049	79.88
512.265	90.88
512.481	81.88
512.698	90.88
512.914	94.88
513.13	91.88
513.346	95.88
513.562	84.88
513.778	113.88
513.994	89.88
514.21	99.88
514.426	109.88
514.642	115.88
514.858	112.88
515.074	142.88
515.29	368.88
515.506	1106.88
515.721	426.88
515.937	131.88
516.153	104.88
