Data from Uncirc_1988_H10_HRD10591_00010.txt Node
Date: Wed Jan 03 12:04:06 EST 2024
User: Yrep
Spectrometer: HR+D1059
Trigger mode: 1
Integration Time (sec): 1.000000E-1
Scans to average: 1
Electric dark correction enabled: true
Nonlinearity correction enabled: false
Boxcar width: 0
XAxis mode: Wavelengths
Number of Pixels in Spectrum: 2048
>>>>>Begin Spectral Data<<<<<
223.165	-15.06
223.4	-15.06
223.635	-15.06
223.869	-13.06
224.104	-19.06
224.338	-15.06
224.573	-22.06
224.808	-10.06
225.042	-3.06
225.277	-9.06
225.511	-2.06
225.746	-1.06
225.98	13.94
226.215	14.94
226.449	11.94
226.683	14.94
226.918	15.94
227.152	37.94
227.387	29.94
227.621	37.94
227.856	45.94
228.09	35.94
228.324	47.94
228.559	47.94
228.793	50.94
229.027	70.94
229.262	66.94
229.496	73.94
229.73	73.94
229.964	79.94
230.199	83.94
230.433	79.94
230.667	65.94
230.901	77.94
231.136	73.94
231.37	85.94
231.604	85.94
231.838	74.94
232.072	88.94
232.306	82.94
232.541	80.94
232.775	75.94
233.009	73.94
233.243	73.94
233.477	70.94
233.711	66.94
233.945	89.94
234.179	58.94
234.413	89.94
234.647	73.94
234.881	88.94
235.115	66.94
235.349	74.94
235.583	80.94
235.817	87.94
236.051	68.94
236.285	77.94
236.519	73.94
236.753	61.94
236.987	62.94
237.221	80.94
237.455	86.94
237.689	68.94
237.922	101.94
238.156	86.94
238.39	82.94
238.624	94.94
238.858	74.94
239.091	87.94
239.325	74.94
239.559	73.94
239.793	77.94
240.027	89.94
240.26	64.94
240.494	68.94
240.728	77.94
240.961	71.94
241.195	60.94
241.429	67.94
241.662	62.94
241.896	69.94
242.13	48.94
242.363	76.94
242.597	75.94
242.83	68.94
243.064	69.94
243.298	65.94
243.531	68.94
243.765	73.94
243.998	73.94
244.232	80.94
244.465	86.94
244.699	73.94
244.932	70.94
245.166	65.94
245.399	52.94
245.633	70.94
245.866	76.94
246.099	78.94
246.333	85.94
246.566	63.94
246.8	83.94
247.033	89.94
247.266	70.94
247.5	66.94
247.733	73.94
247.966	79.94
248.2	70.94
248.433	71.94
248.666	70.94
248.899	82.94
249.133	73.94
249.366	107.94
249.599	87.94
249.832	75.94
250.066	78.94
250.299	84.94
250.532	71.94
250.765	85.94
250.998	60.94
251.231	79.94
251.465	79.94
251.698	81.94
251.931	68.94
252.164	84.94
252.397	77.94
252.63	85.94
252.863	70.94
253.096	67.94
253.329	80.94
253.562	65.94
253.795	85.94
254.028	80.94
254.261	68.94
254.494	70.94
254.727	69.94
254.96	72.94
255.193	79.94
255.426	74.94
255.659	83.94
255.892	98.94
256.124	73.94
256.357	85.94
256.59	81.94
256.823	78.94
257.056	87.94
257.289	69.94
257.521	87.94
257.754	78.94
257.987	81.94
258.22	70.94
258.452	81.94
258.685	68.94
258.918	83.94
259.151	90.94
259.383	79.94
259.616	82.94
259.849	81.94
260.081	91.94
260.314	89.94
260.547	82.94
260.779	80.94
261.012	66.94
261.244	70.94
261.477	93.94
261.71	77.94
261.942	79.94
262.175	99.94
262.407	88.94
262.64	76.94
262.872	86.94
263.105	82.94
263.337	91.94
263.57	76.94
263.802	79.94
264.035	83.94
264.267	83.94
264.499	85.94
264.732	82.94
264.964	93.94
265.197	89.94
265.429	73.94
265.661	87.94
265.894	91.94
266.126	78.94
266.358	83.94
266.591	96.94
266.823	88.94
267.055	82.94
267.287	77.94
267.52	77.94
267.752	69.94
267.984	85.94
268.216	93.94
268.448	80.94
268.681	91.94
268.913	87.94
269.145	81.94
269.377	61.94
269.609	73.94
269.841	76.94
270.073	78.94
270.306	95.94
270.538	75.94
270.77	69.94
271.002	81.94
271.234	77.94
271.466	84.94
271.698	69.94
271.93	78.94
272.162	78.94
272.394	99.94
272.626	93.94
272.858	88.94
273.09	82.94
273.322	80.94
273.553	78.94
273.785	74.94
274.017	81.94
274.249	88.94
274.481	79.94
274.713	82.94
274.945	86.94
275.176	88.94
275.408	89.94
275.64	78.94
275.872	80.94
276.104	87.94
276.335	94.94
276.567	105.94
276.799	100.94
277.031	101.94
277.262	100.94
277.494	101.94
277.726	88.94
277.957	76.94
278.189	88.94
278.421	90.94
278.652	79.94
278.884	92.94
279.115	92.94
279.347	81.94
279.579	93.94
279.81	96.94
280.042	75.94
280.273	94.94
280.505	81.94
280.736	92.94
280.968	90.94
281.199	86.94
281.431	87.94
281.662	80.94
281.894	81.94
282.125	98.94
282.356	110.94
282.588	98.94
282.819	116.94
283.051	92.94
283.282	85.94
283.513	73.94
283.745	74.94
283.976	93.94
284.207	78.94
284.439	93.94
284.67	84.94
284.901	81.94
285.132	83.94
285.364	86.94
285.595	84.94
285.826	83.94
286.057	96.94
286.288	81.94
286.52	71.94
286.751	90.94
286.982	92.94
287.213	74.94
287.444	85.94
287.675	77.94
287.906	82.94
288.138	89.94
288.369	82.94
288.6	90.94
288.831	103.94
289.062	61.94
289.293	94.94
289.524	99.94
289.755	93.94
289.986	75.94
290.217	82.94
290.448	95.94
290.679	82.94
290.91	69.94
291.141	77.94
291.371	73.94
291.602	76.94
291.833	70.94
292.064	71.94
292.295	85.94
292.526	83.94
292.757	81.94
292.987	93.94
293.218	75.94
293.449	87.94
293.68	74.94
293.91	98.94
294.141	91.94
294.372	76.94
294.603	92.94
294.833	82.94
295.064	90.94
295.295	87.94
295.525	91.94
295.756	99.94
295.987	105.94
296.217	111.94
296.448	92.94
296.679	93.94
296.909	73.94
297.14	95.94
297.37	74.94
297.601	79.94
297.831	83.94
298.062	96.94
298.292	95.94
298.523	96.94
298.753	86.94
298.984	84.94
299.214	91.94
299.445	97.94
299.675	89.94
299.905	81.94
300.136	86.94
300.366	84.94
300.597	89.94
300.827	80.94
301.057	86.94
301.288	96.94
301.518	94.94
301.748	92.94
301.979	90.94
302.209	88.94
302.439	97.94
302.669	84.94
302.9	85.94
303.13	83.94
303.36	97.94
303.59	90.94
303.82	89.94
304.051	78.94
304.281	83.94
304.511	95.94
304.741	89.94
304.971	92.94
305.201	81.94
305.431	93.94
305.661	86.94
305.891	95.94
306.121	91.94
306.352	81.94
306.582	92.94
306.812	100.94
307.042	85.94
307.272	88.94
307.502	91.94
307.731	87.94
307.961	79.94
308.191	90.94
308.421	85.94
308.651	79.94
308.881	81.94
309.111	87.94
309.341	95.94
309.571	97.94
309.8	96.94
310.03	86.94
310.26	77.94
310.49	90.94
310.72	103.94
310.949	97.94
311.179	97.94
311.409	75.94
311.639	89.94
311.868	99.94
312.098	84.94
312.328	95.94
312.557	99.94
312.787	106.94
313.017	91.94
313.246	93.94
313.476	90.94
313.706	98.94
313.935	92.94
314.165	99.94
314.394	84.94
314.624	82.94
314.853	89.94
315.083	89.94
315.312	109.94
315.542	75.94
315.771	102.94
316.001	83.94
316.23	81.94
316.46	88.94
316.689	83.94
316.919	93.94
317.148	102.94
317.377	85.94
317.607	86.94
317.836	86.94
318.065	86.94
318.295	84.94
318.524	81.94
318.753	68.94
318.983	79.94
319.212	89.94
319.441	95.94
319.67	106.94
319.9	106.94
320.129	75.94
320.358	87.94
320.587	92.94
320.816	97.94
321.046	92.94
321.275	87.94
321.504	96.94
321.733	99.94
321.962	106.94
322.191	97.94
322.42	100.94
322.649	121.94
322.878	110.94
323.108	107.94
323.337	123.94
323.566	124.94
323.795	134.94
324.024	198.94
324.253	369.94
324.482	797.94
324.71	1583.94
324.939	2059.94
325.168	750.94
325.397	220.94
325.626	158.94
325.855	129.94
326.084	119.94
326.313	114.94
326.542	142.94
326.77	214.94
326.999	421.94
327.228	890.94
327.457	1626.94
327.686	1281.94
327.914	351.94
328.143	163.94
328.372	125.94
328.6	128.94
328.829	113.94
329.058	113.94
329.287	116.94
329.515	101.94
329.744	111.94
329.972	91.94
330.201	94.94
330.43	95.94
330.658	108.94
330.887	112.94
331.115	100.94
331.344	109.94
331.572	99.94
331.801	97.94
332.03	101.94
332.258	97.94
332.486	80.94
332.715	94.94
332.943	85.94
333.172	94.94
333.4	97.94
333.629	109.94
333.857	109.94
334.085	79.94
334.314	93.94
334.542	101.94
334.771	97.94
334.999	77.94
335.227	114.94
335.455	88.94
335.684	88.94
335.912	86.94
336.14	101.94
336.369	96.94
336.597	87.94
336.825	106.94
337.053	100.94
337.281	103.94
337.51	102.94
337.738	95.94
337.966	82.94
338.194	101.94
338.422	95.94
338.65	83.94
338.878	103.94
339.106	95.94
339.334	93.94
339.562	79.94
339.79	77.94
340.018	103.94
340.246	88.94
340.474	92.94
340.702	93.94
340.93	92.94
341.158	90.94
341.386	96.94
341.614	91.94
341.842	100.94
342.07	67.94
342.298	91.94
342.526	88.94
342.754	86.94
342.981	92.94
343.209	92.94
343.437	92.94
343.665	76.94
343.893	91.94
344.12	89.94
344.348	104.94
344.576	93.94
344.804	94.94
345.031	82.94
345.259	78.94
345.487	91.94
345.714	100.94
345.942	96.94
346.17	91.94
346.397	93.94
346.625	81.94
346.853	88.94
347.08	101.94
347.308	89.94
347.535	74.94
347.763	94.94
347.99	100.94
348.218	89.94
348.445	87.94
348.673	86.94
348.9	92.94
349.128	92.94
349.355	95.94
349.583	88.94
349.81	97.94
350.037	98.94
350.265	85.94
350.492	102.94
350.72	93.94
350.947	107.94
351.174	101.94
351.402	106.94
351.629	85.94
351.856	107.94
352.083	93.94
352.311	105.94
352.538	117.94
352.765	106.94
352.992	102.94
353.22	111.94
353.447	114.94
353.674	110.94
353.901	103.94
354.128	77.94
354.355	97.94
354.583	88.94
354.81	78.94
355.037	99.94
355.264	91.94
355.491	88.94
355.718	85.94
355.945	102.94
356.172	94.94
356.399	86.94
356.626	91.94
356.853	87.94
357.08	86.94
357.307	75.94
357.534	91.94
357.761	96.94
357.988	91.94
358.215	103.94
358.441	102.94
358.668	94.94
358.895	89.94
359.122	106.94
359.349	93.94
359.576	103.94
359.802	92.94
360.029	93.94
360.256	94.94
360.483	97.94
360.709	84.94
360.936	82.94
361.163	88.94
361.39	77.94
361.616	95.94
361.843	97.94
362.07	95.94
362.296	96.94
362.523	99.94
362.749	82.94
362.976	94.94
363.203	85.94
363.429	77.94
363.656	97.94
363.882	86.94
364.109	70.94
364.335	88.94
364.562	90.94
364.788	85.94
365.015	95.94
365.241	115.94
365.468	94.94
365.694	93.94
365.92	90.94
366.147	87.94
366.373	107.94
366.599	94.94
366.826	70.94
367.052	102.94
367.278	89.94
367.505	100.94
367.731	82.94
367.957	90.94
368.184	73.94
368.41	96.94
368.636	88.94
368.862	92.94
369.089	114.94
369.315	90.94
369.541	78.94
369.767	79.94
369.993	95.94
370.219	62.94
370.445	89.94
370.672	84.94
370.898	91.94
371.124	75.94
371.35	84.94
371.576	85.94
371.802	69.94
372.028	85.94
372.254	81.94
372.48	84.94
372.706	89.94
372.932	76.94
373.158	93.94
373.384	95.94
373.61	89.94
373.835	108.94
374.061	87.94
374.287	105.94
374.513	85.94
374.739	92.94
374.965	105.94
375.191	84.94
375.416	89.94
375.642	89.94
375.868	98.94
376.094	89.94
376.319	79.94
376.545	92.94
376.771	97.94
376.997	87.94
377.222	80.94
377.448	86.94
377.674	82.94
377.899	94.94
378.125	84.94
378.35	78.94
378.576	85.94
378.802	86.94
379.027	91.94
379.253	93.94
379.478	81.94
379.704	100.94
379.929	94.94
380.155	83.94
380.38	94.94
380.606	83.94
380.831	101.94
381.057	98.94
381.282	91.94
381.507	98.94
381.733	89.94
381.958	81.94
382.184	96.94
382.409	100.94
382.634	83.94
382.86	95.94
383.085	93.94
383.31	107.94
383.535	103.94
383.761	91.94
383.986	85.94
384.211	97.94
384.436	107.94
384.662	95.94
384.887	78.94
385.112	106.94
385.337	89.94
385.562	112.94
385.787	108.94
386.013	102.94
386.238	99.94
386.463	98.94
386.688	97.94
386.913	83.94
387.138	106.94
387.363	105.94
387.588	98.94
387.813	89.94
388.038	93.94
388.263	114.94
388.488	121.94
388.713	102.94
388.938	90.94
389.163	98.94
389.387	83.94
389.612	91.94
389.837	82.94
390.062	82.94
390.287	98.94
390.512	87.94
390.736	86.94
390.961	83.94
391.186	99.94
391.411	101.94
391.636	79.94
391.86	73.94
392.085	83.94
392.31	85.94
392.534	95.94
392.759	95.94
392.984	86.94
393.208	91.94
393.433	94.94
393.658	97.94
393.882	79.94
394.107	82.94
394.331	85.94
394.556	86.94
394.78	83.94
395.005	103.94
395.229	82.94
395.454	97.94
395.678	76.94
395.903	92.94
396.127	91.94
396.352	87.94
396.576	89.94
396.801	89.94
397.025	80.94
397.249	87.94
397.474	94.94
397.698	89.94
397.922	75.94
398.147	81.94
398.371	88.94
398.595	84.94
398.82	88.94
399.044	86.94
399.268	90.94
399.492	87.94
399.717	85.94
399.941	86.94
400.165	90.94
400.389	93.94
400.613	76.94
400.837	87.94
401.062	66.94
401.286	95.94
401.51	81.94
401.734	76.94
401.958	78.94
402.182	129.94
402.406	135.94
402.63	94.94
402.854	65.94
403.078	78.94
403.302	93.94
403.526	78.94
403.75	77.94
403.974	75.94
404.198	85.94
404.422	77.94
404.645	96.94
404.869	85.94
405.093	92.94
405.317	106.94
405.541	106.94
405.765	85.94
405.988	98.94
406.212	125.94
406.436	159.94
406.66	121.94
406.883	102.94
407.107	97.94
407.331	93.94
407.555	92.94
407.778	97.94
408.002	77.94
408.226	74.94
408.449	83.94
408.673	85.94
408.896	90.94
409.12	78.94
409.344	85.94
409.567	80.94
409.791	84.94
410.014	83.94
410.238	90.94
410.461	84.94
410.685	89.94
410.908	97.94
411.132	110.94
411.355	105.94
411.578	91.94
411.802	92.94
412.025	84.94
412.249	94.94
412.472	82.94
412.695	79.94
412.919	83.94
413.142	83.94
413.365	77.94
413.589	89.94
413.812	76.94
414.035	85.94
414.258	94.94
414.482	91.94
414.705	100.94
414.928	81.94
415.151	86.94
415.374	83.94
415.597	90.94
415.821	94.94
416.044	86.94
416.267	90.94
416.49	76.94
416.713	84.94
416.936	84.94
417.159	84.94
417.382	86.94
417.605	74.94
417.828	90.94
418.051	89.94
418.274	92.94
418.497	71.94
418.72	80.94
418.943	75.94
419.166	94.94
419.389	100.94
419.611	82.94
419.834	87.94
420.057	86.94
420.28	95.94
420.503	90.94
420.726	89.94
420.948	70.94
421.171	88.94
421.394	80.94
421.617	81.94
421.839	89.94
422.062	91.94
422.285	86.94
422.507	96.94
422.73	94.94
422.953	87.94
423.175	97.94
423.398	85.94
423.621	89.94
423.843	85.94
424.066	84.94
424.288	64.94
424.511	83.94
424.733	97.94
424.956	115.94
425.178	89.94
425.401	85.94
425.623	96.94
425.846	77.94
426.068	85.94
426.291	82.94
426.513	97.94
426.735	85.94
426.958	92.94
427.18	101.94
427.402	116.94
427.625	121.94
427.847	114.94
428.069	105.94
428.292	75.94
428.514	75.94
428.736	87.94
428.958	79.94
429.181	90.94
429.403	82.94
429.625	73.94
429.847	89.94
430.069	94.94
430.292	83.94
430.514	90.94
430.736	97.94
430.958	84.94
431.18	79.94
431.402	70.94
431.624	75.94
431.846	77.94
432.068	91.94
432.29	83.94
432.512	90.94
432.734	78.94
432.956	87.94
433.178	96.94
433.4	101.94
433.622	79.94
433.844	84.94
434.066	78.94
434.287	88.94
434.509	91.94
434.731	88.94
434.953	91.94
435.175	82.94
435.397	75.94
435.618	99.94
435.84	90.94
436.062	115.94
436.284	105.94
436.505	103.94
436.727	102.94
436.949	88.94
437.17	80.94
437.392	94.94
437.614	71.94
437.835	91.94
438.057	102.94
438.278	98.94
438.5	102.94
438.721	112.94
438.943	83.94
439.165	84.94
439.386	86.94
439.608	84.94
439.829	87.94
440.05	107.94
440.272	112.94
440.493	87.94
440.715	94.94
440.936	85.94
441.158	93.94
441.379	88.94
441.6	63.94
441.822	83.94
442.043	83.94
442.264	98.94
442.486	97.94
442.707	82.94
442.928	97.94
443.149	107.94
443.371	111.94
443.592	106.94
443.813	122.94
444.034	98.94
444.255	81.94
444.476	80.94
444.698	70.94
444.919	89.94
445.14	133.94
445.361	119.94
445.582	101.94
445.803	121.94
446.024	124.94
446.245	128.94
446.466	102.94
446.687	97.94
446.908	71.94
447.129	82.94
447.35	79.94
447.571	82.94
447.792	92.94
448.013	94.94
448.234	92.94
448.455	85.94
448.675	102.94
448.896	129.94
449.117	89.94
449.338	94.94
449.559	126.94
449.779	129.94
450	94.94
450.221	85.94
450.442	88.94
450.662	71.94
450.883	89.94
451.104	88.94
451.324	108.94
451.545	87.94
451.766	86.94
451.986	83.94
452.207	85.94
452.428	81.94
452.648	99.94
452.869	119.94
453.089	107.94
453.31	110.94
453.53	77.94
453.751	80.94
453.971	93.94
454.192	109.94
454.412	86.94
454.633	92.94
454.853	82.94
455.073	83.94
455.294	86.94
455.514	98.94
455.734	90.94
455.955	78.94
456.175	73.94
456.395	79.94
456.616	79.94
456.836	87.94
457.056	81.94
457.276	75.94
457.497	92.94
457.717	77.94
457.937	80.94
458.157	79.94
458.377	93.94
458.598	108.94
458.818	118.94
459.038	129.94
459.258	106.94
459.478	86.94
459.698	79.94
459.918	88.94
460.138	82.94
460.358	76.94
460.578	67.94
460.798	93.94
461.018	80.94
461.238	82.94
461.458	74.94
461.678	89.94
461.898	76.94
462.118	91.94
462.338	81.94
462.558	85.94
462.777	84.94
462.997	74.94
463.217	91.94
463.437	79.94
463.657	92.94
463.876	82.94
464.096	89.94
464.316	97.94
464.536	78.94
464.755	80.94
464.975	82.94
465.195	156.94
465.414	132.94
465.634	89.94
465.854	89.94
466.073	76.94
466.293	92.94
466.512	83.94
466.732	82.94
466.951	91.94
467.171	99.94
467.391	91.94
467.61	94.94
467.829	84.94
468.049	87.94
468.268	79.94
468.488	66.94
468.707	100.94
468.927	79.94
469.146	74.94
469.365	80.94
469.585	82.94
469.804	94.94
470.023	98.94
470.243	77.94
470.462	96.94
470.681	103.94
470.901	84.94
471.12	89.94
471.339	81.94
471.558	80.94
471.777	91.94
471.997	93.94
472.216	91.94
472.435	68.94
472.654	81.94
472.873	83.94
473.092	83.94
473.311	71.94
473.53	83.94
473.749	85.94
473.968	85.94
474.187	83.94
474.406	90.94
474.625	81.94
474.844	86.94
475.063	84.94
475.282	96.94
475.501	88.94
475.72	69.94
475.939	75.94
476.158	88.94
476.377	86.94
476.596	71.94
476.814	83.94
477.033	85.94
477.252	86.94
477.471	79.94
477.69	80.94
477.908	73.94
478.127	75.94
478.346	89.94
478.564	83.94
478.783	81.94
479.002	87.94
479.22	75.94
479.439	82.94
479.658	92.94
479.876	88.94
480.095	90.94
480.313	91.94
480.532	88.94
480.751	92.94
480.969	86.94
481.188	87.94
481.406	91.94
481.624	83.94
481.843	73.94
482.061	95.94
482.28	93.94
482.498	82.94
482.717	88.94
482.935	86.94
483.153	76.94
483.372	91.94
483.59	80.94
483.808	71.94
484.027	107.94
484.245	97.94
484.463	86.94
484.681	105.94
484.9	83.94
485.118	83.94
485.336	80.94
485.554	92.94
485.772	93.94
485.99	108.94
486.209	80.94
486.427	102.94
486.645	133.94
486.863	106.94
487.081	82.94
487.299	82.94
487.517	103.94
487.735	97.94
487.953	102.94
488.171	86.94
488.389	76.94
488.607	80.94
488.825	83.94
489.043	82.94
489.261	101.94
489.479	89.94
489.696	69.94
489.914	86.94
490.132	65.94
490.35	100.94
490.568	102.94
490.786	82.94
491.003	60.94
491.221	78.94
491.439	75.94
491.657	106.94
491.874	99.94
492.092	95.94
492.31	88.94
492.527	82.94
492.745	91.94
492.963	83.94
493.18	89.94
493.398	94.94
493.615	91.94
493.833	91.94
494.05	85.94
494.268	86.94
494.485	96.94
494.703	86.94
494.92	90.94
495.138	99.94
495.355	102.94
495.573	96.94
495.79	87.94
496.008	93.94
496.225	76.94
496.442	83.94
496.66	86.94
496.877	91.94
497.094	94.94
497.312	99.94
497.529	90.94
497.746	79.94
497.963	93.94
498.181	95.94
498.398	90.94
498.615	92.94
498.832	93.94
499.049	98.94
499.267	82.94
499.484	93.94
499.701	95.94
499.918	95.94
500.135	90.94
500.352	91.94
500.569	91.94
500.786	90.94
501.003	82.94
501.22	102.94
501.437	84.94
501.654	88.94
501.871	99.94
502.088	86.94
502.305	107.94
502.522	92.94
502.739	98.94
502.956	90.94
503.172	99.94
503.389	85.94
503.606	105.94
503.823	93.94
504.04	89.94
504.256	94.94
504.473	101.94
504.69	81.94
504.907	89.94
505.123	101.94
505.34	94.94
505.557	85.94
505.773	95.94
505.99	101.94
506.207	86.94
506.423	87.94
506.64	80.94
506.856	87.94
507.073	93.94
507.289	95.94
507.506	84.94
507.722	97.94
507.939	109.94
508.155	94.94
508.372	101.94
508.588	88.94
508.805	90.94
509.021	81.94
509.238	100.94
509.454	87.94
509.67	89.94
509.887	106.94
510.103	117.94
510.319	191.94
510.536	579.94
510.752	1727.94
510.968	481.94
511.184	137.94
511.401	113.94
511.617	82.94
511.833	91.94
512.049	92.94
512.265	91.94
512.481	97.94
512.698	83.94
512.914	86.94
513.13	87.94
513.346	83.94
513.562	81.94
513.778	86.94
513.994	94.94
514.21	95.94
514.426	118.94
514.642	124.94
514.858	118.94
515.074	139.94
515.29	357.94
515.506	1124.94
515.721	397.94
515.937	141.94
516.153	107.94
516.369	89.94
516.585	99.94
516.801	94.94
517.016	94.94
