Data from Uncirc_1988_H10_HRD10591_00081.txt Node
Date: Wed Jan 03 12:04:20 EST 2024
User: Yrep
Spectrometer: HR+D1059
Trigger mode: 1
Integration Time (sec): 1.000000E-1
Scans to average: 1
Electric dark correction enabled: true
Nonlinearity correction enabled: false
Boxcar width: 0
XAxis mode: Wavelengths
Number of Pixels in Spectrum: 2048
>>>>>Begin Spectral Data<<<<<
223.165	-17.12
223.4	-17.12
223.635	-17.12
223.869	-16.12
224.104	-29.12
224.338	-8.12
224.573	-4.12
224.808	-21.12
225.042	-24.12
225.277	-2.12
225.511	2.88
225.746	7.88
225.98	8.88
226.215	-3.12
226.449	12.88
226.683	29.88
226.918	26.88
227.152	35.88
227.387	32.88
227.621	28.88
227.856	45.88
228.09	49.88
228.324	56.88
228.559	44.88
228.793	58.88
229.027	67.88
229.262	59.88
229.496	87.88
229.73	85.88
229.964	91.88
230.199	70.88
230.433	76.88
230.667	65.88
230.901	87.88
231.136	84.88
231.37	81.88
231.604	76.88
231.838	82.88
232.072	78.88
232.306	82.88
232.541	82.88
232.775	86.88
233.009	89.88
233.243	81.88
233.477	95.88
233.711	87.88
233.945	78.88
234.179	82.88
234.413	84.88
234.647	74.88
234.881	67.88
235.115	77.88
235.349	83.88
235.583	87.88
235.817	87.88
236.051	68.88
236.285	73.88
236.519	66.88
236.753	63.88
236.987	88.88
237.221	80.88
237.455	92.88
237.689	75.88
237.922	78.88
238.156	72.88
238.39	83.88
238.624	60.88
238.858	68.88
239.091	57.88
239.325	77.88
239.559	94.88
239.793	83.88
240.027	59.88
240.26	76.88
240.494	68.88
240.728	74.88
240.961	82.88
241.195	80.88
241.429	84.88
241.662	71.88
241.896	71.88
242.13	70.88
242.363	71.88
242.597	74.88
242.83	81.88
243.064	76.88
243.298	72.88
243.531	69.88
243.765	89.88
243.998	78.88
244.232	84.88
244.465	70.88
244.699	83.88
244.932	87.88
245.166	77.88
245.399	70.88
245.633	85.88
245.866	70.88
246.099	73.88
246.333	73.88
246.566	88.88
246.8	72.88
247.033	70.88
247.266	87.88
247.5	72.88
247.733	96.88
247.966	88.88
248.2	78.88
248.433	90.88
248.666	89.88
248.899	84.88
249.133	84.88
249.366	101.88
249.599	96.88
249.832	76.88
250.066	89.88
250.299	81.88
250.532	83.88
250.765	99.88
250.998	60.88
251.231	72.88
251.465	76.88
251.698	73.88
251.931	80.88
252.164	78.88
252.397	78.88
252.63	85.88
252.863	70.88
253.096	78.88
253.329	82.88
253.562	80.88
253.795	73.88
254.028	88.88
254.261	84.88
254.494	69.88
254.727	80.88
254.96	109.88
255.193	89.88
255.426	67.88
255.659	88.88
255.892	70.88
256.124	70.88
256.357	80.88
256.59	82.88
256.823	90.88
257.056	80.88
257.289	76.88
257.521	82.88
257.754	92.88
257.987	69.88
258.22	86.88
258.452	79.88
258.685	101.88
258.918	80.88
259.151	82.88
259.383	81.88
259.616	81.88
259.849	81.88
260.081	84.88
260.314	93.88
260.547	72.88
260.779	85.88
261.012	92.88
261.244	78.88
261.477	92.88
261.71	93.88
261.942	125.88
262.175	125.88
262.407	95.88
262.64	93.88
262.872	82.88
263.105	80.88
263.337	78.88
263.57	85.88
263.802	72.88
264.035	94.88
264.267	84.88
264.499	83.88
264.732	79.88
264.964	87.88
265.197	92.88
265.429	83.88
265.661	81.88
265.894	73.88
266.126	98.88
266.358	88.88
266.591	83.88
266.823	73.88
267.055	81.88
267.287	91.88
267.52	91.88
267.752	95.88
267.984	81.88
268.216	86.88
268.448	92.88
268.681	77.88
268.913	89.88
269.145	80.88
269.377	77.88
269.609	76.88
269.841	77.88
270.073	84.88
270.306	82.88
270.538	87.88
270.77	96.88
271.002	90.88
271.234	81.88
271.466	87.88
271.698	95.88
271.93	92.88
272.162	87.88
272.394	108.88
272.626	87.88
272.858	85.88
273.09	78.88
273.322	97.88
273.553	88.88
273.785	80.88
274.017	79.88
274.249	84.88
274.481	97.88
274.713	93.88
274.945	96.88
275.176	80.88
275.408	79.88
275.64	71.88
275.872	72.88
276.104	71.88
276.335	103.88
276.567	122.88
276.799	114.88
277.031	117.88
277.262	99.88
277.494	97.88
277.726	91.88
277.957	78.88
278.189	92.88
278.421	95.88
278.652	79.88
278.884	82.88
279.115	81.88
279.347	78.88
279.579	86.88
279.81	89.88
280.042	81.88
280.273	84.88
280.505	78.88
280.736	86.88
280.968	96.88
281.199	90.88
281.431	82.88
281.662	79.88
281.894	88.88
282.125	113.88
282.356	136.88
282.588	167.88
282.819	128.88
283.051	99.88
283.282	77.88
283.513	95.88
283.745	88.88
283.976	95.88
284.207	89.88
284.439	94.88
284.67	83.88
284.901	85.88
285.132	92.88
285.364	76.88
285.595	77.88
285.826	85.88
286.057	91.88
286.288	80.88
286.52	96.88
286.751	85.88
286.982	96.88
287.213	82.88
287.444	92.88
287.675	82.88
287.906	89.88
288.138	85.88
288.369	78.88
288.6	90.88
288.831	82.88
289.062	85.88
289.293	82.88
289.524	101.88
289.755	90.88
289.986	68.88
290.217	92.88
290.448	95.88
290.679	89.88
290.91	94.88
291.141	94.88
291.371	74.88
291.602	94.88
291.833	100.88
292.064	88.88
292.295	97.88
292.526	88.88
292.757	90.88
292.987	102.88
293.218	92.88
293.449	106.88
293.68	75.88
293.91	76.88
294.141	72.88
294.372	82.88
294.603	82.88
294.833	78.88
295.064	91.88
295.295	93.88
295.525	86.88
295.756	103.88
295.987	115.88
296.217	162.88
296.448	139.88
296.679	102.88
296.909	104.88
297.14	90.88
297.37	91.88
297.601	92.88
297.831	85.88
298.062	82.88
298.292	99.88
298.523	100.88
298.753	88.88
298.984	85.88
299.214	87.88
299.445	91.88
299.675	76.88
299.905	90.88
300.136	102.88
300.366	84.88
300.597	96.88
300.827	91.88
301.057	98.88
301.288	111.88
301.518	102.88
301.748	97.88
301.979	109.88
302.209	90.88
302.439	102.88
302.669	86.88
302.9	88.88
303.13	99.88
303.36	92.88
303.59	106.88
303.82	120.88
304.051	94.88
304.281	88.88
304.511	90.88
304.741	88.88
304.971	81.88
305.201	87.88
305.431	84.88
305.661	97.88
305.891	97.88
306.121	81.88
306.352	104.88
306.582	110.88
306.812	97.88
307.042	92.88
307.272	94.88
307.502	103.88
307.731	104.88
307.961	84.88
308.191	87.88
308.421	88.88
308.651	82.88
308.881	97.88
309.111	109.88
309.341	86.88
309.571	94.88
309.8	106.88
310.03	106.88
310.26	102.88
310.49	116.88
310.72	104.88
310.949	105.88
311.179	112.88
311.409	93.88
311.639	101.88
311.868	100.88
312.098	87.88
312.328	96.88
312.557	123.88
312.787	130.88
313.017	101.88
313.246	98.88
313.476	94.88
313.706	100.88
313.935	109.88
314.165	101.88
314.394	108.88
314.624	101.88
314.853	106.88
315.083	88.88
315.312	88.88
315.542	90.88
315.771	81.88
316.001	92.88
316.23	89.88
316.46	97.88
316.689	80.88
316.919	99.88
317.148	93.88
317.377	115.88
317.607	76.88
317.836	97.88
318.065	81.88
318.295	80.88
318.524	83.88
318.753	102.88
318.983	109.88
319.212	109.88
319.441	112.88
319.67	117.88
319.9	111.88
320.129	105.88
320.358	89.88
320.587	96.88
320.816	113.88
321.046	98.88
321.275	107.88
321.504	109.88
321.733	115.88
321.962	98.88
322.191	103.88
322.42	124.88
322.649	103.88
322.878	132.88
323.108	129.88
323.337	142.88
323.566	162.88
323.795	185.88
324.024	252.88
324.253	536.88
324.482	1164.88
324.71	2423.88
324.939	3188.88
325.168	1142.88
325.397	316.88
325.626	190.88
325.855	158.88
326.084	133.88
326.313	147.88
326.542	174.88
326.77	259.88
326.999	604.88
327.228	1228.88
327.457	2398.88
327.686	1864.88
327.914	483.88
328.143	251.88
328.372	196.88
328.6	132.88
328.829	142.88
329.058	150.88
329.287	160.88
329.515	124.88
329.744	113.88
329.972	116.88
330.201	120.88
330.43	145.88
330.658	148.88
330.887	183.88
331.115	150.88
331.344	118.88
331.572	114.88
331.801	122.88
332.03	118.88
332.258	109.88
332.486	106.88
332.715	93.88
332.943	112.88
333.172	98.88
333.4	112.88
333.629	119.88
333.857	124.88
334.085	114.88
334.314	132.88
334.542	136.88
334.771	159.88
334.999	112.88
335.227	101.88
335.455	100.88
335.684	95.88
335.912	89.88
336.14	92.88
336.369	101.88
336.597	104.88
336.825	102.88
337.053	108.88
337.281	84.88
337.51	95.88
337.738	91.88
337.966	101.88
338.194	115.88
338.422	103.88
338.65	101.88
338.878	95.88
339.106	82.88
339.334	95.88
339.562	106.88
339.79	95.88
340.018	90.88
340.246	106.88
340.474	103.88
340.702	94.88
340.93	102.88
341.158	85.88
341.386	105.88
341.614	103.88
341.842	101.88
342.07	90.88
342.298	82.88
342.526	103.88
342.754	101.88
342.981	98.88
343.209	81.88
343.437	89.88
343.665	88.88
343.893	97.88
344.12	85.88
344.348	84.88
344.576	95.88
344.804	85.88
345.031	94.88
345.259	102.88
345.487	89.88
345.714	84.88
345.942	94.88
346.17	97.88
346.397	92.88
346.625	95.88
346.853	92.88
347.08	94.88
347.308	100.88
347.535	109.88
347.763	113.88
347.99	112.88
348.218	104.88
348.445	99.88
348.673	90.88
348.9	82.88
349.128	104.88
349.355	90.88
349.583	98.88
349.81	85.88
350.037	87.88
350.265	90.88
350.492	98.88
350.72	97.88
350.947	99.88
351.174	115.88
351.402	126.88
351.629	117.88
351.856	93.88
352.083	116.88
352.311	115.88
352.538	105.88
352.765	119.88
352.992	103.88
353.22	117.88
353.447	113.88
353.674	104.88
353.901	79.88
354.128	95.88
354.355	94.88
354.583	90.88
354.81	84.88
355.037	89.88
355.264	102.88
355.491	102.88
355.718	89.88
355.945	94.88
356.172	83.88
356.399	101.88
356.626	82.88
356.853	80.88
357.08	93.88
357.307	95.88
357.534	83.88
357.761	92.88
357.988	93.88
358.215	96.88
358.441	93.88
358.668	94.88
358.895	93.88
359.122	90.88
359.349	84.88
359.576	90.88
359.802	110.88
360.029	119.88
360.256	129.88
360.483	102.88
360.709	85.88
360.936	99.88
361.163	89.88
361.39	107.88
361.616	86.88
361.843	93.88
362.07	109.88
362.296	98.88
362.523	102.88
362.749	88.88
362.976	92.88
363.203	99.88
363.429	94.88
363.656	92.88
363.882	89.88
364.109	95.88
364.335	98.88
364.562	89.88
364.788	94.88
365.015	101.88
365.241	105.88
365.468	116.88
365.694	113.88
365.92	109.88
366.147	95.88
366.373	90.88
366.599	88.88
366.826	91.88
367.052	96.88
367.278	84.88
367.505	108.88
367.731	89.88
367.957	105.88
368.184	101.88
368.41	105.88
368.636	126.88
368.862	135.88
369.089	104.88
369.315	105.88
369.541	104.88
369.767	109.88
369.993	93.88
370.219	99.88
370.445	85.88
370.672	98.88
370.898	89.88
371.124	81.88
371.35	105.88
371.576	98.88
371.802	89.88
372.028	81.88
372.254	87.88
372.48	93.88
372.706	97.88
372.932	94.88
373.158	83.88
373.384	80.88
373.61	98.88
373.835	97.88
374.061	92.88
374.287	88.88
374.513	86.88
374.739	77.88
374.965	104.88
375.191	96.88
375.416	92.88
375.642	89.88
375.868	91.88
376.094	78.88
376.319	79.88
376.545	97.88
376.771	92.88
376.997	84.88
377.222	94.88
377.448	88.88
377.674	86.88
377.899	77.88
378.125	84.88
378.35	87.88
378.576	86.88
378.802	98.88
379.027	89.88
379.253	87.88
379.478	100.88
379.704	95.88
379.929	94.88
380.155	100.88
380.38	94.88
380.606	96.88
380.831	99.88
381.057	92.88
381.282	91.88
381.507	104.88
381.733	113.88
381.958	94.88
382.184	80.88
382.409	100.88
382.634	101.88
382.86	89.88
383.085	94.88
383.31	93.88
383.535	101.88
383.761	82.88
383.986	100.88
384.211	87.88
384.436	105.88
384.662	92.88
384.887	102.88
385.112	81.88
385.337	104.88
385.562	96.88
385.787	99.88
386.013	108.88
386.238	132.88
386.463	104.88
386.688	95.88
386.913	99.88
387.138	91.88
387.363	111.88
387.588	99.88
387.813	87.88
388.038	103.88
388.263	93.88
388.488	116.88
388.713	101.88
388.938	100.88
389.163	105.88
389.387	97.88
389.612	82.88
389.837	100.88
390.062	96.88
390.287	85.88
390.512	90.88
390.736	91.88
390.961	86.88
391.186	80.88
391.411	101.88
391.636	96.88
391.86	88.88
392.085	89.88
392.31	92.88
392.534	80.88
392.759	86.88
392.984	90.88
393.208	89.88
393.433	98.88
393.658	86.88
393.882	103.88
394.107	91.88
394.331	79.88
394.556	86.88
394.78	106.88
395.005	77.88
395.229	85.88
395.454	102.88
395.678	88.88
395.903	102.88
396.127	93.88
396.352	104.88
396.576	89.88
396.801	89.88
397.025	90.88
397.249	81.88
397.474	72.88
397.698	111.88
397.922	96.88
398.147	86.88
398.371	91.88
398.595	90.88
398.82	98.88
399.044	92.88
399.268	81.88
399.492	93.88
399.717	91.88
399.941	93.88
400.165	104.88
400.389	88.88
400.613	82.88
400.837	89.88
401.062	85.88
401.286	101.88
401.51	98.88
401.734	97.88
401.958	105.88
402.182	159.88
402.406	184.88
402.63	125.88
402.854	95.88
403.078	85.88
403.302	100.88
403.526	87.88
403.75	69.88
403.974	88.88
404.198	88.88
404.422	81.88
404.645	88.88
404.869	105.88
405.093	110.88
405.317	105.88
405.541	116.88
405.765	103.88
405.988	148.88
406.212	232.88
406.436	314.88
406.66	190.88
406.883	122.88
407.107	111.88
407.331	106.88
407.555	114.88
407.778	104.88
408.002	109.88
408.226	87.88
408.449	89.88
408.673	87.88
408.896	95.88
409.12	100.88
409.344	94.88
409.567	93.88
409.791	103.88
410.014	82.88
410.238	99.88
410.461	71.88
410.685	94.88
410.908	90.88
411.132	94.88
411.355	84.88
411.578	76.88
411.802	94.88
412.025	92.88
412.249	83.88
412.472	103.88
412.695	106.88
412.919	100.88
413.142	98.88
413.365	101.88
413.589	88.88
413.812	73.88
414.035	91.88
414.258	84.88
414.482	81.88
414.705	92.88
414.928	96.88
415.151	103.88
415.374	98.88
415.597	79.88
415.821	91.88
416.044	89.88
416.267	83.88
416.49	106.88
416.713	79.88
416.936	76.88
417.159	89.88
417.382	89.88
417.605	81.88
417.828	107.88
418.051	99.88
418.274	98.88
418.497	73.88
418.72	87.88
418.943	104.88
419.166	101.88
419.389	78.88
419.611	96.88
419.834	92.88
420.057	80.88
420.28	80.88
420.503	81.88
420.726	86.88
420.948	103.88
421.171	97.88
421.394	95.88
421.617	84.88
421.839	83.88
422.062	81.88
422.285	98.88
422.507	102.88
422.73	110.88
422.953	105.88
423.175	80.88
423.398	98.88
423.621	89.88
423.843	80.88
424.066	88.88
424.288	81.88
424.511	101.88
424.733	113.88
424.956	117.88
425.178	115.88
425.401	105.88
425.623	113.88
425.846	109.88
426.068	101.88
426.291	93.88
426.513	106.88
426.735	77.88
426.958	98.88
427.18	109.88
427.402	171.88
427.625	230.88
427.847	143.88
428.069	114.88
428.292	101.88
428.514	88.88
428.736	97.88
428.958	78.88
429.181	91.88
429.403	81.88
429.625	89.88
429.847	107.88
430.069	108.88
430.292	84.88
430.514	95.88
430.736	74.88
430.958	89.88
431.18	76.88
431.402	83.88
431.624	78.88
431.846	84.88
432.068	87.88
432.29	94.88
432.512	94.88
432.734	80.88
432.956	86.88
433.178	92.88
433.4	93.88
433.622	107.88
433.844	99.88
434.066	79.88
434.287	105.88
434.509	89.88
434.731	97.88
434.953	87.88
435.175	95.88
435.397	90.88
435.618	98.88
435.84	99.88
436.062	144.88
436.284	130.88
436.505	119.88
436.727	113.88
436.949	88.88
437.17	95.88
437.392	81.88
437.614	98.88
437.835	130.88
438.057	139.88
438.278	129.88
438.5	116.88
438.721	142.88
438.943	105.88
439.165	71.88
439.386	93.88
439.608	100.88
439.829	116.88
440.05	156.88
440.272	185.88
440.493	111.88
440.715	94.88
440.936	80.88
441.158	88.88
441.379	103.88
441.6	97.88
441.822	110.88
442.043	112.88
442.264	110.88
442.486	104.88
442.707	109.88
442.928	120.88
443.149	164.88
443.371	158.88
443.592	118.88
443.813	121.88
444.034	124.88
444.255	95.88
444.476	96.88
444.698	84.88
444.919	86.88
445.14	128.88
445.361	143.88
445.582	137.88
445.803	164.88
446.024	164.88
446.245	151.88
446.466	130.88
446.687	88.88
446.908	90.88
447.129	87.88
447.35	89.88
447.571	87.88
447.792	94.88
448.013	93.88
448.234	122.88
448.455	97.88
448.675	137.88
448.896	141.88
449.117	105.88
449.338	102.88
449.559	141.88
449.779	145.88
450	96.88
450.221	97.88
450.442	106.88
450.662	111.88
450.883	125.88
451.104	132.88
451.324	102.88
451.545	77.88
451.766	111.88
451.986	89.88
452.207	98.88
452.428	81.88
452.648	103.88
452.869	117.88
453.089	129.88
453.31	140.88
453.53	105.88
453.751	113.88
453.971	103.88
454.192	127.88
454.412	106.88
454.633	93.88
454.853	102.88
455.073	101.88
455.294	92.88
455.514	117.88
455.734	97.88
455.955	82.88
456.175	83.88
456.395	80.88
456.616	88.88
456.836	74.88
457.056	81.88
457.276	89.88
457.497	93.88
457.717	96.88
457.937	97.88
458.157	95.88
458.377	92.88
458.598	117.88
458.818	193.88
459.038	216.88
459.258	144.88
459.478	100.88
459.698	68.88
459.918	82.88
460.138	90.88
460.358	91.88
460.578	81.88
460.798	91.88
461.018	88.88
461.238	87.88
461.458	89.88
461.678	92.88
461.898	90.88
462.118	69.88
462.338	97.88
462.558	78.88
462.777	102.88
462.997	99.88
463.217	89.88
463.437	93.88
463.657	101.88
463.876	74.88
464.096	88.88
464.316	87.88
464.536	89.88
464.755	101.88
464.975	136.88
465.195	230.88
465.414	218.88
465.634	106.88
465.854	94.88
466.073	73.88
466.293	83.88
466.512	75.88
466.732	87.88
466.951	84.88
467.171	92.88
467.391	117.88
467.61	116.88
467.829	111.88
468.049	109.88
468.268	111.88
468.488	64.88
468.707	95.88
468.927	92.88
469.146	95.88
469.365	86.88
469.585	96.88
469.804	101.88
470.023	111.88
470.243	99.88
470.462	111.88
470.681	136.88
470.901	85.88
471.12	80.88
471.339	78.88
471.558	98.88
471.777	86.88
471.997	100.88
472.216	116.88
472.435	165.88
472.654	98.88
472.873	95.88
473.092	96.88
473.311	80.88
473.53	101.88
473.749	101.88
473.968	95.88
474.187	121.88
474.406	117.88
474.625	101.88
474.844	91.88
475.063	89.88
475.282	82.88
475.501	89.88
475.72	79.88
475.939	81.88
476.158	78.88
476.377	95.88
476.596	85.88
476.814	90.88
477.033	112.88
477.252	96.88
477.471	92.88
477.69	89.88
477.908	102.88
478.127	85.88
478.346	78.88
478.564	89.88
478.783	113.88
479.002	96.88
479.22	113.88
479.439	108.88
479.658	116.88
479.876	99.88
480.095	98.88
480.313	90.88
480.532	93.88
480.751	105.88
480.969	119.88
481.188	206.88
481.406	158.88
481.624	98.88
481.843	87.88
482.061	82.88
482.28	93.88
482.498	78.88
482.717	91.88
482.935	81.88
483.153	99.88
483.372	82.88
483.59	101.88
483.808	85.88
484.027	87.88
484.245	90.88
484.463	87.88
484.681	89.88
484.9	95.88
485.118	101.88
485.336	84.88
485.554	101.88
485.772	105.88
485.99	105.88
486.209	118.88
486.427	114.88
486.645	117.88
486.863	112.88
487.081	95.88
487.299	108.88
487.517	100.88
487.735	96.88
487.953	99.88
488.171	103.88
488.389	87.88
488.607	96.88
488.825	83.88
489.043	93.88
489.261	92.88
489.479	94.88
489.696	94.88
489.914	78.88
490.132	79.88
490.35	81.88
490.568	97.88
490.786	104.88
491.003	101.88
491.221	85.88
491.439	91.88
491.657	85.88
491.874	95.88
492.092	85.88
492.31	99.88
492.527	80.88
492.745	94.88
492.963	82.88
493.18	93.88
493.398	94.88
493.615	111.88
493.833	105.88
494.05	95.88
494.268	91.88
494.485	98.88
494.703	97.88
494.92	92.88
495.138	80.88
495.355	97.88
495.573	82.88
495.79	83.88
496.008	88.88
496.225	90.88
496.442	92.88
496.66	89.88
496.877	82.88
497.094	83.88
497.312	79.88
497.529	85.88
497.746	83.88
497.963	88.88
498.181	90.88
498.398	99.88
498.615	106.88
498.832	127.88
499.049	105.88
499.267	94.88
499.484	104.88
499.701	102.88
499.918	94.88
500.135	95.88
500.352	102.88
500.569	82.88
500.786	83.88
501.003	99.88
501.22	91.88
501.437	92.88
501.654	100.88
501.871	122.88
502.088	93.88
502.305	103.88
502.522	104.88
502.739	87.88
502.956	104.88
503.172	91.88
503.389	99.88
503.606	105.88
503.823	102.88
504.04	122.88
504.256	108.88
504.473	84.88
504.69	82.88
504.907	93.88
505.123	86.88
505.34	103.88
505.557	89.88
505.773	95.88
505.99	78.88
506.207	89.88
506.423	95.88
506.64	107.88
506.856	107.88
507.073	90.88
507.289	106.88
507.506	94.88
507.722	123.88
507.939	110.88
508.155	96.88
508.372	81.88
508.588	95.88
508.805	120.88
509.021	96.88
509.238	87.88
509.454	85.88
509.67	98.88
509.887	112.88
510.103	136.88
510.319	247.88
510.536	1022.88
510.752	3344.88
510.968	856.88
511.184	174.88
511.401	118.88
511.617	101.88
511.833	102.88
512.049	92.88
512.265	92.88
512.481	93.88
512.698	97.88
512.914	104.88
513.13	97.88
513.346	96.88
513.562	100.88
513.778	100.88
513.994	96.88
