Data from Uncirc_1988_H10_HRD10591_00079.txt Node
Date: Wed Jan 03 12:04:20 EST 2024
User: Yrep
Spectrometer: HR+D1059
Trigger mode: 1
Integration Time (sec): 1.000000E-1
Scans to average: 1
Electric dark correction enabled: true
Nonlinearity correction enabled: false
Boxcar width: 0
XAxis mode: Wavelengths
Number of Pixels in Spectrum: 2048
>>>>>Begin Spectral Data<<<<<
223.165	-28.06
223.4	-28.06
223.635	-28.06
223.869	-17.06
224.104	-18.06
224.338	-14.06
224.573	-12.06
224.808	-21.06
225.042	-1.06
225.277	-0.06
225.511	-2.06
225.746	14.94
225.98	4.94
226.215	19.94
226.449	10.94
226.683	9.94
226.918	27.94
227.152	24.94
227.387	26.94
227.621	39.94
227.856	47.94
228.09	58.94
228.324	38.94
228.559	63.94
228.793	77.94
229.027	87.94
229.262	74.94
229.496	76.94
229.73	88.94
229.964	104.94
230.199	71.94
230.433	78.94
230.667	79.94
230.901	70.94
231.136	83.94
231.37	70.94
231.604	78.94
231.838	71.94
232.072	91.94
232.306	85.94
232.541	69.94
232.775	80.94
233.009	79.94
233.243	82.94
233.477	88.94
233.711	81.94
233.945	85.94
234.179	86.94
234.413	77.94
234.647	71.94
234.881	78.94
235.115	68.94
235.349	83.94
235.583	79.94
235.817	80.94
236.051	81.94
236.285	68.94
236.519	70.94
236.753	76.94
236.987	87.94
237.221	94.94
237.455	75.94
237.689	83.94
237.922	69.94
238.156	72.94
238.39	75.94
238.624	85.94
238.858	67.94
239.091	80.94
239.325	75.94
239.559	79.94
239.793	86.94
240.027	94.94
240.26	78.94
240.494	84.94
240.728	67.94
240.961	82.94
241.195	75.94
241.429	69.94
241.662	80.94
241.896	77.94
242.13	76.94
242.363	75.94
242.597	92.94
242.83	81.94
243.064	76.94
243.298	80.94
243.531	78.94
243.765	75.94
243.998	86.94
244.232	93.94
244.465	81.94
244.699	77.94
244.932	85.94
245.166	91.94
245.399	67.94
245.633	67.94
245.866	77.94
246.099	65.94
246.333	75.94
246.566	83.94
246.8	71.94
247.033	77.94
247.266	82.94
247.5	81.94
247.733	77.94
247.966	89.94
248.2	70.94
248.433	72.94
248.666	85.94
248.899	68.94
249.133	94.94
249.366	99.94
249.599	99.94
249.832	100.94
250.066	81.94
250.299	67.94
250.532	78.94
250.765	85.94
250.998	91.94
251.231	84.94
251.465	82.94
251.698	92.94
251.931	75.94
252.164	85.94
252.397	78.94
252.63	94.94
252.863	81.94
253.096	88.94
253.329	84.94
253.562	75.94
253.795	72.94
254.028	78.94
254.261	92.94
254.494	92.94
254.727	86.94
254.96	66.94
255.193	66.94
255.426	75.94
255.659	73.94
255.892	75.94
256.124	81.94
256.357	80.94
256.59	85.94
256.823	92.94
257.056	81.94
257.289	88.94
257.521	104.94
257.754	76.94
257.987	80.94
258.22	87.94
258.452	84.94
258.685	76.94
258.918	84.94
259.151	78.94
259.383	75.94
259.616	80.94
259.849	79.94
260.081	70.94
260.314	87.94
260.547	85.94
260.779	75.94
261.012	76.94
261.244	70.94
261.477	93.94
261.71	88.94
261.942	98.94
262.175	107.94
262.407	86.94
262.64	91.94
262.872	75.94
263.105	89.94
263.337	72.94
263.57	90.94
263.802	80.94
264.035	72.94
264.267	96.94
264.499	86.94
264.732	89.94
264.964	79.94
265.197	71.94
265.429	67.94
265.661	67.94
265.894	79.94
266.126	70.94
266.358	71.94
266.591	82.94
266.823	91.94
267.055	85.94
267.287	87.94
267.52	81.94
267.752	76.94
267.984	91.94
268.216	98.94
268.448	85.94
268.681	94.94
268.913	75.94
269.145	88.94
269.377	99.94
269.609	75.94
269.841	61.94
270.073	78.94
270.306	87.94
270.538	76.94
270.77	85.94
271.002	70.94
271.234	77.94
271.466	82.94
271.698	97.94
271.93	89.94
272.162	84.94
272.394	87.94
272.626	88.94
272.858	97.94
273.09	89.94
273.322	98.94
273.553	85.94
273.785	90.94
274.017	88.94
274.249	75.94
274.481	68.94
274.713	87.94
274.945	93.94
275.176	94.94
275.408	89.94
275.64	96.94
275.872	93.94
276.104	89.94
276.335	95.94
276.567	96.94
276.799	109.94
277.031	89.94
277.262	99.94
277.494	71.94
277.726	99.94
277.957	84.94
278.189	99.94
278.421	94.94
278.652	87.94
278.884	83.94
279.115	77.94
279.347	86.94
279.579	81.94
279.81	87.94
280.042	85.94
280.273	93.94
280.505	87.94
280.736	77.94
280.968	70.94
281.199	89.94
281.431	86.94
281.662	88.94
281.894	85.94
282.125	86.94
282.356	122.94
282.588	132.94
282.819	119.94
283.051	71.94
283.282	88.94
283.513	96.94
283.745	81.94
283.976	91.94
284.207	96.94
284.439	88.94
284.67	89.94
284.901	93.94
285.132	92.94
285.364	93.94
285.595	100.94
285.826	87.94
286.057	83.94
286.288	79.94
286.52	100.94
286.751	90.94
286.982	96.94
287.213	90.94
287.444	80.94
287.675	84.94
287.906	87.94
288.138	92.94
288.369	117.94
288.6	87.94
288.831	87.94
289.062	93.94
289.293	89.94
289.524	80.94
289.755	81.94
289.986	78.94
290.217	97.94
290.448	80.94
290.679	95.94
290.91	92.94
291.141	95.94
291.371	82.94
291.602	81.94
291.833	91.94
292.064	87.94
292.295	96.94
292.526	93.94
292.757	89.94
292.987	79.94
293.218	92.94
293.449	95.94
293.68	85.94
293.91	87.94
294.141	100.94
294.372	76.94
294.603	98.94
294.833	86.94
295.064	100.94
295.295	91.94
295.525	93.94
295.756	104.94
295.987	132.94
296.217	135.94
296.448	110.94
296.679	95.94
296.909	92.94
297.14	100.94
297.37	85.94
297.601	81.94
297.831	86.94
298.062	87.94
298.292	80.94
298.523	89.94
298.753	83.94
298.984	79.94
299.214	103.94
299.445	94.94
299.675	88.94
299.905	87.94
300.136	78.94
300.366	87.94
300.597	77.94
300.827	87.94
301.057	100.94
301.288	93.94
301.518	89.94
301.748	91.94
301.979	104.94
302.209	88.94
302.439	91.94
302.669	83.94
302.9	85.94
303.13	83.94
303.36	99.94
303.59	98.94
303.82	111.94
304.051	94.94
304.281	86.94
304.511	72.94
304.741	84.94
304.971	87.94
305.201	86.94
305.431	75.94
305.661	89.94
305.891	95.94
306.121	85.94
306.352	106.94
306.582	94.94
306.812	97.94
307.042	86.94
307.272	98.94
307.502	79.94
307.731	81.94
307.961	93.94
308.191	77.94
308.421	98.94
308.651	100.94
308.881	94.94
309.111	89.94
309.341	91.94
309.571	91.94
309.8	83.94
310.03	80.94
310.26	99.94
310.49	111.94
310.72	104.94
310.949	105.94
311.179	98.94
311.409	95.94
311.639	104.94
311.868	95.94
312.098	99.94
312.328	92.94
312.557	90.94
312.787	99.94
313.017	101.94
313.246	99.94
313.476	85.94
313.706	95.94
313.935	91.94
314.165	104.94
314.394	90.94
314.624	94.94
314.853	102.94
315.083	92.94
315.312	117.94
315.542	103.94
315.771	102.94
316.001	78.94
316.23	78.94
316.46	87.94
316.689	91.94
316.919	81.94
317.148	92.94
317.377	95.94
317.607	97.94
317.836	87.94
318.065	104.94
318.295	85.94
318.524	79.94
318.753	88.94
318.983	93.94
319.212	95.94
319.441	100.94
319.67	102.94
319.9	98.94
320.129	96.94
320.358	83.94
320.587	87.94
320.816	102.94
321.046	93.94
321.275	97.94
321.504	86.94
321.733	77.94
321.962	102.94
322.191	90.94
322.42	116.94
322.649	99.94
322.878	103.94
323.108	102.94
323.337	123.94
323.566	135.94
323.795	147.94
324.024	221.94
324.253	430.94
324.482	869.94
324.71	1815.94
324.939	2348.94
325.168	865.94
325.397	247.94
325.626	146.94
325.855	130.94
326.084	121.94
326.313	129.94
326.542	139.94
326.77	234.94
326.999	474.94
327.228	984.94
327.457	1790.94
327.686	1416.94
327.914	385.94
328.143	207.94
328.372	159.94
328.6	116.94
328.829	120.94
329.058	123.94
329.287	130.94
329.515	112.94
329.744	108.94
329.972	110.94
330.201	129.94
330.43	143.94
330.658	126.94
330.887	157.94
331.115	117.94
331.344	105.94
331.572	108.94
331.801	111.94
332.03	89.94
332.258	105.94
332.486	94.94
332.715	98.94
332.943	91.94
333.172	87.94
333.4	100.94
333.629	107.94
333.857	115.94
334.085	105.94
334.314	118.94
334.542	125.94
334.771	113.94
334.999	100.94
335.227	97.94
335.455	91.94
335.684	101.94
335.912	100.94
336.14	97.94
336.369	79.94
336.597	91.94
336.825	106.94
337.053	98.94
337.281	95.94
337.51	92.94
337.738	87.94
337.966	86.94
338.194	88.94
338.422	82.94
338.65	83.94
338.878	97.94
339.106	83.94
339.334	87.94
339.562	92.94
339.79	99.94
340.018	103.94
340.246	77.94
340.474	95.94
340.702	97.94
340.93	88.94
341.158	103.94
341.386	99.94
341.614	110.94
341.842	77.94
342.07	90.94
342.298	98.94
342.526	100.94
342.754	89.94
342.981	93.94
343.209	77.94
343.437	107.94
343.665	82.94
343.893	83.94
344.12	91.94
344.348	87.94
344.576	87.94
344.804	94.94
345.031	105.94
345.259	94.94
345.487	111.94
345.714	87.94
345.942	80.94
346.17	83.94
346.397	89.94
346.625	93.94
346.853	83.94
347.08	91.94
347.308	89.94
347.535	97.94
347.763	78.94
347.99	94.94
348.218	102.94
348.445	107.94
348.673	105.94
348.9	96.94
349.128	95.94
349.355	100.94
349.583	99.94
349.81	93.94
350.037	97.94
350.265	91.94
350.492	88.94
350.72	91.94
350.947	95.94
351.174	88.94
351.402	120.94
351.629	92.94
351.856	114.94
352.083	100.94
352.311	103.94
352.538	113.94
352.765	114.94
352.992	108.94
353.22	100.94
353.447	105.94
353.674	86.94
353.901	92.94
354.128	95.94
354.355	99.94
354.583	107.94
354.81	91.94
355.037	99.94
355.264	94.94
355.491	88.94
355.718	94.94
355.945	107.94
356.172	100.94
356.399	91.94
356.626	102.94
356.853	84.94
357.08	94.94
357.307	99.94
357.534	88.94
357.761	98.94
357.988	86.94
358.215	81.94
358.441	100.94
358.668	91.94
358.895	79.94
359.122	70.94
359.349	77.94
359.576	91.94
359.802	100.94
360.029	105.94
360.256	115.94
360.483	97.94
360.709	84.94
360.936	102.94
361.163	85.94
361.39	88.94
361.616	88.94
361.843	100.94
362.07	88.94
362.296	87.94
362.523	95.94
362.749	88.94
362.976	87.94
363.203	91.94
363.429	102.94
363.656	94.94
363.882	69.94
364.109	82.94
364.335	93.94
364.562	92.94
364.788	86.94
365.015	90.94
365.241	103.94
365.468	105.94
365.694	99.94
365.92	109.94
366.147	86.94
366.373	78.94
366.599	89.94
366.826	82.94
367.052	87.94
367.278	98.94
367.505	101.94
367.731	84.94
367.957	93.94
368.184	86.94
368.41	104.94
368.636	111.94
368.862	123.94
369.089	103.94
369.315	90.94
369.541	83.94
369.767	80.94
369.993	81.94
370.219	77.94
370.445	92.94
370.672	80.94
370.898	74.94
371.124	86.94
371.35	91.94
371.576	81.94
371.802	82.94
372.028	83.94
372.254	89.94
372.48	77.94
372.706	83.94
372.932	87.94
373.158	86.94
373.384	87.94
373.61	86.94
373.835	88.94
374.061	81.94
374.287	92.94
374.513	92.94
374.739	95.94
374.965	82.94
375.191	86.94
375.416	89.94
375.642	93.94
375.868	107.94
376.094	97.94
376.319	85.94
376.545	84.94
376.771	91.94
376.997	99.94
377.222	89.94
377.448	94.94
377.674	85.94
377.899	88.94
378.125	86.94
378.35	92.94
378.576	83.94
378.802	89.94
379.027	92.94
379.253	85.94
379.478	87.94
379.704	89.94
379.929	73.94
380.155	87.94
380.38	78.94
380.606	83.94
380.831	92.94
381.057	85.94
381.282	81.94
381.507	103.94
381.733	87.94
381.958	79.94
382.184	90.94
382.409	99.94
382.634	110.94
382.86	102.94
383.085	85.94
383.31	100.94
383.535	94.94
383.761	97.94
383.986	95.94
384.211	100.94
384.436	90.94
384.662	99.94
384.887	95.94
385.112	97.94
385.337	99.94
385.562	95.94
385.787	81.94
386.013	111.94
386.238	110.94
386.463	97.94
386.688	95.94
386.913	90.94
387.138	103.94
387.363	94.94
387.588	97.94
387.813	87.94
388.038	91.94
388.263	99.94
388.488	86.94
388.713	84.94
388.938	105.94
389.163	85.94
389.387	109.94
389.612	84.94
389.837	84.94
390.062	76.94
390.287	98.94
390.512	93.94
390.736	92.94
390.961	88.94
391.186	89.94
391.411	93.94
391.636	79.94
391.86	81.94
392.085	80.94
392.31	84.94
392.534	102.94
392.759	87.94
392.984	88.94
393.208	100.94
393.433	81.94
393.658	75.94
393.882	86.94
394.107	88.94
394.331	77.94
394.556	99.94
394.78	81.94
395.005	85.94
395.229	77.94
395.454	84.94
395.678	83.94
395.903	91.94
396.127	77.94
396.352	87.94
396.576	86.94
396.801	89.94
397.025	97.94
397.249	86.94
397.474	91.94
397.698	91.94
397.922	84.94
398.147	78.94
398.371	76.94
398.595	79.94
398.82	76.94
399.044	89.94
399.268	88.94
399.492	68.94
399.717	93.94
399.941	84.94
400.165	91.94
400.389	99.94
400.613	80.94
400.837	98.94
401.062	82.94
401.286	90.94
401.51	79.94
401.734	75.94
401.958	85.94
402.182	141.94
402.406	161.94
402.63	124.94
402.854	96.94
403.078	95.94
403.302	79.94
403.526	75.94
403.75	80.94
403.974	80.94
404.198	102.94
404.422	92.94
404.645	79.94
404.869	97.94
405.093	91.94
405.317	100.94
405.541	102.94
405.765	95.94
405.988	117.94
406.212	176.94
406.436	227.94
406.66	159.94
406.883	113.94
407.107	93.94
407.331	79.94
407.555	92.94
407.778	104.94
408.002	95.94
408.226	89.94
408.449	100.94
408.673	99.94
408.896	108.94
409.12	105.94
409.344	85.94
409.567	77.94
409.791	100.94
410.014	95.94
410.238	101.94
410.461	91.94
410.685	87.94
410.908	94.94
411.132	102.94
411.355	97.94
411.578	100.94
411.802	78.94
412.025	98.94
412.249	88.94
412.472	91.94
412.695	89.94
412.919	97.94
413.142	87.94
413.365	97.94
413.589	81.94
413.812	94.94
414.035	83.94
414.258	84.94
414.482	85.94
414.705	101.94
414.928	95.94
415.151	93.94
415.374	85.94
415.597	80.94
415.821	85.94
416.044	89.94
416.267	83.94
416.49	95.94
416.713	87.94
416.936	88.94
417.159	91.94
417.382	91.94
417.605	93.94
417.828	89.94
418.051	87.94
418.274	100.94
418.497	91.94
418.72	89.94
418.943	85.94
419.166	87.94
419.389	75.94
419.611	86.94
419.834	90.94
420.057	79.94
420.28	87.94
420.503	71.94
420.726	99.94
420.948	93.94
421.171	101.94
421.394	86.94
421.617	91.94
421.839	84.94
422.062	91.94
422.285	89.94
422.507	93.94
422.73	105.94
422.953	92.94
423.175	77.94
423.398	100.94
423.621	84.94
423.843	87.94
424.066	92.94
424.288	89.94
424.511	85.94
424.733	100.94
424.956	119.94
425.178	89.94
425.401	112.94
425.623	104.94
425.846	84.94
426.068	98.94
426.291	88.94
426.513	95.94
426.735	98.94
426.958	89.94
427.18	95.94
427.402	125.94
427.625	181.94
427.847	133.94
428.069	115.94
428.292	94.94
428.514	90.94
428.736	73.94
428.958	91.94
429.181	84.94
429.403	83.94
429.625	83.94
429.847	91.94
430.069	111.94
430.292	98.94
430.514	77.94
430.736	100.94
430.958	82.94
431.18	73.94
431.402	80.94
431.624	87.94
431.846	99.94
432.068	90.94
432.29	80.94
432.512	85.94
432.734	83.94
432.956	79.94
433.178	96.94
433.4	105.94
433.622	89.94
433.844	95.94
434.066	92.94
434.287	101.94
434.509	93.94
434.731	80.94
434.953	83.94
435.175	89.94
435.397	95.94
435.618	88.94
435.84	103.94
436.062	123.94
436.284	114.94
436.505	107.94
436.727	103.94
436.949	79.94
437.17	85.94
437.392	90.94
437.614	97.94
437.835	103.94
438.057	139.94
438.278	115.94
438.5	102.94
438.721	132.94
438.943	100.94
439.165	88.94
439.386	94.94
439.608	85.94
439.829	102.94
440.05	133.94
440.272	156.94
440.493	104.94
440.715	86.94
440.936	91.94
441.158	90.94
441.379	86.94
441.6	82.94
441.822	95.94
442.043	94.94
442.264	103.94
442.486	108.94
442.707	71.94
442.928	98.94
443.149	137.94
443.371	120.94
443.592	102.94
443.813	115.94
444.034	100.94
444.255	96.94
444.476	85.94
444.698	85.94
444.919	84.94
445.14	128.94
445.361	128.94
445.582	117.94
445.803	129.94
446.024	151.94
446.245	147.94
446.466	125.94
446.687	98.94
446.908	65.94
447.129	95.94
447.35	84.94
447.571	92.94
447.792	92.94
448.013	88.94
448.234	98.94
448.455	103.94
448.675	109.94
448.896	120.94
449.117	85.94
449.338	110.94
449.559	135.94
449.779	139.94
450	100.94
450.221	97.94
450.442	98.94
450.662	96.94
450.883	99.94
451.104	126.94
451.324	103.94
451.545	84.94
451.766	88.94
451.986	82.94
452.207	85.94
452.428	88.94
452.648	96.94
452.869	113.94
453.089	111.94
453.31	114.94
453.53	98.94
453.751	90.94
453.971	92.94
454.192	121.94
454.412	91.94
454.633	101.94
454.853	96.94
455.073	95.94
455.294	88.94
455.514	119.94
455.734	87.94
455.955	86.94
456.175	81.94
456.395	96.94
456.616	87.94
456.836	87.94
457.056	83.94
457.276	91.94
457.497	83.94
457.717	88.94
457.937	88.94
458.157	88.94
458.377	99.94
458.598	125.94
458.818	151.94
459.038	175.94
459.258	104.94
459.478	80.94
459.698	92.94
459.918	97.94
460.138	72.94
460.358	94.94
460.578	75.94
460.798	93.94
461.018	93.94
461.238	90.94
461.458	90.94
461.678	89.94
461.898	85.94
462.118	94.94
462.338	72.94
462.558	87.94
462.777	76.94
462.997	87.94
463.217	98.94
463.437	79.94
463.657	84.94
463.876	88.94
464.096	83.94
464.316	93.94
464.536	91.94
464.755	95.94
464.975	97.94
465.195	168.94
465.414	157.94
465.634	97.94
465.854	79.94
466.073	87.94
466.293	104.94
466.512	96.94
466.732	84.94
466.951	94.94
467.171	91.94
467.391	96.94
467.61	97.94
467.829	88.94
468.049	84.94
468.268	95.94
468.488	97.94
468.707	94.94
468.927	83.94
469.146	98.94
469.365	100.94
469.585	95.94
469.804	88.94
470.023	85.94
470.243	103.94
470.462	106.94
470.681	116.94
470.901	91.94
471.12	92.94
471.339	100.94
471.558	98.94
471.777	89.94
471.997	101.94
472.216	108.94
472.435	139.94
472.654	89.94
472.873	103.94
473.092	90.94
473.311	83.94
473.53	79.94
473.749	90.94
473.968	104.94
474.187	97.94
474.406	94.94
474.625	79.94
474.844	81.94
475.063	85.94
475.282	102.94
475.501	90.94
475.72	85.94
475.939	89.94
476.158	88.94
476.377	91.94
476.596	92.94
476.814	90.94
477.033	105.94
477.252	88.94
477.471	70.94
477.69	95.94
477.908	89.94
478.127	81.94
478.346	104.94
478.564	72.94
478.783	105.94
479.002	87.94
479.22	92.94
479.439	86.94
479.658	104.94
479.876	101.94
480.095	84.94
480.313	80.94
480.532	86.94
480.751	109.94
480.969	118.94
481.188	194.94
481.406	140.94
481.624	93.94
481.843	95.94
482.061	94.94
482.28	77.94
482.498	105.94
482.717	82.94
482.935	96.94
483.153	89.94
483.372	78.94
483.59	86.94
483.808	93.94
484.027	91.94
484.245	81.94
484.463	96.94
484.681	99.94
484.9	97.94
485.118	108.94
485.336	97.94
485.554	100.94
485.772	102.94
485.99	95.94
486.209	119.94
486.427	98.94
486.645	99.94
486.863	112.94
487.081	93.94
487.299	91.94
487.517	93.94
487.735	96.94
487.953	82.94
488.171	87.94
488.389	109.94
488.607	104.94
488.825	86.94
489.043	77.94
489.261	88.94
489.479	96.94
489.696	101.94
489.914	91.94
490.132	97.94
490.35	91.94
490.568	94.94
490.786	97.94
491.003	95.94
491.221	102.94
491.439	103.94
491.657	92.94
491.874	94.94
492.092	92.94
492.31	88.94
492.527	88.94
492.745	88.94
492.963	84.94
493.18	89.94
493.398	85.94
493.615	99.94
493.833	111.94
494.05	88.94
494.268	85.94
494.485	91.94
494.703	87.94
494.92	96.94
495.138	79.94
495.355	100.94
495.573	77.94
495.79	83.94
496.008	82.94
496.225	92.94
496.442	92.94
496.66	99.94
496.877	84.94
497.094	82.94
497.312	86.94
497.529	84.94
497.746	85.94
497.963	94.94
498.181	89.94
498.398	98.94
498.615	111.94
498.832	115.94
499.049	102.94
499.267	101.94
499.484	93.94
499.701	91.94
499.918	101.94
500.135	91.94
500.352	99.94
500.569	94.94
500.786	93.94
501.003	85.94
501.22	79.94
501.437	99.94
501.654	103.94
501.871	118.94
502.088	100.94
502.305	87.94
502.522	87.94
502.739	91.94
502.956	89.94
503.172	98.94
503.389	87.94
503.606	94.94
503.823	80.94
504.04	81.94
504.256	96.94
504.473	83.94
504.69	94.94
504.907	101.94
505.123	94.94
505.34	89.94
505.557	94.94
505.773	85.94
505.99	85.94
506.207	88.94
506.423	92.94
506.64	89.94
506.856	94.94
507.073	102.94
507.289	97.94
507.506	94.94
507.722	118.94
507.939	114.94
508.155	97.94
508.372	91.94
508.588	90.94
508.805	102.94
509.021	93.94
509.238	94.94
509.454	95.94
509.67	104.94
509.887	110.94
510.103	134.94
510.319	218.94
510.536	803.94
510.752	2525.94
510.968	668.94
511.184	156.94
511.401	108.94
511.617	100.94
511.833	90.94
512.049	89.94
512.265	93.94
512.481	95.94
512.698	93.94
512.914	89.94
513.13	75.94
513.346	97.94
513.562	95.94
513.778	100.94
513.994	98.94
514.21	103.94
514.426	124.94
514.642	139.94
514.858	135.94
515.074	175.94
515.29	495.94
515.506	1620.94
515.721	559.94
