Data from Uncirc_1988_H10_HRD10591_00036.txt Node
Date: Wed Jan 03 12:04:11 EST 2024
User: Yrep
Spectrometer: HR+D1059
Trigger mode: 1
Integration Time (sec): 1.000000E-1
Scans to average: 1
Electric dark correction enabled: true
Nonlinearity correction enabled: false
Boxcar width: 0
XAxis mode: Wavelengths
Number of Pixels in Spectrum: 2048
>>>>>Begin Spectral Data<<<<<
223.165	-15.44
223.4	-15.44
223.635	-15.44
223.869	-24.44
224.104	-26.44
224.338	-12.44
224.573	-12.44
224.808	-9.44
225.042	1.56
225.277	-6.44
225.511	-7.44
225.746	1.56
225.98	8.56
226.215	15.56
226.449	16.56
226.683	24.56
226.918	11.56
227.152	34.56
227.387	32.56
227.621	28.56
227.856	46.56
228.09	34.56
228.324	40.56
228.559	52.56
228.793	62.56
229.027	75.56
229.262	42.56
229.496	75.56
229.73	65.56
229.964	82.56
230.199	77.56
230.433	68.56
230.667	67.56
230.901	78.56
231.136	65.56
231.37	65.56
231.604	84.56
231.838	79.56
232.072	72.56
232.306	79.56
232.541	81.56
232.775	82.56
233.009	82.56
233.243	78.56
233.477	81.56
233.711	72.56
233.945	91.56
234.179	78.56
234.413	88.56
234.647	77.56
234.881	69.56
235.115	80.56
235.349	87.56
235.583	88.56
235.817	69.56
236.051	78.56
236.285	71.56
236.519	91.56
236.753	77.56
236.987	73.56
237.221	83.56
237.455	88.56
237.689	80.56
237.922	80.56
238.156	68.56
238.39	71.56
238.624	72.56
238.858	84.56
239.091	82.56
239.325	87.56
239.559	69.56
239.793	65.56
240.027	87.56
240.26	81.56
240.494	68.56
240.728	75.56
240.961	74.56
241.195	80.56
241.429	75.56
241.662	70.56
241.896	74.56
242.13	70.56
242.363	73.56
242.597	76.56
242.83	80.56
243.064	96.56
243.298	60.56
243.531	74.56
243.765	83.56
243.998	69.56
244.232	61.56
244.465	69.56
244.699	76.56
244.932	82.56
245.166	81.56
245.399	79.56
245.633	84.56
245.866	70.56
246.099	67.56
246.333	83.56
246.566	73.56
246.8	81.56
247.033	80.56
247.266	72.56
247.5	95.56
247.733	76.56
247.966	69.56
248.2	90.56
248.433	79.56
248.666	66.56
248.899	83.56
249.133	94.56
249.366	92.56
249.599	111.56
249.832	81.56
250.066	76.56
250.299	81.56
250.532	88.56
250.765	80.56
250.998	82.56
251.231	68.56
251.465	81.56
251.698	72.56
251.931	80.56
252.164	81.56
252.397	77.56
252.63	71.56
252.863	75.56
253.096	79.56
253.329	70.56
253.562	79.56
253.795	79.56
254.028	87.56
254.261	71.56
254.494	68.56
254.727	75.56
254.96	71.56
255.193	76.56
255.426	76.56
255.659	91.56
255.892	88.56
256.124	91.56
256.357	81.56
256.59	68.56
256.823	80.56
257.056	101.56
257.289	85.56
257.521	77.56
257.754	83.56
257.987	69.56
258.22	79.56
258.452	72.56
258.685	70.56
258.918	84.56
259.151	75.56
259.383	84.56
259.616	85.56
259.849	76.56
260.081	89.56
260.314	92.56
260.547	88.56
260.779	87.56
261.012	87.56
261.244	91.56
261.477	88.56
261.71	109.56
261.942	103.56
262.175	112.56
262.407	63.56
262.64	102.56
262.872	75.56
263.105	88.56
263.337	92.56
263.57	99.56
263.802	68.56
264.035	65.56
264.267	77.56
264.499	88.56
264.732	82.56
264.964	73.56
265.197	79.56
265.429	87.56
265.661	87.56
265.894	84.56
266.126	93.56
266.358	78.56
266.591	83.56
266.823	75.56
267.055	82.56
267.287	93.56
267.52	62.56
267.752	85.56
267.984	87.56
268.216	68.56
268.448	88.56
268.681	85.56
268.913	87.56
269.145	83.56
269.377	90.56
269.609	81.56
269.841	85.56
270.073	80.56
270.306	80.56
270.538	87.56
270.77	68.56
271.002	79.56
271.234	79.56
271.466	90.56
271.698	90.56
271.93	89.56
272.162	87.56
272.394	86.56
272.626	77.56
272.858	96.56
273.09	84.56
273.322	85.56
273.553	88.56
273.785	70.56
274.017	86.56
274.249	80.56
274.481	83.56
274.713	85.56
274.945	67.56
275.176	80.56
275.408	93.56
275.64	84.56
275.872	79.56
276.104	92.56
276.335	88.56
276.567	92.56
276.799	97.56
277.031	102.56
277.262	89.56
277.494	93.56
277.726	89.56
277.957	87.56
278.189	92.56
278.421	87.56
278.652	101.56
278.884	102.56
279.115	81.56
279.347	82.56
279.579	87.56
279.81	85.56
280.042	76.56
280.273	76.56
280.505	100.56
280.736	77.56
280.968	88.56
281.199	79.56
281.431	86.56
281.662	86.56
281.894	94.56
282.125	99.56
282.356	105.56
282.588	133.56
282.819	104.56
283.051	77.56
283.282	89.56
283.513	87.56
283.745	88.56
283.976	93.56
284.207	98.56
284.439	89.56
284.67	80.56
284.901	81.56
285.132	75.56
285.364	80.56
285.595	91.56
285.826	97.56
286.057	77.56
286.288	100.56
286.52	85.56
286.751	85.56
286.982	70.56
287.213	77.56
287.444	83.56
287.675	86.56
287.906	82.56
288.138	84.56
288.369	81.56
288.6	91.56
288.831	79.56
289.062	87.56
289.293	101.56
289.524	78.56
289.755	83.56
289.986	76.56
290.217	70.56
290.448	85.56
290.679	79.56
290.91	83.56
291.141	90.56
291.371	95.56
291.602	84.56
291.833	83.56
292.064	97.56
292.295	85.56
292.526	88.56
292.757	73.56
292.987	83.56
293.218	80.56
293.449	94.56
293.68	85.56
293.91	95.56
294.141	88.56
294.372	102.56
294.603	80.56
294.833	88.56
295.064	84.56
295.295	102.56
295.525	89.56
295.756	103.56
295.987	110.56
296.217	124.56
296.448	122.56
296.679	85.56
296.909	103.56
297.14	84.56
297.37	88.56
297.601	72.56
297.831	92.56
298.062	81.56
298.292	101.56
298.523	94.56
298.753	101.56
298.984	72.56
299.214	86.56
299.445	90.56
299.675	94.56
299.905	88.56
300.136	88.56
300.366	76.56
300.597	93.56
300.827	82.56
301.057	96.56
301.288	108.56
301.518	87.56
301.748	73.56
301.979	116.56
302.209	91.56
302.439	86.56
302.669	86.56
302.9	86.56
303.13	85.56
303.36	88.56
303.59	87.56
303.82	100.56
304.051	99.56
304.281	98.56
304.511	88.56
304.741	81.56
304.971	89.56
305.201	78.56
305.431	95.56
305.661	79.56
305.891	77.56
306.121	100.56
306.352	104.56
306.582	113.56
306.812	75.56
307.042	79.56
307.272	80.56
307.502	91.56
307.731	87.56
307.961	97.56
308.191	100.56
308.421	81.56
308.651	95.56
308.881	81.56
309.111	103.56
309.341	97.56
309.571	104.56
309.8	94.56
310.03	85.56
310.26	95.56
310.49	79.56
310.72	105.56
310.949	87.56
311.179	96.56
311.409	94.56
311.639	101.56
311.868	100.56
312.098	92.56
312.328	95.56
312.557	108.56
312.787	95.56
313.017	89.56
313.246	91.56
313.476	98.56
313.706	88.56
313.935	97.56
314.165	86.56
314.394	104.56
314.624	92.56
314.853	109.56
315.083	96.56
315.312	87.56
315.542	109.56
315.771	87.56
316.001	87.56
316.23	81.56
316.46	85.56
316.689	96.56
316.919	77.56
317.148	115.56
317.377	95.56
317.607	99.56
317.836	101.56
318.065	88.56
318.295	82.56
318.524	92.56
318.753	88.56
318.983	99.56
319.212	100.56
319.441	96.56
319.67	100.56
319.9	95.56
320.129	91.56
320.358	107.56
320.587	98.56
320.816	98.56
321.046	95.56
321.275	95.56
321.504	105.56
321.733	80.56
321.962	95.56
322.191	111.56
322.42	102.56
322.649	118.56
322.878	107.56
323.108	110.56
323.337	116.56
323.566	139.56
323.795	137.56
324.024	195.56
324.253	390.56
324.482	853.56
324.71	1788.56
324.939	2324.56
325.168	827.56
325.397	242.56
325.626	151.56
325.855	129.56
326.084	134.56
326.313	132.56
326.542	152.56
326.77	235.56
326.999	465.56
327.228	997.56
327.457	1799.56
327.686	1445.56
327.914	368.56
328.143	175.56
328.372	141.56
328.6	124.56
328.829	109.56
329.058	126.56
329.287	135.56
329.515	103.56
329.744	99.56
329.972	97.56
330.201	102.56
330.43	108.56
330.658	109.56
330.887	134.56
331.115	117.56
331.344	99.56
331.572	94.56
331.801	88.56
332.03	99.56
332.258	98.56
332.486	83.56
332.715	93.56
332.943	80.56
333.172	95.56
333.4	94.56
333.629	109.56
333.857	117.56
334.085	110.56
334.314	95.56
334.542	92.56
334.771	96.56
334.999	91.56
335.227	91.56
335.455	96.56
335.684	101.56
335.912	102.56
336.14	104.56
336.369	96.56
336.597	92.56
336.825	108.56
337.053	102.56
337.281	87.56
337.51	100.56
337.738	87.56
337.966	66.56
338.194	98.56
338.422	85.56
338.65	96.56
338.878	83.56
339.106	89.56
339.334	85.56
339.562	83.56
339.79	81.56
340.018	86.56
340.246	87.56
340.474	89.56
340.702	89.56
340.93	100.56
341.158	96.56
341.386	97.56
341.614	83.56
341.842	82.56
342.07	87.56
342.298	88.56
342.526	93.56
342.754	77.56
342.981	95.56
343.209	81.56
343.437	94.56
343.665	91.56
343.893	93.56
344.12	98.56
344.348	87.56
344.576	92.56
344.804	96.56
345.031	102.56
345.259	88.56
345.487	91.56
345.714	93.56
345.942	94.56
346.17	96.56
346.397	95.56
346.625	89.56
346.853	91.56
347.08	101.56
347.308	92.56
347.535	104.56
347.763	112.56
347.99	102.56
348.218	116.56
348.445	94.56
348.673	99.56
348.9	96.56
349.128	107.56
349.355	91.56
349.583	96.56
349.81	104.56
350.037	93.56
350.265	99.56
350.492	98.56
350.72	94.56
350.947	95.56
351.174	118.56
351.402	106.56
351.629	111.56
351.856	96.56
352.083	91.56
352.311	104.56
352.538	102.56
352.765	112.56
352.992	108.56
353.22	114.56
353.447	91.56
353.674	101.56
353.901	81.56
354.128	93.56
354.355	101.56
354.583	96.56
354.81	97.56
355.037	97.56
355.264	90.56
355.491	100.56
355.718	101.56
355.945	86.56
356.172	102.56
356.399	104.56
356.626	105.56
356.853	106.56
357.08	105.56
357.307	93.56
357.534	84.56
357.761	86.56
357.988	74.56
358.215	95.56
358.441	81.56
358.668	97.56
358.895	77.56
359.122	82.56
359.349	93.56
359.576	91.56
359.802	94.56
360.029	109.56
360.256	111.56
360.483	100.56
360.709	82.56
360.936	91.56
361.163	102.56
361.39	92.56
361.616	90.56
361.843	84.56
362.07	108.56
362.296	94.56
362.523	95.56
362.749	96.56
362.976	96.56
363.203	93.56
363.429	87.56
363.656	85.56
363.882	83.56
364.109	100.56
364.335	96.56
364.562	83.56
364.788	86.56
365.015	69.56
365.241	93.56
365.468	111.56
365.694	102.56
365.92	93.56
366.147	85.56
366.373	98.56
366.599	79.56
366.826	92.56
367.052	87.56
367.278	91.56
367.505	92.56
367.731	76.56
367.957	105.56
368.184	71.56
368.41	88.56
368.636	91.56
368.862	118.56
369.089	106.56
369.315	95.56
369.541	104.56
369.767	89.56
369.993	81.56
370.219	95.56
370.445	75.56
370.672	95.56
370.898	88.56
371.124	100.56
371.35	74.56
371.576	89.56
371.802	96.56
372.028	81.56
372.254	99.56
372.48	78.56
372.706	85.56
372.932	81.56
373.158	94.56
373.384	82.56
373.61	92.56
373.835	95.56
374.061	101.56
374.287	98.56
374.513	91.56
374.739	82.56
374.965	94.56
375.191	82.56
375.416	85.56
375.642	75.56
375.868	92.56
376.094	88.56
376.319	82.56
376.545	84.56
376.771	88.56
376.997	89.56
377.222	82.56
377.448	90.56
377.674	90.56
377.899	88.56
378.125	92.56
378.35	93.56
378.576	104.56
378.802	93.56
379.027	87.56
379.253	85.56
379.478	85.56
379.704	77.56
379.929	84.56
380.155	79.56
380.38	96.56
380.606	96.56
380.831	100.56
381.057	84.56
381.282	99.56
381.507	97.56
381.733	99.56
381.958	92.56
382.184	104.56
382.409	96.56
382.634	100.56
382.86	105.56
383.085	96.56
383.31	96.56
383.535	83.56
383.761	99.56
383.986	82.56
384.211	80.56
384.436	93.56
384.662	92.56
384.887	93.56
385.112	106.56
385.337	89.56
385.562	97.56
385.787	109.56
386.013	109.56
386.238	109.56
386.463	111.56
386.688	86.56
386.913	111.56
387.138	105.56
387.363	97.56
387.588	94.56
387.813	100.56
388.038	104.56
388.263	99.56
388.488	108.56
388.713	101.56
388.938	104.56
389.163	95.56
389.387	103.56
389.612	91.56
389.837	89.56
390.062	102.56
390.287	83.56
390.512	89.56
390.736	95.56
390.961	99.56
391.186	94.56
391.411	111.56
391.636	94.56
391.86	87.56
392.085	92.56
392.31	85.56
392.534	97.56
392.759	93.56
392.984	87.56
393.208	86.56
393.433	88.56
393.658	94.56
393.882	89.56
394.107	79.56
394.331	87.56
394.556	101.56
394.78	81.56
395.005	86.56
395.229	90.56
395.454	93.56
395.678	100.56
395.903	88.56
396.127	87.56
396.352	85.56
396.576	89.56
396.801	97.56
397.025	92.56
397.249	79.56
397.474	85.56
397.698	81.56
397.922	92.56
398.147	77.56
398.371	92.56
398.595	95.56
398.82	90.56
399.044	106.56
399.268	82.56
399.492	79.56
399.717	92.56
399.941	83.56
400.165	100.56
400.389	94.56
400.613	81.56
400.837	83.56
401.062	85.56
401.286	89.56
401.51	107.56
401.734	69.56
401.958	87.56
402.182	109.56
402.406	155.56
402.63	123.56
402.854	87.56
403.078	95.56
403.302	83.56
403.526	93.56
403.75	93.56
403.974	83.56
404.198	92.56
404.422	93.56
404.645	83.56
404.869	83.56
405.093	89.56
405.317	89.56
405.541	98.56
405.765	93.56
405.988	120.56
406.212	168.56
406.436	216.56
406.66	143.56
406.883	107.56
407.107	87.56
407.331	100.56
407.555	112.56
407.778	104.56
408.002	96.56
408.226	86.56
408.449	84.56
408.673	86.56
408.896	90.56
409.12	86.56
409.344	98.56
409.567	85.56
409.791	104.56
410.014	95.56
410.238	92.56
410.461	94.56
410.685	86.56
410.908	101.56
411.132	98.56
411.355	94.56
411.578	89.56
411.802	88.56
412.025	102.56
412.249	88.56
412.472	80.56
412.695	92.56
412.919	96.56
413.142	94.56
413.365	87.56
413.589	78.56
413.812	75.56
414.035	77.56
414.258	95.56
414.482	93.56
414.705	92.56
414.928	95.56
415.151	92.56
415.374	86.56
415.597	86.56
415.821	105.56
416.044	89.56
416.267	106.56
416.49	94.56
416.713	87.56
416.936	76.56
417.159	83.56
417.382	93.56
417.605	75.56
417.828	76.56
418.051	89.56
418.274	79.56
418.497	81.56
418.72	67.56
418.943	94.56
419.166	99.56
419.389	95.56
419.611	101.56
419.834	94.56
420.057	95.56
420.28	84.56
420.503	84.56
420.726	75.56
420.948	101.56
421.171	89.56
421.394	90.56
421.617	88.56
421.839	93.56
422.062	97.56
422.285	93.56
422.507	98.56
422.73	97.56
422.953	92.56
423.175	79.56
423.398	88.56
423.621	95.56
423.843	91.56
424.066	88.56
424.288	81.56
424.511	94.56
424.733	98.56
424.956	105.56
425.178	85.56
425.401	88.56
425.623	88.56
425.846	93.56
426.068	91.56
426.291	75.56
426.513	84.56
426.735	104.56
426.958	87.56
427.18	95.56
427.402	142.56
427.625	157.56
427.847	125.56
428.069	118.56
428.292	95.56
428.514	88.56
428.736	87.56
428.958	86.56
429.181	112.56
429.403	87.56
429.625	91.56
429.847	86.56
430.069	89.56
430.292	83.56
430.514	87.56
430.736	85.56
430.958	93.56
431.18	85.56
431.402	78.56
431.624	77.56
431.846	78.56
432.068	83.56
432.29	75.56
432.512	83.56
432.734	87.56
432.956	103.56
433.178	99.56
433.4	93.56
433.622	84.56
433.844	95.56
434.066	95.56
434.287	77.56
434.509	87.56
434.731	94.56
434.953	86.56
435.175	92.56
435.397	85.56
435.618	93.56
435.84	101.56
436.062	131.56
436.284	118.56
436.505	111.56
436.727	96.56
436.949	80.56
437.17	97.56
437.392	104.56
437.614	90.56
437.835	105.56
438.057	115.56
438.278	123.56
438.5	116.56
438.721	116.56
438.943	98.56
439.165	81.56
439.386	83.56
439.608	94.56
439.829	94.56
440.05	121.56
440.272	135.56
440.493	91.56
440.715	83.56
440.936	88.56
441.158	82.56
441.379	87.56
441.6	82.56
441.822	83.56
442.043	82.56
442.264	105.56
442.486	99.56
442.707	103.56
442.928	93.56
443.149	119.56
443.371	125.56
443.592	102.56
443.813	98.56
444.034	102.56
444.255	96.56
444.476	79.56
444.698	73.56
444.919	90.56
445.14	143.56
445.361	118.56
445.582	124.56
445.803	133.56
446.024	149.56
446.245	142.56
446.466	95.56
446.687	92.56
446.908	91.56
447.129	89.56
447.35	91.56
447.571	81.56
447.792	92.56
448.013	93.56
448.234	106.56
448.455	104.56
448.675	115.56
448.896	109.56
449.117	118.56
449.338	108.56
449.559	107.56
449.779	125.56
450	104.56
450.221	91.56
450.442	94.56
450.662	88.56
450.883	105.56
451.104	102.56
451.324	102.56
451.545	96.56
451.766	95.56
451.986	95.56
452.207	95.56
452.428	88.56
452.648	79.56
452.869	107.56
453.089	104.56
453.31	101.56
453.53	82.56
453.751	81.56
453.971	115.56
454.192	109.56
454.412	83.56
454.633	86.56
454.853	94.56
455.073	85.56
455.294	84.56
455.514	100.56
455.734	83.56
455.955	83.56
456.175	84.56
456.395	84.56
456.616	86.56
456.836	94.56
457.056	97.56
457.276	95.56
457.497	96.56
457.717	83.56
457.937	92.56
458.157	93.56
458.377	86.56
458.598	105.56
458.818	144.56
459.038	151.56
459.258	132.56
459.478	85.56
459.698	93.56
459.918	86.56
460.138	78.56
460.358	86.56
460.578	97.56
460.798	83.56
461.018	87.56
461.238	75.56
461.458	104.56
461.678	91.56
461.898	91.56
462.118	81.56
462.338	89.56
462.558	93.56
462.777	75.56
462.997	89.56
463.217	83.56
463.437	79.56
463.657	87.56
463.876	105.56
464.096	95.56
464.316	81.56
464.536	96.56
464.755	101.56
464.975	104.56
465.195	149.56
465.414	155.56
465.634	96.56
465.854	89.56
466.073	99.56
466.293	93.56
466.512	93.56
466.732	79.56
466.951	95.56
467.171	88.56
467.391	103.56
467.61	112.56
467.829	89.56
468.049	87.56
468.268	99.56
468.488	94.56
468.707	77.56
468.927	97.56
469.146	115.56
469.365	100.56
469.585	98.56
469.804	90.56
470.023	82.56
470.243	106.56
470.462	96.56
470.681	106.56
470.901	80.56
471.12	81.56
471.339	91.56
471.558	84.56
471.777	91.56
471.997	72.56
472.216	92.56
472.435	100.56
472.654	92.56
472.873	73.56
473.092	78.56
473.311	95.56
473.53	72.56
473.749	81.56
473.968	94.56
474.187	96.56
474.406	96.56
474.625	91.56
474.844	101.56
475.063	85.56
475.282	96.56
475.501	101.56
475.72	84.56
475.939	85.56
476.158	84.56
476.377	87.56
476.596	83.56
476.814	79.56
477.033	94.56
477.252	82.56
477.471	83.56
477.69	89.56
477.908	90.56
478.127	83.56
478.346	83.56
478.564	88.56
478.783	98.56
479.002	79.56
479.22	94.56
479.439	106.56
479.658	91.56
479.876	94.56
480.095	86.56
480.313	87.56
480.532	81.56
480.751	94.56
480.969	84.56
481.188	112.56
481.406	103.56
481.624	88.56
481.843	92.56
482.061	85.56
482.28	88.56
482.498	86.56
482.717	91.56
482.935	98.56
483.153	75.56
483.372	87.56
483.59	100.56
483.808	100.56
484.027	92.56
484.245	78.56
484.463	88.56
484.681	100.56
484.9	94.56
485.118	86.56
485.336	97.56
485.554	107.56
485.772	95.56
485.99	103.56
486.209	96.56
486.427	114.56
486.645	93.56
486.863	107.56
487.081	96.56
487.299	103.56
487.517	84.56
487.735	96.56
487.953	87.56
488.171	97.56
488.389	96.56
488.607	93.56
488.825	87.56
489.043	88.56
489.261	96.56
489.479	87.56
489.696	91.56
489.914	88.56
490.132	85.56
490.35	86.56
490.568	80.56
490.786	97.56
491.003	88.56
491.221	102.56
491.439	91.56
491.657	100.56
491.874	97.56
492.092	93.56
492.31	92.56
492.527	85.56
492.745	90.56
492.963	92.56
493.18	91.56
493.398	82.56
493.615	95.56
493.833	92.56
494.05	96.56
494.268	81.56
494.485	90.56
494.703	87.56
494.92	100.56
495.138	92.56
495.355	84.56
495.573	92.56
495.79	89.56
496.008	91.56
496.225	77.56
496.442	97.56
496.66	84.56
496.877	95.56
497.094	97.56
497.312	86.56
497.529	87.56
497.746	88.56
497.963	84.56
498.181	85.56
498.398	99.56
498.615	114.56
498.832	93.56
499.049	83.56
499.267	79.56
499.484	91.56
499.701	92.56
499.918	101.56
500.135	88.56
500.352	93.56
500.569	76.56
500.786	88.56
501.003	95.56
501.22	90.56
501.437	78.56
501.654	92.56
501.871	102.56
502.088	93.56
502.305	95.56
502.522	100.56
502.739	87.56
502.956	85.56
503.172	78.56
503.389	91.56
503.606	95.56
503.823	110.56
504.04	79.56
504.256	82.56
504.473	93.56
504.69	91.56
504.907	97.56
505.123	101.56
505.34	82.56
505.557	88.56
505.773	92.56
505.99	89.56
506.207	82.56
506.423	92.56
506.64	81.56
506.856	101.56
507.073	89.56
507.289	104.56
507.506	106.56
507.722	110.56
507.939	112.56
508.155	94.56
508.372	79.56
508.588	88.56
508.805	79.56
509.021	96.56
509.238	100.56
509.454	107.56
509.67	108.56
509.887	108.56
510.103	122.56
510.319	204.56
510.536	717.56
510.752	2192.56
510.968	587.56
511.184	151.56
511.401	118.56
511.617	105.56
511.833	85.56
512.049	104.56
512.265	94.56
512.481	81.56
512.698	87.56
512.914	86.56
513.13	93.56
513.346	89.56
513.562	95.56
513.778	94.56
513.994	96.56
514.21	99.56
514.426	117.56
514.642	127.56
514.858	127.56
515.074	172.56
515.29	432.56
515.506	1407.56
515.721	508.56
515.937	141.56
