Data from Uncirc_1988_H10_HRD10591_00001.txt Node
Date: Wed Jan 03 12:04:04 EST 2024
User: Yrep
Spectrometer: HR+D1059
Trigger mode: 1
Integration Time (sec): 1.000000E-1
Scans to average: 1
Electric dark correction enabled: true
Nonlinearity correction enabled: false
Boxcar width: 0
XAxis mode: Wavelengths
Number of Pixels in Spectrum: 2048
>>>>>Begin Spectral Data<<<<<
223.165	-23.25
223.4	-23.25
223.635	-23.25
223.869	-16.25
224.104	-20.25
224.338	-10.25
224.573	-2.25
224.808	2.75
225.042	-22.25
225.277	-10.25
225.511	3.75
225.746	-0.25
225.98	-1.25
226.215	13.75
226.449	25.75
226.683	17.75
226.918	24.75
227.152	17.75
227.387	28.75
227.621	39.75
227.856	44.75
228.09	57.75
228.324	55.75
228.559	48.75
228.793	55.75
229.027	54.75
229.262	56.75
229.496	73.75
229.73	65.75
229.964	84.75
230.199	70.75
230.433	67.75
230.667	75.75
230.901	79.75
231.136	77.75
231.37	88.75
231.604	69.75
231.838	75.75
232.072	86.75
232.306	87.75
232.541	86.75
232.775	85.75
233.009	79.75
233.243	80.75
233.477	79.75
233.711	85.75
233.945	86.75
234.179	85.75
234.413	90.75
234.647	82.75
234.881	78.75
235.115	83.75
235.349	87.75
235.583	73.75
235.817	72.75
236.051	65.75
236.285	76.75
236.519	96.75
236.753	84.75
236.987	72.75
237.221	87.75
237.455	81.75
237.689	75.75
237.922	80.75
238.156	88.75
238.39	76.75
238.624	69.75
238.858	70.75
239.091	72.75
239.325	55.75
239.559	78.75
239.793	84.75
240.027	65.75
240.26	72.75
240.494	88.75
240.728	71.75
240.961	82.75
241.195	78.75
241.429	71.75
241.662	80.75
241.896	69.75
242.13	75.75
242.363	79.75
242.597	77.75
242.83	70.75
243.064	82.75
243.298	67.75
243.531	70.75
243.765	82.75
243.998	82.75
244.232	81.75
244.465	80.75
244.699	84.75
244.932	76.75
245.166	72.75
245.399	70.75
245.633	63.75
245.866	89.75
246.099	77.75
246.333	77.75
246.566	78.75
246.8	73.75
247.033	76.75
247.266	76.75
247.5	73.75
247.733	64.75
247.966	85.75
248.2	72.75
248.433	72.75
248.666	90.75
248.899	85.75
249.133	79.75
249.366	94.75
249.599	84.75
249.832	72.75
250.066	73.75
250.299	81.75
250.532	79.75
250.765	78.75
250.998	84.75
251.231	76.75
251.465	83.75
251.698	88.75
251.931	82.75
252.164	77.75
252.397	89.75
252.63	78.75
252.863	90.75
253.096	86.75
253.329	81.75
253.562	82.75
253.795	85.75
254.028	73.75
254.261	74.75
254.494	83.75
254.727	83.75
254.96	74.75
255.193	73.75
255.426	64.75
255.659	72.75
255.892	74.75
256.124	83.75
256.357	78.75
256.59	72.75
256.823	76.75
257.056	89.75
257.289	78.75
257.521	70.75
257.754	79.75
257.987	94.75
258.22	78.75
258.452	78.75
258.685	86.75
258.918	81.75
259.151	76.75
259.383	75.75
259.616	72.75
259.849	76.75
260.081	88.75
260.314	87.75
260.547	88.75
260.779	78.75
261.012	74.75
261.244	76.75
261.477	82.75
261.71	87.75
261.942	110.75
262.175	110.75
262.407	109.75
262.64	69.75
262.872	85.75
263.105	79.75
263.337	80.75
263.57	104.75
263.802	89.75
264.035	82.75
264.267	91.75
264.499	73.75
264.732	90.75
264.964	88.75
265.197	77.75
265.429	89.75
265.661	77.75
265.894	78.75
266.126	83.75
266.358	77.75
266.591	78.75
266.823	80.75
267.055	72.75
267.287	90.75
267.52	86.75
267.752	91.75
267.984	98.75
268.216	76.75
268.448	89.75
268.681	92.75
268.913	81.75
269.145	84.75
269.377	85.75
269.609	82.75
269.841	84.75
270.073	89.75
270.306	86.75
270.538	84.75
270.77	78.75
271.002	80.75
271.234	86.75
271.466	80.75
271.698	83.75
271.93	81.75
272.162	93.75
272.394	78.75
272.626	85.75
272.858	78.75
273.09	82.75
273.322	70.75
273.553	76.75
273.785	86.75
274.017	92.75
274.249	87.75
274.481	65.75
274.713	88.75
274.945	86.75
275.176	105.75
275.408	87.75
275.64	89.75
275.872	88.75
276.104	94.75
276.335	91.75
276.567	88.75
276.799	87.75
277.031	87.75
277.262	83.75
277.494	94.75
277.726	95.75
277.957	86.75
278.189	88.75
278.421	71.75
278.652	92.75
278.884	84.75
279.115	77.75
279.347	84.75
279.579	80.75
279.81	94.75
280.042	92.75
280.273	104.75
280.505	90.75
280.736	84.75
280.968	85.75
281.199	92.75
281.431	92.75
281.662	96.75
281.894	96.75
282.125	93.75
282.356	90.75
282.588	108.75
282.819	102.75
283.051	97.75
283.282	78.75
283.513	91.75
283.745	92.75
283.976	97.75
284.207	78.75
284.439	92.75
284.67	71.75
284.901	90.75
285.132	84.75
285.364	89.75
285.595	88.75
285.826	88.75
286.057	82.75
286.288	93.75
286.52	92.75
286.751	82.75
286.982	83.75
287.213	92.75
287.444	81.75
287.675	92.75
287.906	76.75
288.138	89.75
288.369	82.75
288.6	100.75
288.831	80.75
289.062	105.75
289.293	97.75
289.524	81.75
289.755	89.75
289.986	106.75
290.217	84.75
290.448	82.75
290.679	81.75
290.91	88.75
291.141	85.75
291.371	105.75
291.602	93.75
291.833	89.75
292.064	97.75
292.295	88.75
292.526	94.75
292.757	88.75
292.987	90.75
293.218	87.75
293.449	84.75
293.68	89.75
293.91	95.75
294.141	91.75
294.372	90.75
294.603	89.75
294.833	98.75
295.064	89.75
295.295	91.75
295.525	103.75
295.756	101.75
295.987	96.75
296.217	120.75
296.448	114.75
296.679	92.75
296.909	82.75
297.14	86.75
297.37	96.75
297.601	97.75
297.831	74.75
298.062	83.75
298.292	73.75
298.523	94.75
298.753	97.75
298.984	95.75
299.214	95.75
299.445	95.75
299.675	89.75
299.905	86.75
300.136	96.75
300.366	88.75
300.597	76.75
300.827	90.75
301.057	96.75
301.288	91.75
301.518	92.75
301.748	89.75
301.979	96.75
302.209	89.75
302.439	78.75
302.669	82.75
302.9	91.75
303.13	97.75
303.36	104.75
303.59	96.75
303.82	96.75
304.051	93.75
304.281	93.75
304.511	110.75
304.741	71.75
304.971	90.75
305.201	90.75
305.431	90.75
305.661	97.75
305.891	84.75
306.121	90.75
306.352	87.75
306.582	98.75
306.812	92.75
307.042	93.75
307.272	101.75
307.502	84.75
307.731	94.75
307.961	92.75
308.191	94.75
308.421	87.75
308.651	88.75
308.881	85.75
309.111	82.75
309.341	94.75
309.571	88.75
309.8	99.75
310.03	85.75
310.26	93.75
310.49	99.75
310.72	86.75
310.949	91.75
311.179	91.75
311.409	106.75
311.639	92.75
311.868	99.75
312.098	99.75
312.328	116.75
312.557	95.75
312.787	97.75
313.017	90.75
313.246	85.75
313.476	105.75
313.706	82.75
313.935	94.75
314.165	101.75
314.394	98.75
314.624	86.75
314.853	91.75
315.083	93.75
315.312	90.75
315.542	92.75
315.771	88.75
316.001	85.75
316.23	97.75
316.46	89.75
316.689	101.75
316.919	93.75
317.148	96.75
317.377	101.75
317.607	84.75
317.836	80.75
318.065	79.75
318.295	79.75
318.524	83.75
318.753	80.75
318.983	77.75
319.212	96.75
319.441	88.75
319.67	104.75
319.9	111.75
320.129	101.75
320.358	86.75
320.587	86.75
320.816	94.75
321.046	100.75
321.275	108.75
321.504	81.75
321.733	97.75
321.962	98.75
322.191	88.75
322.42	108.75
322.649	106.75
322.878	96.75
323.108	115.75
323.337	121.75
323.566	122.75
323.795	128.75
324.024	175.75
324.253	331.75
324.482	675.75
324.71	1399.75
324.939	1810.75
325.168	686.75
325.397	208.75
325.626	131.75
325.855	112.75
326.084	119.75
326.313	117.75
326.542	129.75
326.77	189.75
326.999	395.75
327.228	796.75
327.457	1502.75
327.686	1145.75
327.914	320.75
328.143	162.75
328.372	119.75
328.6	109.75
328.829	112.75
329.058	102.75
329.287	104.75
329.515	97.75
329.744	102.75
329.972	108.75
330.201	107.75
330.43	96.75
330.658	102.75
330.887	108.75
331.115	117.75
331.344	95.75
331.572	105.75
331.801	99.75
332.03	99.75
332.258	101.75
332.486	82.75
332.715	91.75
332.943	94.75
333.172	90.75
333.4	94.75
333.629	111.75
333.857	102.75
334.085	88.75
334.314	108.75
334.542	101.75
334.771	92.75
334.999	90.75
335.227	84.75
335.455	83.75
335.684	105.75
335.912	92.75
336.14	101.75
336.369	103.75
336.597	109.75
336.825	93.75
337.053	103.75
337.281	92.75
337.51	89.75
337.738	102.75
337.966	98.75
338.194	99.75
338.422	89.75
338.65	104.75
338.878	93.75
339.106	83.75
339.334	101.75
339.562	92.75
339.79	89.75
340.018	103.75
340.246	102.75
340.474	92.75
340.702	87.75
340.93	81.75
341.158	95.75
341.386	102.75
341.614	102.75
341.842	84.75
342.07	95.75
342.298	81.75
342.526	88.75
342.754	87.75
342.981	94.75
343.209	88.75
343.437	87.75
343.665	98.75
343.893	86.75
344.12	92.75
344.348	93.75
344.576	98.75
344.804	85.75
345.031	98.75
345.259	102.75
345.487	87.75
345.714	89.75
345.942	98.75
346.17	85.75
346.397	90.75
346.625	84.75
346.853	84.75
347.08	98.75
347.308	86.75
347.535	96.75
347.763	102.75
347.99	104.75
348.218	102.75
348.445	94.75
348.673	103.75
348.9	97.75
349.128	100.75
349.355	95.75
349.583	95.75
349.81	102.75
350.037	87.75
350.265	95.75
350.492	92.75
350.72	99.75
350.947	97.75
351.174	102.75
351.402	114.75
351.629	100.75
351.856	99.75
352.083	106.75
352.311	111.75
352.538	104.75
352.765	104.75
352.992	100.75
353.22	110.75
353.447	101.75
353.674	96.75
353.901	95.75
354.128	92.75
354.355	94.75
354.583	82.75
354.81	85.75
355.037	103.75
355.264	88.75
355.491	93.75
355.718	100.75
355.945	109.75
356.172	90.75
356.399	105.75
356.626	88.75
356.853	93.75
357.08	99.75
357.307	102.75
357.534	89.75
357.761	98.75
357.988	110.75
358.215	103.75
358.441	100.75
358.668	86.75
358.895	77.75
359.122	87.75
359.349	88.75
359.576	93.75
359.802	95.75
360.029	103.75
360.256	95.75
360.483	88.75
360.709	85.75
360.936	89.75
361.163	96.75
361.39	94.75
361.616	86.75
361.843	92.75
362.07	90.75
362.296	83.75
362.523	78.75
362.749	88.75
362.976	83.75
363.203	91.75
363.429	81.75
363.656	103.75
363.882	90.75
364.109	89.75
364.335	86.75
364.562	99.75
364.788	92.75
365.015	87.75
365.241	96.75
365.468	92.75
365.694	98.75
365.92	85.75
366.147	95.75
366.373	99.75
366.599	81.75
366.826	90.75
367.052	97.75
367.278	101.75
367.505	79.75
367.731	88.75
367.957	78.75
368.184	97.75
368.41	84.75
368.636	104.75
368.862	109.75
369.089	94.75
369.315	94.75
369.541	84.75
369.767	83.75
369.993	96.75
370.219	88.75
370.445	92.75
370.672	81.75
370.898	87.75
371.124	86.75
371.35	79.75
371.576	91.75
371.802	90.75
372.028	82.75
372.254	88.75
372.48	92.75
372.706	91.75
372.932	90.75
373.158	90.75
373.384	91.75
373.61	92.75
373.835	88.75
374.061	94.75
374.287	87.75
374.513	92.75
374.739	98.75
374.965	89.75
375.191	98.75
375.416	102.75
375.642	101.75
375.868	88.75
376.094	93.75
376.319	97.75
376.545	81.75
376.771	96.75
376.997	85.75
377.222	93.75
377.448	90.75
377.674	95.75
377.899	97.75
378.125	87.75
378.35	95.75
378.576	110.75
378.802	81.75
379.027	96.75
379.253	101.75
379.478	90.75
379.704	101.75
379.929	116.75
380.155	97.75
380.38	106.75
380.606	100.75
380.831	83.75
381.057	105.75
381.282	92.75
381.507	114.75
381.733	99.75
381.958	110.75
382.184	92.75
382.409	106.75
382.634	113.75
382.86	108.75
383.085	93.75
383.31	112.75
383.535	98.75
383.761	102.75
383.986	104.75
384.211	104.75
384.436	97.75
384.662	97.75
384.887	97.75
385.112	108.75
385.337	105.75
385.562	105.75
385.787	116.75
386.013	117.75
386.238	115.75
386.463	112.75
386.688	101.75
386.913	107.75
387.138	106.75
387.363	107.75
387.588	119.75
387.813	125.75
388.038	105.75
388.263	110.75
388.488	106.75
388.713	111.75
388.938	94.75
389.163	99.75
389.387	88.75
389.612	102.75
389.837	102.75
390.062	104.75
390.287	86.75
390.512	104.75
390.736	101.75
390.961	86.75
391.186	84.75
391.411	97.75
391.636	101.75
391.86	83.75
392.085	95.75
392.31	78.75
392.534	92.75
392.759	99.75
392.984	81.75
393.208	92.75
393.433	118.75
393.658	98.75
393.882	98.75
394.107	95.75
394.331	79.75
394.556	84.75
394.78	89.75
395.005	84.75
395.229	92.75
395.454	82.75
395.678	76.75
395.903	89.75
396.127	84.75
396.352	94.75
396.576	79.75
396.801	98.75
397.025	105.75
397.249	80.75
397.474	99.75
397.698	88.75
397.922	83.75
398.147	80.75
398.371	97.75
398.595	89.75
398.82	76.75
399.044	90.75
399.268	100.75
399.492	100.75
399.717	102.75
399.941	91.75
400.165	98.75
400.389	88.75
400.613	82.75
400.837	95.75
401.062	98.75
401.286	91.75
401.51	93.75
401.734	86.75
401.958	93.75
402.182	108.75
402.406	127.75
402.63	105.75
402.854	112.75
403.078	86.75
403.302	78.75
403.526	89.75
403.75	98.75
403.974	80.75
404.198	78.75
404.422	87.75
404.645	73.75
404.869	93.75
405.093	76.75
405.317	103.75
405.541	100.75
405.765	93.75
405.988	97.75
406.212	136.75
406.436	161.75
406.66	135.75
406.883	99.75
407.107	93.75
407.331	103.75
407.555	90.75
407.778	99.75
408.002	86.75
408.226	96.75
408.449	76.75
408.673	80.75
408.896	93.75
409.12	87.75
409.344	88.75
409.567	98.75
409.791	100.75
410.014	96.75
410.238	96.75
410.461	88.75
410.685	96.75
410.908	101.75
411.132	102.75
411.355	97.75
411.578	114.75
411.802	95.75
412.025	81.75
412.249	96.75
412.472	83.75
412.695	82.75
412.919	107.75
413.142	86.75
413.365	99.75
413.589	83.75
413.812	87.75
414.035	87.75
414.258	92.75
414.482	90.75
414.705	91.75
414.928	82.75
415.151	99.75
415.374	86.75
415.597	93.75
415.821	87.75
416.044	84.75
416.267	96.75
416.49	101.75
416.713	103.75
416.936	85.75
417.159	90.75
417.382	88.75
417.605	91.75
417.828	92.75
418.051	79.75
418.274	89.75
418.497	79.75
418.72	89.75
418.943	93.75
419.166	95.75
419.389	77.75
419.611	86.75
419.834	87.75
420.057	80.75
420.28	76.75
420.503	84.75
420.726	79.75
420.948	85.75
421.171	94.75
421.394	107.75
421.617	88.75
421.839	89.75
422.062	88.75
422.285	81.75
422.507	119.75
422.73	106.75
422.953	93.75
423.175	86.75
423.398	79.75
423.621	92.75
423.843	80.75
424.066	80.75
424.288	86.75
424.511	79.75
424.733	87.75
424.956	89.75
425.178	94.75
425.401	105.75
425.623	102.75
425.846	90.75
426.068	90.75
426.291	78.75
426.513	92.75
426.735	85.75
426.958	84.75
427.18	100.75
427.402	116.75
427.625	161.75
427.847	118.75
428.069	113.75
428.292	87.75
428.514	91.75
428.736	87.75
428.958	92.75
429.181	96.75
429.403	96.75
429.625	96.75
429.847	81.75
430.069	105.75
430.292	108.75
430.514	77.75
430.736	78.75
430.958	85.75
431.18	80.75
431.402	92.75
431.624	76.75
431.846	96.75
432.068	101.75
432.29	85.75
432.512	97.75
432.734	89.75
432.956	116.75
433.178	104.75
433.4	94.75
433.622	95.75
433.844	106.75
434.066	90.75
434.287	95.75
434.509	84.75
434.731	92.75
434.953	93.75
435.175	86.75
435.397	98.75
435.618	97.75
435.84	105.75
436.062	118.75
436.284	106.75
436.505	93.75
436.727	105.75
436.949	100.75
437.17	96.75
437.392	88.75
437.614	95.75
437.835	89.75
438.057	106.75
438.278	90.75
438.5	101.75
438.721	114.75
438.943	94.75
439.165	96.75
439.386	86.75
439.608	81.75
439.829	80.75
440.05	100.75
440.272	120.75
440.493	108.75
440.715	87.75
440.936	99.75
441.158	90.75
441.379	76.75
441.6	85.75
441.822	86.75
442.043	92.75
442.264	98.75
442.486	107.75
442.707	98.75
442.928	107.75
443.149	109.75
443.371	118.75
443.592	101.75
443.813	109.75
444.034	99.75
444.255	96.75
444.476	84.75
444.698	92.75
444.919	93.75
445.14	136.75
445.361	118.75
445.582	105.75
445.803	115.75
446.024	127.75
446.245	132.75
446.466	116.75
446.687	77.75
446.908	91.75
447.129	92.75
447.35	93.75
447.571	87.75
447.792	84.75
448.013	104.75
448.234	105.75
448.455	110.75
448.675	114.75
448.896	113.75
449.117	105.75
449.338	82.75
449.559	120.75
449.779	128.75
450	93.75
450.221	100.75
450.442	69.75
450.662	92.75
450.883	98.75
451.104	103.75
451.324	99.75
451.545	80.75
451.766	88.75
451.986	76.75
452.207	94.75
452.428	92.75
452.648	79.75
452.869	105.75
453.089	90.75
453.31	94.75
453.53	92.75
453.751	88.75
453.971	89.75
454.192	94.75
454.412	88.75
454.633	87.75
454.853	86.75
455.073	86.75
455.294	84.75
455.514	96.75
455.734	94.75
455.955	91.75
456.175	79.75
456.395	104.75
456.616	82.75
456.836	87.75
457.056	92.75
457.276	84.75
457.497	85.75
457.717	99.75
457.937	103.75
458.157	78.75
458.377	101.75
458.598	91.75
458.818	124.75
459.038	129.75
459.258	105.75
459.478	91.75
459.698	76.75
459.918	105.75
460.138	97.75
460.358	95.75
460.578	85.75
460.798	89.75
461.018	78.75
461.238	84.75
461.458	85.75
461.678	89.75
461.898	84.75
462.118	88.75
462.338	96.75
462.558	87.75
462.777	89.75
462.997	97.75
463.217	87.75
463.437	91.75
463.657	81.75
463.876	95.75
464.096	95.75
464.316	79.75
464.536	100.75
464.755	87.75
464.975	82.75
465.195	134.75
465.414	124.75
465.634	108.75
465.854	87.75
466.073	81.75
466.293	85.75
466.512	88.75
466.732	84.75
466.951	90.75
467.171	91.75
467.391	105.75
467.61	117.75
467.829	84.75
468.049	73.75
468.268	89.75
468.488	97.75
468.707	72.75
468.927	83.75
469.146	74.75
469.365	88.75
469.585	97.75
469.804	86.75
470.023	90.75
470.243	88.75
470.462	88.75
470.681	88.75
470.901	93.75
471.12	96.75
471.339	84.75
471.558	89.75
471.777	89.75
471.997	96.75
472.216	89.75
472.435	76.75
472.654	79.75
472.873	97.75
473.092	91.75
473.311	98.75
473.53	97.75
473.749	92.75
473.968	82.75
474.187	110.75
474.406	88.75
474.625	84.75
474.844	88.75
475.063	89.75
475.282	80.75
475.501	100.75
475.72	85.75
475.939	84.75
476.158	89.75
476.377	90.75
476.596	89.75
476.814	83.75
477.033	98.75
477.252	101.75
477.471	91.75
477.69	72.75
477.908	84.75
478.127	87.75
478.346	85.75
478.564	88.75
478.783	93.75
479.002	88.75
479.22	83.75
479.439	92.75
479.658	96.75
479.876	106.75
480.095	88.75
480.313	86.75
480.532	94.75
480.751	81.75
480.969	88.75
481.188	105.75
481.406	73.75
481.624	97.75
481.843	83.75
482.061	80.75
482.28	98.75
482.498	80.75
482.717	88.75
482.935	84.75
483.153	80.75
483.372	85.75
483.59	91.75
483.808	102.75
484.027	94.75
484.245	82.75
484.463	88.75
484.681	95.75
484.9	100.75
485.118	109.75
485.336	82.75
485.554	103.75
485.772	107.75
485.99	91.75
486.209	100.75
486.427	88.75
486.645	103.75
486.863	127.75
487.081	103.75
487.299	98.75
487.517	100.75
487.735	100.75
487.953	101.75
488.171	101.75
488.389	92.75
488.607	90.75
488.825	89.75
489.043	102.75
489.261	106.75
489.479	80.75
489.696	82.75
489.914	94.75
490.132	95.75
490.35	99.75
490.568	89.75
490.786	88.75
491.003	81.75
491.221	100.75
491.439	88.75
491.657	87.75
491.874	98.75
492.092	100.75
492.31	113.75
492.527	90.75
492.745	89.75
492.963	101.75
493.18	95.75
493.398	106.75
493.615	104.75
493.833	97.75
494.05	71.75
494.268	80.75
494.485	86.75
494.703	109.75
494.92	106.75
495.138	88.75
495.355	103.75
495.573	96.75
495.79	106.75
496.008	96.75
496.225	86.75
496.442	86.75
496.66	95.75
496.877	84.75
497.094	81.75
497.312	92.75
497.529	101.75
497.746	90.75
497.963	92.75
498.181	88.75
498.398	90.75
498.615	95.75
498.832	104.75
499.049	90.75
499.267	108.75
499.484	85.75
499.701	92.75
499.918	91.75
500.135	93.75
500.352	88.75
500.569	80.75
500.786	77.75
501.003	85.75
501.22	95.75
501.437	102.75
501.654	99.75
501.871	118.75
502.088	99.75
502.305	90.75
502.522	89.75
502.739	99.75
502.956	80.75
503.172	89.75
503.389	86.75
503.606	89.75
503.823	95.75
504.04	92.75
504.256	95.75
504.473	101.75
504.69	98.75
504.907	103.75
505.123	89.75
505.34	99.75
505.557	97.75
505.773	91.75
505.99	86.75
506.207	88.75
506.423	95.75
506.64	95.75
506.856	104.75
507.073	74.75
507.289	90.75
507.506	92.75
507.722	95.75
507.939	116.75
508.155	97.75
508.372	97.75
508.588	89.75
508.805	96.75
509.021	97.75
509.238	86.75
509.454	88.75
509.67	102.75
509.887	105.75
510.103	127.75
510.319	167.75
510.536	494.75
510.752	1462.75
510.968	402.75
511.184	133.75
511.401	97.75
511.617	101.75
511.833	102.75
512.049	80.75
512.265	102.75
512.481	109.75
512.698	100.75
512.914	104.75
513.13	108.75
513.346	104.75
513.562	86.75
513.778	93.75
513.994	97.75
514.21	106.75
514.426	110.75
514.642	122.75
514.858	105.75
515.074	117.75
515.29	330.75
515.506	948.75
515.721	360.75
