Data from Uncirc_1988_H10_HRD10591_00034.txt Node
Date: Wed Jan 03 12:04:11 EST 2024
User: Yrep
Spectrometer: HR+D1059
Trigger mode: 1
Integration Time (sec): 1.000000E-1
Scans to average: 1
Electric dark correction enabled: true
Nonlinearity correction enabled: false
Boxcar width: 0
XAxis mode: Wavelengths
Number of Pixels in Spectrum: 2048
>>>>>Begin Spectral Data<<<<<
223.165	-14.19
223.4	-14.19
223.635	-14.19
223.869	-23.19
224.104	-24.19
224.338	-12.19
224.573	-16.19
224.808	-13.19
225.042	-15.19
225.277	-6.19
225.511	8.81
225.746	6.81
225.98	6.81
226.215	13.81
226.449	13.81
226.683	24.81
226.918	21.81
227.152	27.81
227.387	36.81
227.621	38.81
227.856	52.81
228.09	41.81
228.324	42.81
228.559	50.81
228.793	60.81
229.027	66.81
229.262	56.81
229.496	68.81
229.73	76.81
229.964	90.81
230.199	83.81
230.433	73.81
230.667	94.81
230.901	67.81
231.136	69.81
231.37	65.81
231.604	76.81
231.838	85.81
232.072	81.81
232.306	65.81
232.541	77.81
232.775	73.81
233.009	84.81
233.243	77.81
233.477	71.81
233.711	74.81
233.945	73.81
234.179	82.81
234.413	72.81
234.647	82.81
234.881	81.81
235.115	87.81
235.349	76.81
235.583	75.81
235.817	80.81
236.051	80.81
236.285	70.81
236.519	77.81
236.753	75.81
236.987	79.81
237.221	79.81
237.455	83.81
237.689	73.81
237.922	88.81
238.156	74.81
238.39	65.81
238.624	81.81
238.858	60.81
239.091	73.81
239.325	95.81
239.559	83.81
239.793	64.81
240.027	87.81
240.26	81.81
240.494	76.81
240.728	75.81
240.961	75.81
241.195	72.81
241.429	81.81
241.662	84.81
241.896	81.81
242.13	57.81
242.363	73.81
242.597	70.81
242.83	70.81
243.064	78.81
243.298	75.81
243.531	81.81
243.765	87.81
243.998	79.81
244.232	79.81
244.465	82.81
244.699	89.81
244.932	79.81
245.166	76.81
245.399	72.81
245.633	73.81
245.866	70.81
246.099	69.81
246.333	79.81
246.566	77.81
246.8	78.81
247.033	71.81
247.266	68.81
247.5	81.81
247.733	76.81
247.966	100.81
248.2	81.81
248.433	75.81
248.666	85.81
248.899	72.81
249.133	80.81
249.366	81.81
249.599	100.81
249.832	66.81
250.066	89.81
250.299	92.81
250.532	79.81
250.765	71.81
250.998	73.81
251.231	82.81
251.465	77.81
251.698	78.81
251.931	87.81
252.164	72.81
252.397	56.81
252.63	77.81
252.863	83.81
253.096	69.81
253.329	73.81
253.562	77.81
253.795	83.81
254.028	75.81
254.261	81.81
254.494	77.81
254.727	62.81
254.96	79.81
255.193	56.81
255.426	67.81
255.659	57.81
255.892	83.81
256.124	95.81
256.357	69.81
256.59	77.81
256.823	93.81
257.056	98.81
257.289	79.81
257.521	81.81
257.754	73.81
257.987	84.81
258.22	82.81
258.452	81.81
258.685	80.81
258.918	74.81
259.151	100.81
259.383	95.81
259.616	73.81
259.849	86.81
260.081	95.81
260.314	95.81
260.547	95.81
260.779	72.81
261.012	77.81
261.244	99.81
261.477	92.81
261.71	95.81
261.942	99.81
262.175	112.81
262.407	87.81
262.64	87.81
262.872	70.81
263.105	77.81
263.337	83.81
263.57	88.81
263.802	88.81
264.035	96.81
264.267	87.81
264.499	81.81
264.732	82.81
264.964	87.81
265.197	68.81
265.429	98.81
265.661	79.81
265.894	82.81
266.126	71.81
266.358	83.81
266.591	83.81
266.823	97.81
267.055	86.81
267.287	75.81
267.52	78.81
267.752	86.81
267.984	77.81
268.216	85.81
268.448	87.81
268.681	83.81
268.913	67.81
269.145	86.81
269.377	79.81
269.609	66.81
269.841	76.81
270.073	83.81
270.306	100.81
270.538	102.81
270.77	92.81
271.002	79.81
271.234	70.81
271.466	93.81
271.698	72.81
271.93	75.81
272.162	87.81
272.394	84.81
272.626	88.81
272.858	79.81
273.09	83.81
273.322	83.81
273.553	81.81
273.785	85.81
274.017	80.81
274.249	86.81
274.481	85.81
274.713	80.81
274.945	73.81
275.176	83.81
275.408	88.81
275.64	85.81
275.872	96.81
276.104	81.81
276.335	88.81
276.567	83.81
276.799	97.81
277.031	112.81
277.262	93.81
277.494	73.81
277.726	82.81
277.957	72.81
278.189	77.81
278.421	90.81
278.652	95.81
278.884	79.81
279.115	95.81
279.347	85.81
279.579	92.81
279.81	81.81
280.042	98.81
280.273	81.81
280.505	79.81
280.736	86.81
280.968	88.81
281.199	89.81
281.431	92.81
281.662	97.81
281.894	98.81
282.125	96.81
282.356	111.81
282.588	133.81
282.819	125.81
283.051	83.81
283.282	84.81
283.513	75.81
283.745	100.81
283.976	81.81
284.207	63.81
284.439	88.81
284.67	86.81
284.901	86.81
285.132	83.81
285.364	80.81
285.595	80.81
285.826	106.81
286.057	92.81
286.288	72.81
286.52	92.81
286.751	87.81
286.982	83.81
287.213	75.81
287.444	90.81
287.675	84.81
287.906	79.81
288.138	88.81
288.369	84.81
288.6	87.81
288.831	91.81
289.062	95.81
289.293	86.81
289.524	80.81
289.755	83.81
289.986	72.81
290.217	80.81
290.448	87.81
290.679	85.81
290.91	84.81
291.141	86.81
291.371	107.81
291.602	91.81
291.833	86.81
292.064	80.81
292.295	92.81
292.526	105.81
292.757	95.81
292.987	90.81
293.218	83.81
293.449	93.81
293.68	93.81
293.91	84.81
294.141	91.81
294.372	92.81
294.603	84.81
294.833	82.81
295.064	96.81
295.295	102.81
295.525	70.81
295.756	97.81
295.987	109.81
296.217	143.81
296.448	117.81
296.679	91.81
296.909	84.81
297.14	88.81
297.37	91.81
297.601	93.81
297.831	91.81
298.062	87.81
298.292	82.81
298.523	94.81
298.753	91.81
298.984	91.81
299.214	100.81
299.445	100.81
299.675	92.81
299.905	76.81
300.136	77.81
300.366	81.81
300.597	103.81
300.827	86.81
301.057	87.81
301.288	109.81
301.518	100.81
301.748	65.81
301.979	97.81
302.209	84.81
302.439	85.81
302.669	90.81
302.9	95.81
303.13	97.81
303.36	99.81
303.59	85.81
303.82	92.81
304.051	94.81
304.281	92.81
304.511	88.81
304.741	94.81
304.971	84.81
305.201	72.81
305.431	96.81
305.661	104.81
305.891	87.81
306.121	106.81
306.352	113.81
306.582	107.81
306.812	100.81
307.042	78.81
307.272	87.81
307.502	92.81
307.731	95.81
307.961	86.81
308.191	87.81
308.421	96.81
308.651	89.81
308.881	87.81
309.111	95.81
309.341	92.81
309.571	99.81
309.8	87.81
310.03	83.81
310.26	100.81
310.49	99.81
310.72	103.81
310.949	96.81
311.179	98.81
311.409	75.81
311.639	88.81
311.868	105.81
312.098	97.81
312.328	106.81
312.557	88.81
312.787	84.81
313.017	105.81
313.246	113.81
313.476	95.81
313.706	106.81
313.935	98.81
314.165	95.81
314.394	99.81
314.624	93.81
314.853	111.81
315.083	87.81
315.312	102.81
315.542	91.81
315.771	83.81
316.001	96.81
316.23	79.81
316.46	93.81
316.689	83.81
316.919	87.81
317.148	98.81
317.377	94.81
317.607	79.81
317.836	84.81
318.065	95.81
318.295	85.81
318.524	98.81
318.753	86.81
318.983	93.81
319.212	103.81
319.441	114.81
319.67	112.81
319.9	97.81
320.129	85.81
320.358	87.81
320.587	86.81
320.816	94.81
321.046	110.81
321.275	88.81
321.504	104.81
321.733	105.81
321.962	90.81
322.191	94.81
322.42	99.81
322.649	109.81
322.878	100.81
323.108	127.81
323.337	124.81
323.566	137.81
323.795	158.81
324.024	214.81
324.253	443.81
324.482	904.81
324.71	1975.81
324.939	2581.81
325.168	927.81
325.397	269.81
325.626	157.81
325.855	139.81
326.084	120.81
326.313	115.81
326.542	160.81
326.77	246.81
326.999	513.81
327.228	1089.81
327.457	2015.81
327.686	1558.81
327.914	417.81
328.143	189.81
328.372	145.81
328.6	123.81
328.829	121.81
329.058	119.81
329.287	129.81
329.515	103.81
329.744	109.81
329.972	99.81
330.201	104.81
330.43	116.81
330.658	118.81
330.887	141.81
331.115	111.81
331.344	96.81
331.572	99.81
331.801	104.81
332.03	113.81
332.258	104.81
332.486	88.81
332.715	92.81
332.943	97.81
333.172	83.81
333.4	106.81
333.629	103.81
333.857	116.81
334.085	93.81
334.314	105.81
334.542	94.81
334.771	108.81
334.999	100.81
335.227	87.81
335.455	93.81
335.684	115.81
335.912	95.81
336.14	103.81
336.369	96.81
336.597	93.81
336.825	104.81
337.053	75.81
337.281	96.81
337.51	109.81
337.738	106.81
337.966	100.81
338.194	89.81
338.422	101.81
338.65	101.81
338.878	95.81
339.106	98.81
339.334	94.81
339.562	93.81
339.79	105.81
340.018	93.81
340.246	93.81
340.474	85.81
340.702	98.81
340.93	87.81
341.158	97.81
341.386	91.81
341.614	99.81
341.842	89.81
342.07	72.81
342.298	88.81
342.526	89.81
342.754	94.81
342.981	92.81
343.209	90.81
343.437	104.81
343.665	103.81
343.893	94.81
344.12	96.81
344.348	84.81
344.576	94.81
344.804	76.81
345.031	99.81
345.259	93.81
345.487	98.81
345.714	88.81
345.942	92.81
346.17	87.81
346.397	93.81
346.625	104.81
346.853	115.81
347.08	91.81
347.308	102.81
347.535	102.81
347.763	95.81
347.99	103.81
348.218	100.81
348.445	102.81
348.673	100.81
348.9	100.81
349.128	106.81
349.355	97.81
349.583	83.81
349.81	88.81
350.037	92.81
350.265	90.81
350.492	92.81
350.72	105.81
350.947	110.81
351.174	115.81
351.402	118.81
351.629	105.81
351.856	92.81
352.083	94.81
352.311	100.81
352.538	111.81
352.765	112.81
352.992	114.81
353.22	105.81
353.447	93.81
353.674	101.81
353.901	103.81
354.128	110.81
354.355	92.81
354.583	100.81
354.81	101.81
355.037	96.81
355.264	111.81
355.491	99.81
355.718	97.81
355.945	99.81
356.172	89.81
356.399	101.81
356.626	95.81
356.853	98.81
357.08	104.81
357.307	96.81
357.534	101.81
357.761	94.81
357.988	83.81
358.215	86.81
358.441	85.81
358.668	87.81
358.895	92.81
359.122	100.81
359.349	98.81
359.576	91.81
359.802	106.81
360.029	105.81
360.256	117.81
360.483	106.81
360.709	94.81
360.936	102.81
361.163	100.81
361.39	97.81
361.616	80.81
361.843	96.81
362.07	100.81
362.296	97.81
362.523	93.81
362.749	93.81
362.976	84.81
363.203	116.81
363.429	90.81
363.656	91.81
363.882	91.81
364.109	102.81
364.335	80.81
364.562	96.81
364.788	88.81
365.015	99.81
365.241	101.81
365.468	101.81
365.694	121.81
365.92	88.81
366.147	104.81
366.373	93.81
366.599	90.81
366.826	95.81
367.052	80.81
367.278	93.81
367.505	92.81
367.731	104.81
367.957	93.81
368.184	94.81
368.41	94.81
368.636	108.81
368.862	119.81
369.089	98.81
369.315	81.81
369.541	95.81
369.767	90.81
369.993	87.81
370.219	104.81
370.445	97.81
370.672	92.81
370.898	95.81
371.124	91.81
371.35	93.81
371.576	99.81
371.802	84.81
372.028	93.81
372.254	81.81
372.48	81.81
372.706	97.81
372.932	88.81
373.158	93.81
373.384	89.81
373.61	96.81
373.835	92.81
374.061	94.81
374.287	96.81
374.513	83.81
374.739	95.81
374.965	84.81
375.191	89.81
375.416	90.81
375.642	91.81
375.868	94.81
376.094	88.81
376.319	96.81
376.545	90.81
376.771	91.81
376.997	92.81
377.222	96.81
377.448	95.81
377.674	97.81
377.899	91.81
378.125	92.81
378.35	86.81
378.576	88.81
378.802	87.81
379.027	88.81
379.253	83.81
379.478	89.81
379.704	86.81
379.929	94.81
380.155	88.81
380.38	92.81
380.606	87.81
380.831	94.81
381.057	97.81
381.282	85.81
381.507	92.81
381.733	84.81
381.958	99.81
382.184	83.81
382.409	84.81
382.634	117.81
382.86	107.81
383.085	94.81
383.31	95.81
383.535	90.81
383.761	107.81
383.986	112.81
384.211	91.81
384.436	97.81
384.662	87.81
384.887	96.81
385.112	102.81
385.337	104.81
385.562	98.81
385.787	95.81
386.013	91.81
386.238	111.81
386.463	103.81
386.688	121.81
386.913	105.81
387.138	101.81
387.363	104.81
387.588	105.81
387.813	88.81
388.038	95.81
388.263	103.81
388.488	120.81
388.713	98.81
388.938	95.81
389.163	101.81
389.387	100.81
389.612	96.81
389.837	101.81
390.062	97.81
390.287	99.81
390.512	93.81
390.736	84.81
390.961	99.81
391.186	95.81
391.411	88.81
391.636	81.81
391.86	83.81
392.085	85.81
392.31	83.81
392.534	89.81
392.759	91.81
392.984	88.81
393.208	96.81
393.433	109.81
393.658	92.81
393.882	90.81
394.107	87.81
394.331	79.81
394.556	87.81
394.78	77.81
395.005	72.81
395.229	81.81
395.454	77.81
395.678	92.81
395.903	96.81
396.127	95.81
396.352	72.81
396.576	79.81
396.801	97.81
397.025	64.81
397.249	82.81
397.474	96.81
397.698	85.81
397.922	96.81
398.147	75.81
398.371	88.81
398.595	87.81
398.82	97.81
399.044	81.81
399.268	84.81
399.492	82.81
399.717	83.81
399.941	94.81
400.165	99.81
400.389	107.81
400.613	88.81
400.837	83.81
401.062	79.81
401.286	100.81
401.51	79.81
401.734	91.81
401.958	100.81
402.182	117.81
402.406	148.81
402.63	113.81
402.854	104.81
403.078	89.81
403.302	86.81
403.526	83.81
403.75	98.81
403.974	99.81
404.198	90.81
404.422	87.81
404.645	80.81
404.869	79.81
405.093	87.81
405.317	82.81
405.541	104.81
405.765	105.81
405.988	121.81
406.212	176.81
406.436	216.81
406.66	141.81
406.883	108.81
407.107	89.81
407.331	100.81
407.555	93.81
407.778	101.81
408.002	97.81
408.226	69.81
408.449	89.81
408.673	96.81
408.896	96.81
409.12	107.81
409.344	92.81
409.567	83.81
409.791	85.81
410.014	98.81
410.238	112.81
410.461	91.81
410.685	97.81
410.908	105.81
411.132	118.81
411.355	108.81
411.578	96.81
411.802	94.81
412.025	88.81
412.249	89.81
412.472	104.81
412.695	98.81
412.919	88.81
413.142	83.81
413.365	72.81
413.589	81.81
413.812	79.81
414.035	108.81
414.258	95.81
414.482	97.81
414.705	79.81
414.928	100.81
415.151	83.81
415.374	92.81
415.597	80.81
415.821	91.81
416.044	103.81
416.267	76.81
416.49	80.81
416.713	75.81
416.936	72.81
417.159	91.81
417.382	79.81
417.605	81.81
417.828	107.81
418.051	101.81
418.274	91.81
418.497	87.81
418.72	82.81
418.943	88.81
419.166	93.81
419.389	86.81
419.611	85.81
419.834	81.81
420.057	88.81
420.28	102.81
420.503	100.81
420.726	91.81
420.948	80.81
421.171	103.81
421.394	92.81
421.617	85.81
421.839	84.81
422.062	96.81
422.285	96.81
422.507	103.81
422.73	99.81
422.953	93.81
423.175	84.81
423.398	71.81
423.621	85.81
423.843	86.81
424.066	80.81
424.288	88.81
424.511	94.81
424.733	95.81
424.956	102.81
425.178	101.81
425.401	97.81
425.623	85.81
425.846	91.81
426.068	102.81
426.291	101.81
426.513	94.81
426.735	85.81
426.958	101.81
427.18	98.81
427.402	144.81
427.625	161.81
427.847	132.81
428.069	101.81
428.292	85.81
428.514	88.81
428.736	87.81
428.958	85.81
429.181	77.81
429.403	89.81
429.625	84.81
429.847	92.81
430.069	115.81
430.292	89.81
430.514	94.81
430.736	97.81
430.958	80.81
431.18	92.81
431.402	88.81
431.624	86.81
431.846	87.81
432.068	86.81
432.29	91.81
432.512	94.81
432.734	82.81
432.956	76.81
433.178	113.81
433.4	93.81
433.622	96.81
433.844	96.81
434.066	84.81
434.287	98.81
434.509	90.81
434.731	87.81
434.953	95.81
435.175	83.81
435.397	86.81
435.618	79.81
435.84	113.81
436.062	149.81
436.284	113.81
436.505	104.81
436.727	97.81
436.949	82.81
437.17	92.81
437.392	97.81
437.614	93.81
437.835	105.81
438.057	117.81
438.278	113.81
438.5	116.81
438.721	131.81
438.943	114.81
439.165	92.81
439.386	87.81
439.608	89.81
439.829	96.81
440.05	131.81
440.272	142.81
440.493	113.81
440.715	91.81
440.936	95.81
441.158	96.81
441.379	85.81
441.6	86.81
441.822	99.81
442.043	89.81
442.264	108.81
442.486	85.81
442.707	103.81
442.928	109.81
443.149	129.81
443.371	133.81
443.592	104.81
443.813	106.81
444.034	113.81
444.255	94.81
444.476	93.81
444.698	112.81
444.919	89.81
445.14	135.81
445.361	118.81
445.582	124.81
445.803	144.81
446.024	158.81
446.245	141.81
446.466	108.81
446.687	79.81
446.908	94.81
447.129	96.81
447.35	93.81
447.571	86.81
447.792	94.81
448.013	100.81
448.234	113.81
448.455	109.81
448.675	114.81
448.896	120.81
449.117	103.81
449.338	106.81
449.559	134.81
449.779	141.81
450	102.81
450.221	81.81
450.442	81.81
450.662	90.81
450.883	115.81
451.104	114.81
451.324	103.81
451.545	83.81
451.766	81.81
451.986	75.81
452.207	91.81
452.428	92.81
452.648	88.81
452.869	115.81
453.089	125.81
453.31	118.81
453.53	87.81
453.751	83.81
453.971	112.81
454.192	117.81
454.412	88.81
454.633	83.81
454.853	86.81
455.073	87.81
455.294	81.81
455.514	116.81
455.734	95.81
455.955	81.81
456.175	84.81
456.395	93.81
456.616	100.81
456.836	89.81
457.056	86.81
457.276	82.81
457.497	97.81
457.717	94.81
457.937	90.81
458.157	92.81
458.377	101.81
458.598	116.81
458.818	160.81
459.038	150.81
459.258	118.81
459.478	96.81
459.698	84.81
459.918	91.81
460.138	95.81
460.358	92.81
460.578	92.81
460.798	99.81
461.018	100.81
461.238	90.81
461.458	99.81
461.678	96.81
461.898	92.81
462.118	80.81
462.338	84.81
462.558	79.81
462.777	88.81
462.997	87.81
463.217	79.81
463.437	89.81
463.657	90.81
463.876	91.81
464.096	91.81
464.316	97.81
464.536	95.81
464.755	92.81
464.975	114.81
465.195	160.81
465.414	139.81
465.634	103.81
465.854	81.81
466.073	85.81
466.293	80.81
466.512	80.81
466.732	79.81
466.951	80.81
467.171	80.81
467.391	97.81
467.61	101.81
467.829	107.81
468.049	91.81
468.268	82.81
468.488	70.81
468.707	94.81
468.927	91.81
469.146	99.81
469.365	87.81
469.585	90.81
469.804	90.81
470.023	97.81
470.243	89.81
470.462	109.81
470.681	96.81
470.901	93.81
471.12	83.81
471.339	105.81
471.558	93.81
471.777	89.81
471.997	85.81
472.216	92.81
472.435	96.81
472.654	93.81
472.873	94.81
473.092	79.81
473.311	85.81
473.53	87.81
473.749	93.81
473.968	70.81
474.187	104.81
474.406	103.81
474.625	85.81
474.844	89.81
475.063	89.81
475.282	96.81
475.501	97.81
475.72	104.81
475.939	95.81
476.158	109.81
476.377	103.81
476.596	95.81
476.814	102.81
477.033	103.81
477.252	92.81
477.471	97.81
477.69	86.81
477.908	83.81
478.127	110.81
478.346	82.81
478.564	103.81
478.783	98.81
479.002	91.81
479.22	90.81
479.439	102.81
479.658	84.81
479.876	85.81
480.095	103.81
480.313	85.81
480.532	89.81
480.751	87.81
480.969	100.81
481.188	111.81
481.406	107.81
481.624	79.81
481.843	90.81
482.061	87.81
482.28	101.81
482.498	95.81
482.717	99.81
482.935	84.81
483.153	91.81
483.372	79.81
483.59	72.81
483.808	99.81
484.027	104.81
484.245	87.81
484.463	85.81
484.681	90.81
484.9	96.81
485.118	97.81
485.336	81.81
485.554	88.81
485.772	89.81
485.99	103.81
486.209	110.81
486.427	119.81
486.645	105.81
486.863	104.81
487.081	97.81
487.299	97.81
487.517	94.81
487.735	87.81
487.953	78.81
488.171	97.81
488.389	100.81
488.607	100.81
488.825	85.81
489.043	91.81
489.261	94.81
489.479	88.81
489.696	88.81
489.914	77.81
490.132	99.81
490.35	97.81
490.568	91.81
490.786	86.81
491.003	77.81
491.221	92.81
491.439	94.81
491.657	83.81
491.874	105.81
492.092	95.81
492.31	87.81
492.527	95.81
492.745	86.81
492.963	85.81
493.18	92.81
493.398	85.81
493.615	87.81
493.833	85.81
494.05	99.81
494.268	95.81
494.485	84.81
494.703	83.81
494.92	103.81
495.138	79.81
495.355	85.81
495.573	89.81
495.79	89.81
496.008	93.81
496.225	92.81
496.442	96.81
496.66	100.81
496.877	78.81
497.094	79.81
497.312	86.81
497.529	90.81
497.746	98.81
497.963	91.81
498.181	90.81
498.398	92.81
498.615	113.81
498.832	92.81
499.049	107.81
499.267	92.81
499.484	81.81
499.701	94.81
499.918	103.81
500.135	93.81
500.352	96.81
500.569	93.81
500.786	84.81
501.003	93.81
501.22	91.81
501.437	92.81
501.654	89.81
501.871	108.81
502.088	102.81
502.305	85.81
502.522	91.81
502.739	98.81
502.956	85.81
503.172	90.81
503.389	98.81
503.606	107.81
503.823	101.81
504.04	99.81
504.256	77.81
504.473	89.81
504.69	93.81
504.907	97.81
505.123	82.81
505.34	95.81
505.557	81.81
505.773	86.81
505.99	88.81
506.207	93.81
506.423	76.81
506.64	88.81
506.856	79.81
507.073	100.81
507.289	87.81
507.506	114.81
507.722	119.81
507.939	112.81
508.155	93.81
508.372	102.81
508.588	89.81
508.805	100.81
509.021	84.81
509.238	78.81
509.454	105.81
509.67	98.81
509.887	114.81
510.103	127.81
510.319	215.81
510.536	756.81
510.752	2307.81
510.968	619.81
511.184	167.81
511.401	95.81
511.617	107.81
511.833	81.81
512.049	88.81
512.265	93.81
512.481	85.81
512.698	92.81
512.914	100.81
513.13	93.81
513.346	100.81
513.562	91.81
513.778	89.81
513.994	97.81
514.21	105.81
514.426	111.81
514.642	131.81
514.858	109.81
515.074	166.81
515.29	455.81
