Data from Uncirc_1988_H10_HRD10591_00087.txt Node
Date: Wed Jan 03 12:04:21 EST 2024
User: Yrep
Spectrometer: HR+D1059
Trigger mode: 1
Integration Time (sec): 1.000000E-1
Scans to average: 1
Electric dark correction enabled: true
Nonlinearity correction enabled: false
Boxcar width: 0
XAxis mode: Wavelengths
Number of Pixels in Spectrum: 2048
>>>>>Begin Spectral Data<<<<<
223.165	-23
223.4	-23
223.635	-23
223.869	-19
224.104	-20
224.338	-6
224.573	-12
224.808	-20
225.042	-19
225.277	-5
225.511	-1
225.746	8
225.98	15
226.215	16
226.449	14
226.683	14
226.918	20
227.152	38
227.387	21
227.621	38
227.856	40
228.09	53
228.324	49
228.559	64
228.793	71
229.027	53
229.262	71
229.496	72
229.73	79
229.964	61
230.199	80
230.433	71
230.667	80
230.901	82
231.136	97
231.37	81
231.604	76
231.838	69
232.072	71
232.306	88
232.541	70
232.775	74
233.009	95
233.243	80
233.477	84
233.711	78
233.945	88
234.179	68
234.413	62
234.647	85
234.881	80
235.115	85
235.349	77
235.583	79
235.817	88
236.051	80
236.285	70
236.519	78
236.753	93
236.987	85
237.221	74
237.455	82
237.689	87
237.922	77
238.156	79
238.39	71
238.624	75
238.858	86
239.091	62
239.325	69
239.559	82
239.793	72
240.027	74
240.26	58
240.494	89
240.728	83
240.961	84
241.195	78
241.429	68
241.662	66
241.896	86
242.13	65
242.363	89
242.597	75
242.83	71
243.064	86
243.298	82
243.531	69
243.765	68
243.998	89
244.232	81
244.465	97
244.699	80
244.932	77
245.166	83
245.399	78
245.633	71
245.866	88
246.099	68
246.333	70
246.566	66
246.8	79
247.033	70
247.266	81
247.5	81
247.733	78
247.966	78
248.2	75
248.433	75
248.666	70
248.899	71
249.133	95
249.366	91
249.599	101
249.832	87
250.066	83
250.299	90
250.532	89
250.765	71
250.998	80
251.231	84
251.465	92
251.698	69
251.931	65
252.164	76
252.397	80
252.63	70
252.863	75
253.096	63
253.329	70
253.562	90
253.795	85
254.028	93
254.261	83
254.494	80
254.727	89
254.96	94
255.193	72
255.426	83
255.659	83
255.892	81
256.124	92
256.357	67
256.59	73
256.823	81
257.056	94
257.289	85
257.521	80
257.754	85
257.987	69
258.22	87
258.452	86
258.685	89
258.918	77
259.151	83
259.383	83
259.616	85
259.849	79
260.081	70
260.314	79
260.547	67
260.779	77
261.012	79
261.244	86
261.477	86
261.71	94
261.942	120
262.175	121
262.407	76
262.64	74
262.872	86
263.105	85
263.337	74
263.57	79
263.802	70
264.035	75
264.267	91
264.499	83
264.732	76
264.964	81
265.197	86
265.429	89
265.661	87
265.894	80
266.126	85
266.358	93
266.591	101
266.823	86
267.055	86
267.287	91
267.52	88
267.752	89
267.984	89
268.216	84
268.448	99
268.681	69
268.913	88
269.145	89
269.377	88
269.609	84
269.841	88
270.073	95
270.306	94
270.538	85
270.77	87
271.002	86
271.234	78
271.466	80
271.698	79
271.93	90
272.162	84
272.394	75
272.626	91
272.858	91
273.09	76
273.322	81
273.553	85
273.785	94
274.017	82
274.249	80
274.481	81
274.713	95
274.945	87
275.176	74
275.408	99
275.64	94
275.872	86
276.104	85
276.335	78
276.567	89
276.799	103
277.031	93
277.262	85
277.494	92
277.726	86
277.957	78
278.189	80
278.421	92
278.652	72
278.884	84
279.115	87
279.347	78
279.579	91
279.81	84
280.042	75
280.273	92
280.505	95
280.736	88
280.968	85
281.199	87
281.431	80
281.662	77
281.894	96
282.125	116
282.356	128
282.588	156
282.819	116
283.051	95
283.282	88
283.513	92
283.745	84
283.976	90
284.207	80
284.439	99
284.67	79
284.901	96
285.132	79
285.364	88
285.595	80
285.826	77
286.057	96
286.288	92
286.52	81
286.751	96
286.982	83
287.213	85
287.444	92
287.675	95
287.906	89
288.138	104
288.369	99
288.6	103
288.831	79
289.062	98
289.293	78
289.524	80
289.755	84
289.986	84
290.217	85
290.448	82
290.679	83
290.91	93
291.141	94
291.371	84
291.602	83
291.833	92
292.064	82
292.295	97
292.526	102
292.757	97
292.987	84
293.218	89
293.449	76
293.68	100
293.91	79
294.141	98
294.372	88
294.603	94
294.833	97
295.064	102
295.295	87
295.525	86
295.756	106
295.987	109
296.217	148
296.448	113
296.679	82
296.909	92
297.14	82
297.37	88
297.601	86
297.831	86
298.062	98
298.292	88
298.523	91
298.753	86
298.984	96
299.214	91
299.445	97
299.675	92
299.905	93
300.136	85
300.366	86
300.597	80
300.827	96
301.057	99
301.288	103
301.518	96
301.748	87
301.979	93
302.209	95
302.439	85
302.669	88
302.9	89
303.13	69
303.36	83
303.59	102
303.82	85
304.051	99
304.281	95
304.511	100
304.741	88
304.971	81
305.201	92
305.431	71
305.661	81
305.891	97
306.121	102
306.352	110
306.582	102
306.812	91
307.042	75
307.272	94
307.502	97
307.731	94
307.961	96
308.191	86
308.421	84
308.651	92
308.881	87
309.111	90
309.341	99
309.571	96
309.8	95
310.03	89
310.26	95
310.49	89
310.72	94
310.949	107
311.179	97
311.409	95
311.639	99
311.868	96
312.098	88
312.328	83
312.557	101
312.787	103
313.017	108
313.246	103
313.476	95
313.706	105
313.935	99
314.165	119
314.394	100
314.624	103
314.853	99
315.083	96
315.312	84
315.542	83
315.771	84
316.001	93
316.23	93
316.46	85
316.689	94
316.919	103
317.148	99
317.377	88
317.607	108
317.836	97
318.065	104
318.295	93
318.524	89
318.753	70
318.983	93
319.212	101
319.441	96
319.67	99
319.9	94
320.129	106
320.358	86
320.587	104
320.816	105
321.046	113
321.275	102
321.504	101
321.733	97
321.962	112
322.191	89
322.42	105
322.649	116
322.878	122
323.108	121
323.337	134
323.566	136
323.795	176
324.024	241
324.253	437
324.482	933
324.71	1969
324.939	2641
325.168	928
325.397	273
325.626	159
325.855	133
326.084	141
326.313	132
326.542	155
326.77	258
326.999	512
327.228	1072
327.457	2003
327.686	1523
327.914	401
328.143	202
328.372	152
328.6	125
328.829	111
329.058	135
329.287	126
329.515	105
329.744	105
329.972	107
330.201	140
330.43	156
330.658	127
330.887	140
331.115	140
331.344	98
331.572	109
331.801	105
332.03	114
332.258	101
332.486	98
332.715	93
332.943	88
333.172	87
333.4	92
333.629	93
333.857	115
334.085	120
334.314	123
334.542	155
334.771	140
334.999	100
335.227	80
335.455	99
335.684	107
335.912	106
336.14	103
336.369	98
336.597	83
336.825	89
337.053	105
337.281	93
337.51	93
337.738	94
337.966	87
338.194	102
338.422	87
338.65	93
338.878	95
339.106	100
339.334	84
339.562	93
339.79	93
340.018	87
340.246	99
340.474	92
340.702	86
340.93	106
341.158	94
341.386	100
341.614	92
341.842	107
342.07	93
342.298	71
342.526	90
342.754	99
342.981	100
343.209	92
343.437	89
343.665	98
343.893	87
344.12	95
344.348	101
344.576	92
344.804	91
345.031	107
345.259	114
345.487	96
345.714	100
345.942	99
346.17	91
346.397	99
346.625	97
346.853	93
347.08	89
347.308	97
347.535	95
347.763	101
347.99	87
348.218	109
348.445	113
348.673	105
348.9	91
349.128	93
349.355	93
349.583	101
349.81	87
350.037	101
350.265	105
350.492	100
350.72	94
350.947	97
351.174	104
351.402	119
351.629	111
351.856	93
352.083	95
352.311	98
352.538	109
352.765	117
352.992	124
353.22	117
353.447	110
353.674	102
353.901	83
354.128	92
354.355	92
354.583	104
354.81	116
355.037	93
355.264	100
355.491	89
355.718	91
355.945	91
356.172	96
356.399	86
356.626	105
356.853	94
357.08	97
357.307	87
357.534	94
357.761	95
357.988	99
358.215	92
358.441	84
358.668	91
358.895	83
359.122	93
359.349	87
359.576	83
359.802	96
360.029	104
360.256	109
360.483	95
360.709	87
360.936	94
361.163	95
361.39	99
361.616	95
361.843	90
362.07	87
362.296	102
362.523	99
362.749	97
362.976	78
363.203	85
363.429	96
363.656	80
363.882	95
364.109	85
364.335	93
364.562	96
364.788	89
365.015	98
365.241	97
365.468	101
365.694	105
365.92	102
366.147	91
366.373	84
366.599	91
366.826	83
367.052	100
367.278	94
367.505	89
367.731	88
367.957	88
368.184	95
368.41	99
368.636	133
368.862	129
369.089	111
369.315	98
369.541	99
369.767	70
369.993	83
370.219	95
370.445	98
370.672	91
370.898	90
371.124	81
371.35	88
371.576	83
371.802	73
372.028	87
372.254	87
372.48	87
372.706	101
372.932	100
373.158	95
373.384	74
373.61	80
373.835	88
374.061	101
374.287	81
374.513	91
374.739	97
374.965	81
375.191	88
375.416	101
375.642	68
375.868	81
376.094	94
376.319	85
376.545	91
376.771	93
376.997	91
377.222	89
377.448	93
377.674	108
377.899	87
378.125	97
378.35	89
378.576	93
378.802	98
379.027	91
379.253	97
379.478	91
379.704	98
379.929	89
380.155	91
380.38	88
380.606	100
380.831	91
381.057	100
381.282	92
381.507	80
381.733	101
381.958	89
382.184	91
382.409	95
382.634	92
382.86	100
383.085	110
383.31	90
383.535	101
383.761	105
383.986	95
384.211	100
384.436	96
384.662	99
384.887	102
385.112	100
385.337	102
385.562	84
385.787	101
386.013	113
386.238	103
386.463	104
386.688	101
386.913	108
387.138	104
387.363	113
387.588	83
387.813	91
388.038	87
388.263	106
388.488	109
388.713	91
388.938	91
389.163	83
389.387	104
389.612	96
389.837	98
390.062	99
390.287	84
390.512	86
390.736	94
390.961	99
391.186	88
391.411	109
391.636	86
391.86	100
392.085	85
392.31	86
392.534	77
392.759	96
392.984	89
393.208	92
393.433	96
393.658	91
393.882	93
394.107	96
394.331	89
394.556	83
394.78	97
395.005	67
395.229	88
395.454	89
395.678	93
395.903	94
396.127	89
396.352	90
396.576	103
396.801	94
397.025	74
397.249	89
397.474	93
397.698	87
397.922	86
398.147	95
398.371	71
398.595	85
398.82	80
399.044	79
399.268	86
399.492	82
399.717	106
399.941	84
400.165	103
400.389	95
400.613	87
400.837	100
401.062	85
401.286	73
401.51	81
401.734	81
401.958	112
402.182	126
402.406	168
402.63	108
402.854	88
403.078	85
403.302	87
403.526	76
403.75	95
403.974	87
404.198	75
404.422	91
404.645	86
404.869	95
405.093	88
405.317	105
405.541	96
405.765	91
405.988	119
406.212	184
406.436	261
406.66	141
406.883	96
407.107	97
407.331	103
407.555	89
407.778	98
408.002	88
408.226	83
408.449	95
408.673	98
408.896	94
409.12	98
409.344	86
409.567	86
409.791	100
410.014	93
410.238	93
410.461	105
410.685	91
410.908	96
411.132	102
411.355	103
411.578	77
411.802	97
412.025	93
412.249	93
412.472	93
412.695	108
412.919	87
413.142	87
413.365	92
413.589	93
413.812	88
414.035	99
414.258	103
414.482	70
414.705	80
414.928	95
415.151	95
415.374	93
415.597	89
415.821	98
416.044	96
416.267	86
416.49	86
416.713	88
416.936	97
417.159	91
417.382	94
417.605	82
417.828	98
418.051	106
418.274	92
418.497	99
418.72	92
418.943	91
419.166	86
419.389	96
419.611	87
419.834	92
420.057	81
420.28	82
420.503	83
420.726	91
420.948	91
421.171	87
421.394	93
421.617	80
421.839	88
422.062	97
422.285	89
422.507	104
422.73	104
422.953	93
423.175	79
423.398	96
423.621	77
423.843	83
424.066	99
424.288	88
424.511	96
424.733	103
424.956	98
425.178	102
425.401	111
425.623	95
425.846	86
426.068	114
426.291	93
426.513	101
426.735	98
426.958	89
427.18	120
427.402	144
427.625	193
427.847	139
428.069	104
428.292	98
428.514	93
428.736	84
428.958	89
429.181	88
429.403	88
429.625	79
429.847	104
430.069	104
430.292	102
430.514	90
430.736	92
430.958	83
431.18	83
431.402	81
431.624	78
431.846	93
432.068	89
432.29	66
432.512	81
432.734	93
432.956	96
433.178	93
433.4	93
433.622	97
433.844	99
434.066	101
434.287	85
434.509	85
434.731	101
434.953	99
435.175	94
435.397	89
435.618	101
435.84	99
436.062	136
436.284	112
436.505	106
436.727	101
436.949	92
437.17	99
437.392	100
437.614	89
437.835	111
438.057	110
438.278	95
438.5	111
438.721	135
438.943	108
439.165	85
439.386	103
439.608	93
439.829	105
440.05	143
440.272	160
440.493	92
440.715	100
440.936	94
441.158	95
441.379	86
441.6	100
441.822	80
442.043	85
442.264	104
442.486	113
442.707	95
442.928	116
443.149	135
443.371	155
443.592	111
443.813	132
444.034	118
444.255	101
444.476	89
444.698	99
444.919	91
445.14	133
445.361	121
445.582	117
445.803	133
446.024	138
446.245	137
446.466	117
446.687	108
446.908	88
447.129	73
447.35	92
447.571	97
447.792	87
448.013	92
448.234	108
448.455	95
448.675	130
448.896	117
449.117	105
449.338	110
449.559	134
449.779	133
450	99
450.221	92
450.442	95
450.662	91
450.883	95
451.104	127
451.324	93
451.545	99
451.766	94
451.986	87
452.207	82
452.428	95
452.648	105
452.869	112
453.089	104
453.31	118
453.53	97
453.751	96
453.971	101
454.192	98
454.412	88
454.633	80
454.853	84
455.073	88
455.294	89
455.514	116
455.734	100
455.955	90
456.175	82
456.395	87
456.616	96
456.836	87
457.056	91
457.276	84
457.497	96
457.717	87
457.937	89
458.157	83
458.377	86
458.598	111
458.818	160
459.038	163
459.258	127
459.478	103
459.698	102
459.918	89
460.138	79
460.358	96
460.578	89
460.798	88
461.018	97
461.238	89
461.458	77
461.678	89
461.898	79
462.118	92
462.338	78
462.558	85
462.777	77
462.997	94
463.217	79
463.437	72
463.657	93
463.876	87
464.096	81
464.316	91
464.536	82
464.755	91
464.975	117
465.195	184
465.414	157
465.634	93
465.854	84
466.073	77
466.293	95
466.512	88
466.732	88
466.951	98
467.171	85
467.391	96
467.61	100
467.829	96
468.049	86
468.268	111
468.488	95
468.707	89
468.927	91
469.146	85
469.365	72
469.585	93
469.804	89
470.023	92
470.243	91
470.462	104
470.681	104
470.901	95
471.12	89
471.339	70
471.558	90
471.777	85
471.997	93
472.216	110
472.435	171
472.654	103
472.873	92
473.092	91
473.311	87
473.53	97
473.749	77
473.968	96
474.187	119
474.406	92
474.625	89
474.844	95
475.063	76
475.282	95
475.501	85
475.72	85
475.939	89
476.158	89
476.377	98
476.596	89
476.814	85
477.033	100
477.252	81
477.471	85
477.69	87
477.908	92
478.127	92
478.346	79
478.564	103
478.783	91
479.002	100
479.22	79
479.439	99
479.658	100
479.876	101
480.095	95
480.313	94
480.532	89
480.751	93
480.969	123
481.188	238
481.406	167
481.624	92
481.843	94
482.061	80
482.28	102
482.498	86
482.717	95
482.935	86
483.153	83
483.372	87
483.59	115
483.808	89
484.027	99
484.245	96
484.463	93
484.681	87
484.9	85
485.118	96
485.336	87
485.554	88
485.772	109
485.99	105
486.209	94
486.427	107
486.645	127
486.863	113
487.081	88
487.299	110
487.517	97
487.735	94
487.953	95
488.171	86
488.389	77
488.607	110
488.825	93
489.043	95
489.261	84
489.479	79
489.696	92
489.914	76
490.132	89
490.35	95
490.568	94
490.786	91
491.003	97
491.221	82
491.439	89
491.657	86
491.874	97
492.092	107
492.31	97
492.527	89
492.745	97
492.963	95
493.18	104
493.398	80
493.615	94
493.833	96
494.05	80
494.268	95
494.485	97
494.703	87
494.92	105
495.138	90
495.355	109
495.573	88
495.79	80
496.008	81
496.225	89
496.442	87
496.66	86
496.877	83
497.094	79
497.312	81
497.529	88
497.746	83
497.963	83
498.181	85
498.398	88
498.615	105
498.832	98
499.049	87
499.267	100
499.484	100
499.701	99
499.918	109
500.135	78
500.352	81
500.569	90
500.786	86
501.003	86
501.22	94
501.437	95
501.654	94
501.871	124
502.088	104
502.305	81
502.522	102
502.739	96
502.956	82
503.172	79
503.389	86
503.606	108
503.823	82
504.04	92
504.256	91
504.473	82
504.69	81
504.907	96
505.123	87
505.34	106
505.557	91
505.773	77
505.99	85
506.207	87
506.423	92
506.64	91
506.856	93
507.073	100
507.289	86
507.506	98
507.722	104
507.939	111
508.155	92
508.372	100
508.588	101
508.805	92
509.021	85
509.238	96
509.454	93
509.67	88
509.887	119
510.103	118
510.319	226
510.536	859
510.752	2727
510.968	751
511.184	167
511.401	130
511.617	104
511.833	95
512.049	107
512.265	98
512.481	97
512.698	94
512.914	91
513.13	86
513.346	94
513.562	109
513.778	103
513.994	102
514.21	104
514.426	143
514.642	152
514.858	129
515.074	187
515.29	510
515.506	1716
515.721	619
515.937	169
516.153	110
516.369	101
516.585	98
516.801	97
517.016	93
517.232	94
517.448	99
517.664	89
517.879	93
518.095	92
518.311	105
518.527	97
518.742	91
518.958	80
519.173	95
519.389	79
519.605	105
519.82	111
520.036	108
520.251	125
520.467	116
520.682	109
520.898	115
521.113	118
521.329	156
521.544	226
521.76	665
521.975	2893
522.19	1680
522.406	369
522.621	130
522.836	108
523.052	91
523.267	103
523.482	94
523.698	102
523.913	139
524.128	95
524.343	99
524.559	76
524.774	85
524.989	94
525.204	114
525.419	104
525.634	82
525.849	85
526.064	96
526.28	91
526.495	77
526.71	85
526.925	89
527.14	78
527.355	76
527.57	93
527.785	89
527.999	85
528.214	100
528.429	102
528.644	94
528.859	78
529.074	97
529.289	130
529.503	199
529.718	111
529.933	88
530.148	85
530.363	97
530.577	88
530.792	97
531.007	94
531.221	95
531.436	92
531.651	84
531.865	88
532.08	97
532.295	96
532.509	86
532.724	101
532.938	92
533.153	112
533.367	103
533.582	84
533.796	87
534.011	88
534.225	85
534.44	92
534.654	89
534.868	88
535.083	96
535.297	79
535.511	121
535.726	105
535.94	105
536.154	102
536.369	90
536.583	86
536.797	91
537.011	95
537.225	98
537.44	101
537.654	82
537.868	84
538.082	104
538.296	75
538.51	96
538.724	85
538.938	100
539.153	84
539.367	102
539.581	101
539.795	84
540.009	91
540.222	88
540.436	70
540.65	80
540.864	89
541.078	95
541.292	95
541.506	86
541.72	95
541.934	97
542.147	86
542.361	86
542.575	86
542.789	87
543.002	87
543.216	90
543.43	86
543.644	94
543.857	89
544.071	96
544.285	88
544.498	87
544.712	97
544.925	96
545.139	73
545.352	78
545.566	88
545.779	80
545.993	88
546.206	68
546.42	95
546.633	86
546.847	87
547.06	97
547.274	81
547.487	82
547.7	88
547.914	80
548.127	96
548.34	88
548.554	93
548.767	85
548.98	81
549.193	89
549.407	100
549.62	90
549.833	94
550.046	80
550.259	108
550.473	86
550.686	84
550.899	100
551.112	85
551.325	85
551.538	87
551.751	95
551.964	91
552.177	92
552.39	86
552.603	87
552.816	99
553.029	84
553.242	98
553.455	94
553.667	115
553.88	115
554.093	98
554.306	95
554.519	96
554.732	93
554.944	105
555.157	72
555.37	91
555.583	93
555.795	96
556.008	86
556.221	102
556.433	89
556.646	95
556.859	77
557.071	82
557.284	92
557.496	97
557.709	93
557.921	91
558.134	92
558.346	73
558.559	90
558.771	98
558.984	93
559.196	88
559.409	95
559.621	100
559.833	87
560.046	81
560.258	87
560.47	99
560.683	77
560.895	82
561.107	105
561.32	90
561.532	84
561.744	90
561.956	100
562.168	98
562.381	83
562.593	79
562.805	73
563.017	103
563.229	96
563.441	87
563.653	105
563.865	103
564.077	84
564.289	96
564.501	86
564.713	95
564.925	109
565.137	102
565.349	91
565.561	97
565.773	84
565.985	83
566.197	69
566.408	87
566.62	104
566.832	89
567.044	102
567.255	91
567.467	88
567.679	83
567.891	86
568.102	77
568.314	97
568.526	83
568.737	93
568.949	69
569.161	89
569.372	85
569.584	97
569.795	102
570.007	107
570.218	262
570.43	141
570.641	98
570.853	86
571.064	110
571.276	92
571.487	81
571.698	88
571.91	73
572.121	89
572.333	82
572.544	86
572.755	105
572.966	87
573.178	72
573.389	78
573.6	91
573.811	94
574.023	95
574.234	95
574.445	86
574.656	96
574.867	95
575.078	91
575.289	84
575.501	99
575.712	85
575.923	67
576.134	92
576.345	113
576.556	94
576.767	91
576.978	99
577.188	92
577.399	93
577.61	93
577.821	101
578.032	123
578.243	299
578.454	849
578.665	235
578.875	92
579.086	96
579.297	92
579.508	88
579.718	95
579.929	92
580.14	102
580.35	92
580.561	90
580.772	75
580.982	91
581.193	92
581.403	78
581.614	90
581.825	101
582.035	85
582.246	98
582.456	79
582.667	79
582.877	80
583.087	102
583.298	95
583.508	97
583.719	92
