Data from Uncirc_1988_H10_HRD10591_00090.txt Node
Date: Wed Jan 03 12:04:22 EST 2024
User: Yrep
Spectrometer: HR+D1059
Trigger mode: 1
Integration Time (sec): 1.000000E-1
Scans to average: 1
Electric dark correction enabled: true
Nonlinearity correction enabled: false
Boxcar width: 0
XAxis mode: Wavelengths
Number of Pixels in Spectrum: 2048
>>>>>Begin Spectral Data<<<<<
223.165	-13
223.4	-13
223.635	-13
223.869	-24
224.104	-23
224.338	2
224.573	-18
224.808	-14
225.042	-7
225.277	-3
225.511	-12
225.746	5
225.98	7
226.215	15
226.449	12
226.683	17
226.918	26
227.152	30
227.387	33
227.621	38
227.856	48
228.09	50
228.324	54
228.559	45
228.793	64
229.027	68
229.262	60
229.496	62
229.73	90
229.964	90
230.199	68
230.433	76
230.667	81
230.901	68
231.136	78
231.37	95
231.604	78
231.838	82
232.072	73
232.306	80
232.541	86
232.775	82
233.009	87
233.243	65
233.477	70
233.711	90
233.945	78
234.179	85
234.413	85
234.647	84
234.881	71
235.115	80
235.349	79
235.583	73
235.817	82
236.051	86
236.285	81
236.519	77
236.753	70
236.987	66
237.221	82
237.455	92
237.689	87
237.922	80
238.156	80
238.39	77
238.624	63
238.858	71
239.091	66
239.325	79
239.559	79
239.793	73
240.027	90
240.26	73
240.494	76
240.728	73
240.961	72
241.195	73
241.429	66
241.662	84
241.896	70
242.13	72
242.363	66
242.597	85
242.83	79
243.064	89
243.298	87
243.531	69
243.765	73
243.998	77
244.232	78
244.465	96
244.699	70
244.932	72
245.166	54
245.399	80
245.633	82
245.866	66
246.099	71
246.333	72
246.566	59
246.8	74
247.033	86
247.266	62
247.5	76
247.733	76
247.966	76
248.2	73
248.433	88
248.666	84
248.899	90
249.133	74
249.366	89
249.599	93
249.832	83
250.066	68
250.299	90
250.532	91
250.765	73
250.998	83
251.231	79
251.465	79
251.698	80
251.931	84
252.164	82
252.397	77
252.63	82
252.863	72
253.096	80
253.329	82
253.562	85
253.795	82
254.028	80
254.261	86
254.494	83
254.727	94
254.96	87
255.193	84
255.426	85
255.659	64
255.892	77
256.124	71
256.357	91
256.59	71
256.823	84
257.056	92
257.289	84
257.521	84
257.754	88
257.987	82
258.22	80
258.452	73
258.685	103
258.918	96
259.151	100
259.383	89
259.616	64
259.849	82
260.081	93
260.314	89
260.547	87
260.779	95
261.012	84
261.244	80
261.477	97
261.71	121
261.942	106
262.175	112
262.407	88
262.64	90
262.872	88
263.105	79
263.337	82
263.57	92
263.802	102
264.035	78
264.267	77
264.499	83
264.732	96
264.964	84
265.197	105
265.429	72
265.661	79
265.894	100
266.126	87
266.358	71
266.591	85
266.823	96
267.055	97
267.287	77
267.52	83
267.752	78
267.984	79
268.216	83
268.448	85
268.681	88
268.913	79
269.145	83
269.377	81
269.609	86
269.841	90
270.073	85
270.306	86
270.538	84
270.77	79
271.002	86
271.234	89
271.466	71
271.698	72
271.93	95
272.162	89
272.394	89
272.626	76
272.858	89
273.09	89
273.322	87
273.553	82
273.785	87
274.017	86
274.249	97
274.481	87
274.713	81
274.945	101
275.176	89
275.408	89
275.64	95
275.872	93
276.104	83
276.335	93
276.567	95
276.799	114
277.031	97
277.262	104
277.494	94
277.726	79
277.957	81
278.189	87
278.421	83
278.652	88
278.884	71
279.115	92
279.347	97
279.579	95
279.81	77
280.042	87
280.273	100
280.505	95
280.736	84
280.968	82
281.199	84
281.431	96
281.662	91
281.894	95
282.125	104
282.356	112
282.588	140
282.819	105
283.051	100
283.282	80
283.513	87
283.745	77
283.976	87
284.207	82
284.439	98
284.67	97
284.901	92
285.132	82
285.364	74
285.595	89
285.826	89
286.057	87
286.288	83
286.52	102
286.751	85
286.982	78
287.213	94
287.444	72
287.675	90
287.906	88
288.138	103
288.369	91
288.6	104
288.831	83
289.062	85
289.293	89
289.524	97
289.755	96
289.986	102
290.217	76
290.448	84
290.679	79
290.91	85
291.141	80
291.371	100
291.602	86
291.833	84
292.064	102
292.295	88
292.526	81
292.757	96
292.987	85
293.218	88
293.449	86
293.68	86
293.91	90
294.141	87
294.372	100
294.603	87
294.833	90
295.064	70
295.295	100
295.525	86
295.756	105
295.987	121
296.217	144
296.448	113
296.679	84
296.909	96
297.14	95
297.37	91
297.601	90
297.831	84
298.062	88
298.292	101
298.523	100
298.753	79
298.984	93
299.214	99
299.445	85
299.675	101
299.905	92
300.136	73
300.366	82
300.597	98
300.827	85
301.057	99
301.288	108
301.518	98
301.748	85
301.979	115
302.209	87
302.439	91
302.669	92
302.9	88
303.13	88
303.36	100
303.59	101
303.82	105
304.051	92
304.281	87
304.511	110
304.741	68
304.971	84
305.201	87
305.431	88
305.661	98
305.891	74
306.121	115
306.352	98
306.582	92
306.812	85
307.042	87
307.272	85
307.502	98
307.731	95
307.961	110
308.191	97
308.421	92
308.651	95
308.881	92
309.111	87
309.341	104
309.571	90
309.8	90
310.03	84
310.26	98
310.49	104
310.72	89
310.949	98
311.179	104
311.409	81
311.639	100
311.868	92
312.098	105
312.328	100
312.557	102
312.787	102
313.017	92
313.246	110
313.476	98
313.706	93
313.935	88
314.165	99
314.394	98
314.624	105
314.853	106
315.083	95
315.312	92
315.542	92
315.771	107
316.001	85
316.23	96
316.46	74
316.689	88
316.919	95
317.148	94
317.377	93
317.607	92
317.836	88
318.065	88
318.295	77
318.524	86
318.753	98
318.983	101
319.212	109
319.441	101
319.67	111
319.9	98
320.129	95
320.358	90
320.587	89
320.816	88
321.046	109
321.275	106
321.504	92
321.733	108
321.962	99
322.191	110
322.42	106
322.649	104
322.878	112
323.108	126
323.337	124
323.566	131
323.795	144
324.024	198
324.253	392
324.482	852
324.71	1734
324.939	2287
325.168	840
325.397	238
325.626	142
325.855	127
326.084	124
326.313	129
326.542	152
326.77	231
326.999	473
327.228	987
327.457	1830
327.686	1398
327.914	378
328.143	201
328.372	148
328.6	131
328.829	112
329.058	120
329.287	117
329.515	114
329.744	109
329.972	115
330.201	132
330.43	136
330.658	129
330.887	142
331.115	124
331.344	103
331.572	99
331.801	111
332.03	92
332.258	80
332.486	81
332.715	88
332.943	105
333.172	116
333.4	89
333.629	98
333.857	108
334.085	128
334.314	115
334.542	144
334.771	142
334.999	93
335.227	97
335.455	102
335.684	98
335.912	108
336.14	113
336.369	102
336.597	97
336.825	95
337.053	85
337.281	102
337.51	96
337.738	86
337.966	98
338.194	80
338.422	94
338.65	93
338.878	97
339.106	89
339.334	96
339.562	84
339.79	93
340.018	88
340.246	104
340.474	83
340.702	86
340.93	103
341.158	101
341.386	95
341.614	97
341.842	86
342.07	76
342.298	86
342.526	86
342.754	105
342.981	98
343.209	89
343.437	104
343.665	97
343.893	94
344.12	104
344.348	88
344.576	84
344.804	90
345.031	97
345.259	93
345.487	87
345.714	89
345.942	72
346.17	87
346.397	83
346.625	97
346.853	80
347.08	84
347.308	101
347.535	100
347.763	101
347.99	103
348.218	111
348.445	101
348.673	108
348.9	92
349.128	96
349.355	94
349.583	93
349.81	81
350.037	85
350.265	94
350.492	105
350.72	106
350.947	105
351.174	114
351.402	108
351.629	106
351.856	111
352.083	109
352.311	100
352.538	105
352.765	108
352.992	116
353.22	106
353.447	104
353.674	95
353.901	110
354.128	104
354.355	100
354.583	88
354.81	105
355.037	88
355.264	96
355.491	89
355.718	86
355.945	99
356.172	98
356.399	82
356.626	91
356.853	98
357.08	106
357.307	91
357.534	103
357.761	90
357.988	98
358.215	92
358.441	78
358.668	84
358.895	74
359.122	87
359.349	97
359.576	92
359.802	97
360.029	114
360.256	109
360.483	98
360.709	87
360.936	98
361.163	94
361.39	92
361.616	87
361.843	82
362.07	104
362.296	94
362.523	82
362.749	87
362.976	83
363.203	90
363.429	87
363.656	91
363.882	90
364.109	97
364.335	94
364.562	92
364.788	95
365.015	86
365.241	93
365.468	112
365.694	101
365.92	108
366.147	98
366.373	88
366.599	92
366.826	87
367.052	98
367.278	83
367.505	94
367.731	96
367.957	80
368.184	96
368.41	95
368.636	109
368.862	110
369.089	107
369.315	96
369.541	74
369.767	108
369.993	92
370.219	83
370.445	87
370.672	85
370.898	72
371.124	98
371.35	83
371.576	87
371.802	97
372.028	101
372.254	83
372.48	75
372.706	105
372.932	86
373.158	87
373.384	92
373.61	84
373.835	89
374.061	83
374.287	97
374.513	105
374.739	92
374.965	93
375.191	86
375.416	95
375.642	102
375.868	80
376.094	94
376.319	81
376.545	96
376.771	94
376.997	92
377.222	91
377.448	104
377.674	76
377.899	89
378.125	95
378.35	86
378.576	78
378.802	80
379.027	85
379.253	90
379.478	87
379.704	85
379.929	93
380.155	92
380.38	88
380.606	106
380.831	99
381.057	89
381.282	101
381.507	90
381.733	92
381.958	86
382.184	83
382.409	96
382.634	89
382.86	101
383.085	100
383.31	95
383.535	110
383.761	93
383.986	97
384.211	85
384.436	113
384.662	98
384.887	104
385.112	95
385.337	100
385.562	108
385.787	114
386.013	94
386.238	92
386.463	105
386.688	106
386.913	105
387.138	96
387.363	88
387.588	92
387.813	98
388.038	102
388.263	111
388.488	110
388.713	90
388.938	106
389.163	101
389.387	86
389.612	94
389.837	94
390.062	116
390.287	94
390.512	94
390.736	87
390.961	103
391.186	104
391.411	94
391.636	82
391.86	93
392.085	79
392.31	94
392.534	91
392.759	86
392.984	76
393.208	82
393.433	82
393.658	88
393.882	92
394.107	72
394.331	80
394.556	88
394.78	81
395.005	86
395.229	90
395.454	88
395.678	84
395.903	91
396.127	83
396.352	81
396.576	89
396.801	85
397.025	82
397.249	91
397.474	94
397.698	104
397.922	95
398.147	78
398.371	74
398.595	87
398.82	77
399.044	102
399.268	84
399.492	91
399.717	92
399.941	82
400.165	80
400.389	94
400.613	88
400.837	88
401.062	81
401.286	96
401.51	108
401.734	97
401.958	106
402.182	129
402.406	149
402.63	119
402.854	113
403.078	93
403.302	80
403.526	87
403.75	88
403.974	87
404.198	72
404.422	80
404.645	84
404.869	92
405.093	104
405.317	110
405.541	104
405.765	88
405.988	113
406.212	158
406.436	221
406.66	143
406.883	90
407.107	94
407.331	100
407.555	101
407.778	98
408.002	108
408.226	79
408.449	83
408.673	97
408.896	95
409.12	102
409.344	91
409.567	97
409.791	93
410.014	92
410.238	88
410.461	83
410.685	79
410.908	96
411.132	107
411.355	111
411.578	101
411.802	81
412.025	95
412.249	81
412.472	85
412.695	102
412.919	96
413.142	79
413.365	87
413.589	97
413.812	94
414.035	101
414.258	91
414.482	82
414.705	94
414.928	100
415.151	88
415.374	88
415.597	81
415.821	79
416.044	94
416.267	92
416.49	100
416.713	90
416.936	88
417.159	77
417.382	91
417.605	76
417.828	84
418.051	106
418.274	97
418.497	74
418.72	84
418.943	91
419.166	83
419.389	80
419.611	92
419.834	74
420.057	83
420.28	98
420.503	72
420.726	80
420.948	93
421.171	97
421.394	82
421.617	92
421.839	84
422.062	97
422.285	90
422.507	90
422.73	104
422.953	90
423.175	70
423.398	83
423.621	105
423.843	79
424.066	82
424.288	91
424.511	93
424.733	98
424.956	112
425.178	90
425.401	86
425.623	101
425.846	70
426.068	89
426.291	93
426.513	88
426.735	94
426.958	83
427.18	119
427.402	136
427.625	156
427.847	129
428.069	103
428.292	79
428.514	94
428.736	84
428.958	89
429.181	89
429.403	89
429.625	90
429.847	102
430.069	102
430.292	80
430.514	88
430.736	98
430.958	80
431.18	86
431.402	89
431.624	74
431.846	82
432.068	101
432.29	91
432.512	89
432.734	83
432.956	88
433.178	89
433.4	103
433.622	79
433.844	81
434.066	105
434.287	88
434.509	83
434.731	85
434.953	100
435.175	84
435.397	100
435.618	86
435.84	101
436.062	120
436.284	119
436.505	103
436.727	104
436.949	83
437.17	81
437.392	78
437.614	90
437.835	95
438.057	108
438.278	98
438.5	115
438.721	127
438.943	109
439.165	81
439.386	102
439.608	89
439.829	99
440.05	119
440.272	150
440.493	89
440.715	103
440.936	93
441.158	96
441.379	90
441.6	97
441.822	102
442.043	98
442.264	102
442.486	94
442.707	101
442.928	95
443.149	122
443.371	126
443.592	101
443.813	113
444.034	108
444.255	88
444.476	83
444.698	90
444.919	94
445.14	122
445.361	120
445.582	126
445.803	122
446.024	123
446.245	133
446.466	126
446.687	105
446.908	92
447.129	82
447.35	89
447.571	90
447.792	84
448.013	102
448.234	116
448.455	105
448.675	106
448.896	118
449.117	110
449.338	99
449.559	115
449.779	126
450	92
450.221	81
450.442	99
450.662	90
450.883	96
451.104	117
451.324	95
451.545	93
451.766	90
451.986	101
452.207	89
452.428	87
452.648	90
452.869	115
453.089	119
453.31	116
453.53	88
453.751	97
453.971	105
454.192	106
454.412	104
454.633	63
454.853	84
455.073	76
455.294	94
455.514	100
455.734	85
455.955	81
456.175	70
456.395	89
456.616	78
456.836	82
457.056	91
457.276	81
457.497	84
457.717	109
457.937	85
458.157	88
458.377	95
458.598	114
458.818	146
459.038	149
459.258	117
459.478	89
459.698	88
459.918	86
460.138	85
460.358	82
460.578	95
460.798	86
461.018	80
461.238	94
461.458	89
461.678	86
461.898	90
462.118	88
462.338	88
462.558	89
462.777	77
462.997	76
463.217	96
463.437	78
463.657	83
463.876	80
464.096	89
464.316	81
464.536	105
464.755	98
464.975	112
465.195	152
465.414	146
465.634	87
465.854	100
466.073	96
466.293	94
466.512	89
466.732	88
466.951	78
467.171	96
467.391	88
467.61	114
467.829	107
468.049	96
468.268	109
468.488	94
468.707	96
468.927	92
469.146	90
469.365	92
469.585	86
469.804	96
470.023	111
470.243	84
470.462	108
470.681	104
470.901	96
471.12	91
471.339	93
471.558	85
471.777	102
471.997	80
472.216	126
472.435	178
472.654	116
472.873	91
473.092	85
473.311	80
473.53	93
473.749	86
473.968	98
474.187	109
474.406	102
474.625	89
474.844	88
475.063	89
475.282	81
475.501	90
475.72	87
475.939	88
476.158	83
476.377	92
476.596	84
476.814	96
477.033	91
477.252	97
477.471	88
477.69	84
477.908	79
478.127	82
478.346	94
478.564	82
478.783	95
479.002	87
479.22	88
479.439	96
479.658	88
479.876	100
480.095	96
480.313	104
480.532	96
480.751	94
480.969	122
481.188	235
481.406	170
481.624	99
481.843	77
482.061	84
482.28	93
482.498	90
482.717	80
482.935	82
483.153	100
483.372	95
483.59	90
483.808	79
484.027	77
484.245	81
484.463	77
484.681	85
484.9	89
485.118	89
485.336	85
485.554	98
485.772	91
485.99	93
486.209	120
486.427	104
486.645	119
486.863	98
487.081	110
487.299	111
487.517	92
487.735	88
487.953	80
488.171	92
488.389	87
488.607	108
488.825	109
489.043	83
489.261	91
489.479	98
489.696	85
489.914	76
490.132	93
490.35	89
490.568	77
490.786	94
491.003	94
491.221	90
491.439	97
491.657	91
491.874	92
492.092	98
492.31	82
492.527	92
492.745	92
492.963	90
493.18	93
493.398	88
493.615	93
493.833	86
494.05	90
494.268	97
494.485	96
494.703	87
494.92	96
495.138	88
495.355	85
495.573	90
495.79	88
496.008	91
496.225	82
496.442	93
496.66	93
496.877	93
497.094	88
497.312	86
497.529	95
497.746	96
497.963	89
498.181	98
498.398	98
498.615	102
498.832	111
499.049	73
499.267	84
499.484	82
499.701	84
499.918	92
500.135	82
500.352	87
500.569	94
500.786	78
501.003	90
501.22	88
501.437	88
501.654	94
501.871	105
502.088	92
502.305	99
502.522	94
502.739	83
502.956	96
503.172	96
503.389	98
503.606	101
503.823	97
504.04	89
504.256	95
504.473	100
504.69	72
504.907	90
505.123	89
505.34	94
505.557	84
505.773	97
505.99	84
506.207	100
506.423	90
506.64	93
506.856	91
507.073	80
507.289	98
507.506	104
507.722	102
507.939	116
508.155	104
508.372	99
508.588	88
508.805	92
509.021	97
509.238	88
509.454	102
509.67	117
509.887	123
510.103	127
510.319	202
510.536	731
510.752	2343
510.968	647
511.184	153
511.401	107
511.617	96
511.833	92
512.049	101
512.265	82
512.481	85
512.698	87
512.914	84
513.13	103
513.346	98
513.562	94
513.778	93
513.994	95
514.21	86
514.426	102
514.642	140
514.858	98
515.074	172
515.29	454
515.506	1550
515.721	540
515.937	160
516.153	113
516.369	80
516.585	104
516.801	88
517.016	96
517.232	86
517.448	93
517.664	110
517.879	93
518.095	100
518.311	89
518.527	98
518.742	92
518.958	98
519.173	89
519.389	105
519.605	96
519.82	106
520.036	98
520.251	105
520.467	114
520.682	106
520.898	100
521.113	113
521.329	148
521.544	206
521.76	568
521.975	2550
522.19	1490
522.406	303
522.621	123
522.836	97
523.052	88
523.267	90
523.482	90
523.698	102
523.913	139
524.128	112
524.343	98
524.559	106
524.774	98
524.989	97
525.204	116
525.419	94
525.634	78
525.849	82
526.064	92
526.28	100
526.495	89
526.71	97
526.925	91
527.14	99
527.355	82
527.57	91
527.785	92
527.999	100
528.214	100
528.429	92
528.644	88
528.859	89
529.074	95
529.289	129
529.503	165
529.718	112
529.933	86
530.148	88
530.363	86
530.577	90
530.792	100
531.007	89
531.221	89
531.436	74
531.651	74
531.865	101
532.08	96
532.295	96
532.509	105
532.724	99
532.938	98
533.153	100
533.367	100
533.582	101
533.796	109
534.011	101
534.225	95
534.44	96
534.654	97
534.868	86
535.083	102
535.297	93
535.511	103
535.726	100
535.94	85
536.154	101
536.369	79
536.583	83
536.797	94
537.011	96
537.225	81
537.44	103
537.654	91
537.868	91
538.082	97
538.296	74
538.51	91
538.724	89
538.938	98
539.153	104
539.367	100
539.581	102
539.795	87
540.009	83
540.222	99
540.436	99
540.65	93
540.864	106
541.078	98
541.292	103
541.506	87
541.72	101
541.934	86
542.147	94
542.361	93
542.575	84
542.789	111
543.002	86
543.216	85
543.43	110
543.644	110
543.857	99
544.071	94
544.285	98
544.498	99
544.712	95
544.925	84
545.139	99
545.352	78
545.566	99
545.779	87
545.993	79
546.206	96
546.42	79
546.633	99
546.847	93
547.06	100
547.274	81
547.487	89
547.7	88
547.914	98
548.127	86
548.34	78
548.554	94
548.767	83
548.98	87
549.193	92
549.407	87
549.62	104
549.833	94
550.046	88
550.259	82
550.473	90
550.686	90
550.899	79
551.112	74
551.325	92
551.538	74
551.751	96
551.964	92
552.177	82
552.39	82
552.603	89
552.816	69
553.029	87
553.242	84
553.455	97
553.667	106
553.88	96
554.093	91
554.306	100
554.519	96
554.732	100
554.944	84
555.157	82
555.37	81
555.583	85
555.795	99
556.008	92
556.221	90
556.433	88
556.646	81
556.859	86
557.071	92
557.284	81
557.496	88
557.709	88
557.921	95
558.134	80
558.346	98
558.559	97
558.771	87
558.984	92
559.196	97
559.409	77
559.621	93
559.833	92
560.046	91
560.258	100
560.47	79
560.683	92
560.895	104
561.107	78
561.32	98
561.532	79
561.744	90
561.956	100
562.168	100
562.381	90
562.593	89
562.805	90
563.017	105
563.229	94
563.441	96
563.653	92
563.865	84
564.077	93
564.289	100
564.501	80
564.713	81
564.925	99
565.137	87
565.349	93
565.561	93
565.773	89
565.985	98
566.197	103
566.408	83
566.62	91
566.832	97
567.044	83
567.255	90
567.467	84
567.679	88
567.891	87
568.102	93
568.314	86
568.526	85
568.737	96
568.949	82
569.161	80
569.372	88
569.584	85
569.795	77
570.007	118
570.218	253
570.43	129
570.641	78
570.853	92
571.064	77
571.276	103
571.487	75
571.698	91
571.91	89
572.121	92
572.333	86
572.544	80
572.755	93
572.966	88
573.178	91
573.389	103
573.6	85
573.811	98
574.023	82
574.234	67
574.445	99
574.656	93
574.867	96
575.078	93
575.289	92
575.501	92
575.712	97
575.923	104
576.134	97
576.345	86
576.556	96
576.767	93
576.978	98
577.188	95
577.399	94
577.61	101
577.821	118
578.032	121
578.243	275
578.454	760
578.665	207
578.875	121
579.086	88
579.297	100
579.508	84
579.718	83
579.929	105
580.14	88
580.35	94
580.561	85
580.772	91
580.982	84
581.193	83
581.403	82
581.614	92
581.825	84
582.035	82
582.246	79
582.456	74
582.667	78
582.877	89
583.087	94
583.298	89
583.508	102
