Data from Uncirc_1988_H10_HRD10591_00035.txt Node
Date: Wed Jan 03 12:04:11 EST 2024
User: Yrep
Spectrometer: HR+D1059
Trigger mode: 1
Integration Time (sec): 1.000000E-1
Scans to average: 1
Electric dark correction enabled: true
Nonlinearity correction enabled: false
Boxcar width: 0
XAxis mode: Wavelengths
Number of Pixels in Spectrum: 2048
>>>>>Begin Spectral Data<<<<<
223.165	-11.94
223.4	-11.94
223.635	-11.94
223.869	-16.94
224.104	-24.94
224.338	-11.94
224.573	-4.94
224.808	-12.94
225.042	-11.94
225.277	-0.94
225.511	-9.94
225.746	7.06
225.98	3.06
226.215	19.06
226.449	9.06
226.683	16.06
226.918	29.06
227.152	23.06
227.387	35.06
227.621	37.06
227.856	48.06
228.09	41.06
228.324	46.06
228.559	53.06
228.793	51.06
229.027	66.06
229.262	64.06
229.496	78.06
229.73	68.06
229.964	92.06
230.199	90.06
230.433	69.06
230.667	83.06
230.901	70.06
231.136	60.06
231.37	83.06
231.604	72.06
231.838	81.06
232.072	78.06
232.306	89.06
232.541	70.06
232.775	86.06
233.009	68.06
233.243	89.06
233.477	98.06
233.711	73.06
233.945	85.06
234.179	89.06
234.413	70.06
234.647	61.06
234.881	79.06
235.115	78.06
235.349	75.06
235.583	71.06
235.817	73.06
236.051	75.06
236.285	75.06
236.519	83.06
236.753	63.06
236.987	84.06
237.221	78.06
237.455	79.06
237.689	67.06
237.922	80.06
238.156	71.06
238.39	59.06
238.624	70.06
238.858	70.06
239.091	83.06
239.325	88.06
239.559	84.06
239.793	78.06
240.027	83.06
240.26	80.06
240.494	75.06
240.728	65.06
240.961	82.06
241.195	89.06
241.429	90.06
241.662	65.06
241.896	76.06
242.13	65.06
242.363	83.06
242.597	61.06
242.83	78.06
243.064	94.06
243.298	76.06
243.531	72.06
243.765	88.06
243.998	75.06
244.232	80.06
244.465	82.06
244.699	80.06
244.932	98.06
245.166	81.06
245.399	64.06
245.633	89.06
245.866	66.06
246.099	91.06
246.333	89.06
246.566	82.06
246.8	74.06
247.033	81.06
247.266	89.06
247.5	70.06
247.733	82.06
247.966	74.06
248.2	67.06
248.433	71.06
248.666	92.06
248.899	81.06
249.133	87.06
249.366	112.06
249.599	94.06
249.832	83.06
250.066	85.06
250.299	88.06
250.532	75.06
250.765	80.06
250.998	80.06
251.231	79.06
251.465	86.06
251.698	85.06
251.931	80.06
252.164	65.06
252.397	86.06
252.63	85.06
252.863	102.06
253.096	103.06
253.329	78.06
253.562	71.06
253.795	84.06
254.028	88.06
254.261	86.06
254.494	80.06
254.727	86.06
254.96	88.06
255.193	85.06
255.426	68.06
255.659	79.06
255.892	72.06
256.124	63.06
256.357	75.06
256.59	89.06
256.823	77.06
257.056	97.06
257.289	89.06
257.521	90.06
257.754	84.06
257.987	89.06
258.22	79.06
258.452	80.06
258.685	87.06
258.918	97.06
259.151	87.06
259.383	88.06
259.616	71.06
259.849	80.06
260.081	94.06
260.314	84.06
260.547	85.06
260.779	80.06
261.012	80.06
261.244	87.06
261.477	86.06
261.71	86.06
261.942	112.06
262.175	101.06
262.407	82.06
262.64	74.06
262.872	87.06
263.105	84.06
263.337	85.06
263.57	70.06
263.802	64.06
264.035	78.06
264.267	73.06
264.499	77.06
264.732	89.06
264.964	91.06
265.197	87.06
265.429	88.06
265.661	86.06
265.894	84.06
266.126	74.06
266.358	90.06
266.591	91.06
266.823	83.06
267.055	88.06
267.287	82.06
267.52	83.06
267.752	92.06
267.984	74.06
268.216	85.06
268.448	82.06
268.681	83.06
268.913	97.06
269.145	98.06
269.377	75.06
269.609	87.06
269.841	87.06
270.073	86.06
270.306	92.06
270.538	83.06
270.77	77.06
271.002	81.06
271.234	88.06
271.466	95.06
271.698	99.06
271.93	94.06
272.162	82.06
272.394	84.06
272.626	87.06
272.858	80.06
273.09	83.06
273.322	96.06
273.553	93.06
273.785	89.06
274.017	90.06
274.249	88.06
274.481	88.06
274.713	83.06
274.945	90.06
275.176	69.06
275.408	95.06
275.64	86.06
275.872	87.06
276.104	90.06
276.335	91.06
276.567	87.06
276.799	90.06
277.031	102.06
277.262	92.06
277.494	91.06
277.726	88.06
277.957	94.06
278.189	95.06
278.421	87.06
278.652	86.06
278.884	74.06
279.115	90.06
279.347	78.06
279.579	88.06
279.81	80.06
280.042	86.06
280.273	99.06
280.505	86.06
280.736	77.06
280.968	106.06
281.199	107.06
281.431	91.06
281.662	84.06
281.894	99.06
282.125	100.06
282.356	121.06
282.588	125.06
282.819	111.06
283.051	93.06
283.282	73.06
283.513	105.06
283.745	85.06
283.976	96.06
284.207	100.06
284.439	94.06
284.67	88.06
284.901	73.06
285.132	81.06
285.364	85.06
285.595	73.06
285.826	73.06
286.057	90.06
286.288	91.06
286.52	90.06
286.751	84.06
286.982	96.06
287.213	92.06
287.444	98.06
287.675	83.06
287.906	84.06
288.138	90.06
288.369	100.06
288.6	95.06
288.831	82.06
289.062	94.06
289.293	104.06
289.524	104.06
289.755	102.06
289.986	90.06
290.217	90.06
290.448	78.06
290.679	82.06
290.91	87.06
291.141	85.06
291.371	95.06
291.602	100.06
291.833	95.06
292.064	91.06
292.295	107.06
292.526	92.06
292.757	94.06
292.987	84.06
293.218	93.06
293.449	98.06
293.68	84.06
293.91	84.06
294.141	105.06
294.372	81.06
294.603	95.06
294.833	91.06
295.064	82.06
295.295	91.06
295.525	92.06
295.756	94.06
295.987	110.06
296.217	131.06
296.448	116.06
296.679	92.06
296.909	100.06
297.14	102.06
297.37	96.06
297.601	83.06
297.831	84.06
298.062	82.06
298.292	86.06
298.523	96.06
298.753	98.06
298.984	94.06
299.214	98.06
299.445	102.06
299.675	97.06
299.905	95.06
300.136	90.06
300.366	99.06
300.597	91.06
300.827	92.06
301.057	88.06
301.288	108.06
301.518	95.06
301.748	98.06
301.979	116.06
302.209	99.06
302.439	100.06
302.669	92.06
302.9	86.06
303.13	89.06
303.36	95.06
303.59	90.06
303.82	117.06
304.051	90.06
304.281	98.06
304.511	98.06
304.741	79.06
304.971	88.06
305.201	92.06
305.431	82.06
305.661	96.06
305.891	87.06
306.121	112.06
306.352	112.06
306.582	98.06
306.812	103.06
307.042	96.06
307.272	101.06
307.502	90.06
307.731	96.06
307.961	84.06
308.191	86.06
308.421	99.06
308.651	99.06
308.881	96.06
309.111	81.06
309.341	94.06
309.571	101.06
309.8	93.06
310.03	100.06
310.26	104.06
310.49	90.06
310.72	102.06
310.949	104.06
311.179	99.06
311.409	94.06
311.639	87.06
311.868	99.06
312.098	91.06
312.328	94.06
312.557	102.06
312.787	105.06
313.017	92.06
313.246	86.06
313.476	98.06
313.706	106.06
313.935	99.06
314.165	89.06
314.394	90.06
314.624	102.06
314.853	103.06
315.083	95.06
315.312	98.06
315.542	81.06
315.771	97.06
316.001	95.06
316.23	108.06
316.46	104.06
316.689	97.06
316.919	102.06
317.148	92.06
317.377	80.06
317.607	104.06
317.836	91.06
318.065	92.06
318.295	89.06
318.524	89.06
318.753	102.06
318.983	94.06
319.212	91.06
319.441	100.06
319.67	104.06
319.9	99.06
320.129	93.06
320.358	95.06
320.587	100.06
320.816	111.06
321.046	101.06
321.275	105.06
321.504	87.06
321.733	111.06
321.962	82.06
322.191	108.06
322.42	115.06
322.649	106.06
322.878	117.06
323.108	125.06
323.337	119.06
323.566	131.06
323.795	133.06
324.024	200.06
324.253	380.06
324.482	823.06
324.71	1706.06
324.939	2226.06
325.168	810.06
325.397	247.06
325.626	158.06
325.855	135.06
326.084	132.06
326.313	135.06
326.542	155.06
326.77	231.06
326.999	464.06
327.228	954.06
327.457	1772.06
327.686	1364.06
327.914	362.06
328.143	172.06
328.372	134.06
328.6	120.06
328.829	118.06
329.058	135.06
329.287	117.06
329.515	109.06
329.744	115.06
329.972	92.06
330.201	111.06
330.43	116.06
330.658	130.06
330.887	150.06
331.115	128.06
331.344	98.06
331.572	101.06
331.801	114.06
332.03	111.06
332.258	98.06
332.486	84.06
332.715	100.06
332.943	93.06
333.172	94.06
333.4	95.06
333.629	108.06
333.857	103.06
334.085	111.06
334.314	102.06
334.542	93.06
334.771	105.06
334.999	89.06
335.227	93.06
335.455	97.06
335.684	101.06
335.912	103.06
336.14	103.06
336.369	92.06
336.597	84.06
336.825	92.06
337.053	84.06
337.281	96.06
337.51	91.06
337.738	85.06
337.966	89.06
338.194	94.06
338.422	88.06
338.65	88.06
338.878	87.06
339.106	92.06
339.334	91.06
339.562	78.06
339.79	99.06
340.018	92.06
340.246	95.06
340.474	99.06
340.702	82.06
340.93	86.06
341.158	92.06
341.386	102.06
341.614	91.06
341.842	100.06
342.07	84.06
342.298	92.06
342.526	88.06
342.754	82.06
342.981	101.06
343.209	102.06
343.437	96.06
343.665	118.06
343.893	92.06
344.12	97.06
344.348	100.06
344.576	95.06
344.804	99.06
345.031	105.06
345.259	95.06
345.487	95.06
345.714	91.06
345.942	94.06
346.17	91.06
346.397	102.06
346.625	94.06
346.853	96.06
347.08	97.06
347.308	99.06
347.535	91.06
347.763	96.06
347.99	91.06
348.218	103.06
348.445	103.06
348.673	96.06
348.9	80.06
349.128	98.06
349.355	89.06
349.583	112.06
349.81	102.06
350.037	94.06
350.265	89.06
350.492	93.06
350.72	100.06
350.947	95.06
351.174	124.06
351.402	98.06
351.629	93.06
351.856	103.06
352.083	102.06
352.311	113.06
352.538	100.06
352.765	107.06
352.992	119.06
353.22	98.06
353.447	110.06
353.674	100.06
353.901	97.06
354.128	108.06
354.355	99.06
354.583	100.06
354.81	95.06
355.037	102.06
355.264	92.06
355.491	98.06
355.718	92.06
355.945	94.06
356.172	90.06
356.399	87.06
356.626	94.06
356.853	91.06
357.08	84.06
357.307	96.06
357.534	87.06
357.761	94.06
357.988	114.06
358.215	104.06
358.441	100.06
358.668	101.06
358.895	90.06
359.122	95.06
359.349	102.06
359.576	90.06
359.802	111.06
360.029	124.06
360.256	108.06
360.483	91.06
360.709	79.06
360.936	91.06
361.163	102.06
361.39	88.06
361.616	88.06
361.843	98.06
362.07	98.06
362.296	100.06
362.523	102.06
362.749	98.06
362.976	90.06
363.203	87.06
363.429	90.06
363.656	86.06
363.882	98.06
364.109	70.06
364.335	91.06
364.562	106.06
364.788	92.06
365.015	94.06
365.241	112.06
365.468	110.06
365.694	107.06
365.92	101.06
366.147	90.06
366.373	86.06
366.599	88.06
366.826	75.06
367.052	94.06
367.278	97.06
367.505	79.06
367.731	86.06
367.957	83.06
368.184	88.06
368.41	101.06
368.636	121.06
368.862	109.06
369.089	94.06
369.315	89.06
369.541	88.06
369.767	81.06
369.993	88.06
370.219	90.06
370.445	92.06
370.672	100.06
370.898	73.06
371.124	87.06
371.35	92.06
371.576	78.06
371.802	94.06
372.028	90.06
372.254	95.06
372.48	87.06
372.706	98.06
372.932	96.06
373.158	97.06
373.384	103.06
373.61	111.06
373.835	82.06
374.061	88.06
374.287	91.06
374.513	103.06
374.739	91.06
374.965	95.06
375.191	81.06
375.416	89.06
375.642	98.06
375.868	98.06
376.094	104.06
376.319	90.06
376.545	95.06
376.771	81.06
376.997	95.06
377.222	87.06
377.448	90.06
377.674	83.06
377.899	97.06
378.125	93.06
378.35	99.06
378.576	88.06
378.802	100.06
379.027	90.06
379.253	97.06
379.478	112.06
379.704	101.06
379.929	95.06
380.155	100.06
380.38	102.06
380.606	104.06
380.831	104.06
381.057	95.06
381.282	103.06
381.507	98.06
381.733	98.06
381.958	105.06
382.184	93.06
382.409	107.06
382.634	106.06
382.86	95.06
383.085	103.06
383.31	106.06
383.535	112.06
383.761	100.06
383.986	106.06
384.211	94.06
384.436	97.06
384.662	99.06
384.887	105.06
385.112	108.06
385.337	115.06
385.562	123.06
385.787	110.06
386.013	103.06
386.238	105.06
386.463	101.06
386.688	122.06
386.913	95.06
387.138	103.06
387.363	94.06
387.588	92.06
387.813	122.06
388.038	90.06
388.263	107.06
388.488	111.06
388.713	95.06
388.938	88.06
389.163	96.06
389.387	94.06
389.612	95.06
389.837	115.06
390.062	96.06
390.287	107.06
390.512	89.06
390.736	86.06
390.961	96.06
391.186	87.06
391.411	88.06
391.636	90.06
391.86	97.06
392.085	90.06
392.31	104.06
392.534	98.06
392.759	93.06
392.984	98.06
393.208	94.06
393.433	93.06
393.658	105.06
393.882	96.06
394.107	84.06
394.331	87.06
394.556	86.06
394.78	87.06
395.005	90.06
395.229	84.06
395.454	93.06
395.678	96.06
395.903	104.06
396.127	97.06
396.352	86.06
396.576	83.06
396.801	91.06
397.025	93.06
397.249	92.06
397.474	93.06
397.698	100.06
397.922	103.06
398.147	92.06
398.371	84.06
398.595	88.06
398.82	94.06
399.044	87.06
399.268	97.06
399.492	89.06
399.717	98.06
399.941	88.06
400.165	98.06
400.389	89.06
400.613	99.06
400.837	94.06
401.062	93.06
401.286	91.06
401.51	85.06
401.734	100.06
401.958	94.06
402.182	110.06
402.406	142.06
402.63	116.06
402.854	101.06
403.078	96.06
403.302	100.06
403.526	83.06
403.75	84.06
403.974	86.06
404.198	80.06
404.422	94.06
404.645	84.06
404.869	106.06
405.093	78.06
405.317	107.06
405.541	98.06
405.765	112.06
405.988	109.06
406.212	163.06
406.436	192.06
406.66	133.06
406.883	102.06
407.107	89.06
407.331	89.06
407.555	104.06
407.778	107.06
408.002	102.06
408.226	90.06
408.449	81.06
408.673	102.06
408.896	83.06
409.12	108.06
409.344	96.06
409.567	89.06
409.791	95.06
410.014	108.06
410.238	92.06
410.461	88.06
410.685	94.06
410.908	101.06
411.132	98.06
411.355	103.06
411.578	92.06
411.802	86.06
412.025	91.06
412.249	95.06
412.472	85.06
412.695	88.06
412.919	76.06
413.142	87.06
413.365	87.06
413.589	96.06
413.812	79.06
414.035	99.06
414.258	101.06
414.482	89.06
414.705	92.06
414.928	96.06
415.151	90.06
415.374	101.06
415.597	108.06
415.821	84.06
416.044	92.06
416.267	90.06
416.49	88.06
416.713	95.06
416.936	84.06
417.159	73.06
417.382	91.06
417.605	89.06
417.828	104.06
418.051	90.06
418.274	100.06
418.497	93.06
418.72	92.06
418.943	95.06
419.166	78.06
419.389	92.06
419.611	97.06
419.834	97.06
420.057	73.06
420.28	76.06
420.503	78.06
420.726	83.06
420.948	86.06
421.171	98.06
421.394	96.06
421.617	91.06
421.839	88.06
422.062	88.06
422.285	106.06
422.507	112.06
422.73	98.06
422.953	90.06
423.175	76.06
423.398	86.06
423.621	85.06
423.843	83.06
424.066	77.06
424.288	109.06
424.511	91.06
424.733	99.06
424.956	102.06
425.178	90.06
425.401	99.06
425.623	82.06
425.846	84.06
426.068	94.06
426.291	92.06
426.513	91.06
426.735	100.06
426.958	104.06
427.18	100.06
427.402	135.06
427.625	143.06
427.847	118.06
428.069	113.06
428.292	88.06
428.514	91.06
428.736	98.06
428.958	96.06
429.181	101.06
429.403	78.06
429.625	86.06
429.847	110.06
430.069	98.06
430.292	95.06
430.514	85.06
430.736	106.06
430.958	78.06
431.18	86.06
431.402	96.06
431.624	94.06
431.846	107.06
432.068	94.06
432.29	101.06
432.512	82.06
432.734	91.06
432.956	98.06
433.178	94.06
433.4	99.06
433.622	105.06
433.844	92.06
434.066	83.06
434.287	93.06
434.509	98.06
434.731	90.06
434.953	94.06
435.175	80.06
435.397	86.06
435.618	91.06
435.84	103.06
436.062	113.06
436.284	137.06
436.505	103.06
436.727	102.06
436.949	95.06
437.17	102.06
437.392	91.06
437.614	97.06
437.835	121.06
438.057	108.06
438.278	107.06
438.5	98.06
438.721	118.06
438.943	98.06
439.165	90.06
439.386	84.06
439.608	82.06
439.829	91.06
440.05	129.06
440.272	134.06
440.493	96.06
440.715	88.06
440.936	87.06
441.158	91.06
441.379	94.06
441.6	89.06
441.822	100.06
442.043	89.06
442.264	102.06
442.486	101.06
442.707	96.06
442.928	117.06
443.149	110.06
443.371	132.06
443.592	102.06
443.813	116.06
444.034	105.06
444.255	104.06
444.476	91.06
444.698	95.06
444.919	99.06
445.14	139.06
445.361	115.06
445.582	101.06
445.803	123.06
446.024	143.06
446.245	130.06
446.466	106.06
446.687	92.06
446.908	100.06
447.129	90.06
447.35	97.06
447.571	95.06
447.792	91.06
448.013	104.06
448.234	103.06
448.455	89.06
448.675	129.06
448.896	122.06
449.117	107.06
449.338	104.06
449.559	139.06
449.779	123.06
450	97.06
450.221	105.06
450.442	95.06
450.662	90.06
450.883	95.06
451.104	112.06
451.324	103.06
451.545	74.06
451.766	92.06
451.986	85.06
452.207	87.06
452.428	97.06
452.648	98.06
452.869	105.06
453.089	119.06
453.31	116.06
453.53	96.06
453.751	103.06
453.971	101.06
454.192	107.06
454.412	89.06
454.633	81.06
454.853	102.06
455.073	79.06
455.294	93.06
455.514	89.06
455.734	79.06
455.955	97.06
456.175	80.06
456.395	83.06
456.616	83.06
456.836	85.06
457.056	98.06
457.276	90.06
457.497	102.06
457.717	87.06
457.937	80.06
458.157	92.06
458.377	93.06
458.598	102.06
458.818	135.06
459.038	137.06
459.258	96.06
459.478	87.06
459.698	89.06
459.918	95.06
460.138	84.06
460.358	76.06
460.578	97.06
460.798	92.06
461.018	83.06
461.238	70.06
461.458	85.06
461.678	86.06
461.898	85.06
462.118	102.06
462.338	82.06
462.558	97.06
462.777	86.06
462.997	84.06
463.217	93.06
463.437	92.06
463.657	93.06
463.876	83.06
464.096	95.06
464.316	95.06
464.536	110.06
464.755	91.06
464.975	109.06
465.195	154.06
465.414	160.06
465.634	103.06
465.854	98.06
466.073	96.06
466.293	93.06
466.512	81.06
466.732	81.06
466.951	103.06
467.171	84.06
467.391	107.06
467.61	100.06
467.829	108.06
468.049	95.06
468.268	101.06
468.488	86.06
468.707	98.06
468.927	94.06
469.146	98.06
469.365	79.06
469.585	79.06
469.804	95.06
470.023	82.06
470.243	101.06
470.462	105.06
470.681	114.06
470.901	92.06
471.12	85.06
471.339	85.06
471.558	102.06
471.777	83.06
471.997	105.06
472.216	100.06
472.435	91.06
472.654	94.06
472.873	91.06
473.092	85.06
473.311	88.06
473.53	76.06
473.749	82.06
473.968	83.06
474.187	91.06
474.406	86.06
474.625	76.06
474.844	88.06
475.063	82.06
475.282	81.06
475.501	88.06
475.72	102.06
475.939	94.06
476.158	96.06
476.377	94.06
476.596	96.06
476.814	97.06
477.033	86.06
477.252	98.06
477.471	91.06
477.69	97.06
477.908	95.06
478.127	104.06
478.346	96.06
478.564	87.06
478.783	95.06
479.002	99.06
479.22	82.06
479.439	104.06
479.658	107.06
479.876	95.06
480.095	96.06
480.313	86.06
480.532	103.06
480.751	92.06
480.969	99.06
481.188	110.06
481.406	95.06
481.624	92.06
481.843	93.06
482.061	82.06
482.28	84.06
482.498	90.06
482.717	84.06
482.935	84.06
483.153	96.06
483.372	87.06
483.59	82.06
483.808	96.06
484.027	81.06
484.245	82.06
484.463	85.06
484.681	98.06
484.9	95.06
485.118	97.06
485.336	87.06
485.554	91.06
485.772	103.06
485.99	113.06
486.209	112.06
486.427	114.06
486.645	111.06
486.863	116.06
487.081	103.06
487.299	114.06
487.517	94.06
487.735	88.06
487.953	87.06
488.171	87.06
488.389	99.06
488.607	97.06
488.825	94.06
489.043	95.06
489.261	97.06
489.479	99.06
489.696	92.06
489.914	93.06
490.132	84.06
490.35	96.06
490.568	103.06
490.786	76.06
491.003	84.06
491.221	108.06
491.439	107.06
491.657	98.06
491.874	97.06
492.092	88.06
492.31	91.06
492.527	103.06
492.745	94.06
492.963	85.06
493.18	98.06
493.398	100.06
493.615	98.06
493.833	95.06
494.05	93.06
494.268	83.06
494.485	81.06
494.703	91.06
494.92	90.06
495.138	86.06
495.355	92.06
495.573	85.06
495.79	88.06
496.008	94.06
496.225	103.06
496.442	112.06
496.66	99.06
496.877	102.06
497.094	96.06
497.312	92.06
497.529	87.06
497.746	102.06
497.963	75.06
498.181	96.06
498.398	103.06
498.615	114.06
498.832	95.06
499.049	101.06
499.267	99.06
499.484	91.06
499.701	102.06
499.918	115.06
500.135	90.06
500.352	87.06
500.569	90.06
500.786	89.06
501.003	82.06
501.22	102.06
501.437	97.06
501.654	106.06
501.871	102.06
502.088	104.06
502.305	88.06
502.522	98.06
502.739	90.06
502.956	99.06
503.172	102.06
503.389	78.06
503.606	115.06
503.823	92.06
504.04	91.06
504.256	80.06
504.473	90.06
504.69	98.06
504.907	94.06
505.123	107.06
505.34	85.06
505.557	88.06
505.773	93.06
505.99	94.06
506.207	94.06
506.423	106.06
506.64	99.06
506.856	84.06
507.073	82.06
507.289	82.06
507.506	102.06
507.722	117.06
507.939	103.06
508.155	90.06
508.372	86.06
508.588	92.06
508.805	94.06
509.021	104.06
509.238	102.06
509.454	92.06
509.67	108.06
509.887	112.06
510.103	129.06
510.319	204.06
510.536	714.06
510.752	2177.06
510.968	592.06
511.184	143.06
511.401	114.06
511.617	103.06
511.833	97.06
512.049	89.06
512.265	98.06
512.481	98.06
512.698	90.06
512.914	100.06
513.13	86.06
513.346	96.06
513.562	107.06
513.778	107.06
513.994	96.06
514.21	111.06
514.426	124.06
514.642	125.06
514.858	132.06
