Data from Uncirc_1988_H10_HRD10591_00023.txt Node
Date: Wed Jan 03 12:04:09 EST 2024
User: Yrep
Spectrometer: HR+D1059
Trigger mode: 1
Integration Time (sec): 1.000000E-1
Scans to average: 1
Electric dark correction enabled: true
Nonlinearity correction enabled: false
Boxcar width: 0
XAxis mode: Wavelengths
Number of Pixels in Spectrum: 2048
>>>>>Begin Spectral Data<<<<<
223.165	-16.81
223.4	-16.81
223.635	-16.81
223.869	-13.81
224.104	-21.81
224.338	-10.81
224.573	-2.81
224.808	-16.81
225.042	-12.81
225.277	-7.81
225.511	4.19
225.746	-2.81
225.98	1.19
226.215	6.19
226.449	23.19
226.683	20.19
226.918	20.19
227.152	31.19
227.387	29.19
227.621	30.19
227.856	42.19
228.09	49.19
228.324	52.19
228.559	52.19
228.793	47.19
229.027	56.19
229.262	60.19
229.496	72.19
229.73	75.19
229.964	81.19
230.199	78.19
230.433	56.19
230.667	64.19
230.901	92.19
231.136	78.19
231.37	77.19
231.604	75.19
231.838	73.19
232.072	72.19
232.306	84.19
232.541	93.19
232.775	62.19
233.009	87.19
233.243	79.19
233.477	79.19
233.711	79.19
233.945	85.19
234.179	87.19
234.413	84.19
234.647	67.19
234.881	78.19
235.115	83.19
235.349	87.19
235.583	81.19
235.817	88.19
236.051	92.19
236.285	71.19
236.519	84.19
236.753	89.19
236.987	82.19
237.221	81.19
237.455	72.19
237.689	79.19
237.922	80.19
238.156	76.19
238.39	68.19
238.624	85.19
238.858	84.19
239.091	83.19
239.325	75.19
239.559	70.19
239.793	86.19
240.027	75.19
240.26	75.19
240.494	79.19
240.728	85.19
240.961	89.19
241.195	78.19
241.429	91.19
241.662	67.19
241.896	58.19
242.13	82.19
242.363	67.19
242.597	64.19
242.83	83.19
243.064	88.19
243.298	67.19
243.531	69.19
243.765	78.19
243.998	71.19
244.232	72.19
244.465	77.19
244.699	81.19
244.932	73.19
245.166	77.19
245.399	69.19
245.633	83.19
245.866	59.19
246.099	68.19
246.333	73.19
246.566	77.19
246.8	81.19
247.033	94.19
247.266	77.19
247.5	91.19
247.733	77.19
247.966	94.19
248.2	69.19
248.433	79.19
248.666	68.19
248.899	82.19
249.133	75.19
249.366	92.19
249.599	89.19
249.832	90.19
250.066	80.19
250.299	73.19
250.532	76.19
250.765	88.19
250.998	66.19
251.231	84.19
251.465	90.19
251.698	81.19
251.931	68.19
252.164	82.19
252.397	63.19
252.63	87.19
252.863	75.19
253.096	73.19
253.329	83.19
253.562	77.19
253.795	84.19
254.028	88.19
254.261	80.19
254.494	74.19
254.727	75.19
254.96	90.19
255.193	73.19
255.426	64.19
255.659	85.19
255.892	73.19
256.124	67.19
256.357	76.19
256.59	71.19
256.823	66.19
257.056	65.19
257.289	76.19
257.521	70.19
257.754	71.19
257.987	86.19
258.22	88.19
258.452	83.19
258.685	86.19
258.918	83.19
259.151	78.19
259.383	85.19
259.616	89.19
259.849	78.19
260.081	83.19
260.314	76.19
260.547	85.19
260.779	68.19
261.012	84.19
261.244	86.19
261.477	96.19
261.71	100.19
261.942	95.19
262.175	98.19
262.407	80.19
262.64	79.19
262.872	83.19
263.105	87.19
263.337	80.19
263.57	79.19
263.802	80.19
264.035	76.19
264.267	84.19
264.499	84.19
264.732	100.19
264.964	76.19
265.197	80.19
265.429	88.19
265.661	87.19
265.894	81.19
266.126	81.19
266.358	87.19
266.591	64.19
266.823	75.19
267.055	91.19
267.287	79.19
267.52	88.19
267.752	88.19
267.984	86.19
268.216	80.19
268.448	94.19
268.681	83.19
268.913	92.19
269.145	87.19
269.377	77.19
269.609	71.19
269.841	81.19
270.073	84.19
270.306	101.19
270.538	87.19
270.77	91.19
271.002	71.19
271.234	74.19
271.466	84.19
271.698	74.19
271.93	87.19
272.162	88.19
272.394	80.19
272.626	93.19
272.858	95.19
273.09	82.19
273.322	83.19
273.553	84.19
273.785	95.19
274.017	90.19
274.249	86.19
274.481	82.19
274.713	83.19
274.945	100.19
275.176	76.19
275.408	87.19
275.64	94.19
275.872	91.19
276.104	93.19
276.335	82.19
276.567	96.19
276.799	111.19
277.031	84.19
277.262	92.19
277.494	82.19
277.726	83.19
277.957	88.19
278.189	75.19
278.421	92.19
278.652	78.19
278.884	89.19
279.115	75.19
279.347	92.19
279.579	84.19
279.81	75.19
280.042	86.19
280.273	80.19
280.505	101.19
280.736	91.19
280.968	85.19
281.199	89.19
281.431	89.19
281.662	100.19
281.894	79.19
282.125	96.19
282.356	111.19
282.588	124.19
282.819	91.19
283.051	84.19
283.282	90.19
283.513	83.19
283.745	86.19
283.976	90.19
284.207	93.19
284.439	81.19
284.67	92.19
284.901	79.19
285.132	84.19
285.364	92.19
285.595	81.19
285.826	85.19
286.057	87.19
286.288	72.19
286.52	94.19
286.751	94.19
286.982	87.19
287.213	86.19
287.444	84.19
287.675	78.19
287.906	87.19
288.138	92.19
288.369	82.19
288.6	93.19
288.831	91.19
289.062	89.19
289.293	96.19
289.524	75.19
289.755	86.19
289.986	84.19
290.217	86.19
290.448	97.19
290.679	63.19
290.91	88.19
291.141	93.19
291.371	91.19
291.602	100.19
291.833	79.19
292.064	71.19
292.295	92.19
292.526	79.19
292.757	79.19
292.987	92.19
293.218	88.19
293.449	84.19
293.68	87.19
293.91	81.19
294.141	89.19
294.372	87.19
294.603	82.19
294.833	80.19
295.064	88.19
295.295	93.19
295.525	79.19
295.756	88.19
295.987	111.19
296.217	128.19
296.448	122.19
296.679	95.19
296.909	81.19
297.14	83.19
297.37	94.19
297.601	69.19
297.831	85.19
298.062	82.19
298.292	92.19
298.523	88.19
298.753	86.19
298.984	83.19
299.214	96.19
299.445	88.19
299.675	104.19
299.905	96.19
300.136	91.19
300.366	89.19
300.597	94.19
300.827	92.19
301.057	97.19
301.288	84.19
301.518	94.19
301.748	95.19
301.979	101.19
302.209	96.19
302.439	91.19
302.669	88.19
302.9	85.19
303.13	89.19
303.36	94.19
303.59	99.19
303.82	93.19
304.051	91.19
304.281	86.19
304.511	91.19
304.741	79.19
304.971	83.19
305.201	97.19
305.431	88.19
305.661	93.19
305.891	90.19
306.121	103.19
306.352	99.19
306.582	100.19
306.812	91.19
307.042	80.19
307.272	88.19
307.502	82.19
307.731	100.19
307.961	96.19
308.191	72.19
308.421	84.19
308.651	98.19
308.881	100.19
309.111	92.19
309.341	89.19
309.571	96.19
309.8	93.19
310.03	115.19
310.26	110.19
310.49	107.19
310.72	68.19
310.949	94.19
311.179	95.19
311.409	84.19
311.639	90.19
311.868	81.19
312.098	97.19
312.328	81.19
312.557	87.19
312.787	89.19
313.017	94.19
313.246	85.19
313.476	84.19
313.706	85.19
313.935	104.19
314.165	86.19
314.394	92.19
314.624	87.19
314.853	95.19
315.083	66.19
315.312	87.19
315.542	98.19
315.771	84.19
316.001	90.19
316.23	88.19
316.46	87.19
316.689	86.19
316.919	97.19
317.148	83.19
317.377	81.19
317.607	94.19
317.836	94.19
318.065	88.19
318.295	105.19
318.524	94.19
318.753	83.19
318.983	84.19
319.212	77.19
319.441	95.19
319.67	98.19
319.9	98.19
320.129	100.19
320.358	82.19
320.587	99.19
320.816	99.19
321.046	104.19
321.275	89.19
321.504	100.19
321.733	87.19
321.962	79.19
322.191	100.19
322.42	110.19
322.649	105.19
322.878	105.19
323.108	104.19
323.337	113.19
323.566	121.19
323.795	133.19
324.024	182.19
324.253	371.19
324.482	733.19
324.71	1524.19
324.939	2015.19
325.168	724.19
325.397	227.19
325.626	131.19
325.855	125.19
326.084	129.19
326.313	136.19
326.542	153.19
326.77	213.19
326.999	428.19
327.228	870.19
327.457	1571.19
327.686	1299.19
327.914	350.19
328.143	187.19
328.372	120.19
328.6	114.19
328.829	107.19
329.058	124.19
329.287	128.19
329.515	109.19
329.744	96.19
329.972	109.19
330.201	102.19
330.43	93.19
330.658	108.19
330.887	126.19
331.115	120.19
331.344	99.19
331.572	91.19
331.801	103.19
332.03	100.19
332.258	90.19
332.486	89.19
332.715	91.19
332.943	93.19
333.172	94.19
333.4	86.19
333.629	102.19
333.857	113.19
334.085	102.19
334.314	89.19
334.542	98.19
334.771	103.19
334.999	99.19
335.227	81.19
335.455	116.19
335.684	86.19
335.912	97.19
336.14	91.19
336.369	111.19
336.597	94.19
336.825	92.19
337.053	93.19
337.281	85.19
337.51	89.19
337.738	98.19
337.966	85.19
338.194	87.19
338.422	97.19
338.65	91.19
338.878	96.19
339.106	79.19
339.334	84.19
339.562	95.19
339.79	89.19
340.018	83.19
340.246	84.19
340.474	98.19
340.702	88.19
340.93	84.19
341.158	88.19
341.386	99.19
341.614	93.19
341.842	95.19
342.07	89.19
342.298	104.19
342.526	96.19
342.754	70.19
342.981	77.19
343.209	84.19
343.437	102.19
343.665	97.19
343.893	99.19
344.12	86.19
344.348	86.19
344.576	101.19
344.804	93.19
345.031	91.19
345.259	99.19
345.487	96.19
345.714	88.19
345.942	92.19
346.17	97.19
346.397	92.19
346.625	98.19
346.853	80.19
347.08	91.19
347.308	109.19
347.535	107.19
347.763	93.19
347.99	106.19
348.218	113.19
348.445	92.19
348.673	103.19
348.9	89.19
349.128	82.19
349.355	103.19
349.583	107.19
349.81	103.19
350.037	100.19
350.265	106.19
350.492	73.19
350.72	92.19
350.947	85.19
351.174	109.19
351.402	97.19
351.629	100.19
351.856	104.19
352.083	96.19
352.311	89.19
352.538	98.19
352.765	91.19
352.992	104.19
353.22	91.19
353.447	101.19
353.674	110.19
353.901	76.19
354.128	106.19
354.355	92.19
354.583	91.19
354.81	104.19
355.037	107.19
355.264	100.19
355.491	91.19
355.718	93.19
355.945	103.19
356.172	81.19
356.399	98.19
356.626	104.19
356.853	95.19
357.08	94.19
357.307	93.19
357.534	97.19
357.761	82.19
357.988	92.19
358.215	107.19
358.441	96.19
358.668	105.19
358.895	82.19
359.122	94.19
359.349	81.19
359.576	77.19
359.802	95.19
360.029	99.19
360.256	119.19
360.483	88.19
360.709	88.19
360.936	93.19
361.163	89.19
361.39	98.19
361.616	89.19
361.843	100.19
362.07	83.19
362.296	92.19
362.523	88.19
362.749	96.19
362.976	91.19
363.203	74.19
363.429	87.19
363.656	84.19
363.882	95.19
364.109	80.19
364.335	94.19
364.562	97.19
364.788	89.19
365.015	87.19
365.241	97.19
365.468	95.19
365.694	108.19
365.92	91.19
366.147	100.19
366.373	80.19
366.599	97.19
366.826	99.19
367.052	85.19
367.278	96.19
367.505	86.19
367.731	93.19
367.957	102.19
368.184	93.19
368.41	103.19
368.636	99.19
368.862	113.19
369.089	87.19
369.315	80.19
369.541	95.19
369.767	94.19
369.993	89.19
370.219	103.19
370.445	95.19
370.672	86.19
370.898	83.19
371.124	97.19
371.35	98.19
371.576	86.19
371.802	92.19
372.028	91.19
372.254	87.19
372.48	87.19
372.706	78.19
372.932	93.19
373.158	55.19
373.384	86.19
373.61	82.19
373.835	88.19
374.061	96.19
374.287	89.19
374.513	91.19
374.739	106.19
374.965	85.19
375.191	98.19
375.416	91.19
375.642	80.19
375.868	84.19
376.094	91.19
376.319	82.19
376.545	88.19
376.771	77.19
376.997	97.19
377.222	97.19
377.448	99.19
377.674	91.19
377.899	95.19
378.125	89.19
378.35	100.19
378.576	99.19
378.802	94.19
379.027	79.19
379.253	108.19
379.478	94.19
379.704	79.19
379.929	83.19
380.155	84.19
380.38	94.19
380.606	96.19
380.831	87.19
381.057	94.19
381.282	89.19
381.507	92.19
381.733	94.19
381.958	94.19
382.184	84.19
382.409	100.19
382.634	109.19
382.86	81.19
383.085	91.19
383.31	93.19
383.535	97.19
383.761	94.19
383.986	105.19
384.211	108.19
384.436	98.19
384.662	90.19
384.887	102.19
385.112	95.19
385.337	91.19
385.562	104.19
385.787	102.19
386.013	107.19
386.238	99.19
386.463	111.19
386.688	97.19
386.913	95.19
387.138	79.19
387.363	102.19
387.588	100.19
387.813	91.19
388.038	110.19
388.263	101.19
388.488	119.19
388.713	96.19
388.938	90.19
389.163	94.19
389.387	94.19
389.612	95.19
389.837	87.19
390.062	93.19
390.287	86.19
390.512	89.19
390.736	84.19
390.961	84.19
391.186	100.19
391.411	88.19
391.636	95.19
391.86	78.19
392.085	95.19
392.31	85.19
392.534	81.19
392.759	75.19
392.984	78.19
393.208	89.19
393.433	79.19
393.658	89.19
393.882	86.19
394.107	95.19
394.331	71.19
394.556	84.19
394.78	99.19
395.005	72.19
395.229	84.19
395.454	96.19
395.678	88.19
395.903	86.19
396.127	92.19
396.352	84.19
396.576	85.19
396.801	89.19
397.025	87.19
397.249	91.19
397.474	94.19
397.698	86.19
397.922	84.19
398.147	99.19
398.371	84.19
398.595	71.19
398.82	82.19
399.044	85.19
399.268	78.19
399.492	86.19
399.717	102.19
399.941	84.19
400.165	86.19
400.389	107.19
400.613	99.19
400.837	96.19
401.062	91.19
401.286	80.19
401.51	99.19
401.734	80.19
401.958	94.19
402.182	114.19
402.406	142.19
402.63	111.19
402.854	73.19
403.078	89.19
403.302	82.19
403.526	87.19
403.75	86.19
403.974	95.19
404.198	85.19
404.422	86.19
404.645	80.19
404.869	79.19
405.093	76.19
405.317	95.19
405.541	97.19
405.765	95.19
405.988	111.19
406.212	158.19
406.436	197.19
406.66	130.19
406.883	92.19
407.107	88.19
407.331	89.19
407.555	93.19
407.778	88.19
408.002	99.19
408.226	94.19
408.449	77.19
408.673	79.19
408.896	88.19
409.12	102.19
409.344	95.19
409.567	85.19
409.791	95.19
410.014	81.19
410.238	94.19
410.461	101.19
410.685	79.19
410.908	96.19
411.132	97.19
411.355	87.19
411.578	76.19
411.802	77.19
412.025	76.19
412.249	81.19
412.472	85.19
412.695	92.19
412.919	79.19
413.142	88.19
413.365	98.19
413.589	101.19
413.812	94.19
414.035	91.19
414.258	106.19
414.482	83.19
414.705	97.19
414.928	95.19
415.151	80.19
415.374	84.19
415.597	87.19
415.821	95.19
416.044	96.19
416.267	90.19
416.49	96.19
416.713	92.19
416.936	89.19
417.159	83.19
417.382	80.19
417.605	95.19
417.828	99.19
418.051	86.19
418.274	102.19
418.497	71.19
418.72	85.19
418.943	87.19
419.166	75.19
419.389	90.19
419.611	86.19
419.834	92.19
420.057	92.19
420.28	88.19
420.503	83.19
420.726	87.19
420.948	76.19
421.171	83.19
421.394	95.19
421.617	99.19
421.839	88.19
422.062	98.19
422.285	88.19
422.507	100.19
422.73	103.19
422.953	99.19
423.175	81.19
423.398	87.19
423.621	105.19
423.843	72.19
424.066	85.19
424.288	102.19
424.511	89.19
424.733	99.19
424.956	104.19
425.178	102.19
425.401	97.19
425.623	90.19
425.846	95.19
426.068	85.19
426.291	77.19
426.513	80.19
426.735	84.19
426.958	80.19
427.18	84.19
427.402	140.19
427.625	154.19
427.847	131.19
428.069	111.19
428.292	81.19
428.514	79.19
428.736	89.19
428.958	94.19
429.181	91.19
429.403	82.19
429.625	88.19
429.847	78.19
430.069	91.19
430.292	96.19
430.514	80.19
430.736	81.19
430.958	83.19
431.18	65.19
431.402	81.19
431.624	88.19
431.846	76.19
432.068	84.19
432.29	100.19
432.512	98.19
432.734	88.19
432.956	89.19
433.178	84.19
433.4	88.19
433.622	92.19
433.844	84.19
434.066	97.19
434.287	90.19
434.509	94.19
434.731	87.19
434.953	100.19
435.175	93.19
435.397	80.19
435.618	91.19
435.84	98.19
436.062	123.19
436.284	109.19
436.505	102.19
436.727	104.19
436.949	84.19
437.17	83.19
437.392	82.19
437.614	88.19
437.835	100.19
438.057	108.19
438.278	113.19
438.5	96.19
438.721	117.19
438.943	110.19
439.165	89.19
439.386	108.19
439.608	110.19
439.829	92.19
440.05	125.19
440.272	147.19
440.493	94.19
440.715	91.19
440.936	93.19
441.158	85.19
441.379	80.19
441.6	93.19
441.822	85.19
442.043	98.19
442.264	97.19
442.486	109.19
442.707	80.19
442.928	96.19
443.149	113.19
443.371	110.19
443.592	99.19
443.813	98.19
444.034	111.19
444.255	89.19
444.476	89.19
444.698	79.19
444.919	87.19
445.14	127.19
445.361	105.19
445.582	118.19
445.803	134.19
446.024	124.19
446.245	117.19
446.466	103.19
446.687	83.19
446.908	85.19
447.129	99.19
447.35	81.19
447.571	74.19
447.792	69.19
448.013	97.19
448.234	111.19
448.455	105.19
448.675	115.19
448.896	110.19
449.117	89.19
449.338	94.19
449.559	132.19
449.779	121.19
450	102.19
450.221	86.19
450.442	86.19
450.662	86.19
450.883	102.19
451.104	106.19
451.324	86.19
451.545	96.19
451.766	88.19
451.986	94.19
452.207	96.19
452.428	86.19
452.648	105.19
452.869	102.19
453.089	103.19
453.31	113.19
453.53	87.19
453.751	86.19
453.971	98.19
454.192	116.19
454.412	90.19
454.633	82.19
454.853	79.19
455.073	88.19
455.294	72.19
455.514	101.19
455.734	91.19
455.955	94.19
456.175	88.19
456.395	77.19
456.616	94.19
456.836	82.19
457.056	90.19
457.276	86.19
457.497	97.19
457.717	88.19
457.937	80.19
458.157	65.19
458.377	106.19
458.598	107.19
458.818	130.19
459.038	145.19
459.258	121.19
459.478	85.19
459.698	78.19
459.918	87.19
460.138	87.19
460.358	83.19
460.578	91.19
460.798	97.19
461.018	82.19
461.238	79.19
461.458	82.19
461.678	78.19
461.898	90.19
462.118	100.19
462.338	82.19
462.558	76.19
462.777	86.19
462.997	88.19
463.217	83.19
463.437	91.19
463.657	93.19
463.876	94.19
464.096	86.19
464.316	103.19
464.536	96.19
464.755	87.19
464.975	101.19
465.195	152.19
465.414	148.19
465.634	93.19
465.854	78.19
466.073	91.19
466.293	84.19
466.512	88.19
466.732	82.19
466.951	97.19
467.171	95.19
467.391	95.19
467.61	102.19
467.829	96.19
468.049	78.19
468.268	89.19
468.488	85.19
468.707	77.19
468.927	68.19
469.146	81.19
469.365	76.19
469.585	77.19
469.804	96.19
470.023	88.19
470.243	95.19
470.462	108.19
470.681	87.19
470.901	89.19
471.12	89.19
471.339	83.19
471.558	92.19
471.777	101.19
471.997	80.19
472.216	97.19
472.435	81.19
472.654	96.19
472.873	80.19
473.092	87.19
473.311	65.19
473.53	85.19
473.749	88.19
473.968	96.19
474.187	92.19
474.406	110.19
474.625	86.19
474.844	102.19
475.063	86.19
475.282	81.19
475.501	94.19
475.72	97.19
475.939	76.19
476.158	91.19
476.377	92.19
476.596	81.19
476.814	82.19
477.033	101.19
477.252	79.19
477.471	84.19
477.69	89.19
477.908	101.19
478.127	98.19
478.346	80.19
478.564	76.19
478.783	83.19
479.002	71.19
479.22	80.19
479.439	94.19
479.658	95.19
479.876	80.19
480.095	88.19
480.313	100.19
480.532	98.19
480.751	90.19
480.969	82.19
481.188	99.19
481.406	88.19
481.624	68.19
481.843	81.19
482.061	78.19
482.28	87.19
482.498	77.19
482.717	87.19
482.935	72.19
483.153	72.19
483.372	80.19
483.59	88.19
483.808	89.19
484.027	88.19
484.245	95.19
484.463	102.19
484.681	92.19
484.9	89.19
485.118	105.19
485.336	91.19
485.554	106.19
485.772	99.19
485.99	93.19
486.209	96.19
486.427	88.19
486.645	119.19
486.863	110.19
487.081	95.19
487.299	90.19
487.517	89.19
487.735	84.19
487.953	85.19
488.171	100.19
488.389	88.19
488.607	101.19
488.825	97.19
489.043	96.19
489.261	99.19
489.479	91.19
489.696	76.19
489.914	88.19
490.132	85.19
490.35	79.19
490.568	79.19
490.786	84.19
491.003	85.19
491.221	87.19
491.439	101.19
491.657	75.19
491.874	78.19
492.092	88.19
492.31	100.19
492.527	81.19
492.745	74.19
492.963	86.19
493.18	101.19
493.398	100.19
493.615	101.19
493.833	82.19
494.05	84.19
494.268	85.19
494.485	82.19
494.703	94.19
494.92	77.19
495.138	90.19
495.355	96.19
495.573	81.19
495.79	101.19
496.008	85.19
496.225	89.19
496.442	100.19
496.66	111.19
496.877	91.19
497.094	102.19
497.312	92.19
497.529	92.19
497.746	92.19
497.963	84.19
498.181	88.19
498.398	83.19
498.615	113.19
498.832	113.19
499.049	92.19
499.267	104.19
499.484	100.19
499.701	81.19
499.918	91.19
500.135	97.19
500.352	96.19
500.569	83.19
500.786	98.19
501.003	92.19
501.22	92.19
501.437	83.19
501.654	88.19
501.871	105.19
502.088	104.19
502.305	90.19
502.522	72.19
502.739	77.19
502.956	91.19
503.172	91.19
503.389	97.19
503.606	99.19
503.823	95.19
504.04	88.19
504.256	84.19
504.473	84.19
504.69	83.19
504.907	100.19
505.123	85.19
505.34	84.19
505.557	92.19
505.773	68.19
505.99	93.19
506.207	81.19
506.423	85.19
506.64	85.19
506.856	89.19
507.073	91.19
507.289	98.19
507.506	92.19
507.722	97.19
507.939	91.19
508.155	96.19
508.372	96.19
508.588	96.19
508.805	93.19
509.021	87.19
509.238	101.19
509.454	105.19
509.67	83.19
509.887	86.19
510.103	131.19
510.319	200.19
510.536	642.19
510.752	2020.19
510.968	561.19
511.184	137.19
511.401	103.19
511.617	106.19
511.833	95.19
512.049	87.19
512.265	83.19
512.481	97.19
512.698	91.19
512.914	96.19
513.13	91.19
513.346	103.19
513.562	92.19
513.778	98.19
513.994	111.19
514.21	94.19
514.426	105.19
514.642	115.19
514.858	108.19
515.074	149.19
515.29	411.19
515.506	1313.19
515.721	477.19
515.937	144.19
516.153	112.19
516.369	121.19
