Data from Uncirc_1988_H10_HRD10591_00017.txt Node
Date: Wed Jan 03 12:04:07 EST 2024
User: Yrep
Spectrometer: HR+D1059
Trigger mode: 1
Integration Time (sec): 1.000000E-1
Scans to average: 1
Electric dark correction enabled: true
Nonlinearity correction enabled: false
Boxcar width: 0
XAxis mode: Wavelengths
Number of Pixels in Spectrum: 2048
>>>>>Begin Spectral Data<<<<<
223.165	-10.38
223.4	-10.38
223.635	-10.38
223.869	-14.38
224.104	-2.38
224.338	-10.38
224.573	-30.38
224.808	-12.38
225.042	-2.38
225.277	-3.38
225.511	1.62
225.746	-6.38
225.98	4.62
226.215	0.62
226.449	11.62
226.683	20.62
226.918	27.62
227.152	25.62
227.387	35.62
227.621	51.62
227.856	46.62
228.09	57.62
228.324	62.62
228.559	51.62
228.793	60.62
229.027	78.62
229.262	72.62
229.496	84.62
229.73	81.62
229.964	89.62
230.199	76.62
230.433	84.62
230.667	74.62
230.901	79.62
231.136	86.62
231.37	78.62
231.604	78.62
231.838	72.62
232.072	72.62
232.306	88.62
232.541	79.62
232.775	77.62
233.009	84.62
233.243	62.62
233.477	71.62
233.711	73.62
233.945	81.62
234.179	83.62
234.413	100.62
234.647	80.62
234.881	76.62
235.115	95.62
235.349	104.62
235.583	73.62
235.817	87.62
236.051	81.62
236.285	74.62
236.519	83.62
236.753	77.62
236.987	79.62
237.221	97.62
237.455	84.62
237.689	79.62
237.922	87.62
238.156	69.62
238.39	83.62
238.624	71.62
238.858	67.62
239.091	80.62
239.325	81.62
239.559	79.62
239.793	88.62
240.027	65.62
240.26	83.62
240.494	76.62
240.728	73.62
240.961	74.62
241.195	91.62
241.429	68.62
241.662	79.62
241.896	83.62
242.13	80.62
242.363	68.62
242.597	80.62
242.83	81.62
243.064	67.62
243.298	80.62
243.531	85.62
243.765	63.62
243.998	77.62
244.232	79.62
244.465	75.62
244.699	80.62
244.932	83.62
245.166	82.62
245.399	72.62
245.633	87.62
245.866	75.62
246.099	70.62
246.333	79.62
246.566	86.62
246.8	82.62
247.033	86.62
247.266	78.62
247.5	86.62
247.733	82.62
247.966	87.62
248.2	91.62
248.433	94.62
248.666	82.62
248.899	79.62
249.133	99.62
249.366	102.62
249.599	100.62
249.832	75.62
250.066	69.62
250.299	95.62
250.532	91.62
250.765	84.62
250.998	80.62
251.231	86.62
251.465	82.62
251.698	73.62
251.931	83.62
252.164	69.62
252.397	75.62
252.63	94.62
252.863	77.62
253.096	80.62
253.329	66.62
253.562	81.62
253.795	79.62
254.028	90.62
254.261	93.62
254.494	81.62
254.727	82.62
254.96	86.62
255.193	78.62
255.426	75.62
255.659	71.62
255.892	95.62
256.124	78.62
256.357	98.62
256.59	82.62
256.823	93.62
257.056	85.62
257.289	75.62
257.521	86.62
257.754	95.62
257.987	69.62
258.22	96.62
258.452	87.62
258.685	90.62
258.918	79.62
259.151	87.62
259.383	78.62
259.616	90.62
259.849	83.62
260.081	70.62
260.314	80.62
260.547	84.62
260.779	76.62
261.012	82.62
261.244	79.62
261.477	93.62
261.71	85.62
261.942	99.62
262.175	107.62
262.407	90.62
262.64	87.62
262.872	87.62
263.105	83.62
263.337	99.62
263.57	68.62
263.802	85.62
264.035	81.62
264.267	65.62
264.499	78.62
264.732	83.62
264.964	91.62
265.197	83.62
265.429	86.62
265.661	80.62
265.894	95.62
266.126	79.62
266.358	91.62
266.591	80.62
266.823	79.62
267.055	71.62
267.287	88.62
267.52	80.62
267.752	81.62
267.984	74.62
268.216	91.62
268.448	90.62
268.681	99.62
268.913	86.62
269.145	94.62
269.377	77.62
269.609	77.62
269.841	93.62
270.073	93.62
270.306	99.62
270.538	103.62
270.77	82.62
271.002	89.62
271.234	65.62
271.466	79.62
271.698	93.62
271.93	94.62
272.162	81.62
272.394	89.62
272.626	88.62
272.858	75.62
273.09	83.62
273.322	95.62
273.553	87.62
273.785	84.62
274.017	82.62
274.249	85.62
274.481	88.62
274.713	91.62
274.945	89.62
275.176	90.62
275.408	89.62
275.64	85.62
275.872	89.62
276.104	85.62
276.335	102.62
276.567	92.62
276.799	98.62
277.031	83.62
277.262	80.62
277.494	94.62
277.726	92.62
277.957	72.62
278.189	83.62
278.421	95.62
278.652	90.62
278.884	77.62
279.115	94.62
279.347	85.62
279.579	97.62
279.81	71.62
280.042	83.62
280.273	88.62
280.505	83.62
280.736	89.62
280.968	96.62
281.199	89.62
281.431	81.62
281.662	78.62
281.894	84.62
282.125	98.62
282.356	101.62
282.588	132.62
282.819	101.62
283.051	104.62
283.282	77.62
283.513	86.62
283.745	81.62
283.976	87.62
284.207	77.62
284.439	91.62
284.67	82.62
284.901	85.62
285.132	94.62
285.364	85.62
285.595	92.62
285.826	90.62
286.057	89.62
286.288	94.62
286.52	79.62
286.751	67.62
286.982	77.62
287.213	85.62
287.444	89.62
287.675	86.62
287.906	82.62
288.138	91.62
288.369	99.62
288.6	83.62
288.831	87.62
289.062	99.62
289.293	94.62
289.524	71.62
289.755	88.62
289.986	85.62
290.217	83.62
290.448	95.62
290.679	77.62
290.91	79.62
291.141	95.62
291.371	95.62
291.602	90.62
291.833	67.62
292.064	77.62
292.295	86.62
292.526	93.62
292.757	85.62
292.987	97.62
293.218	78.62
293.449	88.62
293.68	83.62
293.91	88.62
294.141	88.62
294.372	96.62
294.603	83.62
294.833	90.62
295.064	104.62
295.295	85.62
295.525	95.62
295.756	93.62
295.987	114.62
296.217	119.62
296.448	125.62
296.679	88.62
296.909	96.62
297.14	98.62
297.37	83.62
297.601	97.62
297.831	83.62
298.062	89.62
298.292	93.62
298.523	95.62
298.753	94.62
298.984	104.62
299.214	80.62
299.445	80.62
299.675	105.62
299.905	81.62
300.136	80.62
300.366	88.62
300.597	88.62
300.827	97.62
301.057	93.62
301.288	103.62
301.518	99.62
301.748	89.62
301.979	98.62
302.209	102.62
302.439	88.62
302.669	81.62
302.9	92.62
303.13	82.62
303.36	80.62
303.59	109.62
303.82	101.62
304.051	89.62
304.281	73.62
304.511	74.62
304.741	91.62
304.971	86.62
305.201	92.62
305.431	103.62
305.661	91.62
305.891	93.62
306.121	83.62
306.352	91.62
306.582	100.62
306.812	99.62
307.042	83.62
307.272	93.62
307.502	94.62
307.731	92.62
307.961	86.62
308.191	85.62
308.421	73.62
308.651	96.62
308.881	84.62
309.111	99.62
309.341	93.62
309.571	95.62
309.8	92.62
310.03	101.62
310.26	94.62
310.49	98.62
310.72	105.62
310.949	99.62
311.179	95.62
311.409	86.62
311.639	88.62
311.868	92.62
312.098	81.62
312.328	89.62
312.557	95.62
312.787	94.62
313.017	91.62
313.246	79.62
313.476	106.62
313.706	98.62
313.935	96.62
314.165	108.62
314.394	106.62
314.624	113.62
314.853	94.62
315.083	95.62
315.312	93.62
315.542	100.62
315.771	102.62
316.001	100.62
316.23	102.62
316.46	101.62
316.689	83.62
316.919	90.62
317.148	100.62
317.377	88.62
317.607	81.62
317.836	86.62
318.065	103.62
318.295	82.62
318.524	96.62
318.753	97.62
318.983	101.62
319.212	101.62
319.441	107.62
319.67	93.62
319.9	94.62
320.129	89.62
320.358	90.62
320.587	97.62
320.816	109.62
321.046	87.62
321.275	93.62
321.504	84.62
321.733	107.62
321.962	102.62
322.191	88.62
322.42	81.62
322.649	112.62
322.878	102.62
323.108	109.62
323.337	118.62
323.566	118.62
323.795	146.62
324.024	194.62
324.253	350.62
324.482	723.62
324.71	1470.62
324.939	1951.62
325.168	725.62
325.397	199.62
325.626	145.62
325.855	132.62
326.084	110.62
326.313	129.62
326.542	153.62
326.77	229.62
326.999	417.62
327.228	838.62
327.457	1537.62
327.686	1209.62
327.914	333.62
328.143	173.62
328.372	129.62
328.6	127.62
328.829	112.62
329.058	125.62
329.287	119.62
329.515	99.62
329.744	102.62
329.972	97.62
330.201	104.62
330.43	105.62
330.658	110.62
330.887	126.62
331.115	110.62
331.344	105.62
331.572	96.62
331.801	105.62
332.03	94.62
332.258	73.62
332.486	90.62
332.715	87.62
332.943	89.62
333.172	87.62
333.4	78.62
333.629	96.62
333.857	109.62
334.085	111.62
334.314	102.62
334.542	100.62
334.771	103.62
334.999	97.62
335.227	99.62
335.455	95.62
335.684	92.62
335.912	97.62
336.14	82.62
336.369	84.62
336.597	96.62
336.825	106.62
337.053	99.62
337.281	97.62
337.51	80.62
337.738	83.62
337.966	92.62
338.194	95.62
338.422	105.62
338.65	91.62
338.878	93.62
339.106	97.62
339.334	86.62
339.562	90.62
339.79	99.62
340.018	79.62
340.246	100.62
340.474	85.62
340.702	83.62
340.93	72.62
341.158	81.62
341.386	103.62
341.614	95.62
341.842	85.62
342.07	87.62
342.298	84.62
342.526	85.62
342.754	86.62
342.981	74.62
343.209	87.62
343.437	97.62
343.665	93.62
343.893	95.62
344.12	93.62
344.348	87.62
344.576	85.62
344.804	104.62
345.031	93.62
345.259	89.62
345.487	99.62
345.714	101.62
345.942	89.62
346.17	87.62
346.397	102.62
346.625	97.62
346.853	90.62
347.08	93.62
347.308	108.62
347.535	106.62
347.763	104.62
347.99	93.62
348.218	87.62
348.445	91.62
348.673	94.62
348.9	92.62
349.128	94.62
349.355	86.62
349.583	98.62
349.81	82.62
350.037	99.62
350.265	86.62
350.492	95.62
350.72	106.62
350.947	93.62
351.174	100.62
351.402	87.62
351.629	107.62
351.856	88.62
352.083	107.62
352.311	93.62
352.538	103.62
352.765	102.62
352.992	102.62
353.22	122.62
353.447	106.62
353.674	96.62
353.901	114.62
354.128	100.62
354.355	84.62
354.583	114.62
354.81	97.62
355.037	96.62
355.264	105.62
355.491	96.62
355.718	95.62
355.945	101.62
356.172	98.62
356.399	96.62
356.626	109.62
356.853	92.62
357.08	88.62
357.307	99.62
357.534	93.62
357.761	107.62
357.988	87.62
358.215	89.62
358.441	88.62
358.668	115.62
358.895	92.62
359.122	91.62
359.349	72.62
359.576	78.62
359.802	82.62
360.029	102.62
360.256	91.62
360.483	85.62
360.709	81.62
360.936	90.62
361.163	94.62
361.39	86.62
361.616	93.62
361.843	84.62
362.07	88.62
362.296	86.62
362.523	80.62
362.749	77.62
362.976	72.62
363.203	88.62
363.429	104.62
363.656	104.62
363.882	91.62
364.109	76.62
364.335	81.62
364.562	94.62
364.788	103.62
365.015	107.62
365.241	99.62
365.468	105.62
365.694	98.62
365.92	93.62
366.147	95.62
366.373	97.62
366.599	84.62
366.826	93.62
367.052	84.62
367.278	98.62
367.505	85.62
367.731	91.62
367.957	85.62
368.184	85.62
368.41	96.62
368.636	107.62
368.862	101.62
369.089	103.62
369.315	109.62
369.541	87.62
369.767	93.62
369.993	97.62
370.219	89.62
370.445	93.62
370.672	79.62
370.898	80.62
371.124	88.62
371.35	73.62
371.576	90.62
371.802	101.62
372.028	89.62
372.254	89.62
372.48	98.62
372.706	77.62
372.932	85.62
373.158	91.62
373.384	92.62
373.61	95.62
373.835	96.62
374.061	95.62
374.287	91.62
374.513	95.62
374.739	83.62
374.965	89.62
375.191	93.62
375.416	100.62
375.642	106.62
375.868	96.62
376.094	91.62
376.319	86.62
376.545	86.62
376.771	80.62
376.997	89.62
377.222	97.62
377.448	88.62
377.674	92.62
377.899	81.62
378.125	88.62
378.35	69.62
378.576	85.62
378.802	93.62
379.027	93.62
379.253	88.62
379.478	90.62
379.704	96.62
379.929	87.62
380.155	93.62
380.38	81.62
380.606	90.62
380.831	113.62
381.057	88.62
381.282	93.62
381.507	91.62
381.733	89.62
381.958	112.62
382.184	110.62
382.409	90.62
382.634	95.62
382.86	98.62
383.085	95.62
383.31	102.62
383.535	94.62
383.761	108.62
383.986	102.62
384.211	105.62
384.436	111.62
384.662	90.62
384.887	95.62
385.112	115.62
385.337	101.62
385.562	100.62
385.787	103.62
386.013	109.62
386.238	106.62
386.463	97.62
386.688	104.62
386.913	95.62
387.138	93.62
387.363	104.62
387.588	105.62
387.813	112.62
388.038	105.62
388.263	113.62
388.488	106.62
388.713	90.62
388.938	83.62
389.163	107.62
389.387	110.62
389.612	111.62
389.837	96.62
390.062	99.62
390.287	106.62
390.512	86.62
390.736	84.62
390.961	98.62
391.186	102.62
391.411	91.62
391.636	90.62
391.86	91.62
392.085	75.62
392.31	97.62
392.534	86.62
392.759	83.62
392.984	82.62
393.208	90.62
393.433	93.62
393.658	96.62
393.882	80.62
394.107	74.62
394.331	80.62
394.556	91.62
394.78	81.62
395.005	82.62
395.229	86.62
395.454	82.62
395.678	83.62
395.903	86.62
396.127	85.62
396.352	98.62
396.576	81.62
396.801	94.62
397.025	85.62
397.249	90.62
397.474	90.62
397.698	86.62
397.922	80.62
398.147	95.62
398.371	73.62
398.595	78.62
398.82	89.62
399.044	96.62
399.268	89.62
399.492	90.62
399.717	93.62
399.941	87.62
400.165	87.62
400.389	90.62
400.613	82.62
400.837	90.62
401.062	88.62
401.286	81.62
401.51	79.62
401.734	84.62
401.958	94.62
402.182	121.62
402.406	127.62
402.63	101.62
402.854	95.62
403.078	89.62
403.302	96.62
403.526	94.62
403.75	89.62
403.974	104.62
404.198	84.62
404.422	83.62
404.645	90.62
404.869	75.62
405.093	90.62
405.317	102.62
405.541	91.62
405.765	87.62
405.988	107.62
406.212	161.62
406.436	181.62
406.66	146.62
406.883	99.62
407.107	86.62
407.331	99.62
407.555	103.62
407.778	82.62
408.002	96.62
408.226	90.62
408.449	87.62
408.673	85.62
408.896	85.62
409.12	105.62
409.344	90.62
409.567	76.62
409.791	107.62
410.014	88.62
410.238	106.62
410.461	103.62
410.685	98.62
410.908	97.62
411.132	121.62
411.355	91.62
411.578	97.62
411.802	95.62
412.025	79.62
412.249	91.62
412.472	78.62
412.695	87.62
412.919	94.62
413.142	83.62
413.365	84.62
413.589	88.62
413.812	95.62
414.035	106.62
414.258	90.62
414.482	104.62
414.705	91.62
414.928	88.62
415.151	79.62
415.374	98.62
415.597	85.62
415.821	90.62
416.044	86.62
416.267	78.62
416.49	93.62
416.713	84.62
416.936	92.62
417.159	75.62
417.382	89.62
417.605	103.62
417.828	96.62
418.051	97.62
418.274	99.62
418.497	100.62
418.72	85.62
418.943	96.62
419.166	97.62
419.389	92.62
419.611	90.62
419.834	89.62
420.057	95.62
420.28	90.62
420.503	98.62
420.726	92.62
420.948	79.62
421.171	81.62
421.394	89.62
421.617	98.62
421.839	102.62
422.062	114.62
422.285	87.62
422.507	115.62
422.73	101.62
422.953	107.62
423.175	96.62
423.398	88.62
423.621	83.62
423.843	89.62
424.066	82.62
424.288	66.62
424.511	85.62
424.733	86.62
424.956	99.62
425.178	99.62
425.401	85.62
425.623	86.62
425.846	94.62
426.068	102.62
426.291	92.62
426.513	90.62
426.735	97.62
426.958	75.62
427.18	111.62
427.402	116.62
427.625	163.62
427.847	112.62
428.069	104.62
428.292	81.62
428.514	93.62
428.736	90.62
428.958	91.62
429.181	77.62
429.403	89.62
429.625	83.62
429.847	86.62
430.069	93.62
430.292	90.62
430.514	97.62
430.736	72.62
430.958	94.62
431.18	87.62
431.402	93.62
431.624	77.62
431.846	89.62
432.068	86.62
432.29	97.62
432.512	92.62
432.734	84.62
432.956	92.62
433.178	103.62
433.4	91.62
433.622	94.62
433.844	96.62
434.066	99.62
434.287	87.62
434.509	90.62
434.731	93.62
434.953	95.62
435.175	98.62
435.397	94.62
435.618	90.62
435.84	93.62
436.062	113.62
436.284	103.62
436.505	105.62
436.727	104.62
436.949	97.62
437.17	101.62
437.392	69.62
437.614	88.62
437.835	114.62
438.057	97.62
438.278	113.62
438.5	115.62
438.721	116.62
438.943	95.62
439.165	91.62
439.386	97.62
439.608	95.62
439.829	100.62
440.05	111.62
440.272	125.62
440.493	103.62
440.715	98.62
440.936	89.62
441.158	103.62
441.379	86.62
441.6	116.62
441.822	102.62
442.043	106.62
442.264	103.62
442.486	111.62
442.707	92.62
442.928	117.62
443.149	128.62
443.371	127.62
443.592	102.62
443.813	98.62
444.034	99.62
444.255	97.62
444.476	90.62
444.698	91.62
444.919	97.62
445.14	130.62
445.361	118.62
445.582	128.62
445.803	134.62
446.024	115.62
446.245	134.62
446.466	110.62
446.687	74.62
446.908	91.62
447.129	87.62
447.35	82.62
447.571	97.62
447.792	95.62
448.013	101.62
448.234	98.62
448.455	90.62
448.675	109.62
448.896	97.62
449.117	88.62
449.338	105.62
449.559	121.62
449.779	122.62
450	100.62
450.221	81.62
450.442	97.62
450.662	86.62
450.883	91.62
451.104	88.62
451.324	89.62
451.545	93.62
451.766	96.62
451.986	88.62
452.207	85.62
452.428	91.62
452.648	98.62
452.869	103.62
453.089	110.62
453.31	107.62
453.53	81.62
453.751	93.62
453.971	100.62
454.192	106.62
454.412	80.62
454.633	80.62
454.853	81.62
455.073	88.62
455.294	77.62
455.514	100.62
455.734	92.62
455.955	97.62
456.175	73.62
456.395	85.62
456.616	83.62
456.836	91.62
457.056	95.62
457.276	75.62
457.497	85.62
457.717	80.62
457.937	87.62
458.157	106.62
458.377	95.62
458.598	101.62
458.818	136.62
459.038	131.62
459.258	103.62
459.478	101.62
459.698	97.62
459.918	74.62
460.138	84.62
460.358	82.62
460.578	87.62
460.798	92.62
461.018	93.62
461.238	96.62
461.458	96.62
461.678	91.62
461.898	94.62
462.118	95.62
462.338	87.62
462.558	88.62
462.777	88.62
462.997	80.62
463.217	81.62
463.437	82.62
463.657	84.62
463.876	78.62
464.096	84.62
464.316	87.62
464.536	95.62
464.755	92.62
464.975	102.62
465.195	154.62
465.414	139.62
465.634	100.62
465.854	91.62
466.073	67.62
466.293	83.62
466.512	71.62
466.732	82.62
466.951	95.62
467.171	98.62
467.391	95.62
467.61	103.62
467.829	100.62
468.049	82.62
468.268	83.62
468.488	93.62
468.707	75.62
468.927	89.62
469.146	91.62
469.365	100.62
469.585	101.62
469.804	101.62
470.023	86.62
470.243	91.62
470.462	97.62
470.681	105.62
470.901	88.62
471.12	90.62
471.339	98.62
471.558	81.62
471.777	94.62
471.997	99.62
472.216	87.62
472.435	105.62
472.654	89.62
472.873	99.62
473.092	100.62
473.311	99.62
473.53	95.62
473.749	101.62
473.968	83.62
474.187	93.62
474.406	83.62
474.625	96.62
474.844	77.62
475.063	82.62
475.282	81.62
475.501	87.62
475.72	92.62
475.939	84.62
476.158	85.62
476.377	90.62
476.596	90.62
476.814	91.62
477.033	92.62
477.252	89.62
477.471	95.62
477.69	87.62
477.908	96.62
478.127	92.62
478.346	93.62
478.564	90.62
478.783	93.62
479.002	87.62
479.22	87.62
479.439	101.62
479.658	105.62
479.876	90.62
480.095	91.62
480.313	88.62
480.532	93.62
480.751	98.62
480.969	85.62
481.188	101.62
481.406	84.62
481.624	88.62
481.843	99.62
482.061	92.62
482.28	81.62
482.498	88.62
482.717	91.62
482.935	90.62
483.153	99.62
483.372	88.62
483.59	98.62
483.808	95.62
484.027	79.62
484.245	80.62
484.463	90.62
484.681	92.62
484.9	92.62
485.118	103.62
485.336	96.62
485.554	88.62
485.772	83.62
485.99	91.62
486.209	112.62
486.427	101.62
486.645	111.62
486.863	109.62
487.081	103.62
487.299	106.62
487.517	101.62
487.735	96.62
487.953	94.62
488.171	98.62
488.389	101.62
488.607	95.62
488.825	79.62
489.043	89.62
489.261	97.62
489.479	78.62
489.696	88.62
489.914	91.62
490.132	103.62
490.35	84.62
490.568	76.62
490.786	89.62
491.003	84.62
491.221	88.62
491.439	85.62
491.657	85.62
491.874	90.62
492.092	81.62
492.31	79.62
492.527	94.62
492.745	96.62
492.963	81.62
493.18	98.62
493.398	100.62
493.615	104.62
493.833	88.62
494.05	105.62
494.268	95.62
494.485	97.62
494.703	91.62
494.92	96.62
495.138	96.62
495.355	96.62
495.573	91.62
495.79	97.62
496.008	100.62
496.225	99.62
496.442	115.62
496.66	97.62
496.877	96.62
497.094	97.62
497.312	104.62
497.529	102.62
497.746	77.62
497.963	101.62
498.181	101.62
498.398	104.62
498.615	113.62
498.832	97.62
499.049	103.62
499.267	92.62
499.484	101.62
499.701	93.62
499.918	100.62
500.135	81.62
500.352	75.62
500.569	90.62
500.786	97.62
501.003	92.62
501.22	83.62
501.437	86.62
501.654	91.62
501.871	93.62
502.088	91.62
502.305	91.62
502.522	84.62
502.739	96.62
502.956	78.62
503.172	87.62
503.389	96.62
503.606	105.62
503.823	102.62
504.04	96.62
504.256	85.62
504.473	90.62
504.69	93.62
504.907	90.62
505.123	89.62
505.34	103.62
505.557	91.62
505.773	89.62
505.99	81.62
506.207	82.62
506.423	91.62
506.64	95.62
506.856	90.62
507.073	92.62
507.289	83.62
507.506	91.62
507.722	114.62
507.939	105.62
508.155	96.62
508.372	104.62
508.588	88.62
508.805	99.62
509.021	90.62
509.238	97.62
509.454	99.62
509.67	110.62
509.887	90.62
510.103	126.62
510.319	189.62
510.536	627.62
510.752	1853.62
510.968	511.62
511.184	141.62
511.401	117.62
511.617	101.62
511.833	94.62
512.049	85.62
512.265	74.62
512.481	93.62
512.698	91.62
512.914	78.62
513.13	83.62
513.346	85.62
513.562	97.62
513.778	90.62
513.994	90.62
514.21	102.62
514.426	109.62
514.642	123.62
514.858	125.62
515.074	144.62
515.29	376.62
515.506	1138.62
515.721	415.62
515.937	144.62
