Data from Uncirc_1988_H10_HRD10591_00067.txt Node
Date: Wed Jan 03 12:04:17 EST 2024
User: Yrep
Spectrometer: HR+D1059
Trigger mode: 1
Integration Time (sec): 1.000000E-1
Scans to average: 1
Electric dark correction enabled: true
Nonlinearity correction enabled: false
Boxcar width: 0
XAxis mode: Wavelengths
Number of Pixels in Spectrum: 2048
>>>>>Begin Spectral Data<<<<<
223.165	-12.06
223.4	-12.06
223.635	-12.06
223.869	-23.06
224.104	-12.06
224.338	-15.06
224.573	-16.06
224.808	-20.06
225.042	-6.06
225.277	7.94
225.511	-2.06
225.746	10.94
225.98	5.94
226.215	8.94
226.449	2.94
226.683	17.94
226.918	24.94
227.152	26.94
227.387	32.94
227.621	37.94
227.856	29.94
228.09	43.94
228.324	49.94
228.559	64.94
228.793	66.94
229.027	65.94
229.262	68.94
229.496	80.94
229.73	76.94
229.964	78.94
230.199	69.94
230.433	69.94
230.667	88.94
230.901	83.94
231.136	85.94
231.37	88.94
231.604	70.94
231.838	79.94
232.072	83.94
232.306	79.94
232.541	83.94
232.775	88.94
233.009	72.94
233.243	75.94
233.477	85.94
233.711	85.94
233.945	91.94
234.179	80.94
234.413	76.94
234.647	78.94
234.881	66.94
235.115	92.94
235.349	74.94
235.583	90.94
235.817	78.94
236.051	91.94
236.285	78.94
236.519	71.94
236.753	70.94
236.987	76.94
237.221	90.94
237.455	82.94
237.689	83.94
237.922	76.94
238.156	93.94
238.39	69.94
238.624	76.94
238.858	82.94
239.091	74.94
239.325	70.94
239.559	74.94
239.793	81.94
240.027	63.94
240.26	65.94
240.494	80.94
240.728	69.94
240.961	63.94
241.195	83.94
241.429	64.94
241.662	86.94
241.896	78.94
242.13	76.94
242.363	70.94
242.597	59.94
242.83	78.94
243.064	66.94
243.298	74.94
243.531	75.94
243.765	78.94
243.998	74.94
244.232	86.94
244.465	86.94
244.699	77.94
244.932	77.94
245.166	80.94
245.399	80.94
245.633	69.94
245.866	63.94
246.099	61.94
246.333	79.94
246.566	70.94
246.8	71.94
247.033	88.94
247.266	69.94
247.5	80.94
247.733	86.94
247.966	88.94
248.2	68.94
248.433	67.94
248.666	81.94
248.899	88.94
249.133	89.94
249.366	101.94
249.599	81.94
249.832	80.94
250.066	78.94
250.299	75.94
250.532	78.94
250.765	74.94
250.998	79.94
251.231	84.94
251.465	78.94
251.698	71.94
251.931	74.94
252.164	70.94
252.397	72.94
252.63	89.94
252.863	77.94
253.096	82.94
253.329	82.94
253.562	90.94
253.795	85.94
254.028	80.94
254.261	71.94
254.494	79.94
254.727	75.94
254.96	89.94
255.193	91.94
255.426	85.94
255.659	69.94
255.892	85.94
256.124	74.94
256.357	78.94
256.59	77.94
256.823	63.94
257.056	70.94
257.289	87.94
257.521	80.94
257.754	81.94
257.987	79.94
258.22	80.94
258.452	71.94
258.685	84.94
258.918	84.94
259.151	81.94
259.383	88.94
259.616	77.94
259.849	91.94
260.081	101.94
260.314	68.94
260.547	69.94
260.779	76.94
261.012	74.94
261.244	77.94
261.477	99.94
261.71	77.94
261.942	119.94
262.175	124.94
262.407	90.94
262.64	80.94
262.872	78.94
263.105	65.94
263.337	84.94
263.57	84.94
263.802	82.94
264.035	71.94
264.267	107.94
264.499	79.94
264.732	82.94
264.964	96.94
265.197	78.94
265.429	65.94
265.661	83.94
265.894	90.94
266.126	85.94
266.358	80.94
266.591	72.94
266.823	74.94
267.055	82.94
267.287	96.94
267.52	86.94
267.752	84.94
267.984	71.94
268.216	82.94
268.448	82.94
268.681	95.94
268.913	80.94
269.145	84.94
269.377	84.94
269.609	77.94
269.841	86.94
270.073	86.94
270.306	88.94
270.538	82.94
270.77	68.94
271.002	77.94
271.234	84.94
271.466	90.94
271.698	86.94
271.93	92.94
272.162	80.94
272.394	91.94
272.626	82.94
272.858	81.94
273.09	78.94
273.322	79.94
273.553	96.94
273.785	76.94
274.017	79.94
274.249	78.94
274.481	74.94
274.713	82.94
274.945	90.94
275.176	93.94
275.408	81.94
275.64	74.94
275.872	78.94
276.104	84.94
276.335	84.94
276.567	105.94
276.799	114.94
277.031	110.94
277.262	90.94
277.494	91.94
277.726	79.94
277.957	91.94
278.189	90.94
278.421	71.94
278.652	74.94
278.884	82.94
279.115	100.94
279.347	78.94
279.579	91.94
279.81	82.94
280.042	85.94
280.273	90.94
280.505	78.94
280.736	84.94
280.968	87.94
281.199	86.94
281.431	94.94
281.662	83.94
281.894	81.94
282.125	92.94
282.356	110.94
282.588	139.94
282.819	109.94
283.051	86.94
283.282	78.94
283.513	75.94
283.745	81.94
283.976	76.94
284.207	84.94
284.439	99.94
284.67	93.94
284.901	90.94
285.132	92.94
285.364	96.94
285.595	82.94
285.826	85.94
286.057	98.94
286.288	82.94
286.52	77.94
286.751	84.94
286.982	82.94
287.213	82.94
287.444	83.94
287.675	93.94
287.906	92.94
288.138	72.94
288.369	97.94
288.6	99.94
288.831	82.94
289.062	85.94
289.293	91.94
289.524	91.94
289.755	97.94
289.986	76.94
290.217	86.94
290.448	76.94
290.679	90.94
290.91	97.94
291.141	84.94
291.371	76.94
291.602	84.94
291.833	72.94
292.064	79.94
292.295	95.94
292.526	86.94
292.757	93.94
292.987	78.94
293.218	90.94
293.449	102.94
293.68	88.94
293.91	82.94
294.141	88.94
294.372	93.94
294.603	83.94
294.833	94.94
295.064	67.94
295.295	97.94
295.525	85.94
295.756	104.94
295.987	112.94
296.217	134.94
296.448	120.94
296.679	96.94
296.909	88.94
297.14	92.94
297.37	70.94
297.601	79.94
297.831	85.94
298.062	88.94
298.292	84.94
298.523	78.94
298.753	108.94
298.984	87.94
299.214	74.94
299.445	79.94
299.675	98.94
299.905	82.94
300.136	97.94
300.366	78.94
300.597	93.94
300.827	97.94
301.057	82.94
301.288	92.94
301.518	98.94
301.748	85.94
301.979	99.94
302.209	95.94
302.439	82.94
302.669	93.94
302.9	96.94
303.13	76.94
303.36	86.94
303.59	93.94
303.82	93.94
304.051	84.94
304.281	88.94
304.511	80.94
304.741	95.94
304.971	90.94
305.201	90.94
305.431	75.94
305.661	92.94
305.891	103.94
306.121	101.94
306.352	101.94
306.582	112.94
306.812	79.94
307.042	96.94
307.272	87.94
307.502	82.94
307.731	91.94
307.961	95.94
308.191	87.94
308.421	96.94
308.651	100.94
308.881	106.94
309.111	97.94
309.341	88.94
309.571	98.94
309.8	94.94
310.03	86.94
310.26	105.94
310.49	75.94
310.72	94.94
310.949	99.94
311.179	92.94
311.409	102.94
311.639	89.94
311.868	97.94
312.098	104.94
312.328	99.94
312.557	118.94
312.787	98.94
313.017	85.94
313.246	96.94
313.476	89.94
313.706	88.94
313.935	101.94
314.165	102.94
314.394	92.94
314.624	97.94
314.853	90.94
315.083	78.94
315.312	85.94
315.542	83.94
315.771	85.94
316.001	87.94
316.23	87.94
316.46	76.94
316.689	88.94
316.919	98.94
317.148	83.94
317.377	97.94
317.607	83.94
317.836	103.94
318.065	75.94
318.295	90.94
318.524	81.94
318.753	94.94
318.983	99.94
319.212	92.94
319.441	99.94
319.67	116.94
319.9	84.94
320.129	97.94
320.358	98.94
320.587	92.94
320.816	98.94
321.046	106.94
321.275	93.94
321.504	125.94
321.733	93.94
321.962	97.94
322.191	99.94
322.42	102.94
322.649	115.94
322.878	116.94
323.108	122.94
323.337	120.94
323.566	109.94
323.795	140.94
324.024	199.94
324.253	428.94
324.482	854.94
324.71	1795.94
324.939	2347.94
325.168	840.94
325.397	238.94
325.626	143.94
325.855	127.94
326.084	128.94
326.313	108.94
326.542	153.94
326.77	245.94
326.999	456.94
327.228	970.94
327.457	1856.94
327.686	1434.94
327.914	388.94
328.143	202.94
328.372	156.94
328.6	131.94
328.829	119.94
329.058	112.94
329.287	105.94
329.515	107.94
329.744	99.94
329.972	106.94
330.201	95.94
330.43	124.94
330.658	119.94
330.887	132.94
331.115	116.94
331.344	93.94
331.572	110.94
331.801	106.94
332.03	104.94
332.258	103.94
332.486	96.94
332.715	99.94
332.943	94.94
333.172	102.94
333.4	97.94
333.629	107.94
333.857	115.94
334.085	106.94
334.314	109.94
334.542	111.94
334.771	128.94
334.999	93.94
335.227	99.94
335.455	86.94
335.684	90.94
335.912	103.94
336.14	103.94
336.369	92.94
336.597	97.94
336.825	93.94
337.053	78.94
337.281	90.94
337.51	96.94
337.738	84.94
337.966	88.94
338.194	90.94
338.422	75.94
338.65	94.94
338.878	80.94
339.106	90.94
339.334	86.94
339.562	96.94
339.79	82.94
340.018	93.94
340.246	95.94
340.474	99.94
340.702	73.94
340.93	77.94
341.158	90.94
341.386	88.94
341.614	97.94
341.842	104.94
342.07	93.94
342.298	95.94
342.526	92.94
342.754	90.94
342.981	76.94
343.209	76.94
343.437	90.94
343.665	75.94
343.893	80.94
344.12	97.94
344.348	100.94
344.576	87.94
344.804	96.94
345.031	98.94
345.259	105.94
345.487	109.94
345.714	104.94
345.942	94.94
346.17	98.94
346.397	113.94
346.625	92.94
346.853	92.94
347.08	112.94
347.308	92.94
347.535	92.94
347.763	94.94
347.99	100.94
348.218	91.94
348.445	108.94
348.673	108.94
348.9	108.94
349.128	90.94
349.355	82.94
349.583	93.94
349.81	92.94
350.037	103.94
350.265	102.94
350.492	93.94
350.72	84.94
350.947	98.94
351.174	96.94
351.402	107.94
351.629	102.94
351.856	106.94
352.083	104.94
352.311	99.94
352.538	103.94
352.765	100.94
352.992	107.94
353.22	99.94
353.447	102.94
353.674	95.94
353.901	100.94
354.128	93.94
354.355	96.94
354.583	85.94
354.81	101.94
355.037	87.94
355.264	88.94
355.491	84.94
355.718	89.94
355.945	94.94
356.172	88.94
356.399	101.94
356.626	98.94
356.853	98.94
357.08	91.94
357.307	83.94
357.534	80.94
357.761	80.94
357.988	110.94
358.215	98.94
358.441	99.94
358.668	84.94
358.895	74.94
359.122	92.94
359.349	76.94
359.576	97.94
359.802	94.94
360.029	112.94
360.256	117.94
360.483	93.94
360.709	89.94
360.936	93.94
361.163	113.94
361.39	83.94
361.616	86.94
361.843	87.94
362.07	94.94
362.296	66.94
362.523	96.94
362.749	93.94
362.976	79.94
363.203	104.94
363.429	95.94
363.656	84.94
363.882	90.94
364.109	83.94
364.335	98.94
364.562	84.94
364.788	68.94
365.015	93.94
365.241	98.94
365.468	96.94
365.694	101.94
365.92	102.94
366.147	92.94
366.373	94.94
366.599	88.94
366.826	94.94
367.052	91.94
367.278	92.94
367.505	78.94
367.731	93.94
367.957	92.94
368.184	94.94
368.41	91.94
368.636	108.94
368.862	109.94
369.089	113.94
369.315	79.94
369.541	85.94
369.767	89.94
369.993	107.94
370.219	88.94
370.445	83.94
370.672	82.94
370.898	84.94
371.124	86.94
371.35	79.94
371.576	92.94
371.802	82.94
372.028	79.94
372.254	88.94
372.48	105.94
372.706	87.94
372.932	77.94
373.158	74.94
373.384	80.94
373.61	86.94
373.835	75.94
374.061	85.94
374.287	88.94
374.513	92.94
374.739	92.94
374.965	101.94
375.191	76.94
375.416	92.94
375.642	99.94
375.868	95.94
376.094	102.94
376.319	101.94
376.545	95.94
376.771	86.94
376.997	78.94
377.222	77.94
377.448	86.94
377.674	80.94
377.899	87.94
378.125	89.94
378.35	81.94
378.576	78.94
378.802	87.94
379.027	84.94
379.253	95.94
379.478	74.94
379.704	84.94
379.929	87.94
380.155	83.94
380.38	84.94
380.606	101.94
380.831	84.94
381.057	103.94
381.282	80.94
381.507	87.94
381.733	84.94
381.958	104.94
382.184	104.94
382.409	95.94
382.634	87.94
382.86	90.94
383.085	78.94
383.31	88.94
383.535	95.94
383.761	101.94
383.986	98.94
384.211	91.94
384.436	93.94
384.662	96.94
384.887	93.94
385.112	71.94
385.337	106.94
385.562	85.94
385.787	91.94
386.013	109.94
386.238	102.94
386.463	103.94
386.688	99.94
386.913	83.94
387.138	96.94
387.363	79.94
387.588	83.94
387.813	105.94
388.038	102.94
388.263	109.94
388.488	101.94
388.713	101.94
388.938	86.94
389.163	82.94
389.387	90.94
389.612	87.94
389.837	90.94
390.062	87.94
390.287	92.94
390.512	87.94
390.736	89.94
390.961	81.94
391.186	89.94
391.411	82.94
391.636	83.94
391.86	90.94
392.085	82.94
392.31	79.94
392.534	78.94
392.759	93.94
392.984	85.94
393.208	84.94
393.433	82.94
393.658	89.94
393.882	83.94
394.107	80.94
394.331	79.94
394.556	91.94
394.78	79.94
395.005	74.94
395.229	81.94
395.454	78.94
395.678	80.94
395.903	91.94
396.127	91.94
396.352	91.94
396.576	87.94
396.801	87.94
397.025	84.94
397.249	88.94
397.474	83.94
397.698	91.94
397.922	91.94
398.147	92.94
398.371	76.94
398.595	92.94
398.82	88.94
399.044	84.94
399.268	91.94
399.492	88.94
399.717	79.94
399.941	91.94
400.165	101.94
400.389	74.94
400.613	87.94
400.837	95.94
401.062	94.94
401.286	79.94
401.51	100.94
401.734	85.94
401.958	88.94
402.182	132.94
402.406	147.94
402.63	116.94
402.854	82.94
403.078	100.94
403.302	94.94
403.526	66.94
403.75	89.94
403.974	76.94
404.198	101.94
404.422	89.94
404.645	87.94
404.869	85.94
405.093	96.94
405.317	90.94
405.541	91.94
405.765	85.94
405.988	115.94
406.212	191.94
406.436	218.94
406.66	134.94
406.883	99.94
407.107	85.94
407.331	82.94
407.555	100.94
407.778	94.94
408.002	87.94
408.226	76.94
408.449	85.94
408.673	82.94
408.896	89.94
409.12	94.94
409.344	81.94
409.567	99.94
409.791	108.94
410.014	104.94
410.238	95.94
410.461	79.94
410.685	101.94
410.908	95.94
411.132	101.94
411.355	89.94
411.578	86.94
411.802	82.94
412.025	79.94
412.249	89.94
412.472	96.94
412.695	87.94
412.919	88.94
413.142	85.94
413.365	100.94
413.589	88.94
413.812	82.94
414.035	89.94
414.258	79.94
414.482	94.94
414.705	93.94
414.928	85.94
415.151	85.94
415.374	100.94
415.597	86.94
415.821	76.94
416.044	83.94
416.267	82.94
416.49	74.94
416.713	81.94
416.936	84.94
417.159	81.94
417.382	91.94
417.605	81.94
417.828	101.94
418.051	85.94
418.274	84.94
418.497	84.94
418.72	83.94
418.943	81.94
419.166	80.94
419.389	72.94
419.611	71.94
419.834	90.94
420.057	100.94
420.28	92.94
420.503	80.94
420.726	95.94
420.948	90.94
421.171	97.94
421.394	95.94
421.617	100.94
421.839	92.94
422.062	84.94
422.285	80.94
422.507	97.94
422.73	98.94
422.953	84.94
423.175	96.94
423.398	100.94
423.621	80.94
423.843	95.94
424.066	90.94
424.288	86.94
424.511	90.94
424.733	93.94
424.956	88.94
425.178	93.94
425.401	90.94
425.623	93.94
425.846	74.94
426.068	89.94
426.291	72.94
426.513	88.94
426.735	76.94
426.958	88.94
427.18	91.94
427.402	141.94
427.625	156.94
427.847	130.94
428.069	122.94
428.292	83.94
428.514	86.94
428.736	90.94
428.958	78.94
429.181	82.94
429.403	106.94
429.625	83.94
429.847	107.94
430.069	99.94
430.292	87.94
430.514	78.94
430.736	78.94
430.958	79.94
431.18	103.94
431.402	80.94
431.624	77.94
431.846	72.94
432.068	90.94
432.29	71.94
432.512	86.94
432.734	78.94
432.956	95.94
433.178	87.94
433.4	99.94
433.622	101.94
433.844	95.94
434.066	90.94
434.287	88.94
434.509	84.94
434.731	90.94
434.953	84.94
435.175	82.94
435.397	104.94
435.618	98.94
435.84	96.94
436.062	128.94
436.284	118.94
436.505	98.94
436.727	94.94
436.949	80.94
437.17	90.94
437.392	83.94
437.614	98.94
437.835	91.94
438.057	106.94
438.278	105.94
438.5	96.94
438.721	118.94
438.943	102.94
439.165	97.94
439.386	77.94
439.608	78.94
439.829	85.94
440.05	127.94
440.272	133.94
440.493	94.94
440.715	83.94
440.936	87.94
441.158	75.94
441.379	104.94
441.6	103.94
441.822	99.94
442.043	83.94
442.264	111.94
442.486	95.94
442.707	84.94
442.928	107.94
443.149	129.94
443.371	125.94
443.592	104.94
443.813	98.94
444.034	103.94
444.255	93.94
444.476	76.94
444.698	93.94
444.919	98.94
445.14	140.94
445.361	132.94
445.582	118.94
445.803	131.94
446.024	143.94
446.245	147.94
446.466	105.94
446.687	79.94
446.908	101.94
447.129	89.94
447.35	85.94
447.571	88.94
447.792	85.94
448.013	99.94
448.234	108.94
448.455	96.94
448.675	113.94
448.896	122.94
449.117	89.94
449.338	109.94
449.559	127.94
449.779	139.94
450	108.94
450.221	89.94
450.442	78.94
450.662	100.94
450.883	106.94
451.104	107.94
451.324	87.94
451.545	82.94
451.766	92.94
451.986	77.94
452.207	80.94
452.428	94.94
452.648	100.94
452.869	108.94
453.089	106.94
453.31	113.94
453.53	95.94
453.751	101.94
453.971	110.94
454.192	104.94
454.412	95.94
454.633	86.94
454.853	73.94
455.073	90.94
455.294	98.94
455.514	104.94
455.734	77.94
455.955	86.94
456.175	71.94
456.395	91.94
456.616	89.94
456.836	106.94
457.056	96.94
457.276	89.94
457.497	92.94
457.717	79.94
457.937	91.94
458.157	89.94
458.377	88.94
458.598	103.94
458.818	128.94
459.038	161.94
459.258	113.94
459.478	86.94
459.698	82.94
459.918	82.94
460.138	76.94
460.358	71.94
460.578	88.94
460.798	94.94
461.018	79.94
461.238	94.94
461.458	90.94
461.678	87.94
461.898	76.94
462.118	76.94
462.338	87.94
462.558	73.94
462.777	87.94
462.997	80.94
463.217	70.94
463.437	79.94
463.657	74.94
463.876	96.94
464.096	98.94
464.316	96.94
464.536	89.94
464.755	85.94
464.975	105.94
465.195	148.94
465.414	150.94
465.634	94.94
465.854	102.94
466.073	90.94
466.293	100.94
466.512	96.94
466.732	77.94
466.951	88.94
467.171	83.94
467.391	92.94
467.61	108.94
467.829	95.94
468.049	93.94
468.268	96.94
468.488	65.94
468.707	88.94
468.927	90.94
469.146	85.94
469.365	86.94
469.585	99.94
469.804	105.94
470.023	94.94
470.243	96.94
470.462	93.94
470.681	109.94
470.901	93.94
471.12	82.94
471.339	87.94
471.558	95.94
471.777	96.94
471.997	83.94
472.216	111.94
472.435	131.94
472.654	85.94
472.873	90.94
473.092	86.94
473.311	104.94
473.53	84.94
473.749	82.94
473.968	116.94
474.187	111.94
474.406	102.94
474.625	89.94
474.844	95.94
475.063	75.94
475.282	88.94
475.501	81.94
475.72	99.94
475.939	87.94
476.158	87.94
476.377	98.94
476.596	79.94
476.814	92.94
477.033	95.94
477.252	80.94
477.471	94.94
477.69	91.94
477.908	96.94
478.127	93.94
478.346	90.94
478.564	94.94
478.783	93.94
479.002	90.94
479.22	78.94
479.439	103.94
479.658	104.94
479.876	78.94
480.095	92.94
480.313	85.94
480.532	76.94
480.751	95.94
480.969	102.94
481.188	170.94
481.406	137.94
481.624	103.94
481.843	90.94
482.061	94.94
482.28	93.94
482.498	74.94
482.717	86.94
482.935	87.94
483.153	81.94
483.372	86.94
483.59	89.94
483.808	94.94
484.027	93.94
484.245	89.94
484.463	88.94
484.681	96.94
484.9	96.94
485.118	92.94
485.336	77.94
485.554	93.94
485.772	98.94
485.99	112.94
486.209	92.94
486.427	95.94
486.645	100.94
486.863	95.94
487.081	107.94
487.299	93.94
487.517	98.94
487.735	98.94
487.953	76.94
488.171	98.94
488.389	98.94
488.607	94.94
488.825	86.94
489.043	78.94
489.261	92.94
489.479	89.94
489.696	91.94
489.914	98.94
490.132	82.94
490.35	81.94
490.568	87.94
490.786	81.94
491.003	82.94
491.221	109.94
491.439	87.94
491.657	86.94
491.874	94.94
492.092	79.94
492.31	100.94
492.527	86.94
492.745	92.94
492.963	95.94
493.18	84.94
493.398	100.94
493.615	100.94
493.833	91.94
494.05	84.94
494.268	78.94
494.485	77.94
494.703	99.94
494.92	99.94
495.138	87.94
495.355	96.94
495.573	94.94
495.79	90.94
496.008	84.94
496.225	96.94
496.442	92.94
496.66	82.94
496.877	78.94
497.094	100.94
497.312	95.94
497.529	91.94
497.746	95.94
497.963	87.94
498.181	94.94
498.398	95.94
498.615	98.94
498.832	107.94
499.049	86.94
499.267	83.94
499.484	75.94
499.701	88.94
499.918	85.94
500.135	85.94
500.352	91.94
500.569	95.94
500.786	77.94
501.003	96.94
501.22	80.94
501.437	86.94
501.654	100.94
501.871	113.94
502.088	98.94
502.305	104.94
502.522	85.94
502.739	99.94
502.956	87.94
503.172	100.94
503.389	79.94
503.606	93.94
503.823	96.94
504.04	95.94
504.256	95.94
504.473	87.94
504.69	102.94
504.907	93.94
505.123	85.94
505.34	83.94
505.557	96.94
505.773	95.94
505.99	90.94
506.207	78.94
506.423	83.94
506.64	85.94
506.856	102.94
507.073	93.94
507.289	95.94
507.506	96.94
507.722	114.94
507.939	104.94
508.155	97.94
508.372	88.94
508.588	85.94
508.805	106.94
509.021	89.94
509.238	101.94
509.454	97.94
509.67	110.94
509.887	106.94
510.103	129.94
510.319	213.94
510.536	796.94
510.752	2445.94
510.968	680.94
511.184	158.94
511.401	97.94
511.617	92.94
511.833	111.94
512.049	93.94
512.265	89.94
512.481	87.94
512.698	85.94
512.914	95.94
513.13	90.94
513.346	80.94
513.562	92.94
513.778	92.94
513.994	102.94
514.21	94.94
514.426	117.94
514.642	150.94
514.858	121.94
515.074	176.94
515.29	465.94
515.506	1552.94
515.721	529.94
515.937	150.94
516.153	97.94
