Data from Uncirc_1988_H10_HRD10591_00050.txt Node
Date: Wed Jan 03 12:04:14 EST 2024
User: Yrep
Spectrometer: HR+D1059
Trigger mode: 1
Integration Time (sec): 1.000000E-1
Scans to average: 1
Electric dark correction enabled: true
Nonlinearity correction enabled: false
Boxcar width: 0
XAxis mode: Wavelengths
Number of Pixels in Spectrum: 2048
>>>>>Begin Spectral Data<<<<<
223.165	-7.31
223.4	-7.31
223.635	-7.31
223.869	-26.31
224.104	-23.31
224.338	-12.31
224.573	-13.31
224.808	-9.31
225.042	-12.31
225.277	-13.31
225.511	-4.31
225.746	-7.31
225.98	19.69
226.215	10.69
226.449	13.69
226.683	25.69
226.918	30.69
227.152	28.69
227.387	24.69
227.621	28.69
227.856	39.69
228.09	43.69
228.324	48.69
228.559	68.69
228.793	55.69
229.027	52.69
229.262	65.69
229.496	72.69
229.73	83.69
229.964	82.69
230.199	69.69
230.433	66.69
230.667	92.69
230.901	82.69
231.136	71.69
231.37	75.69
231.604	72.69
231.838	97.69
232.072	80.69
232.306	73.69
232.541	78.69
232.775	76.69
233.009	63.69
233.243	83.69
233.477	60.69
233.711	71.69
233.945	78.69
234.179	83.69
234.413	76.69
234.647	72.69
234.881	78.69
235.115	87.69
235.349	67.69
235.583	86.69
235.817	71.69
236.051	64.69
236.285	75.69
236.519	72.69
236.753	71.69
236.987	70.69
237.221	83.69
237.455	86.69
237.689	84.69
237.922	80.69
238.156	73.69
238.39	77.69
238.624	66.69
238.858	55.69
239.091	68.69
239.325	79.69
239.559	79.69
239.793	85.69
240.027	80.69
240.26	72.69
240.494	71.69
240.728	69.69
240.961	69.69
241.195	78.69
241.429	68.69
241.662	72.69
241.896	66.69
242.13	80.69
242.363	64.69
242.597	67.69
242.83	81.69
243.064	81.69
243.298	79.69
243.531	81.69
243.765	80.69
243.998	64.69
244.232	83.69
244.465	78.69
244.699	75.69
244.932	67.69
245.166	65.69
245.399	71.69
245.633	80.69
245.866	77.69
246.099	86.69
246.333	83.69
246.566	79.69
246.8	78.69
247.033	79.69
247.266	75.69
247.5	76.69
247.733	82.69
247.966	92.69
248.2	87.69
248.433	73.69
248.666	79.69
248.899	88.69
249.133	78.69
249.366	89.69
249.599	102.69
249.832	72.69
250.066	77.69
250.299	80.69
250.532	81.69
250.765	85.69
250.998	61.69
251.231	67.69
251.465	71.69
251.698	94.69
251.931	72.69
252.164	79.69
252.397	85.69
252.63	71.69
252.863	75.69
253.096	84.69
253.329	82.69
253.562	84.69
253.795	80.69
254.028	69.69
254.261	86.69
254.494	77.69
254.727	85.69
254.96	94.69
255.193	88.69
255.426	76.69
255.659	75.69
255.892	77.69
256.124	64.69
256.357	72.69
256.59	86.69
256.823	70.69
257.056	73.69
257.289	88.69
257.521	83.69
257.754	100.69
257.987	89.69
258.22	75.69
258.452	83.69
258.685	78.69
258.918	88.69
259.151	95.69
259.383	75.69
259.616	77.69
259.849	89.69
260.081	81.69
260.314	85.69
260.547	86.69
260.779	87.69
261.012	90.69
261.244	82.69
261.477	69.69
261.71	95.69
261.942	119.69
262.175	117.69
262.407	79.69
262.64	95.69
262.872	88.69
263.105	81.69
263.337	79.69
263.57	85.69
263.802	82.69
264.035	70.69
264.267	91.69
264.499	78.69
264.732	73.69
264.964	78.69
265.197	93.69
265.429	87.69
265.661	75.69
265.894	85.69
266.126	83.69
266.358	70.69
266.591	79.69
266.823	91.69
267.055	77.69
267.287	89.69
267.52	86.69
267.752	85.69
267.984	79.69
268.216	81.69
268.448	89.69
268.681	80.69
268.913	72.69
269.145	81.69
269.377	89.69
269.609	98.69
269.841	75.69
270.073	94.69
270.306	103.69
270.538	82.69
270.77	92.69
271.002	74.69
271.234	85.69
271.466	99.69
271.698	97.69
271.93	77.69
272.162	77.69
272.394	85.69
272.626	90.69
272.858	80.69
273.09	77.69
273.322	84.69
273.553	76.69
273.785	86.69
274.017	82.69
274.249	92.69
274.481	79.69
274.713	80.69
274.945	83.69
275.176	89.69
275.408	89.69
275.64	79.69
275.872	87.69
276.104	87.69
276.335	91.69
276.567	81.69
276.799	117.69
277.031	99.69
277.262	91.69
277.494	93.69
277.726	89.69
277.957	95.69
278.189	84.69
278.421	83.69
278.652	80.69
278.884	81.69
279.115	84.69
279.347	84.69
279.579	82.69
279.81	72.69
280.042	81.69
280.273	87.69
280.505	77.69
280.736	83.69
280.968	81.69
281.199	83.69
281.431	95.69
281.662	93.69
281.894	85.69
282.125	86.69
282.356	124.69
282.588	118.69
282.819	112.69
283.051	87.69
283.282	76.69
283.513	100.69
283.745	84.69
283.976	86.69
284.207	89.69
284.439	94.69
284.67	93.69
284.901	93.69
285.132	83.69
285.364	92.69
285.595	96.69
285.826	93.69
286.057	78.69
286.288	75.69
286.52	89.69
286.751	92.69
286.982	77.69
287.213	92.69
287.444	79.69
287.675	68.69
287.906	92.69
288.138	88.69
288.369	84.69
288.6	86.69
288.831	80.69
289.062	103.69
289.293	84.69
289.524	82.69
289.755	81.69
289.986	87.69
290.217	84.69
290.448	85.69
290.679	98.69
290.91	78.69
291.141	76.69
291.371	98.69
291.602	93.69
291.833	88.69
292.064	84.69
292.295	84.69
292.526	86.69
292.757	89.69
292.987	89.69
293.218	84.69
293.449	84.69
293.68	88.69
293.91	86.69
294.141	91.69
294.372	97.69
294.603	96.69
294.833	92.69
295.064	95.69
295.295	90.69
295.525	91.69
295.756	91.69
295.987	117.69
296.217	137.69
296.448	126.69
296.679	87.69
296.909	95.69
297.14	82.69
297.37	85.69
297.601	85.69
297.831	94.69
298.062	99.69
298.292	85.69
298.523	88.69
298.753	88.69
298.984	96.69
299.214	101.69
299.445	92.69
299.675	93.69
299.905	96.69
300.136	84.69
300.366	88.69
300.597	97.69
300.827	67.69
301.057	104.69
301.288	92.69
301.518	97.69
301.748	89.69
301.979	96.69
302.209	104.69
302.439	105.69
302.669	96.69
302.9	93.69
303.13	81.69
303.36	93.69
303.59	98.69
303.82	118.69
304.051	94.69
304.281	77.69
304.511	77.69
304.741	85.69
304.971	76.69
305.201	91.69
305.431	94.69
305.661	81.69
305.891	94.69
306.121	81.69
306.352	97.69
306.582	108.69
306.812	87.69
307.042	86.69
307.272	86.69
307.502	87.69
307.731	95.69
307.961	102.69
308.191	100.69
308.421	100.69
308.651	87.69
308.881	93.69
309.111	79.69
309.341	102.69
309.571	92.69
309.8	85.69
310.03	105.69
310.26	109.69
310.49	94.69
310.72	88.69
310.949	103.69
311.179	101.69
311.409	94.69
311.639	91.69
311.868	80.69
312.098	112.69
312.328	100.69
312.557	126.69
312.787	115.69
313.017	90.69
313.246	85.69
313.476	84.69
313.706	96.69
313.935	104.69
314.165	103.69
314.394	95.69
314.624	98.69
314.853	90.69
315.083	96.69
315.312	85.69
315.542	92.69
315.771	93.69
316.001	92.69
316.23	99.69
316.46	79.69
316.689	81.69
316.919	88.69
317.148	96.69
317.377	89.69
317.607	88.69
317.836	91.69
318.065	99.69
318.295	98.69
318.524	93.69
318.753	77.69
318.983	89.69
319.212	109.69
319.441	102.69
319.67	107.69
319.9	94.69
320.129	91.69
320.358	97.69
320.587	92.69
320.816	91.69
321.046	82.69
321.275	89.69
321.504	98.69
321.733	94.69
321.962	99.69
322.191	115.69
322.42	97.69
322.649	112.69
322.878	112.69
323.108	115.69
323.337	122.69
323.566	123.69
323.795	133.69
324.024	209.69
324.253	409.69
324.482	850.69
324.71	1709.69
324.939	2271.69
325.168	811.69
325.397	246.69
325.626	153.69
325.855	147.69
326.084	124.69
326.313	145.69
326.542	163.69
326.77	233.69
326.999	454.69
327.228	939.69
327.457	1755.69
327.686	1398.69
327.914	362.69
328.143	188.69
328.372	138.69
328.6	126.69
328.829	121.69
329.058	126.69
329.287	121.69
329.515	104.69
329.744	96.69
329.972	102.69
330.201	104.69
330.43	114.69
330.658	121.69
330.887	138.69
331.115	111.69
331.344	96.69
331.572	96.69
331.801	95.69
332.03	93.69
332.258	97.69
332.486	108.69
332.715	88.69
332.943	100.69
333.172	92.69
333.4	91.69
333.629	106.69
333.857	117.69
334.085	102.69
334.314	87.69
334.542	120.69
334.771	113.69
334.999	113.69
335.227	100.69
335.455	75.69
335.684	101.69
335.912	92.69
336.14	86.69
336.369	103.69
336.597	97.69
336.825	108.69
337.053	83.69
337.281	95.69
337.51	81.69
337.738	94.69
337.966	96.69
338.194	109.69
338.422	97.69
338.65	93.69
338.878	106.69
339.106	105.69
339.334	101.69
339.562	86.69
339.79	91.69
340.018	98.69
340.246	91.69
340.474	87.69
340.702	85.69
340.93	89.69
341.158	87.69
341.386	89.69
341.614	98.69
341.842	93.69
342.07	94.69
342.298	103.69
342.526	94.69
342.754	81.69
342.981	79.69
343.209	101.69
343.437	109.69
343.665	110.69
343.893	102.69
344.12	92.69
344.348	84.69
344.576	90.69
344.804	82.69
345.031	85.69
345.259	80.69
345.487	108.69
345.714	98.69
345.942	80.69
346.17	92.69
346.397	81.69
346.625	89.69
346.853	94.69
347.08	92.69
347.308	98.69
347.535	93.69
347.763	88.69
347.99	89.69
348.218	103.69
348.445	99.69
348.673	105.69
348.9	89.69
349.128	94.69
349.355	81.69
349.583	99.69
349.81	85.69
350.037	90.69
350.265	99.69
350.492	105.69
350.72	102.69
350.947	111.69
351.174	105.69
351.402	104.69
351.629	104.69
351.856	96.69
352.083	104.69
352.311	102.69
352.538	86.69
352.765	98.69
352.992	116.69
353.22	108.69
353.447	112.69
353.674	84.69
353.901	95.69
354.128	94.69
354.355	97.69
354.583	91.69
354.81	90.69
355.037	86.69
355.264	89.69
355.491	80.69
355.718	79.69
355.945	79.69
356.172	91.69
356.399	96.69
356.626	100.69
356.853	86.69
357.08	85.69
357.307	105.69
357.534	90.69
357.761	91.69
357.988	99.69
358.215	95.69
358.441	97.69
358.668	87.69
358.895	83.69
359.122	91.69
359.349	85.69
359.576	99.69
359.802	95.69
360.029	112.69
360.256	116.69
360.483	95.69
360.709	96.69
360.936	90.69
361.163	81.69
361.39	92.69
361.616	99.69
361.843	93.69
362.07	95.69
362.296	98.69
362.523	99.69
362.749	93.69
362.976	83.69
363.203	72.69
363.429	95.69
363.656	101.69
363.882	92.69
364.109	93.69
364.335	99.69
364.562	86.69
364.788	92.69
365.015	89.69
365.241	81.69
365.468	96.69
365.694	97.69
365.92	88.69
366.147	97.69
366.373	94.69
366.599	86.69
366.826	76.69
367.052	91.69
367.278	88.69
367.505	85.69
367.731	96.69
367.957	92.69
368.184	98.69
368.41	102.69
368.636	105.69
368.862	112.69
369.089	97.69
369.315	95.69
369.541	99.69
369.767	87.69
369.993	92.69
370.219	93.69
370.445	94.69
370.672	70.69
370.898	100.69
371.124	93.69
371.35	81.69
371.576	97.69
371.802	83.69
372.028	94.69
372.254	98.69
372.48	79.69
372.706	93.69
372.932	71.69
373.158	88.69
373.384	79.69
373.61	92.69
373.835	94.69
374.061	88.69
374.287	94.69
374.513	91.69
374.739	74.69
374.965	79.69
375.191	94.69
375.416	88.69
375.642	83.69
375.868	99.69
376.094	93.69
376.319	90.69
376.545	97.69
376.771	103.69
376.997	73.69
377.222	108.69
377.448	104.69
377.674	91.69
377.899	80.69
378.125	80.69
378.35	89.69
378.576	85.69
378.802	93.69
379.027	83.69
379.253	105.69
379.478	93.69
379.704	84.69
379.929	101.69
380.155	87.69
380.38	96.69
380.606	97.69
380.831	93.69
381.057	89.69
381.282	99.69
381.507	88.69
381.733	88.69
381.958	104.69
382.184	107.69
382.409	98.69
382.634	104.69
382.86	104.69
383.085	94.69
383.31	92.69
383.535	111.69
383.761	100.69
383.986	97.69
384.211	81.69
384.436	94.69
384.662	88.69
384.887	97.69
385.112	103.69
385.337	107.69
385.562	107.69
385.787	100.69
386.013	96.69
386.238	112.69
386.463	103.69
386.688	105.69
386.913	97.69
387.138	94.69
387.363	107.69
387.588	111.69
387.813	86.69
388.038	105.69
388.263	101.69
388.488	91.69
388.713	106.69
388.938	83.69
389.163	107.69
389.387	107.69
389.612	102.69
389.837	77.69
390.062	94.69
390.287	108.69
390.512	93.69
390.736	109.69
390.961	88.69
391.186	95.69
391.411	97.69
391.636	103.69
391.86	89.69
392.085	87.69
392.31	92.69
392.534	91.69
392.759	91.69
392.984	105.69
393.208	95.69
393.433	82.69
393.658	98.69
393.882	99.69
394.107	78.69
394.331	90.69
394.556	79.69
394.78	91.69
395.005	82.69
395.229	75.69
395.454	78.69
395.678	86.69
395.903	88.69
396.127	77.69
396.352	84.69
396.576	87.69
396.801	76.69
397.025	86.69
397.249	90.69
397.474	78.69
397.698	97.69
397.922	100.69
398.147	85.69
398.371	74.69
398.595	94.69
398.82	77.69
399.044	85.69
399.268	83.69
399.492	83.69
399.717	81.69
399.941	91.69
400.165	105.69
400.389	93.69
400.613	66.69
400.837	94.69
401.062	90.69
401.286	104.69
401.51	85.69
401.734	73.69
401.958	86.69
402.182	115.69
402.406	143.69
402.63	118.69
402.854	87.69
403.078	108.69
403.302	96.69
403.526	85.69
403.75	95.69
403.974	93.69
404.198	83.69
404.422	95.69
404.645	77.69
404.869	84.69
405.093	89.69
405.317	109.69
405.541	108.69
405.765	101.69
405.988	126.69
406.212	150.69
406.436	198.69
406.66	141.69
406.883	77.69
407.107	82.69
407.331	90.69
407.555	95.69
407.778	115.69
408.002	87.69
408.226	102.69
408.449	79.69
408.673	83.69
408.896	88.69
409.12	104.69
409.344	95.69
409.567	87.69
409.791	77.69
410.014	93.69
410.238	81.69
410.461	104.69
410.685	93.69
410.908	103.69
411.132	101.69
411.355	100.69
411.578	103.69
411.802	85.69
412.025	65.69
412.249	93.69
412.472	76.69
412.695	107.69
412.919	94.69
413.142	87.69
413.365	101.69
413.589	81.69
413.812	84.69
414.035	120.69
414.258	97.69
414.482	100.69
414.705	98.69
414.928	100.69
415.151	91.69
415.374	77.69
415.597	83.69
415.821	93.69
416.044	81.69
416.267	77.69
416.49	84.69
416.713	88.69
416.936	84.69
417.159	92.69
417.382	102.69
417.605	87.69
417.828	88.69
418.051	86.69
418.274	76.69
418.497	88.69
418.72	94.69
418.943	93.69
419.166	102.69
419.389	91.69
419.611	98.69
419.834	93.69
420.057	92.69
420.28	89.69
420.503	100.69
420.726	76.69
420.948	101.69
421.171	87.69
421.394	97.69
421.617	88.69
421.839	95.69
422.062	87.69
422.285	81.69
422.507	99.69
422.73	102.69
422.953	86.69
423.175	83.69
423.398	87.69
423.621	92.69
423.843	89.69
424.066	82.69
424.288	95.69
424.511	88.69
424.733	102.69
424.956	117.69
425.178	94.69
425.401	101.69
425.623	91.69
425.846	94.69
426.068	96.69
426.291	87.69
426.513	82.69
426.735	106.69
426.958	92.69
427.18	106.69
427.402	136.69
427.625	155.69
427.847	145.69
428.069	96.69
428.292	104.69
428.514	87.69
428.736	86.69
428.958	86.69
429.181	86.69
429.403	90.69
429.625	93.69
429.847	109.69
430.069	100.69
430.292	100.69
430.514	89.69
430.736	84.69
430.958	84.69
431.18	103.69
431.402	66.69
431.624	69.69
431.846	74.69
432.068	83.69
432.29	96.69
432.512	94.69
432.734	89.69
432.956	92.69
433.178	103.69
433.4	104.69
433.622	98.69
433.844	91.69
434.066	72.69
434.287	81.69
434.509	83.69
434.731	84.69
434.953	82.69
435.175	82.69
435.397	80.69
435.618	89.69
435.84	99.69
436.062	132.69
436.284	106.69
436.505	106.69
436.727	103.69
436.949	93.69
437.17	77.69
437.392	92.69
437.614	102.69
437.835	120.69
438.057	126.69
438.278	105.69
438.5	107.69
438.721	123.69
438.943	109.69
439.165	87.69
439.386	79.69
439.608	92.69
439.829	96.69
440.05	110.69
440.272	130.69
440.493	92.69
440.715	80.69
440.936	91.69
441.158	85.69
441.379	91.69
441.6	89.69
441.822	91.69
442.043	84.69
442.264	104.69
442.486	99.69
442.707	96.69
442.928	100.69
443.149	133.69
443.371	132.69
443.592	94.69
443.813	107.69
444.034	98.69
444.255	79.69
444.476	88.69
444.698	102.69
444.919	92.69
445.14	129.69
445.361	134.69
445.582	114.69
445.803	131.69
446.024	141.69
446.245	127.69
446.466	116.69
446.687	83.69
446.908	86.69
447.129	83.69
447.35	84.69
447.571	86.69
447.792	91.69
448.013	102.69
448.234	100.69
448.455	105.69
448.675	116.69
448.896	113.69
449.117	94.69
449.338	94.69
449.559	116.69
449.779	113.69
450	89.69
450.221	78.69
450.442	78.69
450.662	93.69
450.883	100.69
451.104	111.69
451.324	97.69
451.545	85.69
451.766	85.69
451.986	91.69
452.207	85.69
452.428	72.69
452.648	89.69
452.869	97.69
453.089	95.69
453.31	126.69
453.53	88.69
453.751	102.69
453.971	97.69
454.192	105.69
454.412	80.69
454.633	83.69
454.853	81.69
455.073	87.69
455.294	79.69
455.514	81.69
455.734	89.69
455.955	68.69
456.175	90.69
456.395	82.69
456.616	86.69
456.836	91.69
457.056	77.69
457.276	85.69
457.497	86.69
457.717	82.69
457.937	84.69
458.157	94.69
458.377	85.69
458.598	86.69
458.818	154.69
459.038	161.69
459.258	114.69
459.478	91.69
459.698	78.69
459.918	104.69
460.138	91.69
460.358	79.69
460.578	83.69
460.798	88.69
461.018	93.69
461.238	88.69
461.458	83.69
461.678	83.69
461.898	77.69
462.118	89.69
462.338	99.69
462.558	73.69
462.777	82.69
462.997	81.69
463.217	78.69
463.437	81.69
463.657	85.69
463.876	88.69
464.096	84.69
464.316	88.69
464.536	116.69
464.755	103.69
464.975	96.69
465.195	163.69
465.414	159.69
465.634	101.69
465.854	77.69
466.073	81.69
466.293	84.69
466.512	89.69
466.732	95.69
466.951	88.69
467.171	81.69
467.391	82.69
467.61	109.69
467.829	91.69
468.049	106.69
468.268	108.69
468.488	78.69
468.707	73.69
468.927	87.69
469.146	71.69
469.365	82.69
469.585	95.69
469.804	103.69
470.023	97.69
470.243	83.69
470.462	88.69
470.681	110.69
470.901	99.69
471.12	92.69
471.339	102.69
471.558	95.69
471.777	97.69
471.997	91.69
472.216	97.69
472.435	112.69
472.654	91.69
472.873	92.69
473.092	78.69
473.311	92.69
473.53	80.69
473.749	93.69
473.968	96.69
474.187	91.69
474.406	98.69
474.625	84.69
474.844	84.69
475.063	83.69
475.282	92.69
475.501	89.69
475.72	92.69
475.939	83.69
476.158	91.69
476.377	94.69
476.596	85.69
476.814	94.69
477.033	87.69
477.252	112.69
477.471	87.69
477.69	103.69
477.908	90.69
478.127	91.69
478.346	92.69
478.564	83.69
478.783	82.69
479.002	87.69
479.22	85.69
479.439	99.69
479.658	100.69
479.876	92.69
480.095	84.69
480.313	84.69
480.532	84.69
480.751	79.69
480.969	91.69
481.188	146.69
481.406	121.69
481.624	81.69
481.843	84.69
482.061	81.69
482.28	88.69
482.498	83.69
482.717	80.69
482.935	83.69
483.153	84.69
483.372	87.69
483.59	80.69
483.808	101.69
484.027	88.69
484.245	89.69
484.463	99.69
484.681	101.69
484.9	103.69
485.118	79.69
485.336	94.69
485.554	95.69
485.772	95.69
485.99	87.69
486.209	79.69
486.427	95.69
486.645	107.69
486.863	98.69
487.081	109.69
487.299	99.69
487.517	90.69
487.735	102.69
487.953	83.69
488.171	87.69
488.389	105.69
488.607	84.69
488.825	87.69
489.043	75.69
489.261	82.69
489.479	92.69
489.696	85.69
489.914	75.69
490.132	89.69
490.35	94.69
490.568	86.69
490.786	77.69
491.003	93.69
491.221	91.69
491.439	102.69
491.657	108.69
491.874	93.69
492.092	103.69
492.31	98.69
492.527	90.69
492.745	85.69
492.963	92.69
493.18	97.69
493.398	97.69
493.615	92.69
493.833	97.69
494.05	105.69
494.268	76.69
494.485	87.69
494.703	91.69
494.92	87.69
495.138	101.69
495.355	92.69
495.573	83.69
495.79	83.69
496.008	95.69
496.225	93.69
496.442	84.69
496.66	82.69
496.877	77.69
497.094	87.69
497.312	94.69
497.529	77.69
497.746	84.69
497.963	99.69
498.181	88.69
498.398	98.69
498.615	105.69
498.832	101.69
499.049	90.69
499.267	83.69
499.484	80.69
499.701	95.69
499.918	89.69
500.135	95.69
500.352	92.69
500.569	97.69
500.786	93.69
501.003	84.69
501.22	99.69
501.437	85.69
501.654	100.69
501.871	117.69
502.088	91.69
502.305	92.69
502.522	91.69
502.739	89.69
502.956	95.69
503.172	77.69
503.389	86.69
503.606	92.69
503.823	86.69
504.04	88.69
504.256	88.69
504.473	99.69
504.69	80.69
504.907	78.69
505.123	85.69
505.34	95.69
505.557	102.69
505.773	88.69
505.99	87.69
506.207	77.69
506.423	79.69
506.64	94.69
506.856	83.69
507.073	88.69
507.289	110.69
507.506	93.69
507.722	110.69
507.939	109.69
508.155	87.69
508.372	84.69
508.588	102.69
508.805	98.69
509.021	94.69
509.238	101.69
509.454	94.69
509.67	99.69
509.887	123.69
510.103	147.69
510.319	211.69
510.536	753.69
510.752	2207.69
510.968	619.69
511.184	151.69
511.401	111.69
511.617	102.69
511.833	92.69
512.049	76.69
512.265	85.69
512.481	92.69
512.698	87.69
512.914	88.69
513.13	92.69
513.346	83.69
513.562	91.69
513.778	90.69
513.994	95.69
514.21	114.69
514.426	121.69
514.642	148.69
514.858	140.69
515.074	172.69
515.29	444.69
515.506	1432.69
515.721	510.69
515.937	145.69
