Data from Uncirc_1988_H10_HRD10591_00047.txt Node
Date: Wed Jan 03 12:04:13 EST 2024
User: Yrep
Spectrometer: HR+D1059
Trigger mode: 1
Integration Time (sec): 1.000000E-1
Scans to average: 1
Electric dark correction enabled: true
Nonlinearity correction enabled: false
Boxcar width: 0
XAxis mode: Wavelengths
Number of Pixels in Spectrum: 2048
>>>>>Begin Spectral Data<<<<<
223.165	-8.62
223.4	-8.62
223.635	-8.62
223.869	-14.62
224.104	-19.62
224.338	-21.62
224.573	-24.62
224.808	-10.62
225.042	-9.62
225.277	0.38
225.511	-12.62
225.746	11.38
225.98	7.38
226.215	6.38
226.449	18.38
226.683	15.38
226.918	25.38
227.152	37.38
227.387	30.38
227.621	37.38
227.856	46.38
228.09	42.38
228.324	59.38
228.559	63.38
228.793	69.38
229.027	68.38
229.262	81.38
229.496	70.38
229.73	85.38
229.964	88.38
230.199	71.38
230.433	68.38
230.667	67.38
230.901	77.38
231.136	72.38
231.37	83.38
231.604	72.38
231.838	77.38
232.072	87.38
232.306	68.38
232.541	79.38
232.775	89.38
233.009	83.38
233.243	80.38
233.477	88.38
233.711	92.38
233.945	83.38
234.179	78.38
234.413	86.38
234.647	90.38
234.881	96.38
235.115	79.38
235.349	73.38
235.583	83.38
235.817	71.38
236.051	79.38
236.285	86.38
236.519	78.38
236.753	84.38
236.987	75.38
237.221	91.38
237.455	88.38
237.689	77.38
237.922	70.38
238.156	85.38
238.39	68.38
238.624	59.38
238.858	75.38
239.091	78.38
239.325	78.38
239.559	77.38
239.793	78.38
240.027	75.38
240.26	80.38
240.494	76.38
240.728	77.38
240.961	65.38
241.195	72.38
241.429	76.38
241.662	85.38
241.896	87.38
242.13	70.38
242.363	72.38
242.597	95.38
242.83	81.38
243.064	83.38
243.298	72.38
243.531	72.38
243.765	70.38
243.998	76.38
244.232	68.38
244.465	82.38
244.699	73.38
244.932	70.38
245.166	86.38
245.399	72.38
245.633	72.38
245.866	71.38
246.099	75.38
246.333	77.38
246.566	83.38
246.8	75.38
247.033	66.38
247.266	83.38
247.5	85.38
247.733	82.38
247.966	81.38
248.2	76.38
248.433	75.38
248.666	72.38
248.899	66.38
249.133	76.38
249.366	104.38
249.599	87.38
249.832	75.38
250.066	77.38
250.299	83.38
250.532	84.38
250.765	77.38
250.998	82.38
251.231	75.38
251.465	75.38
251.698	68.38
251.931	78.38
252.164	73.38
252.397	89.38
252.63	80.38
252.863	75.38
253.096	76.38
253.329	66.38
253.562	80.38
253.795	87.38
254.028	79.38
254.261	75.38
254.494	80.38
254.727	66.38
254.96	67.38
255.193	73.38
255.426	77.38
255.659	77.38
255.892	78.38
256.124	72.38
256.357	81.38
256.59	68.38
256.823	72.38
257.056	80.38
257.289	78.38
257.521	71.38
257.754	78.38
257.987	70.38
258.22	80.38
258.452	79.38
258.685	77.38
258.918	75.38
259.151	73.38
259.383	90.38
259.616	69.38
259.849	67.38
260.081	86.38
260.314	75.38
260.547	89.38
260.779	87.38
261.012	77.38
261.244	79.38
261.477	92.38
261.71	98.38
261.942	121.38
262.175	117.38
262.407	88.38
262.64	68.38
262.872	76.38
263.105	92.38
263.337	76.38
263.57	85.38
263.802	84.38
264.035	79.38
264.267	86.38
264.499	82.38
264.732	84.38
264.964	102.38
265.197	87.38
265.429	87.38
265.661	78.38
265.894	94.38
266.126	84.38
266.358	78.38
266.591	61.38
266.823	91.38
267.055	72.38
267.287	72.38
267.52	86.38
267.752	87.38
267.984	84.38
268.216	84.38
268.448	68.38
268.681	71.38
268.913	87.38
269.145	84.38
269.377	86.38
269.609	67.38
269.841	93.38
270.073	87.38
270.306	86.38
270.538	83.38
270.77	96.38
271.002	79.38
271.234	83.38
271.466	96.38
271.698	83.38
271.93	77.38
272.162	68.38
272.394	81.38
272.626	78.38
272.858	87.38
273.09	75.38
273.322	77.38
273.553	74.38
273.785	76.38
274.017	78.38
274.249	82.38
274.481	88.38
274.713	86.38
274.945	80.38
275.176	91.38
275.408	90.38
275.64	81.38
275.872	96.38
276.104	73.38
276.335	88.38
276.567	96.38
276.799	121.38
277.031	102.38
277.262	105.38
277.494	101.38
277.726	93.38
277.957	80.38
278.189	93.38
278.421	94.38
278.652	84.38
278.884	97.38
279.115	93.38
279.347	71.38
279.579	89.38
279.81	90.38
280.042	84.38
280.273	73.38
280.505	84.38
280.736	81.38
280.968	87.38
281.199	80.38
281.431	91.38
281.662	96.38
281.894	86.38
282.125	87.38
282.356	114.38
282.588	150.38
282.819	114.38
283.051	97.38
283.282	90.38
283.513	99.38
283.745	79.38
283.976	81.38
284.207	87.38
284.439	87.38
284.67	84.38
284.901	75.38
285.132	99.38
285.364	86.38
285.595	82.38
285.826	83.38
286.057	82.38
286.288	79.38
286.52	78.38
286.751	83.38
286.982	79.38
287.213	85.38
287.444	93.38
287.675	108.38
287.906	92.38
288.138	89.38
288.369	94.38
288.6	88.38
288.831	91.38
289.062	97.38
289.293	81.38
289.524	91.38
289.755	81.38
289.986	86.38
290.217	81.38
290.448	86.38
290.679	77.38
290.91	82.38
291.141	87.38
291.371	89.38
291.602	87.38
291.833	100.38
292.064	90.38
292.295	84.38
292.526	90.38
292.757	80.38
292.987	89.38
293.218	93.38
293.449	88.38
293.68	73.38
293.91	95.38
294.141	105.38
294.372	92.38
294.603	84.38
294.833	78.38
295.064	68.38
295.295	85.38
295.525	89.38
295.756	100.38
295.987	127.38
296.217	125.38
296.448	115.38
296.679	89.38
296.909	81.38
297.14	87.38
297.37	89.38
297.601	85.38
297.831	88.38
298.062	100.38
298.292	94.38
298.523	85.38
298.753	92.38
298.984	93.38
299.214	86.38
299.445	103.38
299.675	100.38
299.905	95.38
300.136	91.38
300.366	86.38
300.597	88.38
300.827	95.38
301.057	96.38
301.288	106.38
301.518	98.38
301.748	93.38
301.979	106.38
302.209	88.38
302.439	88.38
302.669	88.38
302.9	84.38
303.13	94.38
303.36	93.38
303.59	96.38
303.82	109.38
304.051	95.38
304.281	96.38
304.511	92.38
304.741	98.38
304.971	86.38
305.201	89.38
305.431	88.38
305.661	79.38
305.891	91.38
306.121	79.38
306.352	97.38
306.582	101.38
306.812	103.38
307.042	104.38
307.272	86.38
307.502	89.38
307.731	100.38
307.961	96.38
308.191	85.38
308.421	83.38
308.651	80.38
308.881	76.38
309.111	107.38
309.341	83.38
309.571	87.38
309.8	99.38
310.03	101.38
310.26	86.38
310.49	93.38
310.72	98.38
310.949	98.38
311.179	95.38
311.409	91.38
311.639	109.38
311.868	78.38
312.098	99.38
312.328	102.38
312.557	94.38
312.787	99.38
313.017	88.38
313.246	84.38
313.476	95.38
313.706	88.38
313.935	104.38
314.165	114.38
314.394	100.38
314.624	107.38
314.853	103.38
315.083	95.38
315.312	91.38
315.542	91.38
315.771	81.38
316.001	109.38
316.23	90.38
316.46	79.38
316.689	83.38
316.919	98.38
317.148	92.38
317.377	87.38
317.607	77.38
317.836	80.38
318.065	83.38
318.295	90.38
318.524	83.38
318.753	95.38
318.983	83.38
319.212	96.38
319.441	105.38
319.67	105.38
319.9	100.38
320.129	80.38
320.358	86.38
320.587	99.38
320.816	112.38
321.046	92.38
321.275	107.38
321.504	85.38
321.733	113.38
321.962	98.38
322.191	89.38
322.42	99.38
322.649	94.38
322.878	117.38
323.108	119.38
323.337	116.38
323.566	141.38
323.795	153.38
324.024	210.38
324.253	389.38
324.482	862.38
324.71	1717.38
324.939	2285.38
325.168	829.38
325.397	245.38
325.626	144.38
325.855	130.38
326.084	133.38
326.313	134.38
326.542	156.38
326.77	234.38
326.999	470.38
327.228	980.38
327.457	1752.38
327.686	1371.38
327.914	376.38
328.143	181.38
328.372	138.38
328.6	119.38
328.829	124.38
329.058	128.38
329.287	128.38
329.515	102.38
329.744	97.38
329.972	107.38
330.201	113.38
330.43	130.38
330.658	124.38
330.887	140.38
331.115	121.38
331.344	109.38
331.572	101.38
331.801	117.38
332.03	108.38
332.258	86.38
332.486	84.38
332.715	92.38
332.943	92.38
333.172	104.38
333.4	110.38
333.629	119.38
333.857	108.38
334.085	83.38
334.314	96.38
334.542	102.38
334.771	102.38
334.999	94.38
335.227	101.38
335.455	97.38
335.684	91.38
335.912	104.38
336.14	107.38
336.369	104.38
336.597	108.38
336.825	92.38
337.053	86.38
337.281	82.38
337.51	89.38
337.738	104.38
337.966	86.38
338.194	94.38
338.422	89.38
338.65	86.38
338.878	94.38
339.106	94.38
339.334	96.38
339.562	99.38
339.79	88.38
340.018	95.38
340.246	94.38
340.474	94.38
340.702	88.38
340.93	87.38
341.158	94.38
341.386	91.38
341.614	95.38
341.842	84.38
342.07	81.38
342.298	87.38
342.526	95.38
342.754	94.38
342.981	84.38
343.209	84.38
343.437	98.38
343.665	95.38
343.893	100.38
344.12	99.38
344.348	97.38
344.576	83.38
344.804	82.38
345.031	93.38
345.259	102.38
345.487	84.38
345.714	100.38
345.942	87.38
346.17	91.38
346.397	96.38
346.625	111.38
346.853	91.38
347.08	97.38
347.308	103.38
347.535	94.38
347.763	92.38
347.99	90.38
348.218	110.38
348.445	95.38
348.673	100.38
348.9	86.38
349.128	91.38
349.355	87.38
349.583	98.38
349.81	87.38
350.037	104.38
350.265	100.38
350.492	93.38
350.72	96.38
350.947	103.38
351.174	115.38
351.402	102.38
351.629	88.38
351.856	104.38
352.083	92.38
352.311	105.38
352.538	100.38
352.765	102.38
352.992	126.38
353.22	116.38
353.447	95.38
353.674	99.38
353.901	94.38
354.128	86.38
354.355	102.38
354.583	87.38
354.81	83.38
355.037	118.38
355.264	101.38
355.491	89.38
355.718	97.38
355.945	99.38
356.172	84.38
356.399	91.38
356.626	84.38
356.853	81.38
357.08	97.38
357.307	92.38
357.534	100.38
357.761	82.38
357.988	91.38
358.215	92.38
358.441	98.38
358.668	100.38
358.895	72.38
359.122	102.38
359.349	91.38
359.576	81.38
359.802	87.38
360.029	118.38
360.256	127.38
360.483	107.38
360.709	91.38
360.936	101.38
361.163	98.38
361.39	99.38
361.616	99.38
361.843	103.38
362.07	95.38
362.296	94.38
362.523	99.38
362.749	101.38
362.976	77.38
363.203	80.38
363.429	81.38
363.656	94.38
363.882	92.38
364.109	91.38
364.335	96.38
364.562	94.38
364.788	99.38
365.015	95.38
365.241	88.38
365.468	105.38
365.694	109.38
365.92	86.38
366.147	96.38
366.373	73.38
366.599	81.38
366.826	83.38
367.052	73.38
367.278	86.38
367.505	77.38
367.731	94.38
367.957	106.38
368.184	105.38
368.41	90.38
368.636	102.38
368.862	120.38
369.089	107.38
369.315	79.38
369.541	92.38
369.767	96.38
369.993	73.38
370.219	87.38
370.445	104.38
370.672	87.38
370.898	87.38
371.124	72.38
371.35	84.38
371.576	100.38
371.802	94.38
372.028	81.38
372.254	88.38
372.48	89.38
372.706	80.38
372.932	93.38
373.158	105.38
373.384	85.38
373.61	78.38
373.835	91.38
374.061	82.38
374.287	87.38
374.513	78.38
374.739	83.38
374.965	99.38
375.191	88.38
375.416	87.38
375.642	83.38
375.868	92.38
376.094	98.38
376.319	88.38
376.545	82.38
376.771	87.38
376.997	91.38
377.222	83.38
377.448	92.38
377.674	78.38
377.899	88.38
378.125	88.38
378.35	103.38
378.576	102.38
378.802	83.38
379.027	100.38
379.253	91.38
379.478	95.38
379.704	109.38
379.929	103.38
380.155	93.38
380.38	92.38
380.606	99.38
380.831	91.38
381.057	103.38
381.282	97.38
381.507	90.38
381.733	104.38
381.958	92.38
382.184	93.38
382.409	100.38
382.634	101.38
382.86	109.38
383.085	105.38
383.31	106.38
383.535	91.38
383.761	112.38
383.986	83.38
384.211	99.38
384.436	105.38
384.662	96.38
384.887	92.38
385.112	99.38
385.337	81.38
385.562	88.38
385.787	104.38
386.013	107.38
386.238	113.38
386.463	111.38
386.688	101.38
386.913	111.38
387.138	93.38
387.363	98.38
387.588	91.38
387.813	95.38
388.038	88.38
388.263	100.38
388.488	112.38
388.713	92.38
388.938	95.38
389.163	99.38
389.387	98.38
389.612	101.38
389.837	85.38
390.062	97.38
390.287	89.38
390.512	88.38
390.736	86.38
390.961	102.38
391.186	91.38
391.411	109.38
391.636	99.38
391.86	94.38
392.085	85.38
392.31	100.38
392.534	84.38
392.759	91.38
392.984	102.38
393.208	84.38
393.433	86.38
393.658	82.38
393.882	93.38
394.107	94.38
394.331	75.38
394.556	81.38
394.78	90.38
395.005	83.38
395.229	86.38
395.454	87.38
395.678	95.38
395.903	93.38
396.127	82.38
396.352	85.38
396.576	77.38
396.801	95.38
397.025	86.38
397.249	79.38
397.474	101.38
397.698	105.38
397.922	90.38
398.147	85.38
398.371	89.38
398.595	70.38
398.82	75.38
399.044	77.38
399.268	83.38
399.492	90.38
399.717	96.38
399.941	86.38
400.165	103.38
400.389	86.38
400.613	84.38
400.837	84.38
401.062	87.38
401.286	84.38
401.51	75.38
401.734	98.38
401.958	109.38
402.182	121.38
402.406	159.38
402.63	111.38
402.854	87.38
403.078	87.38
403.302	93.38
403.526	84.38
403.75	86.38
403.974	85.38
404.198	94.38
404.422	89.38
404.645	79.38
404.869	80.38
405.093	101.38
405.317	88.38
405.541	92.38
405.765	95.38
405.988	129.38
406.212	187.38
406.436	236.38
406.66	140.38
406.883	107.38
407.107	92.38
407.331	91.38
407.555	98.38
407.778	100.38
408.002	90.38
408.226	84.38
408.449	101.38
408.673	91.38
408.896	108.38
409.12	105.38
409.344	102.38
409.567	72.38
409.791	92.38
410.014	99.38
410.238	97.38
410.461	95.38
410.685	97.38
410.908	86.38
411.132	123.38
411.355	103.38
411.578	96.38
411.802	93.38
412.025	97.38
412.249	95.38
412.472	83.38
412.695	87.38
412.919	93.38
413.142	83.38
413.365	82.38
413.589	91.38
413.812	92.38
414.035	86.38
414.258	93.38
414.482	87.38
414.705	102.38
414.928	84.38
415.151	98.38
415.374	103.38
415.597	86.38
415.821	81.38
416.044	91.38
416.267	79.38
416.49	90.38
416.713	99.38
416.936	94.38
417.159	100.38
417.382	101.38
417.605	83.38
417.828	91.38
418.051	88.38
418.274	88.38
418.497	84.38
418.72	93.38
418.943	78.38
419.166	95.38
419.389	100.38
419.611	98.38
419.834	90.38
420.057	79.38
420.28	83.38
420.503	89.38
420.726	87.38
420.948	83.38
421.171	85.38
421.394	89.38
421.617	76.38
421.839	82.38
422.062	95.38
422.285	103.38
422.507	110.38
422.73	119.38
422.953	107.38
423.175	94.38
423.398	89.38
423.621	105.38
423.843	78.38
424.066	76.38
424.288	88.38
424.511	99.38
424.733	107.38
424.956	111.38
425.178	85.38
425.401	111.38
425.623	85.38
425.846	88.38
426.068	92.38
426.291	102.38
426.513	93.38
426.735	82.38
426.958	96.38
427.18	109.38
427.402	137.38
427.625	176.38
427.847	132.38
428.069	98.38
428.292	88.38
428.514	95.38
428.736	92.38
428.958	86.38
429.181	103.38
429.403	87.38
429.625	99.38
429.847	85.38
430.069	104.38
430.292	106.38
430.514	92.38
430.736	89.38
430.958	81.38
431.18	84.38
431.402	79.38
431.624	83.38
431.846	79.38
432.068	96.38
432.29	86.38
432.512	85.38
432.734	97.38
432.956	81.38
433.178	89.38
433.4	112.38
433.622	103.38
433.844	92.38
434.066	89.38
434.287	89.38
434.509	89.38
434.731	99.38
434.953	92.38
435.175	80.38
435.397	94.38
435.618	100.38
435.84	116.38
436.062	124.38
436.284	119.38
436.505	102.38
436.727	97.38
436.949	104.38
437.17	97.38
437.392	83.38
437.614	95.38
437.835	106.38
438.057	121.38
438.278	120.38
438.5	100.38
438.721	134.38
438.943	97.38
439.165	80.38
439.386	81.38
439.608	91.38
439.829	94.38
440.05	113.38
440.272	138.38
440.493	112.38
440.715	87.38
440.936	93.38
441.158	99.38
441.379	95.38
441.6	102.38
441.822	79.38
442.043	94.38
442.264	104.38
442.486	103.38
442.707	95.38
442.928	113.38
443.149	142.38
443.371	123.38
443.592	113.38
443.813	113.38
444.034	114.38
444.255	98.38
444.476	93.38
444.698	82.38
444.919	87.38
445.14	135.38
445.361	140.38
445.582	110.38
445.803	144.38
446.024	140.38
446.245	132.38
446.466	100.38
446.687	104.38
446.908	80.38
447.129	80.38
447.35	94.38
447.571	101.38
447.792	94.38
448.013	101.38
448.234	116.38
448.455	99.38
448.675	100.38
448.896	124.38
449.117	98.38
449.338	99.38
449.559	120.38
449.779	158.38
450	97.38
450.221	93.38
450.442	88.38
450.662	100.38
450.883	114.38
451.104	91.38
451.324	95.38
451.545	80.38
451.766	89.38
451.986	81.38
452.207	101.38
452.428	85.38
452.648	96.38
452.869	118.38
453.089	113.38
453.31	115.38
453.53	84.38
453.751	87.38
453.971	100.38
454.192	126.38
454.412	99.38
454.633	90.38
454.853	83.38
455.073	80.38
455.294	85.38
455.514	97.38
455.734	96.38
455.955	93.38
456.175	97.38
456.395	89.38
456.616	90.38
456.836	77.38
457.056	80.38
457.276	64.38
457.497	73.38
457.717	90.38
457.937	85.38
458.157	89.38
458.377	90.38
458.598	106.38
458.818	137.38
459.038	187.38
459.258	127.38
459.478	80.38
459.698	85.38
459.918	81.38
460.138	89.38
460.358	90.38
460.578	85.38
460.798	96.38
461.018	93.38
461.238	83.38
461.458	79.38
461.678	81.38
461.898	83.38
462.118	91.38
462.338	92.38
462.558	76.38
462.777	76.38
462.997	87.38
463.217	78.38
463.437	94.38
463.657	76.38
463.876	96.38
464.096	95.38
464.316	99.38
464.536	89.38
464.755	84.38
464.975	114.38
465.195	156.38
465.414	147.38
465.634	91.38
465.854	94.38
466.073	100.38
466.293	88.38
466.512	81.38
466.732	87.38
466.951	104.38
467.171	96.38
467.391	94.38
467.61	110.38
467.829	108.38
468.049	100.38
468.268	87.38
468.488	84.38
468.707	78.38
468.927	91.38
469.146	90.38
469.365	90.38
469.585	99.38
469.804	91.38
470.023	99.38
470.243	82.38
470.462	97.38
470.681	104.38
470.901	80.38
471.12	87.38
471.339	80.38
471.558	91.38
471.777	86.38
471.997	91.38
472.216	105.38
472.435	118.38
472.654	74.38
472.873	91.38
473.092	83.38
473.311	81.38
473.53	75.38
473.749	92.38
473.968	94.38
474.187	106.38
474.406	87.38
474.625	87.38
474.844	96.38
475.063	95.38
475.282	87.38
475.501	95.38
475.72	88.38
475.939	93.38
476.158	87.38
476.377	83.38
476.596	80.38
476.814	95.38
477.033	85.38
477.252	105.38
477.471	96.38
477.69	89.38
477.908	88.38
478.127	99.38
478.346	99.38
478.564	101.38
478.783	100.38
479.002	97.38
479.22	93.38
479.439	99.38
479.658	103.38
479.876	92.38
480.095	75.38
480.313	102.38
480.532	88.38
480.751	91.38
480.969	102.38
481.188	132.38
481.406	102.38
481.624	102.38
481.843	89.38
482.061	93.38
482.28	87.38
482.498	86.38
482.717	90.38
482.935	99.38
483.153	93.38
483.372	75.38
483.59	87.38
483.808	98.38
484.027	85.38
484.245	81.38
484.463	74.38
484.681	86.38
484.9	95.38
485.118	94.38
485.336	84.38
485.554	108.38
485.772	100.38
485.99	108.38
486.209	101.38
486.427	85.38
486.645	102.38
486.863	111.38
487.081	99.38
487.299	103.38
487.517	87.38
487.735	97.38
487.953	85.38
488.171	90.38
488.389	91.38
488.607	91.38
488.825	95.38
489.043	84.38
489.261	81.38
489.479	98.38
489.696	85.38
489.914	74.38
490.132	77.38
490.35	96.38
490.568	90.38
490.786	102.38
491.003	94.38
491.221	92.38
491.439	104.38
491.657	86.38
491.874	100.38
492.092	83.38
492.31	103.38
492.527	86.38
492.745	80.38
492.963	107.38
493.18	98.38
493.398	92.38
493.615	101.38
493.833	87.38
494.05	81.38
494.268	96.38
494.485	89.38
494.703	93.38
494.92	111.38
495.138	85.38
495.355	84.38
495.573	94.38
495.79	83.38
496.008	102.38
496.225	84.38
496.442	93.38
496.66	83.38
496.877	81.38
497.094	87.38
497.312	106.38
497.529	94.38
497.746	90.38
497.963	81.38
498.181	96.38
498.398	105.38
498.615	108.38
498.832	104.38
499.049	83.38
499.267	82.38
499.484	91.38
499.701	95.38
499.918	89.38
500.135	97.38
500.352	88.38
500.569	86.38
500.786	90.38
501.003	96.38
501.22	110.38
501.437	98.38
501.654	92.38
501.871	120.38
502.088	95.38
502.305	95.38
502.522	95.38
502.739	90.38
502.956	84.38
503.172	83.38
503.389	108.38
503.606	82.38
503.823	93.38
504.04	96.38
504.256	96.38
504.473	84.38
504.69	76.38
504.907	93.38
505.123	108.38
505.34	87.38
505.557	91.38
505.773	90.38
505.99	86.38
506.207	77.38
506.423	89.38
506.64	84.38
506.856	82.38
507.073	101.38
507.289	108.38
507.506	96.38
507.722	114.38
507.939	108.38
508.155	89.38
508.372	106.38
508.588	99.38
508.805	94.38
509.021	95.38
509.238	116.38
509.454	105.38
509.67	87.38
509.887	108.38
510.103	145.38
510.319	221.38
510.536	777.38
510.752	2416.38
510.968	648.38
511.184	148.38
511.401	97.38
511.617	96.38
511.833	90.38
512.049	96.38
512.265	98.38
512.481	92.38
512.698	96.38
512.914	93.38
513.13	90.38
513.346	91.38
513.562	84.38
513.778	87.38
513.994	107.38
514.21	105.38
514.426	115.38
514.642	131.38
514.858	112.38
515.074	157.38
515.29	475.38
515.506	1554.38
