Data from Uncirc_1988_H10_HRD10591_00046.txt Node
Date: Wed Jan 03 12:04:13 EST 2024
User: Yrep
Spectrometer: HR+D1059
Trigger mode: 1
Integration Time (sec): 1.000000E-1
Scans to average: 1
Electric dark correction enabled: true
Nonlinearity correction enabled: false
Boxcar width: 0
XAxis mode: Wavelengths
Number of Pixels in Spectrum: 2048
>>>>>Begin Spectral Data<<<<<
223.165	-25.06
223.4	-25.06
223.635	-25.06
223.869	-27.06
224.104	-12.06
224.338	-16.06
224.573	-18.06
224.808	-12.06
225.042	-5.06
225.277	-12.06
225.511	2.94
225.746	4.94
225.98	11.94
226.215	19.94
226.449	21.94
226.683	25.94
226.918	13.94
227.152	25.94
227.387	31.94
227.621	23.94
227.856	43.94
228.09	34.94
228.324	41.94
228.559	41.94
228.793	61.94
229.027	82.94
229.262	55.94
229.496	62.94
229.73	83.94
229.964	99.94
230.199	69.94
230.433	71.94
230.667	87.94
230.901	61.94
231.136	78.94
231.37	84.94
231.604	72.94
231.838	87.94
232.072	73.94
232.306	60.94
232.541	82.94
232.775	68.94
233.009	86.94
233.243	75.94
233.477	83.94
233.711	92.94
233.945	59.94
234.179	80.94
234.413	89.94
234.647	94.94
234.881	68.94
235.115	75.94
235.349	71.94
235.583	76.94
235.817	78.94
236.051	75.94
236.285	75.94
236.519	85.94
236.753	83.94
236.987	70.94
237.221	73.94
237.455	77.94
237.689	77.94
237.922	67.94
238.156	79.94
238.39	85.94
238.624	67.94
238.858	87.94
239.091	75.94
239.325	60.94
239.559	88.94
239.793	69.94
240.027	84.94
240.26	57.94
240.494	63.94
240.728	83.94
240.961	73.94
241.195	64.94
241.429	87.94
241.662	75.94
241.896	69.94
242.13	79.94
242.363	71.94
242.597	67.94
242.83	69.94
243.064	78.94
243.298	82.94
243.531	87.94
243.765	78.94
243.998	73.94
244.232	76.94
244.465	79.94
244.699	81.94
244.932	85.94
245.166	85.94
245.399	77.94
245.633	82.94
245.866	78.94
246.099	68.94
246.333	65.94
246.566	85.94
246.8	82.94
247.033	75.94
247.266	73.94
247.5	80.94
247.733	56.94
247.966	85.94
248.2	76.94
248.433	80.94
248.666	73.94
248.899	73.94
249.133	86.94
249.366	100.94
249.599	75.94
249.832	74.94
250.066	77.94
250.299	73.94
250.532	83.94
250.765	78.94
250.998	86.94
251.231	95.94
251.465	72.94
251.698	74.94
251.931	77.94
252.164	63.94
252.397	66.94
252.63	75.94
252.863	81.94
253.096	79.94
253.329	75.94
253.562	74.94
253.795	80.94
254.028	66.94
254.261	63.94
254.494	73.94
254.727	63.94
254.96	82.94
255.193	76.94
255.426	81.94
255.659	77.94
255.892	73.94
256.124	81.94
256.357	77.94
256.59	60.94
256.823	73.94
257.056	87.94
257.289	84.94
257.521	66.94
257.754	62.94
257.987	65.94
258.22	79.94
258.452	68.94
258.685	88.94
258.918	89.94
259.151	87.94
259.383	73.94
259.616	81.94
259.849	85.94
260.081	79.94
260.314	57.94
260.547	67.94
260.779	85.94
261.012	73.94
261.244	85.94
261.477	83.94
261.71	80.94
261.942	118.94
262.175	90.94
262.407	96.94
262.64	76.94
262.872	79.94
263.105	83.94
263.337	76.94
263.57	77.94
263.802	75.94
264.035	86.94
264.267	68.94
264.499	74.94
264.732	87.94
264.964	84.94
265.197	63.94
265.429	74.94
265.661	89.94
265.894	73.94
266.126	77.94
266.358	86.94
266.591	76.94
266.823	75.94
267.055	64.94
267.287	84.94
267.52	87.94
267.752	88.94
267.984	66.94
268.216	85.94
268.448	91.94
268.681	75.94
268.913	81.94
269.145	97.94
269.377	87.94
269.609	79.94
269.841	94.94
270.073	90.94
270.306	84.94
270.538	99.94
270.77	72.94
271.002	90.94
271.234	83.94
271.466	74.94
271.698	82.94
271.93	78.94
272.162	81.94
272.394	81.94
272.626	77.94
272.858	79.94
273.09	78.94
273.322	85.94
273.553	82.94
273.785	83.94
274.017	69.94
274.249	74.94
274.481	81.94
274.713	87.94
274.945	83.94
275.176	79.94
275.408	78.94
275.64	74.94
275.872	87.94
276.104	87.94
276.335	80.94
276.567	93.94
276.799	105.94
277.031	87.94
277.262	88.94
277.494	75.94
277.726	77.94
277.957	83.94
278.189	78.94
278.421	89.94
278.652	71.94
278.884	91.94
279.115	92.94
279.347	95.94
279.579	87.94
279.81	94.94
280.042	84.94
280.273	96.94
280.505	77.94
280.736	70.94
280.968	71.94
281.199	85.94
281.431	68.94
281.662	82.94
281.894	79.94
282.125	92.94
282.356	117.94
282.588	132.94
282.819	117.94
283.051	93.94
283.282	87.94
283.513	77.94
283.745	78.94
283.976	82.94
284.207	78.94
284.439	86.94
284.67	94.94
284.901	81.94
285.132	83.94
285.364	87.94
285.595	81.94
285.826	84.94
286.057	74.94
286.288	81.94
286.52	75.94
286.751	96.94
286.982	88.94
287.213	82.94
287.444	82.94
287.675	78.94
287.906	77.94
288.138	90.94
288.369	98.94
288.6	72.94
288.831	80.94
289.062	85.94
289.293	79.94
289.524	100.94
289.755	94.94
289.986	89.94
290.217	76.94
290.448	74.94
290.679	85.94
290.91	81.94
291.141	78.94
291.371	87.94
291.602	77.94
291.833	76.94
292.064	86.94
292.295	78.94
292.526	89.94
292.757	87.94
292.987	89.94
293.218	85.94
293.449	87.94
293.68	77.94
293.91	86.94
294.141	90.94
294.372	95.94
294.603	108.94
294.833	86.94
295.064	89.94
295.295	79.94
295.525	88.94
295.756	89.94
295.987	93.94
296.217	132.94
296.448	107.94
296.679	110.94
296.909	86.94
297.14	95.94
297.37	90.94
297.601	80.94
297.831	89.94
298.062	91.94
298.292	90.94
298.523	100.94
298.753	85.94
298.984	88.94
299.214	91.94
299.445	92.94
299.675	83.94
299.905	84.94
300.136	79.94
300.366	83.94
300.597	69.94
300.827	101.94
301.057	84.94
301.288	87.94
301.518	94.94
301.748	94.94
301.979	105.94
302.209	80.94
302.439	70.94
302.669	72.94
302.9	92.94
303.13	92.94
303.36	89.94
303.59	99.94
303.82	106.94
304.051	89.94
304.281	92.94
304.511	80.94
304.741	85.94
304.971	89.94
305.201	76.94
305.431	87.94
305.661	85.94
305.891	97.94
306.121	82.94
306.352	106.94
306.582	94.94
306.812	83.94
307.042	87.94
307.272	95.94
307.502	83.94
307.731	85.94
307.961	89.94
308.191	87.94
308.421	94.94
308.651	89.94
308.881	80.94
309.111	89.94
309.341	101.94
309.571	86.94
309.8	82.94
310.03	96.94
310.26	94.94
310.49	79.94
310.72	112.94
310.949	86.94
311.179	88.94
311.409	93.94
311.639	86.94
311.868	87.94
312.098	97.94
312.328	78.94
312.557	97.94
312.787	102.94
313.017	82.94
313.246	96.94
313.476	86.94
313.706	82.94
313.935	93.94
314.165	100.94
314.394	95.94
314.624	98.94
314.853	104.94
315.083	91.94
315.312	89.94
315.542	82.94
315.771	98.94
316.001	79.94
316.23	97.94
316.46	101.94
316.689	93.94
316.919	83.94
317.148	85.94
317.377	108.94
317.607	92.94
317.836	81.94
318.065	90.94
318.295	94.94
318.524	90.94
318.753	91.94
318.983	97.94
319.212	97.94
319.441	106.94
319.67	94.94
319.9	88.94
320.129	96.94
320.358	100.94
320.587	96.94
320.816	102.94
321.046	81.94
321.275	75.94
321.504	91.94
321.733	104.94
321.962	99.94
322.191	79.94
322.42	99.94
322.649	103.94
322.878	103.94
323.108	115.94
323.337	116.94
323.566	123.94
323.795	165.94
324.024	205.94
324.253	411.94
324.482	889.94
324.71	1810.94
324.939	2403.94
325.168	863.94
325.397	255.94
325.626	166.94
325.855	141.94
326.084	131.94
326.313	125.94
326.542	158.94
326.77	240.94
326.999	486.94
327.228	1022.94
327.457	1852.94
327.686	1457.94
327.914	384.94
328.143	173.94
328.372	145.94
328.6	112.94
328.829	115.94
329.058	123.94
329.287	111.94
329.515	110.94
329.744	112.94
329.972	90.94
330.201	96.94
330.43	133.94
330.658	121.94
330.887	132.94
331.115	101.94
331.344	94.94
331.572	96.94
331.801	84.94
332.03	93.94
332.258	108.94
332.486	89.94
332.715	97.94
332.943	84.94
333.172	90.94
333.4	89.94
333.629	93.94
333.857	105.94
334.085	109.94
334.314	82.94
334.542	105.94
334.771	93.94
334.999	103.94
335.227	91.94
335.455	99.94
335.684	132.94
335.912	100.94
336.14	90.94
336.369	88.94
336.597	88.94
336.825	89.94
337.053	86.94
337.281	99.94
337.51	88.94
337.738	85.94
337.966	86.94
338.194	85.94
338.422	105.94
338.65	83.94
338.878	87.94
339.106	82.94
339.334	88.94
339.562	84.94
339.79	95.94
340.018	73.94
340.246	93.94
340.474	100.94
340.702	95.94
340.93	89.94
341.158	99.94
341.386	91.94
341.614	83.94
341.842	92.94
342.07	84.94
342.298	92.94
342.526	92.94
342.754	81.94
342.981	97.94
343.209	86.94
343.437	101.94
343.665	85.94
343.893	85.94
344.12	99.94
344.348	114.94
344.576	97.94
344.804	91.94
345.031	85.94
345.259	92.94
345.487	92.94
345.714	86.94
345.942	95.94
346.17	89.94
346.397	78.94
346.625	101.94
346.853	94.94
347.08	85.94
347.308	91.94
347.535	99.94
347.763	102.94
347.99	99.94
348.218	95.94
348.445	110.94
348.673	107.94
348.9	104.94
349.128	88.94
349.355	85.94
349.583	97.94
349.81	103.94
350.037	89.94
350.265	98.94
350.492	90.94
350.72	101.94
350.947	99.94
351.174	114.94
351.402	102.94
351.629	91.94
351.856	114.94
352.083	93.94
352.311	108.94
352.538	102.94
352.765	118.94
352.992	95.94
353.22	101.94
353.447	115.94
353.674	89.94
353.901	95.94
354.128	87.94
354.355	106.94
354.583	102.94
354.81	107.94
355.037	99.94
355.264	82.94
355.491	104.94
355.718	94.94
355.945	97.94
356.172	95.94
356.399	104.94
356.626	81.94
356.853	86.94
357.08	107.94
357.307	92.94
357.534	86.94
357.761	97.94
357.988	94.94
358.215	86.94
358.441	93.94
358.668	84.94
358.895	82.94
359.122	90.94
359.349	98.94
359.576	94.94
359.802	100.94
360.029	102.94
360.256	98.94
360.483	94.94
360.709	87.94
360.936	90.94
361.163	95.94
361.39	90.94
361.616	97.94
361.843	96.94
362.07	90.94
362.296	85.94
362.523	109.94
362.749	87.94
362.976	90.94
363.203	89.94
363.429	85.94
363.656	84.94
363.882	81.94
364.109	96.94
364.335	83.94
364.562	87.94
364.788	94.94
365.015	102.94
365.241	99.94
365.468	98.94
365.694	98.94
365.92	84.94
366.147	98.94
366.373	102.94
366.599	84.94
366.826	93.94
367.052	78.94
367.278	86.94
367.505	91.94
367.731	92.94
367.957	107.94
368.184	90.94
368.41	107.94
368.636	102.94
368.862	119.94
369.089	112.94
369.315	79.94
369.541	104.94
369.767	89.94
369.993	81.94
370.219	91.94
370.445	93.94
370.672	92.94
370.898	89.94
371.124	82.94
371.35	78.94
371.576	91.94
371.802	93.94
372.028	92.94
372.254	90.94
372.48	86.94
372.706	70.94
372.932	74.94
373.158	81.94
373.384	99.94
373.61	92.94
373.835	101.94
374.061	84.94
374.287	87.94
374.513	85.94
374.739	71.94
374.965	75.94
375.191	80.94
375.416	85.94
375.642	81.94
375.868	85.94
376.094	85.94
376.319	91.94
376.545	87.94
376.771	77.94
376.997	95.94
377.222	86.94
377.448	94.94
377.674	80.94
377.899	87.94
378.125	85.94
378.35	86.94
378.576	77.94
378.802	89.94
379.027	94.94
379.253	77.94
379.478	86.94
379.704	93.94
379.929	89.94
380.155	94.94
380.38	94.94
380.606	91.94
380.831	84.94
381.057	89.94
381.282	75.94
381.507	94.94
381.733	90.94
381.958	96.94
382.184	100.94
382.409	98.94
382.634	109.94
382.86	111.94
383.085	100.94
383.31	87.94
383.535	93.94
383.761	84.94
383.986	100.94
384.211	100.94
384.436	99.94
384.662	102.94
384.887	97.94
385.112	89.94
385.337	99.94
385.562	102.94
385.787	82.94
386.013	110.94
386.238	98.94
386.463	105.94
386.688	120.94
386.913	100.94
387.138	97.94
387.363	94.94
387.588	91.94
387.813	93.94
388.038	100.94
388.263	97.94
388.488	109.94
388.713	79.94
388.938	87.94
389.163	86.94
389.387	98.94
389.612	80.94
389.837	97.94
390.062	102.94
390.287	94.94
390.512	88.94
390.736	85.94
390.961	84.94
391.186	101.94
391.411	99.94
391.636	93.94
391.86	80.94
392.085	75.94
392.31	64.94
392.534	87.94
392.759	84.94
392.984	77.94
393.208	95.94
393.433	86.94
393.658	77.94
393.882	98.94
394.107	98.94
394.331	90.94
394.556	95.94
394.78	80.94
395.005	82.94
395.229	80.94
395.454	95.94
395.678	85.94
395.903	91.94
396.127	95.94
396.352	83.94
396.576	97.94
396.801	80.94
397.025	81.94
397.249	71.94
397.474	98.94
397.698	76.94
397.922	89.94
398.147	71.94
398.371	85.94
398.595	93.94
398.82	85.94
399.044	87.94
399.268	96.94
399.492	87.94
399.717	93.94
399.941	78.94
400.165	79.94
400.389	77.94
400.613	77.94
400.837	85.94
401.062	78.94
401.286	62.94
401.51	75.94
401.734	87.94
401.958	99.94
402.182	128.94
402.406	151.94
402.63	112.94
402.854	105.94
403.078	90.94
403.302	86.94
403.526	84.94
403.75	90.94
403.974	79.94
404.198	100.94
404.422	84.94
404.645	101.94
404.869	94.94
405.093	87.94
405.317	102.94
405.541	111.94
405.765	97.94
405.988	96.94
406.212	178.94
406.436	213.94
406.66	137.94
406.883	89.94
407.107	86.94
407.331	101.94
407.555	88.94
407.778	95.94
408.002	84.94
408.226	88.94
408.449	89.94
408.673	86.94
408.896	92.94
409.12	99.94
409.344	82.94
409.567	89.94
409.791	89.94
410.014	91.94
410.238	97.94
410.461	102.94
410.685	89.94
410.908	91.94
411.132	100.94
411.355	85.94
411.578	99.94
411.802	71.94
412.025	83.94
412.249	101.94
412.472	97.94
412.695	93.94
412.919	91.94
413.142	90.94
413.365	85.94
413.589	85.94
413.812	92.94
414.035	94.94
414.258	79.94
414.482	89.94
414.705	84.94
414.928	85.94
415.151	89.94
415.374	94.94
415.597	94.94
415.821	77.94
416.044	72.94
416.267	63.94
416.49	92.94
416.713	91.94
416.936	83.94
417.159	81.94
417.382	91.94
417.605	86.94
417.828	98.94
418.051	95.94
418.274	83.94
418.497	76.94
418.72	90.94
418.943	93.94
419.166	86.94
419.389	95.94
419.611	82.94
419.834	76.94
420.057	88.94
420.28	93.94
420.503	74.94
420.726	77.94
420.948	91.94
421.171	95.94
421.394	82.94
421.617	92.94
421.839	93.94
422.062	93.94
422.285	88.94
422.507	98.94
422.73	104.94
422.953	87.94
423.175	94.94
423.398	83.94
423.621	95.94
423.843	84.94
424.066	98.94
424.288	68.94
424.511	96.94
424.733	77.94
424.956	100.94
425.178	98.94
425.401	97.94
425.623	109.94
425.846	91.94
426.068	102.94
426.291	97.94
426.513	87.94
426.735	94.94
426.958	80.94
427.18	97.94
427.402	143.94
427.625	155.94
427.847	113.94
428.069	100.94
428.292	71.94
428.514	83.94
428.736	83.94
428.958	87.94
429.181	103.94
429.403	89.94
429.625	75.94
429.847	85.94
430.069	104.94
430.292	91.94
430.514	87.94
430.736	80.94
430.958	76.94
431.18	78.94
431.402	69.94
431.624	75.94
431.846	82.94
432.068	77.94
432.29	81.94
432.512	95.94
432.734	85.94
432.956	109.94
433.178	110.94
433.4	92.94
433.622	79.94
433.844	81.94
434.066	102.94
434.287	88.94
434.509	84.94
434.731	90.94
434.953	88.94
435.175	92.94
435.397	89.94
435.618	80.94
435.84	103.94
436.062	120.94
436.284	114.94
436.505	100.94
436.727	87.94
436.949	87.94
437.17	81.94
437.392	74.94
437.614	96.94
437.835	101.94
438.057	121.94
438.278	97.94
438.5	94.94
438.721	125.94
438.943	100.94
439.165	90.94
439.386	79.94
439.608	94.94
439.829	102.94
440.05	107.94
440.272	137.94
440.493	106.94
440.715	83.94
440.936	79.94
441.158	73.94
441.379	81.94
441.6	95.94
441.822	88.94
442.043	96.94
442.264	103.94
442.486	102.94
442.707	91.94
442.928	102.94
443.149	125.94
443.371	128.94
443.592	114.94
443.813	100.94
444.034	117.94
444.255	92.94
444.476	92.94
444.698	90.94
444.919	76.94
445.14	131.94
445.361	139.94
445.582	114.94
445.803	128.94
446.024	153.94
446.245	132.94
446.466	118.94
446.687	90.94
446.908	73.94
447.129	86.94
447.35	81.94
447.571	97.94
447.792	93.94
448.013	101.94
448.234	101.94
448.455	102.94
448.675	96.94
448.896	117.94
449.117	98.94
449.338	90.94
449.559	131.94
449.779	126.94
450	88.94
450.221	81.94
450.442	76.94
450.662	114.94
450.883	112.94
451.104	99.94
451.324	100.94
451.545	85.94
451.766	77.94
451.986	86.94
452.207	101.94
452.428	105.94
452.648	94.94
452.869	111.94
453.089	99.94
453.31	101.94
453.53	99.94
453.751	93.94
453.971	103.94
454.192	104.94
454.412	93.94
454.633	85.94
454.853	93.94
455.073	95.94
455.294	107.94
455.514	82.94
455.734	64.94
455.955	93.94
456.175	73.94
456.395	80.94
456.616	84.94
456.836	86.94
457.056	78.94
457.276	78.94
457.497	77.94
457.717	66.94
457.937	97.94
458.157	83.94
458.377	97.94
458.598	80.94
458.818	135.94
459.038	144.94
459.258	100.94
459.478	90.94
459.698	69.94
459.918	99.94
460.138	74.94
460.358	89.94
460.578	97.94
460.798	74.94
461.018	67.94
461.238	79.94
461.458	86.94
461.678	74.94
461.898	80.94
462.118	76.94
462.338	96.94
462.558	98.94
462.777	69.94
462.997	83.94
463.217	71.94
463.437	99.94
463.657	86.94
463.876	90.94
464.096	97.94
464.316	84.94
464.536	91.94
464.755	101.94
464.975	108.94
465.195	144.94
465.414	128.94
465.634	90.94
465.854	75.94
466.073	92.94
466.293	90.94
466.512	81.94
466.732	93.94
466.951	79.94
467.171	81.94
467.391	90.94
467.61	102.94
467.829	103.94
468.049	81.94
468.268	85.94
468.488	84.94
468.707	83.94
468.927	87.94
469.146	74.94
469.365	84.94
469.585	104.94
469.804	93.94
470.023	93.94
470.243	87.94
470.462	106.94
470.681	103.94
470.901	89.94
471.12	85.94
471.339	93.94
471.558	90.94
471.777	83.94
471.997	84.94
472.216	87.94
472.435	99.94
472.654	103.94
472.873	82.94
473.092	76.94
473.311	85.94
473.53	81.94
473.749	89.94
473.968	96.94
474.187	90.94
474.406	80.94
474.625	97.94
474.844	86.94
475.063	69.94
475.282	85.94
475.501	83.94
475.72	87.94
475.939	76.94
476.158	73.94
476.377	90.94
476.596	86.94
476.814	90.94
477.033	87.94
477.252	86.94
477.471	87.94
477.69	77.94
477.908	81.94
478.127	85.94
478.346	96.94
478.564	76.94
478.783	84.94
479.002	98.94
479.22	88.94
479.439	105.94
479.658	113.94
479.876	94.94
480.095	103.94
480.313	85.94
480.532	82.94
480.751	70.94
480.969	100.94
481.188	113.94
481.406	107.94
481.624	83.94
481.843	83.94
482.061	91.94
482.28	78.94
482.498	85.94
482.717	91.94
482.935	77.94
483.153	78.94
483.372	83.94
483.59	91.94
483.808	84.94
484.027	83.94
484.245	107.94
484.463	69.94
484.681	96.94
484.9	88.94
485.118	110.94
485.336	98.94
485.554	95.94
485.772	99.94
485.99	94.94
486.209	92.94
486.427	102.94
486.645	103.94
486.863	103.94
487.081	91.94
487.299	88.94
487.517	92.94
487.735	90.94
487.953	86.94
488.171	77.94
488.389	87.94
488.607	87.94
488.825	97.94
489.043	90.94
489.261	100.94
489.479	92.94
489.696	79.94
489.914	80.94
490.132	65.94
490.35	94.94
490.568	85.94
490.786	86.94
491.003	79.94
491.221	81.94
491.439	83.94
491.657	93.94
491.874	82.94
492.092	95.94
492.31	95.94
492.527	92.94
492.745	93.94
492.963	96.94
493.18	97.94
493.398	85.94
493.615	70.94
493.833	88.94
494.05	77.94
494.268	100.94
494.485	87.94
494.703	86.94
494.92	88.94
495.138	85.94
495.355	93.94
495.573	86.94
495.79	86.94
496.008	85.94
496.225	94.94
496.442	82.94
496.66	92.94
496.877	88.94
497.094	83.94
497.312	89.94
497.529	81.94
497.746	83.94
497.963	82.94
498.181	83.94
498.398	80.94
498.615	110.94
498.832	109.94
499.049	92.94
499.267	98.94
499.484	91.94
499.701	80.94
499.918	91.94
500.135	78.94
500.352	89.94
500.569	73.94
500.786	97.94
501.003	80.94
501.22	87.94
501.437	90.94
501.654	75.94
501.871	104.94
502.088	80.94
502.305	86.94
502.522	84.94
502.739	95.94
502.956	92.94
503.172	81.94
503.389	85.94
503.606	96.94
503.823	91.94
504.04	80.94
504.256	81.94
504.473	88.94
504.69	91.94
504.907	100.94
505.123	94.94
505.34	85.94
505.557	100.94
505.773	87.94
505.99	85.94
506.207	83.94
506.423	77.94
506.64	96.94
506.856	82.94
507.073	91.94
507.289	90.94
507.506	86.94
507.722	102.94
507.939	118.94
508.155	107.94
508.372	86.94
508.588	101.94
508.805	77.94
509.021	88.94
509.238	91.94
509.454	99.94
509.67	102.94
509.887	112.94
510.103	125.94
510.319	206.94
510.536	739.94
510.752	2193.94
510.968	605.94
511.184	149.94
511.401	92.94
511.617	96.94
511.833	94.94
512.049	92.94
512.265	90.94
512.481	81.94
512.698	93.94
512.914	101.94
513.13	87.94
513.346	107.94
513.562	89.94
513.778	99.94
513.994	98.94
514.21	97.94
514.426	106.94
514.642	109.94
514.858	127.94
515.074	160.94
515.29	428.94
515.506	1369.94
515.721	503.94
515.937	147.94
516.153	97.94
516.369	91.94
516.585	93.94
