Data from Uncirc_1988_H10_HRD10591_00009.txt Node
Date: Wed Jan 03 12:04:06 EST 2024
User: Yrep
Spectrometer: HR+D1059
Trigger mode: 1
Integration Time (sec): 1.000000E-1
Scans to average: 1
Electric dark correction enabled: true
Nonlinearity correction enabled: false
Boxcar width: 0
XAxis mode: Wavelengths
Number of Pixels in Spectrum: 2048
>>>>>Begin Spectral Data<<<<<
223.165	-18.81
223.4	-18.81
223.635	-18.81
223.869	-18.81
224.104	-15.81
224.338	-10.81
224.573	-19.81
224.808	-23.81
225.042	-5.81
225.277	-9.81
225.511	-6.81
225.746	17.19
225.98	-7.81
226.215	25.19
226.449	3.19
226.683	18.19
226.918	35.19
227.152	39.19
227.387	24.19
227.621	38.19
227.856	40.19
228.09	42.19
228.324	55.19
228.559	47.19
228.793	61.19
229.027	49.19
229.262	59.19
229.496	64.19
229.73	74.19
229.964	81.19
230.199	70.19
230.433	59.19
230.667	66.19
230.901	77.19
231.136	85.19
231.37	56.19
231.604	77.19
231.838	69.19
232.072	86.19
232.306	75.19
232.541	89.19
232.775	79.19
233.009	75.19
233.243	84.19
233.477	80.19
233.711	77.19
233.945	79.19
234.179	74.19
234.413	77.19
234.647	86.19
234.881	80.19
235.115	87.19
235.349	80.19
235.583	93.19
235.817	82.19
236.051	81.19
236.285	69.19
236.519	92.19
236.753	88.19
236.987	66.19
237.221	79.19
237.455	81.19
237.689	80.19
237.922	71.19
238.156	71.19
238.39	71.19
238.624	78.19
238.858	79.19
239.091	67.19
239.325	78.19
239.559	75.19
239.793	79.19
240.027	71.19
240.26	79.19
240.494	70.19
240.728	76.19
240.961	80.19
241.195	77.19
241.429	70.19
241.662	66.19
241.896	69.19
242.13	69.19
242.363	80.19
242.597	64.19
242.83	90.19
243.064	78.19
243.298	71.19
243.531	78.19
243.765	91.19
243.998	68.19
244.232	64.19
244.465	98.19
244.699	75.19
244.932	79.19
245.166	83.19
245.399	76.19
245.633	77.19
245.866	51.19
246.099	80.19
246.333	71.19
246.566	77.19
246.8	75.19
247.033	67.19
247.266	81.19
247.5	78.19
247.733	77.19
247.966	75.19
248.2	67.19
248.433	71.19
248.666	75.19
248.899	85.19
249.133	84.19
249.366	93.19
249.599	96.19
249.832	88.19
250.066	75.19
250.299	76.19
250.532	68.19
250.765	78.19
250.998	82.19
251.231	76.19
251.465	83.19
251.698	81.19
251.931	83.19
252.164	89.19
252.397	65.19
252.63	71.19
252.863	68.19
253.096	84.19
253.329	76.19
253.562	83.19
253.795	75.19
254.028	80.19
254.261	92.19
254.494	71.19
254.727	78.19
254.96	76.19
255.193	87.19
255.426	72.19
255.659	77.19
255.892	68.19
256.124	80.19
256.357	70.19
256.59	64.19
256.823	87.19
257.056	72.19
257.289	88.19
257.521	86.19
257.754	84.19
257.987	81.19
258.22	92.19
258.452	68.19
258.685	73.19
258.918	72.19
259.151	79.19
259.383	96.19
259.616	82.19
259.849	80.19
260.081	82.19
260.314	65.19
260.547	86.19
260.779	59.19
261.012	77.19
261.244	88.19
261.477	96.19
261.71	92.19
261.942	94.19
262.175	87.19
262.407	93.19
262.64	82.19
262.872	68.19
263.105	78.19
263.337	90.19
263.57	79.19
263.802	82.19
264.035	77.19
264.267	81.19
264.499	85.19
264.732	99.19
264.964	82.19
265.197	79.19
265.429	90.19
265.661	79.19
265.894	73.19
266.126	89.19
266.358	88.19
266.591	82.19
266.823	69.19
267.055	84.19
267.287	88.19
267.52	83.19
267.752	83.19
267.984	82.19
268.216	82.19
268.448	88.19
268.681	95.19
268.913	84.19
269.145	80.19
269.377	85.19
269.609	87.19
269.841	77.19
270.073	80.19
270.306	76.19
270.538	86.19
270.77	81.19
271.002	84.19
271.234	98.19
271.466	73.19
271.698	72.19
271.93	65.19
272.162	80.19
272.394	77.19
272.626	80.19
272.858	84.19
273.09	72.19
273.322	84.19
273.553	95.19
273.785	77.19
274.017	76.19
274.249	78.19
274.481	79.19
274.713	77.19
274.945	70.19
275.176	75.19
275.408	86.19
275.64	73.19
275.872	85.19
276.104	100.19
276.335	77.19
276.567	101.19
276.799	88.19
277.031	83.19
277.262	73.19
277.494	86.19
277.726	79.19
277.957	92.19
278.189	91.19
278.421	75.19
278.652	69.19
278.884	84.19
279.115	88.19
279.347	82.19
279.579	72.19
279.81	83.19
280.042	83.19
280.273	73.19
280.505	92.19
280.736	63.19
280.968	90.19
281.199	73.19
281.431	81.19
281.662	82.19
281.894	82.19
282.125	79.19
282.356	100.19
282.588	112.19
282.819	98.19
283.051	87.19
283.282	82.19
283.513	71.19
283.745	87.19
283.976	102.19
284.207	91.19
284.439	94.19
284.67	96.19
284.901	87.19
285.132	68.19
285.364	86.19
285.595	91.19
285.826	86.19
286.057	91.19
286.288	75.19
286.52	81.19
286.751	76.19
286.982	77.19
287.213	96.19
287.444	97.19
287.675	73.19
287.906	87.19
288.138	93.19
288.369	94.19
288.6	80.19
288.831	95.19
289.062	79.19
289.293	89.19
289.524	79.19
289.755	75.19
289.986	69.19
290.217	84.19
290.448	82.19
290.679	89.19
290.91	75.19
291.141	79.19
291.371	83.19
291.602	91.19
291.833	89.19
292.064	98.19
292.295	88.19
292.526	87.19
292.757	85.19
292.987	91.19
293.218	97.19
293.449	77.19
293.68	104.19
293.91	103.19
294.141	85.19
294.372	81.19
294.603	80.19
294.833	79.19
295.064	88.19
295.295	83.19
295.525	72.19
295.756	94.19
295.987	111.19
296.217	118.19
296.448	87.19
296.679	95.19
296.909	70.19
297.14	79.19
297.37	85.19
297.601	81.19
297.831	88.19
298.062	83.19
298.292	91.19
298.523	94.19
298.753	81.19
298.984	83.19
299.214	88.19
299.445	92.19
299.675	93.19
299.905	83.19
300.136	89.19
300.366	84.19
300.597	102.19
300.827	75.19
301.057	76.19
301.288	108.19
301.518	89.19
301.748	95.19
301.979	92.19
302.209	98.19
302.439	68.19
302.669	74.19
302.9	91.19
303.13	86.19
303.36	86.19
303.59	99.19
303.82	81.19
304.051	81.19
304.281	89.19
304.511	83.19
304.741	92.19
304.971	96.19
305.201	77.19
305.431	85.19
305.661	97.19
305.891	91.19
306.121	87.19
306.352	98.19
306.582	101.19
306.812	94.19
307.042	76.19
307.272	84.19
307.502	94.19
307.731	95.19
307.961	84.19
308.191	75.19
308.421	94.19
308.651	96.19
308.881	94.19
309.111	97.19
309.341	94.19
309.571	82.19
309.8	86.19
310.03	102.19
310.26	99.19
310.49	85.19
310.72	96.19
310.949	87.19
311.179	90.19
311.409	81.19
311.639	89.19
311.868	82.19
312.098	101.19
312.328	93.19
312.557	94.19
312.787	88.19
313.017	81.19
313.246	91.19
313.476	86.19
313.706	85.19
313.935	82.19
314.165	87.19
314.394	103.19
314.624	100.19
314.853	96.19
315.083	79.19
315.312	104.19
315.542	88.19
315.771	81.19
316.001	89.19
316.23	84.19
316.46	94.19
316.689	103.19
316.919	91.19
317.148	99.19
317.377	94.19
317.607	98.19
317.836	91.19
318.065	90.19
318.295	93.19
318.524	85.19
318.753	92.19
318.983	81.19
319.212	96.19
319.441	90.19
319.67	95.19
319.9	97.19
320.129	95.19
320.358	88.19
320.587	102.19
320.816	96.19
321.046	97.19
321.275	94.19
321.504	103.19
321.733	103.19
321.962	99.19
322.191	95.19
322.42	112.19
322.649	107.19
322.878	100.19
323.108	109.19
323.337	108.19
323.566	111.19
323.795	133.19
324.024	174.19
324.253	297.19
324.482	658.19
324.71	1367.19
324.939	1729.19
325.168	637.19
325.397	184.19
325.626	147.19
325.855	115.19
326.084	112.19
326.313	105.19
326.542	129.19
326.77	206.19
326.999	371.19
327.228	783.19
327.457	1396.19
327.686	1104.19
327.914	309.19
328.143	157.19
328.372	122.19
328.6	109.19
328.829	98.19
329.058	116.19
329.287	123.19
329.515	107.19
329.744	99.19
329.972	103.19
330.201	91.19
330.43	89.19
330.658	116.19
330.887	119.19
331.115	104.19
331.344	107.19
331.572	98.19
331.801	85.19
332.03	109.19
332.258	83.19
332.486	83.19
332.715	94.19
332.943	94.19
333.172	88.19
333.4	96.19
333.629	102.19
333.857	115.19
334.085	101.19
334.314	85.19
334.542	90.19
334.771	99.19
334.999	79.19
335.227	109.19
335.455	101.19
335.684	98.19
335.912	87.19
336.14	119.19
336.369	95.19
336.597	93.19
336.825	89.19
337.053	94.19
337.281	97.19
337.51	80.19
337.738	80.19
337.966	109.19
338.194	83.19
338.422	102.19
338.65	100.19
338.878	94.19
339.106	87.19
339.334	83.19
339.562	84.19
339.79	98.19
340.018	96.19
340.246	81.19
340.474	75.19
340.702	94.19
340.93	105.19
341.158	92.19
341.386	85.19
341.614	93.19
341.842	97.19
342.07	94.19
342.298	101.19
342.526	101.19
342.754	102.19
342.981	87.19
343.209	86.19
343.437	92.19
343.665	87.19
343.893	79.19
344.12	84.19
344.348	84.19
344.576	88.19
344.804	86.19
345.031	100.19
345.259	93.19
345.487	96.19
345.714	104.19
345.942	85.19
346.17	75.19
346.397	91.19
346.625	79.19
346.853	99.19
347.08	96.19
347.308	87.19
347.535	93.19
347.763	96.19
347.99	82.19
348.218	103.19
348.445	97.19
348.673	84.19
348.9	89.19
349.128	88.19
349.355	99.19
349.583	100.19
349.81	87.19
350.037	99.19
350.265	107.19
350.492	96.19
350.72	101.19
350.947	105.19
351.174	86.19
351.402	93.19
351.629	94.19
351.856	91.19
352.083	88.19
352.311	100.19
352.538	97.19
352.765	113.19
352.992	105.19
353.22	104.19
353.447	108.19
353.674	88.19
353.901	83.19
354.128	96.19
354.355	93.19
354.583	99.19
354.81	89.19
355.037	102.19
355.264	81.19
355.491	98.19
355.718	96.19
355.945	112.19
356.172	105.19
356.399	106.19
356.626	92.19
356.853	104.19
357.08	95.19
357.307	92.19
357.534	90.19
357.761	83.19
357.988	86.19
358.215	107.19
358.441	94.19
358.668	114.19
358.895	95.19
359.122	91.19
359.349	100.19
359.576	89.19
359.802	99.19
360.029	100.19
360.256	99.19
360.483	105.19
360.709	84.19
360.936	107.19
361.163	88.19
361.39	92.19
361.616	93.19
361.843	84.19
362.07	89.19
362.296	90.19
362.523	91.19
362.749	93.19
362.976	84.19
363.203	88.19
363.429	93.19
363.656	101.19
363.882	91.19
364.109	65.19
364.335	92.19
364.562	88.19
364.788	88.19
365.015	87.19
365.241	102.19
365.468	83.19
365.694	96.19
365.92	102.19
366.147	88.19
366.373	79.19
366.599	94.19
366.826	99.19
367.052	95.19
367.278	95.19
367.505	78.19
367.731	102.19
367.957	77.19
368.184	89.19
368.41	99.19
368.636	99.19
368.862	103.19
369.089	104.19
369.315	96.19
369.541	83.19
369.767	97.19
369.993	94.19
370.219	85.19
370.445	99.19
370.672	106.19
370.898	97.19
371.124	83.19
371.35	83.19
371.576	98.19
371.802	94.19
372.028	97.19
372.254	99.19
372.48	87.19
372.706	79.19
372.932	91.19
373.158	77.19
373.384	95.19
373.61	78.19
373.835	97.19
374.061	90.19
374.287	97.19
374.513	97.19
374.739	87.19
374.965	80.19
375.191	93.19
375.416	80.19
375.642	81.19
375.868	93.19
376.094	103.19
376.319	87.19
376.545	95.19
376.771	79.19
376.997	82.19
377.222	63.19
377.448	86.19
377.674	78.19
377.899	91.19
378.125	91.19
378.35	94.19
378.576	88.19
378.802	94.19
379.027	98.19
379.253	95.19
379.478	95.19
379.704	105.19
379.929	99.19
380.155	96.19
380.38	103.19
380.606	93.19
380.831	105.19
381.057	108.19
381.282	92.19
381.507	89.19
381.733	96.19
381.958	95.19
382.184	100.19
382.409	98.19
382.634	89.19
382.86	88.19
383.085	104.19
383.31	95.19
383.535	105.19
383.761	100.19
383.986	101.19
384.211	100.19
384.436	106.19
384.662	102.19
384.887	98.19
385.112	94.19
385.337	104.19
385.562	100.19
385.787	101.19
386.013	108.19
386.238	113.19
386.463	89.19
386.688	123.19
386.913	100.19
387.138	117.19
387.363	105.19
387.588	108.19
387.813	82.19
388.038	95.19
388.263	91.19
388.488	113.19
388.713	103.19
388.938	85.19
389.163	111.19
389.387	92.19
389.612	88.19
389.837	95.19
390.062	103.19
390.287	87.19
390.512	79.19
390.736	95.19
390.961	89.19
391.186	89.19
391.411	99.19
391.636	95.19
391.86	82.19
392.085	91.19
392.31	91.19
392.534	87.19
392.759	84.19
392.984	88.19
393.208	97.19
393.433	115.19
393.658	98.19
393.882	113.19
394.107	87.19
394.331	93.19
394.556	96.19
394.78	93.19
395.005	99.19
395.229	92.19
395.454	77.19
395.678	92.19
395.903	87.19
396.127	86.19
396.352	99.19
396.576	95.19
396.801	100.19
397.025	117.19
397.249	101.19
397.474	84.19
397.698	90.19
397.922	76.19
398.147	82.19
398.371	87.19
398.595	99.19
398.82	77.19
399.044	76.19
399.268	77.19
399.492	84.19
399.717	97.19
399.941	97.19
400.165	88.19
400.389	85.19
400.613	77.19
400.837	90.19
401.062	88.19
401.286	86.19
401.51	91.19
401.734	90.19
401.958	104.19
402.182	116.19
402.406	123.19
402.63	103.19
402.854	88.19
403.078	88.19
403.302	86.19
403.526	92.19
403.75	83.19
403.974	82.19
404.198	87.19
404.422	84.19
404.645	94.19
404.869	85.19
405.093	96.19
405.317	88.19
405.541	92.19
405.765	100.19
405.988	101.19
406.212	135.19
406.436	183.19
406.66	111.19
406.883	87.19
407.107	96.19
407.331	84.19
407.555	96.19
407.778	101.19
408.002	95.19
408.226	86.19
408.449	98.19
408.673	89.19
408.896	99.19
409.12	99.19
409.344	85.19
409.567	99.19
409.791	96.19
410.014	89.19
410.238	102.19
410.461	81.19
410.685	93.19
410.908	108.19
411.132	101.19
411.355	101.19
411.578	95.19
411.802	79.19
412.025	93.19
412.249	103.19
412.472	85.19
412.695	89.19
412.919	89.19
413.142	89.19
413.365	88.19
413.589	90.19
413.812	86.19
414.035	88.19
414.258	92.19
414.482	97.19
414.705	88.19
414.928	96.19
415.151	89.19
415.374	78.19
415.597	92.19
415.821	90.19
416.044	83.19
416.267	91.19
416.49	81.19
416.713	86.19
416.936	77.19
417.159	85.19
417.382	84.19
417.605	80.19
417.828	96.19
418.051	77.19
418.274	87.19
418.497	71.19
418.72	93.19
418.943	85.19
419.166	84.19
419.389	98.19
419.611	92.19
419.834	94.19
420.057	93.19
420.28	73.19
420.503	96.19
420.726	78.19
420.948	81.19
421.171	102.19
421.394	90.19
421.617	91.19
421.839	97.19
422.062	103.19
422.285	97.19
422.507	99.19
422.73	104.19
422.953	91.19
423.175	86.19
423.398	91.19
423.621	87.19
423.843	101.19
424.066	81.19
424.288	91.19
424.511	89.19
424.733	99.19
424.956	98.19
425.178	89.19
425.401	107.19
425.623	95.19
425.846	100.19
426.068	91.19
426.291	85.19
426.513	88.19
426.735	96.19
426.958	91.19
427.18	100.19
427.402	117.19
427.625	147.19
427.847	114.19
428.069	79.19
428.292	71.19
428.514	80.19
428.736	75.19
428.958	70.19
429.181	79.19
429.403	89.19
429.625	80.19
429.847	92.19
430.069	87.19
430.292	79.19
430.514	87.19
430.736	87.19
430.958	88.19
431.18	73.19
431.402	96.19
431.624	79.19
431.846	78.19
432.068	91.19
432.29	75.19
432.512	90.19
432.734	87.19
432.956	77.19
433.178	110.19
433.4	105.19
433.622	95.19
433.844	90.19
434.066	96.19
434.287	93.19
434.509	88.19
434.731	83.19
434.953	90.19
435.175	85.19
435.397	102.19
435.618	92.19
435.84	100.19
436.062	104.19
436.284	89.19
436.505	96.19
436.727	101.19
436.949	99.19
437.17	88.19
437.392	77.19
437.614	94.19
437.835	105.19
438.057	99.19
438.278	91.19
438.5	102.19
438.721	116.19
438.943	112.19
439.165	98.19
439.386	79.19
439.608	80.19
439.829	90.19
440.05	105.19
440.272	124.19
440.493	102.19
440.715	87.19
440.936	81.19
441.158	89.19
441.379	63.19
441.6	98.19
441.822	96.19
442.043	98.19
442.264	104.19
442.486	87.19
442.707	94.19
442.928	88.19
443.149	125.19
443.371	130.19
443.592	102.19
443.813	113.19
444.034	93.19
444.255	96.19
444.476	86.19
444.698	94.19
444.919	91.19
445.14	129.19
445.361	122.19
445.582	118.19
445.803	122.19
446.024	120.19
446.245	116.19
446.466	109.19
446.687	92.19
446.908	84.19
447.129	100.19
447.35	78.19
447.571	91.19
447.792	86.19
448.013	108.19
448.234	95.19
448.455	104.19
448.675	108.19
448.896	96.19
449.117	85.19
449.338	106.19
449.559	112.19
449.779	120.19
450	95.19
450.221	83.19
450.442	104.19
450.662	110.19
450.883	98.19
451.104	95.19
451.324	90.19
451.545	85.19
451.766	89.19
451.986	91.19
452.207	88.19
452.428	99.19
452.648	96.19
452.869	115.19
453.089	94.19
453.31	99.19
453.53	79.19
453.751	86.19
453.971	83.19
454.192	98.19
454.412	93.19
454.633	88.19
454.853	79.19
455.073	89.19
455.294	93.19
455.514	99.19
455.734	86.19
455.955	82.19
456.175	66.19
456.395	84.19
456.616	77.19
456.836	75.19
457.056	80.19
457.276	91.19
457.497	77.19
457.717	95.19
457.937	93.19
458.157	88.19
458.377	85.19
458.598	90.19
458.818	131.19
459.038	125.19
459.258	106.19
459.478	101.19
459.698	96.19
459.918	82.19
460.138	80.19
460.358	92.19
460.578	84.19
460.798	85.19
461.018	85.19
461.238	84.19
461.458	77.19
461.678	100.19
461.898	93.19
462.118	93.19
462.338	79.19
462.558	74.19
462.777	85.19
462.997	91.19
463.217	88.19
463.437	84.19
463.657	86.19
463.876	72.19
464.096	62.19
464.316	97.19
464.536	83.19
464.755	82.19
464.975	106.19
465.195	144.19
465.414	151.19
465.634	83.19
465.854	63.19
466.073	95.19
466.293	87.19
466.512	85.19
466.732	88.19
466.951	84.19
467.171	95.19
467.391	79.19
467.61	91.19
467.829	105.19
468.049	95.19
468.268	97.19
468.488	103.19
468.707	102.19
468.927	81.19
469.146	73.19
469.365	84.19
469.585	81.19
469.804	86.19
470.023	88.19
470.243	104.19
470.462	98.19
470.681	96.19
470.901	81.19
471.12	83.19
471.339	91.19
471.558	85.19
471.777	80.19
471.997	105.19
472.216	94.19
472.435	88.19
472.654	86.19
472.873	92.19
473.092	68.19
473.311	79.19
473.53	83.19
473.749	76.19
473.968	101.19
474.187	92.19
474.406	88.19
474.625	79.19
474.844	85.19
475.063	84.19
475.282	103.19
475.501	101.19
475.72	107.19
475.939	87.19
476.158	96.19
476.377	91.19
476.596	86.19
476.814	90.19
477.033	83.19
477.252	84.19
477.471	91.19
477.69	78.19
477.908	97.19
478.127	98.19
478.346	97.19
478.564	100.19
478.783	96.19
479.002	86.19
479.22	83.19
479.439	94.19
479.658	84.19
479.876	100.19
480.095	102.19
480.313	81.19
480.532	83.19
480.751	91.19
480.969	83.19
481.188	95.19
481.406	95.19
481.624	96.19
481.843	97.19
482.061	85.19
482.28	85.19
482.498	76.19
482.717	68.19
482.935	92.19
483.153	95.19
483.372	89.19
483.59	91.19
483.808	83.19
484.027	93.19
484.245	88.19
484.463	90.19
484.681	119.19
484.9	86.19
485.118	102.19
485.336	97.19
485.554	97.19
485.772	103.19
485.99	95.19
486.209	94.19
486.427	96.19
486.645	102.19
486.863	103.19
487.081	103.19
487.299	85.19
487.517	86.19
487.735	89.19
487.953	102.19
488.171	85.19
488.389	94.19
488.607	79.19
488.825	87.19
489.043	82.19
489.261	102.19
489.479	98.19
489.696	87.19
489.914	82.19
490.132	95.19
490.35	99.19
490.568	83.19
490.786	72.19
491.003	83.19
491.221	89.19
491.439	89.19
491.657	87.19
491.874	110.19
492.092	99.19
492.31	87.19
492.527	91.19
492.745	84.19
492.963	84.19
493.18	88.19
493.398	78.19
493.615	99.19
493.833	86.19
494.05	94.19
494.268	91.19
494.485	96.19
494.703	94.19
494.92	91.19
495.138	89.19
495.355	75.19
495.573	99.19
495.79	91.19
496.008	80.19
496.225	87.19
496.442	89.19
496.66	88.19
496.877	87.19
497.094	78.19
497.312	91.19
497.529	96.19
497.746	92.19
497.963	88.19
498.181	91.19
498.398	68.19
498.615	91.19
498.832	97.19
499.049	90.19
499.267	88.19
499.484	79.19
499.701	121.19
499.918	81.19
500.135	88.19
500.352	77.19
500.569	100.19
500.786	86.19
501.003	84.19
501.22	97.19
501.437	78.19
501.654	98.19
501.871	108.19
502.088	88.19
502.305	91.19
502.522	89.19
502.739	99.19
502.956	95.19
503.172	101.19
503.389	95.19
503.606	104.19
503.823	83.19
504.04	101.19
504.256	96.19
504.473	91.19
504.69	94.19
504.907	87.19
505.123	85.19
505.34	91.19
505.557	88.19
505.773	87.19
505.99	96.19
506.207	95.19
506.423	90.19
506.64	84.19
506.856	72.19
507.073	83.19
507.289	95.19
507.506	88.19
507.722	102.19
507.939	107.19
508.155	97.19
508.372	95.19
508.588	97.19
508.805	91.19
509.021	99.19
509.238	102.19
509.454	100.19
509.67	86.19
509.887	117.19
510.103	110.19
510.319	167.19
510.536	555.19
510.752	1599.19
510.968	449.19
511.184	128.19
511.401	97.19
511.617	86.19
511.833	91.19
512.049	83.19
512.265	77.19
512.481	96.19
512.698	85.19
512.914	90.19
513.13	102.19
513.346	94.19
513.562	101.19
513.778	100.19
513.994	83.19
514.21	93.19
514.426	115.19
514.642	106.19
514.858	113.19
515.074	137.19
515.29	311.19
515.506	998.19
515.721	384.19
515.937	142.19
516.153	114.19
516.369	85.19
516.585	93.19
