Data from Uncirc_1988_H10_HRD10591_00070.txt Node
Date: Wed Jan 03 12:04:18 EST 2024
User: Yrep
Spectrometer: HR+D1059
Trigger mode: 1
Integration Time (sec): 1.000000E-1
Scans to average: 1
Electric dark correction enabled: true
Nonlinearity correction enabled: false
Boxcar width: 0
XAxis mode: Wavelengths
Number of Pixels in Spectrum: 2048
>>>>>Begin Spectral Data<<<<<
223.165	-18.19
223.4	-18.19
223.635	-18.19
223.869	-9.19
224.104	-10.19
224.338	-28.19
224.573	-16.19
224.808	-13.19
225.042	-12.19
225.277	6.81
225.511	5.81
225.746	-6.19
225.98	1.81
226.215	17.81
226.449	18.81
226.683	19.81
226.918	31.81
227.152	10.81
227.387	40.81
227.621	34.81
227.856	43.81
228.09	45.81
228.324	40.81
228.559	55.81
228.793	57.81
229.027	65.81
229.262	64.81
229.496	78.81
229.73	84.81
229.964	88.81
230.199	67.81
230.433	74.81
230.667	69.81
230.901	78.81
231.136	89.81
231.37	78.81
231.604	78.81
231.838	83.81
232.072	81.81
232.306	85.81
232.541	73.81
232.775	73.81
233.009	67.81
233.243	63.81
233.477	68.81
233.711	92.81
233.945	89.81
234.179	85.81
234.413	83.81
234.647	74.81
234.881	86.81
235.115	71.81
235.349	82.81
235.583	71.81
235.817	70.81
236.051	74.81
236.285	73.81
236.519	80.81
236.753	83.81
236.987	83.81
237.221	84.81
237.455	82.81
237.689	58.81
237.922	82.81
238.156	83.81
238.39	74.81
238.624	74.81
238.858	78.81
239.091	67.81
239.325	80.81
239.559	81.81
239.793	72.81
240.027	65.81
240.26	69.81
240.494	97.81
240.728	77.81
240.961	69.81
241.195	86.81
241.429	66.81
241.662	69.81
241.896	66.81
242.13	66.81
242.363	77.81
242.597	74.81
242.83	70.81
243.064	80.81
243.298	83.81
243.531	78.81
243.765	69.81
243.998	74.81
244.232	71.81
244.465	74.81
244.699	63.81
244.932	88.81
245.166	65.81
245.399	74.81
245.633	74.81
245.866	82.81
246.099	88.81
246.333	77.81
246.566	74.81
246.8	77.81
247.033	67.81
247.266	74.81
247.5	67.81
247.733	83.81
247.966	88.81
248.2	75.81
248.433	56.81
248.666	70.81
248.899	82.81
249.133	90.81
249.366	96.81
249.599	96.81
249.832	86.81
250.066	88.81
250.299	76.81
250.532	64.81
250.765	95.81
250.998	85.81
251.231	70.81
251.465	88.81
251.698	88.81
251.931	82.81
252.164	66.81
252.397	62.81
252.63	83.81
252.863	75.81
253.096	75.81
253.329	91.81
253.562	85.81
253.795	87.81
254.028	75.81
254.261	86.81
254.494	80.81
254.727	81.81
254.96	74.81
255.193	72.81
255.426	76.81
255.659	72.81
255.892	83.81
256.124	80.81
256.357	85.81
256.59	78.81
256.823	83.81
257.056	78.81
257.289	94.81
257.521	95.81
257.754	94.81
257.987	75.81
258.22	78.81
258.452	87.81
258.685	81.81
258.918	103.81
259.151	76.81
259.383	88.81
259.616	80.81
259.849	58.81
260.081	90.81
260.314	65.81
260.547	90.81
260.779	107.81
261.012	84.81
261.244	82.81
261.477	92.81
261.71	100.81
261.942	98.81
262.175	98.81
262.407	89.81
262.64	83.81
262.872	96.81
263.105	93.81
263.337	96.81
263.57	84.81
263.802	83.81
264.035	65.81
264.267	75.81
264.499	80.81
264.732	83.81
264.964	88.81
265.197	94.81
265.429	77.81
265.661	78.81
265.894	84.81
266.126	70.81
266.358	98.81
266.591	74.81
266.823	81.81
267.055	91.81
267.287	85.81
267.52	100.81
267.752	89.81
267.984	81.81
268.216	61.81
268.448	69.81
268.681	91.81
268.913	80.81
269.145	83.81
269.377	93.81
269.609	69.81
269.841	70.81
270.073	95.81
270.306	91.81
270.538	63.81
270.77	86.81
271.002	82.81
271.234	83.81
271.466	96.81
271.698	86.81
271.93	90.81
272.162	89.81
272.394	87.81
272.626	78.81
272.858	86.81
273.09	80.81
273.322	87.81
273.553	83.81
273.785	82.81
274.017	70.81
274.249	82.81
274.481	80.81
274.713	78.81
274.945	95.81
275.176	69.81
275.408	73.81
275.64	93.81
275.872	86.81
276.104	77.81
276.335	94.81
276.567	84.81
276.799	97.81
277.031	115.81
277.262	100.81
277.494	82.81
277.726	87.81
277.957	93.81
278.189	90.81
278.421	86.81
278.652	79.81
278.884	83.81
279.115	83.81
279.347	68.81
279.579	80.81
279.81	94.81
280.042	89.81
280.273	94.81
280.505	89.81
280.736	98.81
280.968	81.81
281.199	93.81
281.431	84.81
281.662	94.81
281.894	84.81
282.125	95.81
282.356	110.81
282.588	137.81
282.819	102.81
283.051	91.81
283.282	79.81
283.513	85.81
283.745	90.81
283.976	102.81
284.207	82.81
284.439	94.81
284.67	89.81
284.901	92.81
285.132	74.81
285.364	93.81
285.595	88.81
285.826	80.81
286.057	90.81
286.288	103.81
286.52	87.81
286.751	92.81
286.982	86.81
287.213	76.81
287.444	89.81
287.675	88.81
287.906	78.81
288.138	88.81
288.369	75.81
288.6	86.81
288.831	98.81
289.062	100.81
289.293	84.81
289.524	91.81
289.755	86.81
289.986	90.81
290.217	78.81
290.448	83.81
290.679	74.81
290.91	92.81
291.141	82.81
291.371	90.81
291.602	75.81
291.833	86.81
292.064	71.81
292.295	100.81
292.526	101.81
292.757	85.81
292.987	81.81
293.218	90.81
293.449	75.81
293.68	86.81
293.91	87.81
294.141	90.81
294.372	90.81
294.603	92.81
294.833	94.81
295.064	85.81
295.295	82.81
295.525	88.81
295.756	88.81
295.987	122.81
296.217	130.81
296.448	117.81
296.679	98.81
296.909	84.81
297.14	75.81
297.37	93.81
297.601	87.81
297.831	80.81
298.062	87.81
298.292	81.81
298.523	90.81
298.753	71.81
298.984	82.81
299.214	87.81
299.445	77.81
299.675	84.81
299.905	93.81
300.136	97.81
300.366	92.81
300.597	83.81
300.827	86.81
301.057	101.81
301.288	108.81
301.518	86.81
301.748	88.81
301.979	112.81
302.209	96.81
302.439	88.81
302.669	76.81
302.9	76.81
303.13	82.81
303.36	82.81
303.59	95.81
303.82	109.81
304.051	91.81
304.281	91.81
304.511	81.81
304.741	72.81
304.971	90.81
305.201	80.81
305.431	84.81
305.661	84.81
305.891	86.81
306.121	91.81
306.352	99.81
306.582	114.81
306.812	75.81
307.042	99.81
307.272	95.81
307.502	100.81
307.731	97.81
307.961	77.81
308.191	94.81
308.421	91.81
308.651	82.81
308.881	80.81
309.111	87.81
309.341	91.81
309.571	105.81
309.8	109.81
310.03	95.81
310.26	85.81
310.49	83.81
310.72	99.81
310.949	101.81
311.179	95.81
311.409	85.81
311.639	86.81
311.868	93.81
312.098	77.81
312.328	90.81
312.557	80.81
312.787	96.81
313.017	108.81
313.246	87.81
313.476	82.81
313.706	83.81
313.935	93.81
314.165	92.81
314.394	99.81
314.624	97.81
314.853	100.81
315.083	102.81
315.312	86.81
315.542	83.81
315.771	80.81
316.001	90.81
316.23	84.81
316.46	98.81
316.689	92.81
316.919	90.81
317.148	88.81
317.377	87.81
317.607	93.81
317.836	103.81
318.065	80.81
318.295	75.81
318.524	101.81
318.753	74.81
318.983	80.81
319.212	94.81
319.441	120.81
319.67	104.81
319.9	93.81
320.129	74.81
320.358	87.81
320.587	103.81
320.816	108.81
321.046	94.81
321.275	98.81
321.504	85.81
321.733	104.81
321.962	92.81
322.191	105.81
322.42	101.81
322.649	100.81
322.878	95.81
323.108	127.81
323.337	113.81
323.566	126.81
323.795	136.81
324.024	205.81
324.253	391.81
324.482	840.81
324.71	1756.81
324.939	2325.81
325.168	842.81
325.397	257.81
325.626	151.81
325.855	135.81
326.084	115.81
326.313	139.81
326.542	147.81
326.77	228.81
326.999	449.81
327.228	972.81
327.457	1804.81
327.686	1449.81
327.914	368.81
328.143	206.81
328.372	153.81
328.6	125.81
328.829	118.81
329.058	115.81
329.287	116.81
329.515	126.81
329.744	116.81
329.972	114.81
330.201	97.81
330.43	129.81
330.658	120.81
330.887	146.81
331.115	124.81
331.344	101.81
331.572	106.81
331.801	100.81
332.03	98.81
332.258	96.81
332.486	82.81
332.715	78.81
332.943	91.81
333.172	103.81
333.4	102.81
333.629	91.81
333.857	101.81
334.085	105.81
334.314	101.81
334.542	110.81
334.771	110.81
334.999	102.81
335.227	100.81
335.455	81.81
335.684	76.81
335.912	88.81
336.14	112.81
336.369	99.81
336.597	106.81
336.825	90.81
337.053	99.81
337.281	95.81
337.51	91.81
337.738	93.81
337.966	88.81
338.194	83.81
338.422	87.81
338.65	102.81
338.878	90.81
339.106	86.81
339.334	88.81
339.562	83.81
339.79	88.81
340.018	80.81
340.246	107.81
340.474	96.81
340.702	85.81
340.93	83.81
341.158	77.81
341.386	94.81
341.614	96.81
341.842	96.81
342.07	101.81
342.298	82.81
342.526	94.81
342.754	73.81
342.981	92.81
343.209	80.81
343.437	98.81
343.665	91.81
343.893	85.81
344.12	93.81
344.348	79.81
344.576	86.81
344.804	79.81
345.031	90.81
345.259	93.81
345.487	105.81
345.714	98.81
345.942	91.81
346.17	87.81
346.397	113.81
346.625	81.81
346.853	81.81
347.08	92.81
347.308	93.81
347.535	87.81
347.763	111.81
347.99	109.81
348.218	99.81
348.445	95.81
348.673	92.81
348.9	112.81
349.128	87.81
349.355	90.81
349.583	86.81
349.81	97.81
350.037	87.81
350.265	87.81
350.492	94.81
350.72	88.81
350.947	93.81
351.174	111.81
351.402	100.81
351.629	99.81
351.856	100.81
352.083	112.81
352.311	108.81
352.538	107.81
352.765	115.81
352.992	104.81
353.22	98.81
353.447	98.81
353.674	94.81
353.901	90.81
354.128	87.81
354.355	88.81
354.583	98.81
354.81	111.81
355.037	87.81
355.264	84.81
355.491	107.81
355.718	88.81
355.945	94.81
356.172	95.81
356.399	97.81
356.626	91.81
356.853	102.81
357.08	93.81
357.307	85.81
357.534	92.81
357.761	93.81
357.988	98.81
358.215	97.81
358.441	79.81
358.668	88.81
358.895	82.81
359.122	101.81
359.349	87.81
359.576	87.81
359.802	100.81
360.029	106.81
360.256	104.81
360.483	102.81
360.709	95.81
360.936	87.81
361.163	93.81
361.39	105.81
361.616	94.81
361.843	82.81
362.07	89.81
362.296	92.81
362.523	86.81
362.749	96.81
362.976	82.81
363.203	90.81
363.429	94.81
363.656	85.81
363.882	85.81
364.109	88.81
364.335	96.81
364.562	96.81
364.788	94.81
365.015	91.81
365.241	96.81
365.468	95.81
365.694	106.81
365.92	88.81
366.147	80.81
366.373	89.81
366.599	86.81
366.826	93.81
367.052	78.81
367.278	70.81
367.505	106.81
367.731	97.81
367.957	104.81
368.184	94.81
368.41	98.81
368.636	90.81
368.862	107.81
369.089	113.81
369.315	105.81
369.541	84.81
369.767	91.81
369.993	80.81
370.219	96.81
370.445	91.81
370.672	88.81
370.898	86.81
371.124	84.81
371.35	91.81
371.576	96.81
371.802	85.81
372.028	90.81
372.254	79.81
372.48	86.81
372.706	81.81
372.932	76.81
373.158	86.81
373.384	89.81
373.61	83.81
373.835	92.81
374.061	85.81
374.287	82.81
374.513	81.81
374.739	76.81
374.965	91.81
375.191	81.81
375.416	82.81
375.642	85.81
375.868	100.81
376.094	87.81
376.319	90.81
376.545	89.81
376.771	83.81
376.997	88.81
377.222	80.81
377.448	85.81
377.674	82.81
377.899	87.81
378.125	92.81
378.35	91.81
378.576	95.81
378.802	84.81
379.027	92.81
379.253	90.81
379.478	98.81
379.704	86.81
379.929	88.81
380.155	100.81
380.38	101.81
380.606	96.81
380.831	86.81
381.057	100.81
381.282	94.81
381.507	90.81
381.733	98.81
381.958	91.81
382.184	88.81
382.409	106.81
382.634	88.81
382.86	97.81
383.085	95.81
383.31	92.81
383.535	99.81
383.761	95.81
383.986	89.81
384.211	84.81
384.436	96.81
384.662	100.81
384.887	87.81
385.112	100.81
385.337	104.81
385.562	109.81
385.787	69.81
386.013	98.81
386.238	107.81
386.463	100.81
386.688	103.81
386.913	87.81
387.138	99.81
387.363	97.81
387.588	100.81
387.813	83.81
388.038	97.81
388.263	107.81
388.488	101.81
388.713	87.81
388.938	83.81
389.163	90.81
389.387	102.81
389.612	80.81
389.837	80.81
390.062	93.81
390.287	75.81
390.512	99.81
390.736	100.81
390.961	82.81
391.186	72.81
391.411	98.81
391.636	71.81
391.86	81.81
392.085	77.81
392.31	94.81
392.534	86.81
392.759	90.81
392.984	83.81
393.208	82.81
393.433	100.81
393.658	87.81
393.882	86.81
394.107	86.81
394.331	64.81
394.556	89.81
394.78	92.81
395.005	86.81
395.229	78.81
395.454	80.81
395.678	88.81
395.903	85.81
396.127	85.81
396.352	84.81
396.576	79.81
396.801	90.81
397.025	85.81
397.249	87.81
397.474	94.81
397.698	87.81
397.922	94.81
398.147	97.81
398.371	90.81
398.595	77.81
398.82	76.81
399.044	80.81
399.268	82.81
399.492	85.81
399.717	103.81
399.941	87.81
400.165	91.81
400.389	96.81
400.613	86.81
400.837	87.81
401.062	92.81
401.286	91.81
401.51	96.81
401.734	90.81
401.958	83.81
402.182	128.81
402.406	151.81
402.63	114.81
402.854	105.81
403.078	84.81
403.302	89.81
403.526	80.81
403.75	98.81
403.974	79.81
404.198	76.81
404.422	86.81
404.645	91.81
404.869	80.81
405.093	89.81
405.317	101.81
405.541	92.81
405.765	101.81
405.988	110.81
406.212	154.81
406.436	205.81
406.66	149.81
406.883	88.81
407.107	94.81
407.331	99.81
407.555	92.81
407.778	102.81
408.002	88.81
408.226	92.81
408.449	76.81
408.673	73.81
408.896	86.81
409.12	110.81
409.344	100.81
409.567	93.81
409.791	95.81
410.014	98.81
410.238	85.81
410.461	97.81
410.685	91.81
410.908	101.81
411.132	104.81
411.355	94.81
411.578	79.81
411.802	87.81
412.025	100.81
412.249	90.81
412.472	100.81
412.695	95.81
412.919	83.81
413.142	88.81
413.365	78.81
413.589	84.81
413.812	92.81
414.035	87.81
414.258	82.81
414.482	98.81
414.705	88.81
414.928	76.81
415.151	108.81
415.374	82.81
415.597	84.81
415.821	87.81
416.044	94.81
416.267	84.81
416.49	84.81
416.713	84.81
416.936	94.81
417.159	82.81
417.382	90.81
417.605	74.81
417.828	92.81
418.051	87.81
418.274	88.81
418.497	78.81
418.72	87.81
418.943	90.81
419.166	86.81
419.389	87.81
419.611	100.81
419.834	96.81
420.057	96.81
420.28	82.81
420.503	72.81
420.726	90.81
420.948	90.81
421.171	86.81
421.394	97.81
421.617	84.81
421.839	97.81
422.062	78.81
422.285	76.81
422.507	102.81
422.73	103.81
422.953	78.81
423.175	89.81
423.398	102.81
423.621	95.81
423.843	71.81
424.066	88.81
424.288	81.81
424.511	92.81
424.733	106.81
424.956	104.81
425.178	95.81
425.401	102.81
425.623	99.81
425.846	90.81
426.068	83.81
426.291	79.81
426.513	91.81
426.735	97.81
426.958	90.81
427.18	91.81
427.402	140.81
427.625	165.81
427.847	134.81
428.069	115.81
428.292	83.81
428.514	84.81
428.736	72.81
428.958	83.81
429.181	98.81
429.403	92.81
429.625	93.81
429.847	90.81
430.069	92.81
430.292	87.81
430.514	87.81
430.736	88.81
430.958	91.81
431.18	83.81
431.402	67.81
431.624	77.81
431.846	71.81
432.068	86.81
432.29	81.81
432.512	84.81
432.734	94.81
432.956	78.81
433.178	91.81
433.4	109.81
433.622	83.81
433.844	78.81
434.066	87.81
434.287	81.81
434.509	85.81
434.731	78.81
434.953	89.81
435.175	86.81
435.397	86.81
435.618	71.81
435.84	99.81
436.062	125.81
436.284	104.81
436.505	98.81
436.727	121.81
436.949	102.81
437.17	104.81
437.392	87.81
437.614	84.81
437.835	91.81
438.057	128.81
438.278	116.81
438.5	86.81
438.721	127.81
438.943	95.81
439.165	80.81
439.386	84.81
439.608	82.81
439.829	79.81
440.05	113.81
440.272	142.81
440.493	97.81
440.715	85.81
440.936	82.81
441.158	78.81
441.379	82.81
441.6	98.81
441.822	72.81
442.043	101.81
442.264	103.81
442.486	99.81
442.707	82.81
442.928	112.81
443.149	136.81
443.371	109.81
443.592	108.81
443.813	116.81
444.034	104.81
444.255	80.81
444.476	83.81
444.698	84.81
444.919	85.81
445.14	123.81
445.361	128.81
445.582	112.81
445.803	142.81
446.024	150.81
446.245	127.81
446.466	107.81
446.687	87.81
446.908	107.81
447.129	91.81
447.35	86.81
447.571	91.81
447.792	85.81
448.013	96.81
448.234	106.81
448.455	95.81
448.675	110.81
448.896	114.81
449.117	98.81
449.338	100.81
449.559	114.81
449.779	135.81
450	95.81
450.221	80.81
450.442	98.81
450.662	85.81
450.883	94.81
451.104	111.81
451.324	86.81
451.545	77.81
451.766	83.81
451.986	70.81
452.207	78.81
452.428	88.81
452.648	97.81
452.869	110.81
453.089	110.81
453.31	113.81
453.53	97.81
453.751	91.81
453.971	97.81
454.192	121.81
454.412	94.81
454.633	91.81
454.853	77.81
455.073	84.81
455.294	83.81
455.514	99.81
455.734	88.81
455.955	86.81
456.175	83.81
456.395	76.81
456.616	75.81
456.836	86.81
457.056	91.81
457.276	79.81
457.497	96.81
457.717	81.81
457.937	82.81
458.157	70.81
458.377	80.81
458.598	106.81
458.818	151.81
459.038	159.81
459.258	104.81
459.478	98.81
459.698	78.81
459.918	82.81
460.138	86.81
460.358	91.81
460.578	82.81
460.798	83.81
461.018	84.81
461.238	74.81
461.458	83.81
461.678	80.81
461.898	67.81
462.118	82.81
462.338	78.81
462.558	82.81
462.777	78.81
462.997	77.81
463.217	77.81
463.437	77.81
463.657	75.81
463.876	90.81
464.096	80.81
464.316	96.81
464.536	93.81
464.755	90.81
464.975	95.81
465.195	141.81
465.414	133.81
465.634	91.81
465.854	91.81
466.073	77.81
466.293	90.81
466.512	79.81
466.732	82.81
466.951	99.81
467.171	90.81
467.391	87.81
467.61	120.81
467.829	93.81
468.049	97.81
468.268	99.81
468.488	81.81
468.707	82.81
468.927	91.81
469.146	94.81
469.365	91.81
469.585	91.81
469.804	85.81
470.023	99.81
470.243	89.81
470.462	89.81
470.681	114.81
470.901	87.81
471.12	84.81
471.339	81.81
471.558	82.81
471.777	71.81
471.997	87.81
472.216	107.81
472.435	128.81
472.654	90.81
472.873	84.81
473.092	82.81
473.311	92.81
473.53	85.81
473.749	69.81
473.968	88.81
474.187	115.81
474.406	114.81
474.625	83.81
474.844	82.81
475.063	94.81
475.282	83.81
475.501	70.81
475.72	71.81
475.939	79.81
476.158	76.81
476.377	86.81
476.596	93.81
476.814	82.81
477.033	88.81
477.252	103.81
477.471	80.81
477.69	72.81
477.908	88.81
478.127	95.81
478.346	100.81
478.564	100.81
478.783	97.81
479.002	91.81
479.22	86.81
479.439	86.81
479.658	91.81
479.876	95.81
480.095	81.81
480.313	76.81
480.532	80.81
480.751	89.81
480.969	109.81
481.188	164.81
481.406	124.81
481.624	94.81
481.843	87.81
482.061	90.81
482.28	87.81
482.498	80.81
482.717	92.81
482.935	89.81
483.153	83.81
483.372	95.81
483.59	91.81
483.808	100.81
484.027	96.81
484.245	87.81
484.463	86.81
484.681	103.81
484.9	84.81
485.118	90.81
485.336	90.81
485.554	103.81
485.772	92.81
485.99	100.81
486.209	99.81
486.427	97.81
486.645	102.81
486.863	96.81
487.081	98.81
487.299	98.81
487.517	73.81
487.735	95.81
487.953	99.81
488.171	88.81
488.389	93.81
488.607	88.81
488.825	78.81
489.043	86.81
489.261	79.81
489.479	100.81
489.696	93.81
489.914	72.81
490.132	99.81
490.35	79.81
490.568	69.81
490.786	79.81
491.003	92.81
491.221	92.81
491.439	103.81
491.657	92.81
491.874	91.81
492.092	90.81
492.31	80.81
492.527	79.81
492.745	90.81
492.963	86.81
493.18	89.81
493.398	97.81
493.615	101.81
493.833	82.81
494.05	103.81
494.268	80.81
494.485	95.81
494.703	85.81
494.92	93.81
495.138	86.81
495.355	69.81
495.573	94.81
495.79	80.81
496.008	93.81
496.225	98.81
496.442	79.81
496.66	86.81
496.877	90.81
497.094	79.81
497.312	80.81
497.529	77.81
497.746	91.81
497.963	87.81
498.181	85.81
498.398	94.81
498.615	108.81
498.832	105.81
499.049	92.81
499.267	86.81
499.484	86.81
499.701	80.81
499.918	85.81
500.135	98.81
500.352	105.81
500.569	86.81
500.786	101.81
501.003	98.81
501.22	100.81
501.437	83.81
501.654	88.81
501.871	107.81
502.088	98.81
502.305	104.81
502.522	94.81
502.739	91.81
502.956	95.81
503.172	69.81
503.389	78.81
503.606	104.81
503.823	98.81
504.04	90.81
504.256	84.81
504.473	98.81
504.69	86.81
504.907	99.81
505.123	97.81
505.34	88.81
505.557	94.81
505.773	80.81
505.99	91.81
506.207	81.81
506.423	78.81
506.64	78.81
506.856	95.81
507.073	91.81
507.289	88.81
507.506	95.81
507.722	109.81
507.939	102.81
508.155	103.81
508.372	94.81
508.588	91.81
508.805	86.81
509.021	92.81
509.238	93.81
509.454	108.81
509.67	101.81
509.887	116.81
510.103	127.81
510.319	211.81
510.536	754.81
510.752	2303.81
510.968	631.81
511.184	145.81
511.401	98.81
511.617	98.81
511.833	94.81
512.049	86.81
512.265	93.81
512.481	87.81
512.698	91.81
512.914	89.81
513.13	75.81
513.346	81.81
513.562	87.81
513.778	93.81
513.994	100.81
514.21	101.81
514.426	128.81
514.642	124.81
514.858	130.81
515.074	144.81
515.29	435.81
515.506	1459.81
515.721	539.81
515.937	166.81
516.153	105.81
516.369	103.81
