Data from Uncirc_1988_H10_HRD10591_00032.txt Node
Date: Wed Jan 03 12:04:10 EST 2024
User: Yrep
Spectrometer: HR+D1059
Trigger mode: 1
Integration Time (sec): 1.000000E-1
Scans to average: 1
Electric dark correction enabled: true
Nonlinearity correction enabled: false
Boxcar width: 0
XAxis mode: Wavelengths
Number of Pixels in Spectrum: 2048
>>>>>Begin Spectral Data<<<<<
223.165	-11.62
223.4	-11.62
223.635	-11.62
223.869	-26.62
224.104	-25.62
224.338	-19.62
224.573	-14.62
224.808	-3.62
225.042	-14.62
225.277	5.38
225.511	-5.62
225.746	-2.62
225.98	15.38
226.215	19.38
226.449	26.38
226.683	10.38
226.918	17.38
227.152	30.38
227.387	17.38
227.621	27.38
227.856	43.38
228.09	49.38
228.324	38.38
228.559	53.38
228.793	59.38
229.027	58.38
229.262	62.38
229.496	77.38
229.73	93.38
229.964	73.38
230.199	54.38
230.433	62.38
230.667	76.38
230.901	69.38
231.136	82.38
231.37	77.38
231.604	80.38
231.838	74.38
232.072	78.38
232.306	86.38
232.541	71.38
232.775	81.38
233.009	70.38
233.243	94.38
233.477	93.38
233.711	73.38
233.945	72.38
234.179	87.38
234.413	90.38
234.647	74.38
234.881	57.38
235.115	81.38
235.349	77.38
235.583	88.38
235.817	75.38
236.051	70.38
236.285	84.38
236.519	81.38
236.753	84.38
236.987	64.38
237.221	74.38
237.455	87.38
237.689	76.38
237.922	67.38
238.156	63.38
238.39	66.38
238.624	77.38
238.858	73.38
239.091	61.38
239.325	79.38
239.559	75.38
239.793	70.38
240.027	80.38
240.26	78.38
240.494	71.38
240.728	68.38
240.961	73.38
241.195	77.38
241.429	73.38
241.662	81.38
241.896	79.38
242.13	59.38
242.363	61.38
242.597	72.38
242.83	77.38
243.064	73.38
243.298	71.38
243.531	77.38
243.765	66.38
243.998	75.38
244.232	77.38
244.465	85.38
244.699	74.38
244.932	80.38
245.166	65.38
245.399	61.38
245.633	78.38
245.866	69.38
246.099	73.38
246.333	60.38
246.566	59.38
246.8	62.38
247.033	66.38
247.266	77.38
247.5	77.38
247.733	68.38
247.966	83.38
248.2	75.38
248.433	74.38
248.666	74.38
248.899	82.38
249.133	84.38
249.366	82.38
249.599	93.38
249.832	90.38
250.066	99.38
250.299	71.38
250.532	75.38
250.765	85.38
250.998	82.38
251.231	71.38
251.465	76.38
251.698	86.38
251.931	74.38
252.164	73.38
252.397	88.38
252.63	86.38
252.863	72.38
253.096	65.38
253.329	75.38
253.562	78.38
253.795	86.38
254.028	90.38
254.261	79.38
254.494	73.38
254.727	86.38
254.96	85.38
255.193	85.38
255.426	87.38
255.659	84.38
255.892	73.38
256.124	81.38
256.357	77.38
256.59	73.38
256.823	84.38
257.056	63.38
257.289	87.38
257.521	68.38
257.754	77.38
257.987	87.38
258.22	81.38
258.452	91.38
258.685	76.38
258.918	84.38
259.151	71.38
259.383	85.38
259.616	87.38
259.849	82.38
260.081	71.38
260.314	65.38
260.547	81.38
260.779	69.38
261.012	78.38
261.244	89.38
261.477	83.38
261.71	87.38
261.942	115.38
262.175	109.38
262.407	81.38
262.64	83.38
262.872	77.38
263.105	85.38
263.337	83.38
263.57	68.38
263.802	75.38
264.035	78.38
264.267	73.38
264.499	82.38
264.732	84.38
264.964	79.38
265.197	77.38
265.429	73.38
265.661	66.38
265.894	87.38
266.126	77.38
266.358	92.38
266.591	77.38
266.823	75.38
267.055	80.38
267.287	92.38
267.52	82.38
267.752	73.38
267.984	79.38
268.216	82.38
268.448	78.38
268.681	82.38
268.913	79.38
269.145	79.38
269.377	70.38
269.609	75.38
269.841	84.38
270.073	102.38
270.306	89.38
270.538	78.38
270.77	93.38
271.002	82.38
271.234	78.38
271.466	86.38
271.698	81.38
271.93	64.38
272.162	73.38
272.394	88.38
272.626	81.38
272.858	83.38
273.09	84.38
273.322	66.38
273.553	75.38
273.785	92.38
274.017	81.38
274.249	84.38
274.481	77.38
274.713	93.38
274.945	92.38
275.176	73.38
275.408	92.38
275.64	98.38
275.872	84.38
276.104	83.38
276.335	75.38
276.567	106.38
276.799	104.38
277.031	100.38
277.262	83.38
277.494	99.38
277.726	83.38
277.957	85.38
278.189	86.38
278.421	78.38
278.652	85.38
278.884	93.38
279.115	79.38
279.347	97.38
279.579	82.38
279.81	86.38
280.042	87.38
280.273	85.38
280.505	87.38
280.736	68.38
280.968	97.38
281.199	89.38
281.431	81.38
281.662	85.38
281.894	84.38
282.125	101.38
282.356	111.38
282.588	143.38
282.819	106.38
283.051	87.38
283.282	89.38
283.513	78.38
283.745	93.38
283.976	85.38
284.207	81.38
284.439	93.38
284.67	78.38
284.901	71.38
285.132	92.38
285.364	93.38
285.595	88.38
285.826	85.38
286.057	85.38
286.288	66.38
286.52	92.38
286.751	81.38
286.982	90.38
287.213	87.38
287.444	74.38
287.675	85.38
287.906	95.38
288.138	81.38
288.369	88.38
288.6	93.38
288.831	79.38
289.062	84.38
289.293	75.38
289.524	92.38
289.755	81.38
289.986	87.38
290.217	87.38
290.448	71.38
290.679	89.38
290.91	85.38
291.141	77.38
291.371	86.38
291.602	90.38
291.833	87.38
292.064	88.38
292.295	92.38
292.526	82.38
292.757	86.38
292.987	86.38
293.218	81.38
293.449	89.38
293.68	70.38
293.91	67.38
294.141	76.38
294.372	93.38
294.603	90.38
294.833	80.38
295.064	81.38
295.295	94.38
295.525	73.38
295.756	86.38
295.987	109.38
296.217	134.38
296.448	117.38
296.679	94.38
296.909	99.38
297.14	86.38
297.37	96.38
297.601	76.38
297.831	58.38
298.062	91.38
298.292	86.38
298.523	91.38
298.753	87.38
298.984	93.38
299.214	94.38
299.445	109.38
299.675	89.38
299.905	87.38
300.136	76.38
300.366	88.38
300.597	90.38
300.827	92.38
301.057	100.38
301.288	110.38
301.518	73.38
301.748	86.38
301.979	91.38
302.209	85.38
302.439	83.38
302.669	95.38
302.9	78.38
303.13	81.38
303.36	102.38
303.59	95.38
303.82	103.38
304.051	103.38
304.281	80.38
304.511	87.38
304.741	110.38
304.971	99.38
305.201	97.38
305.431	81.38
305.661	78.38
305.891	81.38
306.121	94.38
306.352	98.38
306.582	99.38
306.812	97.38
307.042	97.38
307.272	90.38
307.502	102.38
307.731	95.38
307.961	82.38
308.191	93.38
308.421	83.38
308.651	102.38
308.881	98.38
309.111	92.38
309.341	82.38
309.571	93.38
309.8	78.38
310.03	90.38
310.26	110.38
310.49	89.38
310.72	92.38
310.949	93.38
311.179	87.38
311.409	87.38
311.639	89.38
311.868	84.38
312.098	101.38
312.328	95.38
312.557	100.38
312.787	112.38
313.017	102.38
313.246	101.38
313.476	82.38
313.706	86.38
313.935	82.38
314.165	99.38
314.394	103.38
314.624	105.38
314.853	91.38
315.083	66.38
315.312	83.38
315.542	80.38
315.771	80.38
316.001	89.38
316.23	76.38
316.46	82.38
316.689	92.38
316.919	87.38
317.148	105.38
317.377	98.38
317.607	87.38
317.836	92.38
318.065	89.38
318.295	89.38
318.524	86.38
318.753	94.38
318.983	73.38
319.212	78.38
319.441	106.38
319.67	94.38
319.9	95.38
320.129	95.38
320.358	94.38
320.587	111.38
320.816	102.38
321.046	95.38
321.275	98.38
321.504	108.38
321.733	100.38
321.962	98.38
322.191	97.38
322.42	105.38
322.649	98.38
322.878	113.38
323.108	96.38
323.337	121.38
323.566	121.38
323.795	142.38
324.024	185.38
324.253	380.38
324.482	825.38
324.71	1715.38
324.939	2327.38
325.168	837.38
325.397	241.38
325.626	147.38
325.855	123.38
326.084	108.38
326.313	118.38
326.542	157.38
326.77	219.38
326.999	452.38
327.228	957.38
327.457	1766.38
327.686	1344.38
327.914	359.38
328.143	201.38
328.372	163.38
328.6	120.38
328.829	128.38
329.058	130.38
329.287	116.38
329.515	107.38
329.744	101.38
329.972	86.38
330.201	102.38
330.43	116.38
330.658	130.38
330.887	127.38
331.115	126.38
331.344	96.38
331.572	101.38
331.801	91.38
332.03	100.38
332.258	99.38
332.486	100.38
332.715	94.38
332.943	91.38
333.172	109.38
333.4	88.38
333.629	104.38
333.857	112.38
334.085	109.38
334.314	101.38
334.542	94.38
334.771	102.38
334.999	98.38
335.227	98.38
335.455	92.38
335.684	70.38
335.912	96.38
336.14	102.38
336.369	79.38
336.597	85.38
336.825	98.38
337.053	88.38
337.281	93.38
337.51	83.38
337.738	95.38
337.966	80.38
338.194	96.38
338.422	83.38
338.65	74.38
338.878	93.38
339.106	82.38
339.334	79.38
339.562	72.38
339.79	96.38
340.018	94.38
340.246	83.38
340.474	83.38
340.702	84.38
340.93	98.38
341.158	110.38
341.386	95.38
341.614	98.38
341.842	91.38
342.07	90.38
342.298	83.38
342.526	95.38
342.754	81.38
342.981	93.38
343.209	98.38
343.437	112.38
343.665	100.38
343.893	97.38
344.12	81.38
344.348	100.38
344.576	87.38
344.804	87.38
345.031	85.38
345.259	93.38
345.487	90.38
345.714	85.38
345.942	78.38
346.17	83.38
346.397	73.38
346.625	107.38
346.853	90.38
347.08	87.38
347.308	95.38
347.535	101.38
347.763	101.38
347.99	97.38
348.218	108.38
348.445	95.38
348.673	98.38
348.9	86.38
349.128	85.38
349.355	86.38
349.583	91.38
349.81	96.38
350.037	94.38
350.265	88.38
350.492	93.38
350.72	83.38
350.947	98.38
351.174	113.38
351.402	112.38
351.629	102.38
351.856	106.38
352.083	98.38
352.311	112.38
352.538	103.38
352.765	101.38
352.992	98.38
353.22	97.38
353.447	90.38
353.674	93.38
353.901	92.38
354.128	90.38
354.355	91.38
354.583	99.38
354.81	93.38
355.037	93.38
355.264	95.38
355.491	102.38
355.718	64.38
355.945	94.38
356.172	100.38
356.399	93.38
356.626	77.38
356.853	85.38
357.08	91.38
357.307	92.38
357.534	93.38
357.761	86.38
357.988	83.38
358.215	81.38
358.441	100.38
358.668	89.38
358.895	103.38
359.122	78.38
359.349	85.38
359.576	91.38
359.802	94.38
360.029	99.38
360.256	120.38
360.483	98.38
360.709	103.38
360.936	88.38
361.163	84.38
361.39	96.38
361.616	90.38
361.843	89.38
362.07	94.38
362.296	102.38
362.523	97.38
362.749	91.38
362.976	85.38
363.203	96.38
363.429	87.38
363.656	89.38
363.882	89.38
364.109	84.38
364.335	87.38
364.562	97.38
364.788	95.38
365.015	101.38
365.241	84.38
365.468	81.38
365.694	102.38
365.92	85.38
366.147	79.38
366.373	79.38
366.599	70.38
366.826	86.38
367.052	87.38
367.278	89.38
367.505	86.38
367.731	85.38
367.957	83.38
368.184	93.38
368.41	102.38
368.636	107.38
368.862	114.38
369.089	109.38
369.315	99.38
369.541	94.38
369.767	82.38
369.993	78.38
370.219	90.38
370.445	81.38
370.672	101.38
370.898	78.38
371.124	92.38
371.35	89.38
371.576	97.38
371.802	79.38
372.028	87.38
372.254	81.38
372.48	84.38
372.706	80.38
372.932	97.38
373.158	82.38
373.384	88.38
373.61	89.38
373.835	84.38
374.061	91.38
374.287	102.38
374.513	91.38
374.739	77.38
374.965	85.38
375.191	75.38
375.416	81.38
375.642	81.38
375.868	98.38
376.094	97.38
376.319	87.38
376.545	103.38
376.771	94.38
376.997	77.38
377.222	83.38
377.448	92.38
377.674	79.38
377.899	77.38
378.125	76.38
378.35	78.38
378.576	87.38
378.802	90.38
379.027	88.38
379.253	78.38
379.478	80.38
379.704	81.38
379.929	92.38
380.155	101.38
380.38	83.38
380.606	96.38
380.831	101.38
381.057	94.38
381.282	84.38
381.507	75.38
381.733	84.38
381.958	97.38
382.184	96.38
382.409	78.38
382.634	96.38
382.86	91.38
383.085	85.38
383.31	98.38
383.535	89.38
383.761	97.38
383.986	97.38
384.211	102.38
384.436	81.38
384.662	96.38
384.887	93.38
385.112	90.38
385.337	105.38
385.562	89.38
385.787	103.38
386.013	104.38
386.238	113.38
386.463	95.38
386.688	92.38
386.913	88.38
387.138	103.38
387.363	90.38
387.588	94.38
387.813	86.38
388.038	89.38
388.263	95.38
388.488	114.38
388.713	89.38
388.938	99.38
389.163	96.38
389.387	107.38
389.612	92.38
389.837	93.38
390.062	87.38
390.287	86.38
390.512	75.38
390.736	85.38
390.961	101.38
391.186	98.38
391.411	85.38
391.636	65.38
391.86	92.38
392.085	98.38
392.31	93.38
392.534	88.38
392.759	93.38
392.984	79.38
393.208	79.38
393.433	86.38
393.658	94.38
393.882	93.38
394.107	92.38
394.331	94.38
394.556	82.38
394.78	95.38
395.005	97.38
395.229	70.38
395.454	65.38
395.678	70.38
395.903	96.38
396.127	91.38
396.352	89.38
396.576	88.38
396.801	90.38
397.025	77.38
397.249	85.38
397.474	82.38
397.698	76.38
397.922	90.38
398.147	85.38
398.371	83.38
398.595	78.38
398.82	84.38
399.044	76.38
399.268	103.38
399.492	95.38
399.717	100.38
399.941	84.38
400.165	91.38
400.389	100.38
400.613	76.38
400.837	89.38
401.062	92.38
401.286	88.38
401.51	91.38
401.734	95.38
401.958	99.38
402.182	119.38
402.406	148.38
402.63	115.38
402.854	102.38
403.078	91.38
403.302	81.38
403.526	97.38
403.75	94.38
403.974	77.38
404.198	83.38
404.422	90.38
404.645	77.38
404.869	85.38
405.093	97.38
405.317	106.38
405.541	99.38
405.765	107.38
405.988	115.38
406.212	180.38
406.436	224.38
406.66	154.38
406.883	107.38
407.107	86.38
407.331	74.38
407.555	97.38
407.778	88.38
408.002	108.38
408.226	102.38
408.449	90.38
408.673	79.38
408.896	81.38
409.12	93.38
409.344	91.38
409.567	78.38
409.791	94.38
410.014	100.38
410.238	102.38
410.461	93.38
410.685	84.38
410.908	108.38
411.132	101.38
411.355	87.38
411.578	98.38
411.802	84.38
412.025	86.38
412.249	76.38
412.472	92.38
412.695	85.38
412.919	95.38
413.142	62.38
413.365	59.38
413.589	84.38
413.812	85.38
414.035	94.38
414.258	85.38
414.482	79.38
414.705	73.38
414.928	82.38
415.151	97.38
415.374	96.38
415.597	93.38
415.821	79.38
416.044	90.38
416.267	95.38
416.49	84.38
416.713	83.38
416.936	84.38
417.159	94.38
417.382	98.38
417.605	77.38
417.828	91.38
418.051	87.38
418.274	87.38
418.497	83.38
418.72	76.38
418.943	75.38
419.166	86.38
419.389	88.38
419.611	79.38
419.834	90.38
420.057	96.38
420.28	83.38
420.503	68.38
420.726	89.38
420.948	93.38
421.171	91.38
421.394	87.38
421.617	87.38
421.839	97.38
422.062	57.38
422.285	91.38
422.507	108.38
422.73	107.38
422.953	102.38
423.175	81.38
423.398	84.38
423.621	79.38
423.843	93.38
424.066	73.38
424.288	78.38
424.511	87.38
424.733	94.38
424.956	118.38
425.178	90.38
425.401	95.38
425.623	109.38
425.846	90.38
426.068	92.38
426.291	96.38
426.513	86.38
426.735	84.38
426.958	97.38
427.18	99.38
427.402	137.38
427.625	156.38
427.847	128.38
428.069	91.38
428.292	96.38
428.514	91.38
428.736	84.38
428.958	89.38
429.181	81.38
429.403	77.38
429.625	87.38
429.847	94.38
430.069	94.38
430.292	71.38
430.514	73.38
430.736	45.38
430.958	83.38
431.18	82.38
431.402	83.38
431.624	83.38
431.846	88.38
432.068	81.38
432.29	83.38
432.512	84.38
432.734	92.38
432.956	94.38
433.178	89.38
433.4	95.38
433.622	86.38
433.844	87.38
434.066	106.38
434.287	96.38
434.509	81.38
434.731	87.38
434.953	80.38
435.175	84.38
435.397	76.38
435.618	85.38
435.84	92.38
436.062	117.38
436.284	96.38
436.505	89.38
436.727	91.38
436.949	91.38
437.17	83.38
437.392	81.38
437.614	92.38
437.835	100.38
438.057	103.38
438.278	129.38
438.5	112.38
438.721	103.38
438.943	96.38
439.165	74.38
439.386	67.38
439.608	84.38
439.829	101.38
440.05	119.38
440.272	135.38
440.493	110.38
440.715	85.38
440.936	82.38
441.158	97.38
441.379	77.38
441.6	88.38
441.822	90.38
442.043	86.38
442.264	103.38
442.486	95.38
442.707	84.38
442.928	103.38
443.149	141.38
443.371	132.38
443.592	115.38
443.813	126.38
444.034	101.38
444.255	91.38
444.476	83.38
444.698	75.38
444.919	91.38
445.14	119.38
445.361	125.38
445.582	113.38
445.803	135.38
446.024	130.38
446.245	130.38
446.466	91.38
446.687	83.38
446.908	77.38
447.129	97.38
447.35	94.38
447.571	81.38
447.792	86.38
448.013	99.38
448.234	109.38
448.455	101.38
448.675	91.38
448.896	125.38
449.117	99.38
449.338	102.38
449.559	126.38
449.779	133.38
450	87.38
450.221	93.38
450.442	97.38
450.662	89.38
450.883	91.38
451.104	112.38
451.324	87.38
451.545	71.38
451.766	83.38
451.986	95.38
452.207	85.38
452.428	98.38
452.648	95.38
452.869	98.38
453.089	112.38
453.31	115.38
453.53	87.38
453.751	107.38
453.971	93.38
454.192	108.38
454.412	93.38
454.633	92.38
454.853	82.38
455.073	87.38
455.294	79.38
455.514	93.38
455.734	85.38
455.955	91.38
456.175	82.38
456.395	79.38
456.616	87.38
456.836	77.38
457.056	91.38
457.276	80.38
457.497	89.38
457.717	70.38
457.937	69.38
458.157	80.38
458.377	93.38
458.598	107.38
458.818	138.38
459.038	155.38
459.258	125.38
459.478	94.38
459.698	85.38
459.918	73.38
460.138	73.38
460.358	75.38
460.578	94.38
460.798	88.38
461.018	83.38
461.238	92.38
461.458	100.38
461.678	81.38
461.898	84.38
462.118	95.38
462.338	85.38
462.558	89.38
462.777	75.38
462.997	70.38
463.217	96.38
463.437	81.38
463.657	73.38
463.876	83.38
464.096	78.38
464.316	75.38
464.536	97.38
464.755	96.38
464.975	98.38
465.195	166.38
465.414	148.38
465.634	81.38
465.854	71.38
466.073	79.38
466.293	79.38
466.512	82.38
466.732	85.38
466.951	73.38
467.171	78.38
467.391	78.38
467.61	98.38
467.829	99.38
468.049	78.38
468.268	83.38
468.488	79.38
468.707	87.38
468.927	98.38
469.146	84.38
469.365	78.38
469.585	83.38
469.804	97.38
470.023	92.38
470.243	93.38
470.462	103.38
470.681	103.38
470.901	84.38
471.12	84.38
471.339	83.38
471.558	84.38
471.777	98.38
471.997	86.38
472.216	100.38
472.435	93.38
472.654	71.38
472.873	73.38
473.092	74.38
473.311	82.38
473.53	96.38
473.749	77.38
473.968	89.38
474.187	102.38
474.406	79.38
474.625	93.38
474.844	79.38
475.063	82.38
475.282	95.38
475.501	84.38
475.72	89.38
475.939	81.38
476.158	87.38
476.377	89.38
476.596	92.38
476.814	93.38
477.033	102.38
477.252	83.38
477.471	81.38
477.69	77.38
477.908	87.38
478.127	91.38
478.346	98.38
478.564	77.38
478.783	82.38
479.002	90.38
479.22	94.38
479.439	104.38
479.658	95.38
479.876	78.38
480.095	88.38
480.313	88.38
480.532	92.38
480.751	71.38
480.969	87.38
481.188	107.38
481.406	105.38
481.624	77.38
481.843	92.38
482.061	87.38
482.28	104.38
482.498	77.38
482.717	86.38
482.935	78.38
483.153	84.38
483.372	89.38
483.59	73.38
483.808	82.38
484.027	92.38
484.245	98.38
484.463	90.38
484.681	96.38
484.9	91.38
485.118	92.38
485.336	89.38
485.554	89.38
485.772	95.38
485.99	89.38
486.209	101.38
486.427	101.38
486.645	112.38
486.863	101.38
487.081	104.38
487.299	100.38
487.517	100.38
487.735	85.38
487.953	82.38
488.171	81.38
488.389	92.38
488.607	102.38
488.825	78.38
489.043	91.38
489.261	73.38
489.479	98.38
489.696	105.38
489.914	75.38
490.132	83.38
490.35	93.38
490.568	83.38
490.786	90.38
491.003	99.38
491.221	86.38
491.439	92.38
491.657	85.38
491.874	82.38
492.092	91.38
492.31	98.38
492.527	80.38
492.745	92.38
492.963	87.38
493.18	98.38
493.398	85.38
493.615	83.38
493.833	86.38
494.05	70.38
494.268	81.38
494.485	87.38
494.703	92.38
494.92	96.38
495.138	86.38
495.355	94.38
495.573	87.38
495.79	79.38
496.008	89.38
496.225	96.38
496.442	75.38
496.66	87.38
496.877	84.38
497.094	84.38
497.312	95.38
497.529	81.38
497.746	81.38
497.963	85.38
498.181	76.38
498.398	99.38
498.615	103.38
498.832	100.38
499.049	94.38
499.267	95.38
499.484	103.38
499.701	97.38
499.918	85.38
500.135	86.38
500.352	94.38
500.569	85.38
500.786	86.38
501.003	70.38
501.22	94.38
501.437	85.38
501.654	101.38
501.871	95.38
502.088	79.38
502.305	96.38
502.522	90.38
502.739	83.38
502.956	95.38
503.172	94.38
503.389	94.38
503.606	95.38
503.823	90.38
504.04	93.38
504.256	76.38
504.473	82.38
504.69	85.38
504.907	93.38
505.123	85.38
505.34	90.38
505.557	91.38
505.773	81.38
505.99	96.38
506.207	79.38
506.423	83.38
506.64	79.38
506.856	83.38
507.073	81.38
507.289	88.38
507.506	96.38
507.722	116.38
507.939	91.38
508.155	86.38
508.372	88.38
508.588	81.38
508.805	91.38
509.021	91.38
509.238	69.38
509.454	96.38
509.67	107.38
509.887	115.38
510.103	131.38
510.319	197.38
510.536	704.38
510.752	2204.38
510.968	628.38
511.184	137.38
511.401	109.38
511.617	91.38
511.833	88.38
512.049	97.38
512.265	92.38
512.481	82.38
512.698	76.38
512.914	90.38
513.13	75.38
513.346	102.38
513.562	84.38
513.778	78.38
513.994	90.38
514.21	107.38
514.426	112.38
514.642	127.38
514.858	122.38
515.074	162.38
515.29	447.38
515.506	1472.38
515.721	516.38
515.937	162.38
516.153	107.38
516.369	92.38
516.585	85.38
