Data from Uncirc_1988_H10_HRD10591_00020.txt Node
Date: Wed Jan 03 12:04:08 EST 2024
User: Yrep
Spectrometer: HR+D1059
Trigger mode: 1
Integration Time (sec): 1.000000E-1
Scans to average: 1
Electric dark correction enabled: true
Nonlinearity correction enabled: false
Boxcar width: 0
XAxis mode: Wavelengths
Number of Pixels in Spectrum: 2048
>>>>>Begin Spectral Data<<<<<
223.165	-21.25
223.4	-21.25
223.635	-21.25
223.869	-26.25
224.104	-22.25
224.338	-16.25
224.573	-6.25
224.808	-13.25
225.042	-8.25
225.277	-7.25
225.511	-2.25
225.746	3.75
225.98	6.75
226.215	15.75
226.449	22.75
226.683	18.75
226.918	27.75
227.152	27.75
227.387	27.75
227.621	29.75
227.856	35.75
228.09	58.75
228.324	48.75
228.559	51.75
228.793	60.75
229.027	56.75
229.262	56.75
229.496	78.75
229.73	75.75
229.964	83.75
230.199	79.75
230.433	70.75
230.667	71.75
230.901	78.75
231.136	96.75
231.37	76.75
231.604	81.75
231.838	67.75
232.072	73.75
232.306	85.75
232.541	64.75
232.775	73.75
233.009	91.75
233.243	85.75
233.477	85.75
233.711	87.75
233.945	73.75
234.179	87.75
234.413	85.75
234.647	86.75
234.881	73.75
235.115	69.75
235.349	92.75
235.583	81.75
235.817	76.75
236.051	79.75
236.285	69.75
236.519	75.75
236.753	67.75
236.987	99.75
237.221	71.75
237.455	74.75
237.689	55.75
237.922	70.75
238.156	72.75
238.39	80.75
238.624	70.75
238.858	60.75
239.091	78.75
239.325	71.75
239.559	78.75
239.793	73.75
240.027	89.75
240.26	87.75
240.494	71.75
240.728	87.75
240.961	71.75
241.195	75.75
241.429	76.75
241.662	74.75
241.896	69.75
242.13	73.75
242.363	71.75
242.597	77.75
242.83	88.75
243.064	58.75
243.298	62.75
243.531	88.75
243.765	86.75
243.998	89.75
244.232	78.75
244.465	89.75
244.699	74.75
244.932	78.75
245.166	84.75
245.399	74.75
245.633	73.75
245.866	75.75
246.099	86.75
246.333	72.75
246.566	76.75
246.8	82.75
247.033	72.75
247.266	80.75
247.5	77.75
247.733	77.75
247.966	70.75
248.2	89.75
248.433	82.75
248.666	86.75
248.899	98.75
249.133	90.75
249.366	96.75
249.599	76.75
249.832	89.75
250.066	76.75
250.299	58.75
250.532	78.75
250.765	79.75
250.998	83.75
251.231	71.75
251.465	63.75
251.698	68.75
251.931	79.75
252.164	84.75
252.397	86.75
252.63	85.75
252.863	75.75
253.096	79.75
253.329	71.75
253.562	88.75
253.795	89.75
254.028	92.75
254.261	77.75
254.494	86.75
254.727	88.75
254.96	85.75
255.193	76.75
255.426	87.75
255.659	87.75
255.892	102.75
256.124	84.75
256.357	87.75
256.59	91.75
256.823	76.75
257.056	82.75
257.289	85.75
257.521	85.75
257.754	81.75
257.987	70.75
258.22	86.75
258.452	82.75
258.685	79.75
258.918	80.75
259.151	71.75
259.383	76.75
259.616	81.75
259.849	79.75
260.081	92.75
260.314	66.75
260.547	97.75
260.779	84.75
261.012	74.75
261.244	80.75
261.477	84.75
261.71	79.75
261.942	98.75
262.175	100.75
262.407	90.75
262.64	87.75
262.872	80.75
263.105	78.75
263.337	86.75
263.57	85.75
263.802	91.75
264.035	84.75
264.267	80.75
264.499	79.75
264.732	77.75
264.964	72.75
265.197	71.75
265.429	81.75
265.661	80.75
265.894	71.75
266.126	86.75
266.358	72.75
266.591	84.75
266.823	84.75
267.055	89.75
267.287	79.75
267.52	78.75
267.752	76.75
267.984	91.75
268.216	82.75
268.448	85.75
268.681	80.75
268.913	96.75
269.145	89.75
269.377	84.75
269.609	94.75
269.841	96.75
270.073	87.75
270.306	91.75
270.538	76.75
270.77	89.75
271.002	83.75
271.234	83.75
271.466	92.75
271.698	92.75
271.93	81.75
272.162	84.75
272.394	104.75
272.626	101.75
272.858	93.75
273.09	69.75
273.322	95.75
273.553	82.75
273.785	72.75
274.017	104.75
274.249	95.75
274.481	84.75
274.713	70.75
274.945	82.75
275.176	96.75
275.408	82.75
275.64	82.75
275.872	92.75
276.104	94.75
276.335	94.75
276.567	95.75
276.799	103.75
277.031	91.75
277.262	77.75
277.494	105.75
277.726	85.75
277.957	97.75
278.189	99.75
278.421	83.75
278.652	78.75
278.884	85.75
279.115	89.75
279.347	82.75
279.579	86.75
279.81	84.75
280.042	89.75
280.273	84.75
280.505	94.75
280.736	79.75
280.968	84.75
281.199	85.75
281.431	81.75
281.662	88.75
281.894	83.75
282.125	91.75
282.356	126.75
282.588	121.75
282.819	105.75
283.051	89.75
283.282	95.75
283.513	86.75
283.745	86.75
283.976	89.75
284.207	89.75
284.439	87.75
284.67	101.75
284.901	95.75
285.132	79.75
285.364	83.75
285.595	84.75
285.826	66.75
286.057	83.75
286.288	77.75
286.52	104.75
286.751	85.75
286.982	77.75
287.213	84.75
287.444	76.75
287.675	80.75
287.906	105.75
288.138	78.75
288.369	90.75
288.6	88.75
288.831	77.75
289.062	89.75
289.293	89.75
289.524	75.75
289.755	88.75
289.986	85.75
290.217	76.75
290.448	84.75
290.679	82.75
290.91	82.75
291.141	78.75
291.371	79.75
291.602	79.75
291.833	95.75
292.064	70.75
292.295	83.75
292.526	76.75
292.757	81.75
292.987	102.75
293.218	98.75
293.449	84.75
293.68	86.75
293.91	93.75
294.141	90.75
294.372	85.75
294.603	99.75
294.833	90.75
295.064	93.75
295.295	100.75
295.525	80.75
295.756	98.75
295.987	114.75
296.217	126.75
296.448	109.75
296.679	95.75
296.909	85.75
297.14	98.75
297.37	96.75
297.601	78.75
297.831	94.75
298.062	90.75
298.292	73.75
298.523	85.75
298.753	85.75
298.984	96.75
299.214	86.75
299.445	92.75
299.675	95.75
299.905	96.75
300.136	79.75
300.366	90.75
300.597	89.75
300.827	90.75
301.057	95.75
301.288	108.75
301.518	109.75
301.748	85.75
301.979	95.75
302.209	86.75
302.439	73.75
302.669	89.75
302.9	85.75
303.13	86.75
303.36	94.75
303.59	100.75
303.82	108.75
304.051	98.75
304.281	81.75
304.511	94.75
304.741	87.75
304.971	86.75
305.201	80.75
305.431	85.75
305.661	100.75
305.891	102.75
306.121	88.75
306.352	100.75
306.582	96.75
306.812	104.75
307.042	100.75
307.272	92.75
307.502	102.75
307.731	85.75
307.961	83.75
308.191	94.75
308.421	96.75
308.651	94.75
308.881	101.75
309.111	94.75
309.341	95.75
309.571	96.75
309.8	100.75
310.03	88.75
310.26	89.75
310.49	94.75
310.72	90.75
310.949	99.75
311.179	96.75
311.409	91.75
311.639	94.75
311.868	102.75
312.098	100.75
312.328	85.75
312.557	98.75
312.787	92.75
313.017	95.75
313.246	97.75
313.476	99.75
313.706	97.75
313.935	100.75
314.165	89.75
314.394	104.75
314.624	79.75
314.853	89.75
315.083	94.75
315.312	85.75
315.542	92.75
315.771	94.75
316.001	97.75
316.23	93.75
316.46	90.75
316.689	83.75
316.919	89.75
317.148	91.75
317.377	88.75
317.607	88.75
317.836	73.75
318.065	105.75
318.295	78.75
318.524	82.75
318.753	97.75
318.983	90.75
319.212	99.75
319.441	105.75
319.67	96.75
319.9	89.75
320.129	103.75
320.358	106.75
320.587	95.75
320.816	97.75
321.046	92.75
321.275	89.75
321.504	84.75
321.733	93.75
321.962	95.75
322.191	85.75
322.42	101.75
322.649	105.75
322.878	113.75
323.108	103.75
323.337	121.75
323.566	123.75
323.795	117.75
324.024	186.75
324.253	348.75
324.482	734.75
324.71	1453.75
324.939	1892.75
325.168	685.75
325.397	224.75
325.626	149.75
325.855	137.75
326.084	116.75
326.313	118.75
326.542	148.75
326.77	205.75
326.999	410.75
327.228	823.75
327.457	1481.75
327.686	1177.75
327.914	319.75
328.143	160.75
328.372	136.75
328.6	120.75
328.829	109.75
329.058	112.75
329.287	113.75
329.515	110.75
329.744	97.75
329.972	93.75
330.201	97.75
330.43	102.75
330.658	117.75
330.887	136.75
331.115	114.75
331.344	101.75
331.572	95.75
331.801	103.75
332.03	92.75
332.258	81.75
332.486	88.75
332.715	92.75
332.943	96.75
333.172	88.75
333.4	97.75
333.629	105.75
333.857	113.75
334.085	114.75
334.314	86.75
334.542	92.75
334.771	84.75
334.999	81.75
335.227	92.75
335.455	96.75
335.684	92.75
335.912	83.75
336.14	99.75
336.369	108.75
336.597	90.75
336.825	89.75
337.053	83.75
337.281	97.75
337.51	86.75
337.738	98.75
337.966	83.75
338.194	89.75
338.422	88.75
338.65	88.75
338.878	84.75
339.106	80.75
339.334	97.75
339.562	89.75
339.79	77.75
340.018	87.75
340.246	92.75
340.474	94.75
340.702	97.75
340.93	84.75
341.158	108.75
341.386	88.75
341.614	90.75
341.842	88.75
342.07	84.75
342.298	84.75
342.526	87.75
342.754	87.75
342.981	82.75
343.209	87.75
343.437	94.75
343.665	82.75
343.893	87.75
344.12	79.75
344.348	82.75
344.576	97.75
344.804	89.75
345.031	98.75
345.259	93.75
345.487	72.75
345.714	86.75
345.942	95.75
346.17	83.75
346.397	81.75
346.625	96.75
346.853	81.75
347.08	68.75
347.308	94.75
347.535	100.75
347.763	94.75
347.99	89.75
348.218	105.75
348.445	103.75
348.673	96.75
348.9	98.75
349.128	94.75
349.355	109.75
349.583	97.75
349.81	93.75
350.037	85.75
350.265	99.75
350.492	94.75
350.72	111.75
350.947	101.75
351.174	97.75
351.402	98.75
351.629	102.75
351.856	101.75
352.083	89.75
352.311	97.75
352.538	106.75
352.765	103.75
352.992	102.75
353.22	110.75
353.447	93.75
353.674	92.75
353.901	97.75
354.128	102.75
354.355	85.75
354.583	102.75
354.81	98.75
355.037	106.75
355.264	86.75
355.491	88.75
355.718	86.75
355.945	88.75
356.172	88.75
356.399	91.75
356.626	90.75
356.853	108.75
357.08	98.75
357.307	101.75
357.534	99.75
357.761	90.75
357.988	79.75
358.215	94.75
358.441	81.75
358.668	90.75
358.895	82.75
359.122	101.75
359.349	87.75
359.576	100.75
359.802	92.75
360.029	104.75
360.256	111.75
360.483	107.75
360.709	99.75
360.936	85.75
361.163	84.75
361.39	97.75
361.616	92.75
361.843	90.75
362.07	94.75
362.296	100.75
362.523	87.75
362.749	82.75
362.976	90.75
363.203	96.75
363.429	76.75
363.656	97.75
363.882	97.75
364.109	100.75
364.335	108.75
364.562	92.75
364.788	82.75
365.015	93.75
365.241	105.75
365.468	114.75
365.694	96.75
365.92	97.75
366.147	98.75
366.373	81.75
366.599	86.75
366.826	88.75
367.052	90.75
367.278	81.75
367.505	85.75
367.731	100.75
367.957	95.75
368.184	91.75
368.41	101.75
368.636	104.75
368.862	119.75
369.089	98.75
369.315	74.75
369.541	92.75
369.767	82.75
369.993	94.75
370.219	84.75
370.445	97.75
370.672	94.75
370.898	105.75
371.124	101.75
371.35	87.75
371.576	93.75
371.802	91.75
372.028	78.75
372.254	90.75
372.48	96.75
372.706	94.75
372.932	88.75
373.158	73.75
373.384	93.75
373.61	101.75
373.835	78.75
374.061	81.75
374.287	94.75
374.513	81.75
374.739	88.75
374.965	92.75
375.191	101.75
375.416	94.75
375.642	102.75
375.868	83.75
376.094	98.75
376.319	106.75
376.545	83.75
376.771	79.75
376.997	89.75
377.222	100.75
377.448	112.75
377.674	81.75
377.899	89.75
378.125	87.75
378.35	102.75
378.576	87.75
378.802	84.75
379.027	95.75
379.253	105.75
379.478	98.75
379.704	101.75
379.929	97.75
380.155	87.75
380.38	82.75
380.606	99.75
380.831	96.75
381.057	89.75
381.282	73.75
381.507	92.75
381.733	93.75
381.958	101.75
382.184	93.75
382.409	97.75
382.634	100.75
382.86	97.75
383.085	92.75
383.31	104.75
383.535	98.75
383.761	76.75
383.986	108.75
384.211	85.75
384.436	92.75
384.662	94.75
384.887	109.75
385.112	92.75
385.337	98.75
385.562	92.75
385.787	90.75
386.013	111.75
386.238	113.75
386.463	109.75
386.688	112.75
386.913	103.75
387.138	104.75
387.363	97.75
387.588	83.75
387.813	87.75
388.038	104.75
388.263	110.75
388.488	114.75
388.713	91.75
388.938	103.75
389.163	104.75
389.387	82.75
389.612	97.75
389.837	102.75
390.062	84.75
390.287	91.75
390.512	97.75
390.736	99.75
390.961	89.75
391.186	109.75
391.411	87.75
391.636	77.75
391.86	96.75
392.085	79.75
392.31	95.75
392.534	71.75
392.759	97.75
392.984	88.75
393.208	109.75
393.433	97.75
393.658	85.75
393.882	82.75
394.107	87.75
394.331	99.75
394.556	86.75
394.78	103.75
395.005	95.75
395.229	82.75
395.454	96.75
395.678	88.75
395.903	97.75
396.127	81.75
396.352	88.75
396.576	85.75
396.801	85.75
397.025	98.75
397.249	86.75
397.474	83.75
397.698	88.75
397.922	88.75
398.147	101.75
398.371	77.75
398.595	92.75
398.82	89.75
399.044	92.75
399.268	86.75
399.492	96.75
399.717	87.75
399.941	80.75
400.165	93.75
400.389	97.75
400.613	83.75
400.837	88.75
401.062	65.75
401.286	78.75
401.51	97.75
401.734	89.75
401.958	96.75
402.182	116.75
402.406	146.75
402.63	119.75
402.854	94.75
403.078	92.75
403.302	85.75
403.526	84.75
403.75	93.75
403.974	84.75
404.198	78.75
404.422	98.75
404.645	80.75
404.869	94.75
405.093	111.75
405.317	95.75
405.541	73.75
405.765	106.75
405.988	111.75
406.212	136.75
406.436	216.75
406.66	129.75
406.883	108.75
407.107	101.75
407.331	92.75
407.555	98.75
407.778	96.75
408.002	101.75
408.226	101.75
408.449	97.75
408.673	85.75
408.896	92.75
409.12	85.75
409.344	90.75
409.567	81.75
409.791	83.75
410.014	97.75
410.238	92.75
410.461	88.75
410.685	94.75
410.908	112.75
411.132	104.75
411.355	83.75
411.578	87.75
411.802	86.75
412.025	87.75
412.249	81.75
412.472	77.75
412.695	69.75
412.919	96.75
413.142	86.75
413.365	87.75
413.589	96.75
413.812	81.75
414.035	92.75
414.258	98.75
414.482	93.75
414.705	85.75
414.928	94.75
415.151	102.75
415.374	100.75
415.597	97.75
415.821	86.75
416.044	88.75
416.267	86.75
416.49	92.75
416.713	87.75
416.936	92.75
417.159	92.75
417.382	93.75
417.605	86.75
417.828	94.75
418.051	78.75
418.274	90.75
418.497	78.75
418.72	84.75
418.943	104.75
419.166	90.75
419.389	88.75
419.611	96.75
419.834	102.75
420.057	93.75
420.28	96.75
420.503	93.75
420.726	104.75
420.948	87.75
421.171	99.75
421.394	96.75
421.617	79.75
421.839	88.75
422.062	97.75
422.285	96.75
422.507	102.75
422.73	102.75
422.953	93.75
423.175	91.75
423.398	80.75
423.621	87.75
423.843	96.75
424.066	94.75
424.288	94.75
424.511	85.75
424.733	96.75
424.956	105.75
425.178	84.75
425.401	93.75
425.623	92.75
425.846	100.75
426.068	97.75
426.291	90.75
426.513	92.75
426.735	79.75
426.958	102.75
427.18	107.75
427.402	128.75
427.625	143.75
427.847	135.75
428.069	96.75
428.292	78.75
428.514	82.75
428.736	89.75
428.958	72.75
429.181	78.75
429.403	92.75
429.625	89.75
429.847	99.75
430.069	98.75
430.292	94.75
430.514	91.75
430.736	72.75
430.958	86.75
431.18	92.75
431.402	82.75
431.624	87.75
431.846	76.75
432.068	76.75
432.29	87.75
432.512	91.75
432.734	97.75
432.956	84.75
433.178	82.75
433.4	89.75
433.622	102.75
433.844	89.75
434.066	101.75
434.287	100.75
434.509	86.75
434.731	85.75
434.953	86.75
435.175	97.75
435.397	94.75
435.618	101.75
435.84	107.75
436.062	120.75
436.284	130.75
436.505	103.75
436.727	84.75
436.949	107.75
437.17	92.75
437.392	93.75
437.614	80.75
437.835	102.75
438.057	111.75
438.278	109.75
438.5	98.75
438.721	133.75
438.943	108.75
439.165	103.75
439.386	82.75
439.608	105.75
439.829	101.75
440.05	120.75
440.272	133.75
440.493	94.75
440.715	94.75
440.936	94.75
441.158	94.75
441.379	85.75
441.6	89.75
441.822	93.75
442.043	87.75
442.264	100.75
442.486	84.75
442.707	98.75
442.928	106.75
443.149	112.75
443.371	123.75
443.592	101.75
443.813	91.75
444.034	118.75
444.255	100.75
444.476	86.75
444.698	88.75
444.919	77.75
445.14	121.75
445.361	138.75
445.582	116.75
445.803	132.75
446.024	120.75
446.245	116.75
446.466	113.75
446.687	95.75
446.908	76.75
447.129	80.75
447.35	98.75
447.571	94.75
447.792	100.75
448.013	88.75
448.234	117.75
448.455	86.75
448.675	121.75
448.896	106.75
449.117	99.75
449.338	98.75
449.559	129.75
449.779	133.75
450	99.75
450.221	90.75
450.442	83.75
450.662	89.75
450.883	108.75
451.104	99.75
451.324	89.75
451.545	94.75
451.766	85.75
451.986	96.75
452.207	88.75
452.428	101.75
452.648	101.75
452.869	106.75
453.089	106.75
453.31	114.75
453.53	85.75
453.751	97.75
453.971	96.75
454.192	105.75
454.412	95.75
454.633	85.75
454.853	84.75
455.073	82.75
455.294	93.75
455.514	100.75
455.734	94.75
455.955	81.75
456.175	92.75
456.395	89.75
456.616	80.75
456.836	90.75
457.056	89.75
457.276	82.75
457.497	88.75
457.717	76.75
457.937	82.75
458.157	76.75
458.377	78.75
458.598	100.75
458.818	134.75
459.038	148.75
459.258	125.75
459.478	105.75
459.698	88.75
459.918	90.75
460.138	86.75
460.358	77.75
460.578	89.75
460.798	93.75
461.018	71.75
461.238	89.75
461.458	91.75
461.678	88.75
461.898	81.75
462.118	86.75
462.338	96.75
462.558	85.75
462.777	99.75
462.997	86.75
463.217	94.75
463.437	83.75
463.657	84.75
463.876	79.75
464.096	98.75
464.316	96.75
464.536	89.75
464.755	101.75
464.975	102.75
465.195	158.75
465.414	136.75
465.634	90.75
465.854	81.75
466.073	97.75
466.293	104.75
466.512	86.75
466.732	93.75
466.951	92.75
467.171	101.75
467.391	112.75
467.61	113.75
467.829	88.75
468.049	98.75
468.268	88.75
468.488	98.75
468.707	93.75
468.927	84.75
469.146	84.75
469.365	95.75
469.585	91.75
469.804	93.75
470.023	97.75
470.243	92.75
470.462	97.75
470.681	109.75
470.901	102.75
471.12	74.75
471.339	70.75
471.558	67.75
471.777	83.75
471.997	94.75
472.216	72.75
472.435	104.75
472.654	95.75
472.873	94.75
473.092	89.75
473.311	88.75
473.53	85.75
473.749	80.75
473.968	95.75
474.187	105.75
474.406	93.75
474.625	79.75
474.844	84.75
475.063	85.75
475.282	100.75
475.501	93.75
475.72	103.75
475.939	84.75
476.158	96.75
476.377	92.75
476.596	83.75
476.814	83.75
477.033	93.75
477.252	82.75
477.471	93.75
477.69	87.75
477.908	90.75
478.127	99.75
478.346	89.75
478.564	92.75
478.783	106.75
479.002	80.75
479.22	93.75
479.439	105.75
479.658	104.75
479.876	97.75
480.095	93.75
480.313	83.75
480.532	84.75
480.751	102.75
480.969	92.75
481.188	84.75
481.406	107.75
481.624	95.75
481.843	86.75
482.061	93.75
482.28	97.75
482.498	95.75
482.717	104.75
482.935	103.75
483.153	84.75
483.372	83.75
483.59	95.75
483.808	94.75
484.027	95.75
484.245	89.75
484.463	89.75
484.681	104.75
484.9	84.75
485.118	94.75
485.336	103.75
485.554	99.75
485.772	105.75
485.99	109.75
486.209	99.75
486.427	97.75
486.645	114.75
486.863	105.75
487.081	94.75
487.299	102.75
487.517	94.75
487.735	92.75
487.953	73.75
488.171	89.75
488.389	101.75
488.607	94.75
488.825	86.75
489.043	96.75
489.261	92.75
489.479	91.75
489.696	95.75
489.914	84.75
490.132	100.75
490.35	79.75
490.568	80.75
490.786	90.75
491.003	90.75
491.221	96.75
491.439	109.75
491.657	88.75
491.874	96.75
492.092	104.75
492.31	101.75
492.527	71.75
492.745	101.75
492.963	81.75
493.18	91.75
493.398	104.75
493.615	107.75
493.833	96.75
494.05	103.75
494.268	103.75
494.485	75.75
494.703	93.75
494.92	87.75
495.138	91.75
495.355	103.75
495.573	86.75
495.79	92.75
496.008	105.75
496.225	85.75
496.442	86.75
496.66	93.75
496.877	96.75
497.094	91.75
497.312	106.75
497.529	96.75
497.746	92.75
497.963	103.75
498.181	106.75
498.398	89.75
498.615	109.75
498.832	112.75
499.049	93.75
499.267	94.75
499.484	96.75
499.701	99.75
499.918	97.75
500.135	84.75
500.352	93.75
500.569	96.75
500.786	94.75
501.003	95.75
501.22	96.75
501.437	86.75
501.654	100.75
501.871	99.75
502.088	89.75
502.305	79.75
502.522	81.75
502.739	93.75
502.956	93.75
503.172	87.75
503.389	86.75
503.606	96.75
503.823	98.75
504.04	96.75
504.256	76.75
504.473	91.75
504.69	92.75
504.907	94.75
505.123	95.75
505.34	104.75
505.557	100.75
505.773	79.75
505.99	88.75
506.207	83.75
506.423	102.75
506.64	84.75
506.856	99.75
507.073	96.75
507.289	105.75
507.506	84.75
507.722	114.75
507.939	99.75
508.155	97.75
508.372	95.75
508.588	93.75
508.805	91.75
509.021	98.75
509.238	109.75
509.454	100.75
509.67	90.75
509.887	113.75
510.103	113.75
510.319	189.75
510.536	675.75
510.752	2034.75
510.968	558.75
511.184	149.75
511.401	108.75
511.617	99.75
511.833	89.75
512.049	88.75
512.265	101.75
512.481	93.75
512.698	95.75
512.914	87.75
513.13	99.75
513.346	96.75
513.562	98.75
513.778	102.75
513.994	96.75
514.21	98.75
514.426	97.75
514.642	116.75
514.858	115.75
515.074	164.75
515.29	400.75
515.506	1263.75
515.721	453.75
515.937	140.75
