Data from Uncirc_1988_H10_HRD10591_00083.txt Node
Date: Wed Jan 03 12:04:21 EST 2024
User: Yrep
Spectrometer: HR+D1059
Trigger mode: 1
Integration Time (sec): 1.000000E-1
Scans to average: 1
Electric dark correction enabled: true
Nonlinearity correction enabled: false
Boxcar width: 0
XAxis mode: Wavelengths
Number of Pixels in Spectrum: 2048
>>>>>Begin Spectral Data<<<<<
223.165	-22.94
223.4	-22.94
223.635	-22.94
223.869	-14.94
224.104	-21.94
224.338	-22.94
224.573	-7.94
224.808	-18.94
225.042	-9.94
225.277	-9.94
225.511	7.06
225.746	9.06
225.98	2.06
226.215	20.06
226.449	5.06
226.683	22.06
226.918	35.06
227.152	29.06
227.387	34.06
227.621	31.06
227.856	35.06
228.09	55.06
228.324	46.06
228.559	60.06
228.793	58.06
229.027	72.06
229.262	64.06
229.496	67.06
229.73	89.06
229.964	95.06
230.199	74.06
230.433	92.06
230.667	65.06
230.901	68.06
231.136	82.06
231.37	85.06
231.604	82.06
231.838	87.06
232.072	62.06
232.306	101.06
232.541	80.06
232.775	84.06
233.009	84.06
233.243	71.06
233.477	73.06
233.711	81.06
233.945	65.06
234.179	86.06
234.413	97.06
234.647	69.06
234.881	79.06
235.115	84.06
235.349	87.06
235.583	87.06
235.817	79.06
236.051	69.06
236.285	77.06
236.519	72.06
236.753	79.06
236.987	79.06
237.221	78.06
237.455	88.06
237.689	90.06
237.922	62.06
238.156	65.06
238.39	77.06
238.624	68.06
238.858	88.06
239.091	79.06
239.325	71.06
239.559	90.06
239.793	86.06
240.027	68.06
240.26	70.06
240.494	87.06
240.728	80.06
240.961	77.06
241.195	82.06
241.429	61.06
241.662	63.06
241.896	81.06
242.13	53.06
242.363	95.06
242.597	82.06
242.83	79.06
243.064	70.06
243.298	73.06
243.531	64.06
243.765	93.06
243.998	86.06
244.232	96.06
244.465	87.06
244.699	83.06
244.932	77.06
245.166	91.06
245.399	70.06
245.633	72.06
245.866	69.06
246.099	73.06
246.333	77.06
246.566	73.06
246.8	73.06
247.033	70.06
247.266	80.06
247.5	83.06
247.733	74.06
247.966	71.06
248.2	85.06
248.433	91.06
248.666	81.06
248.899	99.06
249.133	94.06
249.366	102.06
249.599	114.06
249.832	79.06
250.066	65.06
250.299	79.06
250.532	70.06
250.765	85.06
250.998	75.06
251.231	79.06
251.465	101.06
251.698	77.06
251.931	77.06
252.164	74.06
252.397	79.06
252.63	81.06
252.863	84.06
253.096	83.06
253.329	87.06
253.562	86.06
253.795	73.06
254.028	99.06
254.261	69.06
254.494	89.06
254.727	85.06
254.96	84.06
255.193	90.06
255.426	65.06
255.659	78.06
255.892	82.06
256.124	88.06
256.357	89.06
256.59	79.06
256.823	81.06
257.056	94.06
257.289	83.06
257.521	90.06
257.754	89.06
257.987	78.06
258.22	89.06
258.452	85.06
258.685	80.06
258.918	90.06
259.151	89.06
259.383	81.06
259.616	97.06
259.849	94.06
260.081	86.06
260.314	81.06
260.547	79.06
260.779	71.06
261.012	73.06
261.244	100.06
261.477	95.06
261.71	86.06
261.942	110.06
262.175	121.06
262.407	87.06
262.64	74.06
262.872	80.06
263.105	90.06
263.337	93.06
263.57	92.06
263.802	97.06
264.035	88.06
264.267	79.06
264.499	84.06
264.732	88.06
264.964	87.06
265.197	97.06
265.429	118.06
265.661	95.06
265.894	93.06
266.126	95.06
266.358	88.06
266.591	74.06
266.823	94.06
267.055	91.06
267.287	90.06
267.52	84.06
267.752	92.06
267.984	79.06
268.216	86.06
268.448	86.06
268.681	86.06
268.913	90.06
269.145	91.06
269.377	89.06
269.609	83.06
269.841	85.06
270.073	73.06
270.306	92.06
270.538	87.06
270.77	95.06
271.002	79.06
271.234	74.06
271.466	95.06
271.698	87.06
271.93	67.06
272.162	87.06
272.394	78.06
272.626	82.06
272.858	81.06
273.09	82.06
273.322	83.06
273.553	92.06
273.785	89.06
274.017	68.06
274.249	90.06
274.481	90.06
274.713	84.06
274.945	80.06
275.176	87.06
275.408	83.06
275.64	79.06
275.872	87.06
276.104	70.06
276.335	94.06
276.567	92.06
276.799	112.06
277.031	94.06
277.262	96.06
277.494	106.06
277.726	86.06
277.957	93.06
278.189	83.06
278.421	86.06
278.652	91.06
278.884	96.06
279.115	88.06
279.347	91.06
279.579	80.06
279.81	85.06
280.042	91.06
280.273	95.06
280.505	79.06
280.736	90.06
280.968	98.06
281.199	82.06
281.431	81.06
281.662	85.06
281.894	96.06
282.125	103.06
282.356	128.06
282.588	149.06
282.819	128.06
283.051	85.06
283.282	96.06
283.513	74.06
283.745	90.06
283.976	91.06
284.207	86.06
284.439	98.06
284.67	85.06
284.901	90.06
285.132	84.06
285.364	84.06
285.595	94.06
285.826	87.06
286.057	77.06
286.288	75.06
286.52	94.06
286.751	85.06
286.982	87.06
287.213	86.06
287.444	91.06
287.675	84.06
287.906	84.06
288.138	84.06
288.369	97.06
288.6	87.06
288.831	74.06
289.062	90.06
289.293	98.06
289.524	82.06
289.755	81.06
289.986	96.06
290.217	102.06
290.448	91.06
290.679	75.06
290.91	61.06
291.141	80.06
291.371	88.06
291.602	99.06
291.833	88.06
292.064	91.06
292.295	78.06
292.526	86.06
292.757	83.06
292.987	80.06
293.218	84.06
293.449	95.06
293.68	87.06
293.91	99.06
294.141	90.06
294.372	90.06
294.603	105.06
294.833	92.06
295.064	94.06
295.295	93.06
295.525	90.06
295.756	106.06
295.987	118.06
296.217	139.06
296.448	136.06
296.679	89.06
296.909	92.06
297.14	85.06
297.37	92.06
297.601	95.06
297.831	100.06
298.062	95.06
298.292	104.06
298.523	98.06
298.753	95.06
298.984	86.06
299.214	106.06
299.445	87.06
299.675	83.06
299.905	102.06
300.136	106.06
300.366	87.06
300.597	91.06
300.827	110.06
301.057	87.06
301.288	102.06
301.518	100.06
301.748	89.06
301.979	103.06
302.209	108.06
302.439	96.06
302.669	89.06
302.9	87.06
303.13	87.06
303.36	102.06
303.59	100.06
303.82	112.06
304.051	94.06
304.281	100.06
304.511	85.06
304.741	91.06
304.971	94.06
305.201	81.06
305.431	84.06
305.661	74.06
305.891	88.06
306.121	93.06
306.352	86.06
306.582	108.06
306.812	88.06
307.042	89.06
307.272	102.06
307.502	99.06
307.731	100.06
307.961	93.06
308.191	84.06
308.421	93.06
308.651	96.06
308.881	94.06
309.111	92.06
309.341	85.06
309.571	100.06
309.8	96.06
310.03	91.06
310.26	86.06
310.49	99.06
310.72	96.06
310.949	107.06
311.179	100.06
311.409	94.06
311.639	103.06
311.868	100.06
312.098	87.06
312.328	101.06
312.557	107.06
312.787	116.06
313.017	111.06
313.246	82.06
313.476	94.06
313.706	96.06
313.935	88.06
314.165	102.06
314.394	101.06
314.624	110.06
314.853	91.06
315.083	93.06
315.312	96.06
315.542	97.06
315.771	101.06
316.001	90.06
316.23	101.06
316.46	97.06
316.689	96.06
316.919	97.06
317.148	101.06
317.377	95.06
317.607	97.06
317.836	90.06
318.065	91.06
318.295	88.06
318.524	88.06
318.753	90.06
318.983	102.06
319.212	96.06
319.441	120.06
319.67	104.06
319.9	93.06
320.129	88.06
320.358	82.06
320.587	99.06
320.816	101.06
321.046	101.06
321.275	98.06
321.504	110.06
321.733	95.06
321.962	97.06
322.191	95.06
322.42	110.06
322.649	97.06
322.878	100.06
323.108	116.06
323.337	114.06
323.566	130.06
323.795	175.06
324.024	230.06
324.253	408.06
324.482	880.06
324.71	1809.06
324.939	2440.06
325.168	875.06
325.397	246.06
325.626	158.06
325.855	119.06
326.084	134.06
326.313	148.06
326.542	161.06
326.77	235.06
326.999	478.06
327.228	998.06
327.457	1822.06
327.686	1449.06
327.914	376.06
328.143	210.06
328.372	171.06
328.6	123.06
328.829	131.06
329.058	137.06
329.287	129.06
329.515	116.06
329.744	105.06
329.972	106.06
330.201	117.06
330.43	145.06
330.658	157.06
330.887	147.06
331.115	119.06
331.344	82.06
331.572	101.06
331.801	110.06
332.03	102.06
332.258	106.06
332.486	93.06
332.715	96.06
332.943	104.06
333.172	96.06
333.4	111.06
333.629	109.06
333.857	113.06
334.085	102.06
334.314	110.06
334.542	134.06
334.771	149.06
334.999	95.06
335.227	101.06
335.455	79.06
335.684	82.06
335.912	92.06
336.14	94.06
336.369	89.06
336.597	101.06
336.825	107.06
337.053	91.06
337.281	101.06
337.51	96.06
337.738	99.06
337.966	105.06
338.194	94.06
338.422	99.06
338.65	89.06
338.878	96.06
339.106	84.06
339.334	95.06
339.562	88.06
339.79	80.06
340.018	87.06
340.246	88.06
340.474	106.06
340.702	89.06
340.93	98.06
341.158	101.06
341.386	93.06
341.614	84.06
341.842	101.06
342.07	94.06
342.298	94.06
342.526	101.06
342.754	102.06
342.981	85.06
343.209	102.06
343.437	101.06
343.665	87.06
343.893	99.06
344.12	105.06
344.348	86.06
344.576	82.06
344.804	91.06
345.031	99.06
345.259	93.06
345.487	98.06
345.714	89.06
345.942	90.06
346.17	93.06
346.397	104.06
346.625	95.06
346.853	107.06
347.08	110.06
347.308	94.06
347.535	93.06
347.763	105.06
347.99	105.06
348.218	97.06
348.445	103.06
348.673	93.06
348.9	88.06
349.128	103.06
349.355	86.06
349.583	105.06
349.81	90.06
350.037	112.06
350.265	106.06
350.492	89.06
350.72	90.06
350.947	103.06
351.174	106.06
351.402	118.06
351.629	107.06
351.856	98.06
352.083	96.06
352.311	105.06
352.538	126.06
352.765	108.06
352.992	124.06
353.22	107.06
353.447	93.06
353.674	101.06
353.901	97.06
354.128	103.06
354.355	98.06
354.583	114.06
354.81	75.06
355.037	89.06
355.264	90.06
355.491	82.06
355.718	71.06
355.945	96.06
356.172	95.06
356.399	88.06
356.626	97.06
356.853	96.06
357.08	102.06
357.307	105.06
357.534	86.06
357.761	85.06
357.988	105.06
358.215	103.06
358.441	88.06
358.668	83.06
358.895	94.06
359.122	94.06
359.349	111.06
359.576	91.06
359.802	106.06
360.029	125.06
360.256	122.06
360.483	103.06
360.709	98.06
360.936	109.06
361.163	108.06
361.39	84.06
361.616	95.06
361.843	97.06
362.07	88.06
362.296	99.06
362.523	104.06
362.749	96.06
362.976	80.06
363.203	85.06
363.429	98.06
363.656	81.06
363.882	95.06
364.109	98.06
364.335	97.06
364.562	96.06
364.788	93.06
365.015	99.06
365.241	90.06
365.468	109.06
365.694	113.06
365.92	101.06
366.147	96.06
366.373	102.06
366.599	90.06
366.826	100.06
367.052	85.06
367.278	85.06
367.505	87.06
367.731	94.06
367.957	86.06
368.184	84.06
368.41	103.06
368.636	122.06
368.862	133.06
369.089	99.06
369.315	91.06
369.541	93.06
369.767	94.06
369.993	86.06
370.219	78.06
370.445	94.06
370.672	105.06
370.898	77.06
371.124	100.06
371.35	87.06
371.576	93.06
371.802	90.06
372.028	84.06
372.254	90.06
372.48	97.06
372.706	87.06
372.932	81.06
373.158	82.06
373.384	94.06
373.61	93.06
373.835	91.06
374.061	92.06
374.287	95.06
374.513	90.06
374.739	96.06
374.965	78.06
375.191	87.06
375.416	100.06
375.642	78.06
375.868	91.06
376.094	90.06
376.319	88.06
376.545	88.06
376.771	88.06
376.997	87.06
377.222	97.06
377.448	105.06
377.674	107.06
377.899	90.06
378.125	103.06
378.35	95.06
378.576	88.06
378.802	89.06
379.027	87.06
379.253	101.06
379.478	83.06
379.704	86.06
379.929	76.06
380.155	96.06
380.38	89.06
380.606	100.06
380.831	87.06
381.057	100.06
381.282	94.06
381.507	100.06
381.733	94.06
381.958	103.06
382.184	104.06
382.409	95.06
382.634	94.06
382.86	93.06
383.085	89.06
383.31	100.06
383.535	88.06
383.761	111.06
383.986	99.06
384.211	94.06
384.436	102.06
384.662	91.06
384.887	109.06
385.112	99.06
385.337	91.06
385.562	90.06
385.787	96.06
386.013	103.06
386.238	106.06
386.463	112.06
386.688	107.06
386.913	95.06
387.138	96.06
387.363	106.06
387.588	102.06
387.813	113.06
388.038	98.06
388.263	100.06
388.488	101.06
388.713	92.06
388.938	89.06
389.163	81.06
389.387	96.06
389.612	109.06
389.837	82.06
390.062	89.06
390.287	97.06
390.512	78.06
390.736	99.06
390.961	85.06
391.186	98.06
391.411	97.06
391.636	104.06
391.86	85.06
392.085	93.06
392.31	96.06
392.534	94.06
392.759	81.06
392.984	83.06
393.208	86.06
393.433	92.06
393.658	91.06
393.882	97.06
394.107	89.06
394.331	81.06
394.556	84.06
394.78	97.06
395.005	101.06
395.229	92.06
395.454	98.06
395.678	84.06
395.903	87.06
396.127	91.06
396.352	93.06
396.576	91.06
396.801	105.06
397.025	97.06
397.249	77.06
397.474	89.06
397.698	96.06
397.922	88.06
398.147	89.06
398.371	82.06
398.595	92.06
398.82	89.06
399.044	96.06
399.268	83.06
399.492	90.06
399.717	93.06
399.941	83.06
400.165	100.06
400.389	89.06
400.613	76.06
400.837	80.06
401.062	83.06
401.286	92.06
401.51	92.06
401.734	89.06
401.958	99.06
402.182	125.06
402.406	161.06
402.63	103.06
402.854	103.06
403.078	97.06
403.302	78.06
403.526	86.06
403.75	85.06
403.974	94.06
404.198	103.06
404.422	101.06
404.645	94.06
404.869	103.06
405.093	101.06
405.317	113.06
405.541	101.06
405.765	107.06
405.988	120.06
406.212	177.06
406.436	238.06
406.66	135.06
406.883	85.06
407.107	83.06
407.331	94.06
407.555	90.06
407.778	90.06
408.002	101.06
408.226	95.06
408.449	71.06
408.673	99.06
408.896	101.06
409.12	108.06
409.344	104.06
409.567	83.06
409.791	103.06
410.014	93.06
410.238	93.06
410.461	87.06
410.685	84.06
410.908	112.06
411.132	100.06
411.355	94.06
411.578	98.06
411.802	86.06
412.025	86.06
412.249	95.06
412.472	95.06
412.695	100.06
412.919	98.06
413.142	85.06
413.365	92.06
413.589	102.06
413.812	86.06
414.035	93.06
414.258	93.06
414.482	81.06
414.705	101.06
414.928	86.06
415.151	90.06
415.374	91.06
415.597	112.06
415.821	85.06
416.044	97.06
416.267	88.06
416.49	91.06
416.713	85.06
416.936	84.06
417.159	89.06
417.382	79.06
417.605	102.06
417.828	97.06
418.051	111.06
418.274	86.06
418.497	93.06
418.72	92.06
418.943	91.06
419.166	83.06
419.389	92.06
419.611	96.06
419.834	91.06
420.057	86.06
420.28	91.06
420.503	98.06
420.726	87.06
420.948	85.06
421.171	90.06
421.394	108.06
421.617	93.06
421.839	101.06
422.062	98.06
422.285	98.06
422.507	114.06
422.73	102.06
422.953	101.06
423.175	88.06
423.398	82.06
423.621	81.06
423.843	95.06
424.066	106.06
424.288	82.06
424.511	100.06
424.733	93.06
424.956	106.06
425.178	97.06
425.401	98.06
425.623	99.06
425.846	93.06
426.068	96.06
426.291	87.06
426.513	82.06
426.735	97.06
426.958	103.06
427.18	96.06
427.402	132.06
427.625	179.06
427.847	146.06
428.069	125.06
428.292	83.06
428.514	113.06
428.736	86.06
428.958	70.06
429.181	92.06
429.403	85.06
429.625	87.06
429.847	99.06
430.069	98.06
430.292	77.06
430.514	83.06
430.736	81.06
430.958	94.06
431.18	87.06
431.402	85.06
431.624	92.06
431.846	93.06
432.068	83.06
432.29	100.06
432.512	89.06
432.734	87.06
432.956	93.06
433.178	107.06
433.4	105.06
433.622	97.06
433.844	88.06
434.066	95.06
434.287	96.06
434.509	92.06
434.731	74.06
434.953	88.06
435.175	91.06
435.397	90.06
435.618	104.06
435.84	107.06
436.062	127.06
436.284	121.06
436.505	113.06
436.727	99.06
436.949	102.06
437.17	97.06
437.392	89.06
437.614	92.06
437.835	102.06
438.057	113.06
438.278	100.06
438.5	114.06
438.721	121.06
438.943	93.06
439.165	79.06
439.386	89.06
439.608	87.06
439.829	103.06
440.05	121.06
440.272	136.06
440.493	100.06
440.715	86.06
440.936	99.06
441.158	77.06
441.379	90.06
441.6	90.06
441.822	104.06
442.043	88.06
442.264	103.06
442.486	109.06
442.707	102.06
442.928	106.06
443.149	138.06
443.371	137.06
443.592	110.06
443.813	103.06
444.034	107.06
444.255	97.06
444.476	83.06
444.698	97.06
444.919	98.06
445.14	127.06
445.361	121.06
445.582	121.06
445.803	158.06
446.024	138.06
446.245	148.06
446.466	98.06
446.687	91.06
446.908	104.06
447.129	101.06
447.35	93.06
447.571	89.06
447.792	97.06
448.013	89.06
448.234	98.06
448.455	108.06
448.675	116.06
448.896	121.06
449.117	101.06
449.338	110.06
449.559	135.06
449.779	140.06
450	87.06
450.221	89.06
450.442	89.06
450.662	89.06
450.883	111.06
451.104	112.06
451.324	91.06
451.545	98.06
451.766	93.06
451.986	92.06
452.207	90.06
452.428	107.06
452.648	106.06
452.869	118.06
453.089	108.06
453.31	115.06
453.53	99.06
453.751	94.06
453.971	101.06
454.192	111.06
454.412	79.06
454.633	95.06
454.853	84.06
455.073	72.06
455.294	84.06
455.514	100.06
455.734	93.06
455.955	99.06
456.175	84.06
456.395	91.06
456.616	83.06
456.836	77.06
457.056	92.06
457.276	95.06
457.497	92.06
457.717	87.06
457.937	91.06
458.157	90.06
458.377	98.06
458.598	109.06
458.818	149.06
459.038	176.06
459.258	115.06
459.478	77.06
459.698	90.06
459.918	89.06
460.138	81.06
460.358	96.06
460.578	90.06
460.798	91.06
461.018	82.06
461.238	98.06
461.458	82.06
461.678	89.06
461.898	88.06
462.118	79.06
462.338	97.06
462.558	80.06
462.777	103.06
462.997	92.06
463.217	81.06
463.437	93.06
463.657	75.06
463.876	87.06
464.096	82.06
464.316	106.06
464.536	109.06
464.755	89.06
464.975	102.06
465.195	174.06
465.414	169.06
465.634	105.06
465.854	87.06
466.073	83.06
466.293	79.06
466.512	82.06
466.732	100.06
466.951	88.06
467.171	88.06
467.391	97.06
467.61	110.06
467.829	98.06
468.049	99.06
468.268	108.06
468.488	87.06
468.707	74.06
468.927	91.06
469.146	90.06
469.365	108.06
469.585	89.06
469.804	95.06
470.023	107.06
470.243	94.06
470.462	117.06
470.681	106.06
470.901	76.06
471.12	93.06
471.339	71.06
471.558	84.06
471.777	86.06
471.997	98.06
472.216	114.06
472.435	161.06
472.654	83.06
472.873	89.06
473.092	91.06
473.311	83.06
473.53	95.06
473.749	93.06
473.968	99.06
474.187	107.06
474.406	108.06
474.625	100.06
474.844	79.06
475.063	96.06
475.282	83.06
475.501	77.06
475.72	77.06
475.939	107.06
476.158	87.06
476.377	82.06
476.596	79.06
476.814	98.06
477.033	104.06
477.252	87.06
477.471	88.06
477.69	96.06
477.908	110.06
478.127	90.06
478.346	93.06
478.564	90.06
478.783	100.06
479.002	89.06
479.22	82.06
479.439	113.06
479.658	105.06
479.876	95.06
480.095	98.06
480.313	102.06
480.532	90.06
480.751	96.06
480.969	114.06
481.188	228.06
481.406	152.06
481.624	95.06
481.843	83.06
482.061	75.06
482.28	81.06
482.498	73.06
482.717	77.06
482.935	90.06
483.153	99.06
483.372	95.06
483.59	92.06
483.808	92.06
484.027	83.06
484.245	89.06
484.463	82.06
484.681	89.06
484.9	83.06
485.118	109.06
485.336	106.06
485.554	99.06
485.772	103.06
485.99	87.06
486.209	114.06
486.427	98.06
486.645	110.06
486.863	109.06
487.081	89.06
487.299	90.06
487.517	101.06
487.735	97.06
487.953	102.06
488.171	107.06
488.389	95.06
488.607	89.06
488.825	98.06
489.043	95.06
489.261	97.06
489.479	86.06
489.696	88.06
489.914	81.06
490.132	87.06
490.35	93.06
490.568	89.06
490.786	88.06
491.003	89.06
491.221	84.06
491.439	89.06
491.657	91.06
491.874	101.06
492.092	97.06
492.31	97.06
492.527	86.06
492.745	85.06
492.963	95.06
493.18	101.06
493.398	106.06
493.615	90.06
493.833	92.06
494.05	93.06
494.268	94.06
494.485	81.06
494.703	83.06
494.92	95.06
495.138	81.06
495.355	86.06
495.573	101.06
495.79	87.06
496.008	93.06
496.225	82.06
496.442	92.06
496.66	102.06
496.877	98.06
497.094	87.06
497.312	94.06
497.529	87.06
497.746	78.06
497.963	96.06
498.181	92.06
498.398	97.06
498.615	108.06
498.832	107.06
499.049	89.06
499.267	96.06
499.484	87.06
499.701	90.06
499.918	98.06
500.135	83.06
500.352	73.06
500.569	90.06
500.786	103.06
501.003	100.06
501.22	105.06
501.437	102.06
501.654	103.06
501.871	100.06
502.088	98.06
502.305	107.06
502.522	93.06
502.739	94.06
502.956	78.06
503.172	93.06
503.389	99.06
503.606	108.06
503.823	99.06
504.04	96.06
504.256	106.06
504.473	95.06
504.69	93.06
504.907	97.06
505.123	100.06
505.34	87.06
505.557	99.06
505.773	102.06
505.99	93.06
506.207	87.06
506.423	101.06
506.64	83.06
506.856	104.06
507.073	85.06
507.289	93.06
507.506	91.06
507.722	103.06
507.939	114.06
508.155	101.06
508.372	111.06
508.588	105.06
508.805	91.06
509.021	102.06
509.238	106.06
509.454	98.06
509.67	102.06
509.887	106.06
510.103	151.06
510.319	239.06
510.536	797.06
510.752	2585.06
510.968	711.06
511.184	157.06
511.401	115.06
511.617	107.06
511.833	95.06
512.049	100.06
512.265	88.06
512.481	90.06
512.698	86.06
512.914	87.06
513.13	104.06
513.346	96.06
513.562	101.06
513.778	94.06
513.994	112.06
514.21	105.06
514.426	116.06
514.642	138.06
