Data from Uncirc_1988_H10_HRD10591_00051.txt Node
Date: Wed Jan 03 12:04:14 EST 2024
User: Yrep
Spectrometer: HR+D1059
Trigger mode: 1
Integration Time (sec): 1.000000E-1
Scans to average: 1
Electric dark correction enabled: true
Nonlinearity correction enabled: false
Boxcar width: 0
XAxis mode: Wavelengths
Number of Pixels in Spectrum: 2048
>>>>>Begin Spectral Data<<<<<
223.165	-5.5
223.4	-5.5
223.635	-5.5
223.869	-15.5
224.104	-15.5
224.338	-8.5
224.573	-11.5
224.808	-10.5
225.042	-0.5
225.277	-6.5
225.511	-21.5
225.746	-4.5
225.98	10.5
226.215	22.5
226.449	14.5
226.683	21.5
226.918	18.5
227.152	12.5
227.387	41.5
227.621	40.5
227.856	23.5
228.09	43.5
228.324	37.5
228.559	49.5
228.793	52.5
229.027	45.5
229.262	60.5
229.496	69.5
229.73	71.5
229.964	73.5
230.199	84.5
230.433	84.5
230.667	75.5
230.901	68.5
231.136	79.5
231.37	84.5
231.604	68.5
231.838	78.5
232.072	82.5
232.306	70.5
232.541	83.5
232.775	74.5
233.009	75.5
233.243	85.5
233.477	86.5
233.711	72.5
233.945	79.5
234.179	68.5
234.413	83.5
234.647	81.5
234.881	86.5
235.115	75.5
235.349	71.5
235.583	70.5
235.817	85.5
236.051	70.5
236.285	77.5
236.519	76.5
236.753	83.5
236.987	82.5
237.221	86.5
237.455	88.5
237.689	80.5
237.922	90.5
238.156	64.5
238.39	65.5
238.624	84.5
238.858	81.5
239.091	77.5
239.325	78.5
239.559	60.5
239.793	59.5
240.027	78.5
240.26	70.5
240.494	67.5
240.728	91.5
240.961	68.5
241.195	78.5
241.429	71.5
241.662	71.5
241.896	79.5
242.13	78.5
242.363	74.5
242.597	76.5
242.83	75.5
243.064	73.5
243.298	74.5
243.531	70.5
243.765	76.5
243.998	67.5
244.232	80.5
244.465	94.5
244.699	81.5
244.932	70.5
245.166	85.5
245.399	75.5
245.633	87.5
245.866	82.5
246.099	66.5
246.333	77.5
246.566	67.5
246.8	66.5
247.033	79.5
247.266	77.5
247.5	74.5
247.733	74.5
247.966	80.5
248.2	74.5
248.433	81.5
248.666	87.5
248.899	88.5
249.133	87.5
249.366	99.5
249.599	84.5
249.832	80.5
250.066	80.5
250.299	85.5
250.532	83.5
250.765	75.5
250.998	79.5
251.231	81.5
251.465	81.5
251.698	78.5
251.931	75.5
252.164	90.5
252.397	75.5
252.63	93.5
252.863	70.5
253.096	87.5
253.329	80.5
253.562	80.5
253.795	76.5
254.028	77.5
254.261	80.5
254.494	72.5
254.727	86.5
254.96	74.5
255.193	97.5
255.426	64.5
255.659	75.5
255.892	80.5
256.124	85.5
256.357	86.5
256.59	91.5
256.823	94.5
257.056	71.5
257.289	79.5
257.521	75.5
257.754	66.5
257.987	87.5
258.22	80.5
258.452	77.5
258.685	81.5
258.918	88.5
259.151	84.5
259.383	87.5
259.616	81.5
259.849	74.5
260.081	67.5
260.314	88.5
260.547	69.5
260.779	60.5
261.012	86.5
261.244	84.5
261.477	89.5
261.71	87.5
261.942	98.5
262.175	113.5
262.407	78.5
262.64	72.5
262.872	96.5
263.105	91.5
263.337	84.5
263.57	74.5
263.802	74.5
264.035	96.5
264.267	79.5
264.499	66.5
264.732	74.5
264.964	94.5
265.197	82.5
265.429	72.5
265.661	81.5
265.894	79.5
266.126	82.5
266.358	78.5
266.591	80.5
266.823	75.5
267.055	88.5
267.287	96.5
267.52	77.5
267.752	81.5
267.984	83.5
268.216	81.5
268.448	64.5
268.681	82.5
268.913	78.5
269.145	75.5
269.377	78.5
269.609	76.5
269.841	71.5
270.073	87.5
270.306	79.5
270.538	93.5
270.77	96.5
271.002	95.5
271.234	76.5
271.466	88.5
271.698	86.5
271.93	78.5
272.162	85.5
272.394	71.5
272.626	84.5
272.858	79.5
273.09	86.5
273.322	87.5
273.553	92.5
273.785	85.5
274.017	74.5
274.249	81.5
274.481	85.5
274.713	78.5
274.945	76.5
275.176	78.5
275.408	76.5
275.64	81.5
275.872	78.5
276.104	78.5
276.335	95.5
276.567	97.5
276.799	112.5
277.031	95.5
277.262	79.5
277.494	82.5
277.726	84.5
277.957	82.5
278.189	86.5
278.421	100.5
278.652	85.5
278.884	88.5
279.115	97.5
279.347	98.5
279.579	77.5
279.81	83.5
280.042	78.5
280.273	76.5
280.505	81.5
280.736	88.5
280.968	91.5
281.199	78.5
281.431	83.5
281.662	93.5
281.894	90.5
282.125	99.5
282.356	103.5
282.588	135.5
282.819	97.5
283.051	90.5
283.282	85.5
283.513	84.5
283.745	82.5
283.976	87.5
284.207	75.5
284.439	83.5
284.67	83.5
284.901	86.5
285.132	78.5
285.364	88.5
285.595	83.5
285.826	76.5
286.057	86.5
286.288	77.5
286.52	97.5
286.751	84.5
286.982	66.5
287.213	76.5
287.444	83.5
287.675	96.5
287.906	96.5
288.138	83.5
288.369	96.5
288.6	88.5
288.831	86.5
289.062	67.5
289.293	78.5
289.524	84.5
289.755	91.5
289.986	91.5
290.217	75.5
290.448	86.5
290.679	72.5
290.91	86.5
291.141	82.5
291.371	79.5
291.602	81.5
291.833	90.5
292.064	82.5
292.295	87.5
292.526	88.5
292.757	86.5
292.987	88.5
293.218	84.5
293.449	78.5
293.68	89.5
293.91	91.5
294.141	96.5
294.372	83.5
294.603	90.5
294.833	70.5
295.064	85.5
295.295	95.5
295.525	88.5
295.756	110.5
295.987	115.5
296.217	115.5
296.448	112.5
296.679	94.5
296.909	88.5
297.14	87.5
297.37	88.5
297.601	71.5
297.831	76.5
298.062	87.5
298.292	84.5
298.523	87.5
298.753	66.5
298.984	80.5
299.214	84.5
299.445	89.5
299.675	80.5
299.905	86.5
300.136	95.5
300.366	94.5
300.597	85.5
300.827	77.5
301.057	94.5
301.288	119.5
301.518	91.5
301.748	79.5
301.979	98.5
302.209	84.5
302.439	93.5
302.669	59.5
302.9	80.5
303.13	86.5
303.36	92.5
303.59	91.5
303.82	100.5
304.051	98.5
304.281	83.5
304.511	88.5
304.741	83.5
304.971	86.5
305.201	83.5
305.431	93.5
305.661	88.5
305.891	83.5
306.121	80.5
306.352	88.5
306.582	95.5
306.812	94.5
307.042	98.5
307.272	90.5
307.502	87.5
307.731	82.5
307.961	88.5
308.191	95.5
308.421	72.5
308.651	92.5
308.881	92.5
309.111	95.5
309.341	100.5
309.571	94.5
309.8	80.5
310.03	90.5
310.26	90.5
310.49	84.5
310.72	92.5
310.949	98.5
311.179	93.5
311.409	78.5
311.639	69.5
311.868	82.5
312.098	88.5
312.328	91.5
312.557	111.5
312.787	90.5
313.017	93.5
313.246	84.5
313.476	85.5
313.706	99.5
313.935	105.5
314.165	98.5
314.394	97.5
314.624	92.5
314.853	107.5
315.083	94.5
315.312	84.5
315.542	93.5
315.771	102.5
316.001	93.5
316.23	74.5
316.46	86.5
316.689	68.5
316.919	91.5
317.148	102.5
317.377	95.5
317.607	99.5
317.836	101.5
318.065	79.5
318.295	103.5
318.524	81.5
318.753	95.5
318.983	92.5
319.212	104.5
319.441	101.5
319.67	97.5
319.9	91.5
320.129	95.5
320.358	93.5
320.587	92.5
320.816	91.5
321.046	103.5
321.275	101.5
321.504	87.5
321.733	89.5
321.962	90.5
322.191	109.5
322.42	103.5
322.649	108.5
322.878	103.5
323.108	130.5
323.337	117.5
323.566	130.5
323.795	143.5
324.024	188.5
324.253	374.5
324.482	791.5
324.71	1622.5
324.939	2106.5
325.168	737.5
325.397	218.5
325.626	133.5
325.855	130.5
326.084	118.5
326.313	131.5
326.542	154.5
326.77	211.5
326.999	450.5
327.228	910.5
327.457	1678.5
327.686	1304.5
327.914	358.5
328.143	168.5
328.372	147.5
328.6	123.5
328.829	102.5
329.058	116.5
329.287	111.5
329.515	100.5
329.744	101.5
329.972	95.5
330.201	111.5
330.43	110.5
330.658	110.5
330.887	136.5
331.115	124.5
331.344	96.5
331.572	93.5
331.801	108.5
332.03	99.5
332.258	97.5
332.486	89.5
332.715	80.5
332.943	93.5
333.172	84.5
333.4	85.5
333.629	104.5
333.857	114.5
334.085	98.5
334.314	109.5
334.542	102.5
334.771	97.5
334.999	99.5
335.227	92.5
335.455	91.5
335.684	81.5
335.912	108.5
336.14	88.5
336.369	97.5
336.597	98.5
336.825	83.5
337.053	89.5
337.281	100.5
337.51	87.5
337.738	77.5
337.966	94.5
338.194	90.5
338.422	91.5
338.65	84.5
338.878	95.5
339.106	88.5
339.334	86.5
339.562	87.5
339.79	85.5
340.018	84.5
340.246	95.5
340.474	92.5
340.702	86.5
340.93	86.5
341.158	84.5
341.386	98.5
341.614	111.5
341.842	90.5
342.07	96.5
342.298	90.5
342.526	90.5
342.754	93.5
342.981	99.5
343.209	94.5
343.437	109.5
343.665	97.5
343.893	89.5
344.12	98.5
344.348	92.5
344.576	90.5
344.804	101.5
345.031	108.5
345.259	94.5
345.487	86.5
345.714	103.5
345.942	74.5
346.17	86.5
346.397	94.5
346.625	86.5
346.853	97.5
347.08	84.5
347.308	105.5
347.535	110.5
347.763	94.5
347.99	104.5
348.218	112.5
348.445	94.5
348.673	83.5
348.9	98.5
349.128	101.5
349.355	87.5
349.583	108.5
349.81	77.5
350.037	87.5
350.265	103.5
350.492	89.5
350.72	85.5
350.947	101.5
351.174	99.5
351.402	90.5
351.629	96.5
351.856	106.5
352.083	102.5
352.311	103.5
352.538	91.5
352.765	107.5
352.992	112.5
353.22	112.5
353.447	104.5
353.674	112.5
353.901	96.5
354.128	95.5
354.355	85.5
354.583	97.5
354.81	96.5
355.037	100.5
355.264	99.5
355.491	86.5
355.718	102.5
355.945	90.5
356.172	100.5
356.399	97.5
356.626	95.5
356.853	75.5
357.08	92.5
357.307	96.5
357.534	81.5
357.761	82.5
357.988	95.5
358.215	94.5
358.441	93.5
358.668	80.5
358.895	84.5
359.122	78.5
359.349	76.5
359.576	89.5
359.802	95.5
360.029	107.5
360.256	112.5
360.483	94.5
360.709	96.5
360.936	77.5
361.163	93.5
361.39	76.5
361.616	93.5
361.843	94.5
362.07	99.5
362.296	92.5
362.523	86.5
362.749	98.5
362.976	92.5
363.203	99.5
363.429	80.5
363.656	84.5
363.882	84.5
364.109	97.5
364.335	77.5
364.562	78.5
364.788	79.5
365.015	91.5
365.241	81.5
365.468	98.5
365.694	110.5
365.92	91.5
366.147	97.5
366.373	94.5
366.599	78.5
366.826	79.5
367.052	74.5
367.278	81.5
367.505	89.5
367.731	90.5
367.957	92.5
368.184	87.5
368.41	96.5
368.636	96.5
368.862	102.5
369.089	104.5
369.315	90.5
369.541	85.5
369.767	86.5
369.993	88.5
370.219	100.5
370.445	94.5
370.672	88.5
370.898	82.5
371.124	77.5
371.35	78.5
371.576	92.5
371.802	86.5
372.028	90.5
372.254	93.5
372.48	93.5
372.706	77.5
372.932	90.5
373.158	95.5
373.384	82.5
373.61	87.5
373.835	96.5
374.061	99.5
374.287	87.5
374.513	84.5
374.739	84.5
374.965	87.5
375.191	100.5
375.416	86.5
375.642	101.5
375.868	107.5
376.094	86.5
376.319	91.5
376.545	101.5
376.771	86.5
376.997	67.5
377.222	104.5
377.448	83.5
377.674	81.5
377.899	97.5
378.125	97.5
378.35	93.5
378.576	78.5
378.802	82.5
379.027	95.5
379.253	72.5
379.478	82.5
379.704	91.5
379.929	86.5
380.155	82.5
380.38	105.5
380.606	85.5
380.831	88.5
381.057	108.5
381.282	90.5
381.507	109.5
381.733	86.5
381.958	99.5
382.184	95.5
382.409	99.5
382.634	97.5
382.86	86.5
383.085	95.5
383.31	90.5
383.535	99.5
383.761	97.5
383.986	100.5
384.211	82.5
384.436	103.5
384.662	99.5
384.887	79.5
385.112	96.5
385.337	104.5
385.562	94.5
385.787	82.5
386.013	108.5
386.238	103.5
386.463	94.5
386.688	107.5
386.913	96.5
387.138	111.5
387.363	95.5
387.588	99.5
387.813	105.5
388.038	102.5
388.263	114.5
388.488	90.5
388.713	92.5
388.938	107.5
389.163	93.5
389.387	95.5
389.612	96.5
389.837	91.5
390.062	87.5
390.287	90.5
390.512	95.5
390.736	87.5
390.961	95.5
391.186	80.5
391.411	98.5
391.636	85.5
391.86	102.5
392.085	103.5
392.31	85.5
392.534	78.5
392.759	100.5
392.984	94.5
393.208	91.5
393.433	110.5
393.658	89.5
393.882	86.5
394.107	94.5
394.331	72.5
394.556	84.5
394.78	81.5
395.005	88.5
395.229	93.5
395.454	96.5
395.678	83.5
395.903	92.5
396.127	81.5
396.352	82.5
396.576	74.5
396.801	93.5
397.025	84.5
397.249	85.5
397.474	95.5
397.698	94.5
397.922	75.5
398.147	86.5
398.371	97.5
398.595	84.5
398.82	79.5
399.044	83.5
399.268	101.5
399.492	91.5
399.717	95.5
399.941	82.5
400.165	81.5
400.389	90.5
400.613	78.5
400.837	91.5
401.062	107.5
401.286	88.5
401.51	85.5
401.734	91.5
401.958	85.5
402.182	121.5
402.406	139.5
402.63	104.5
402.854	82.5
403.078	84.5
403.302	89.5
403.526	96.5
403.75	71.5
403.974	81.5
404.198	70.5
404.422	84.5
404.645	69.5
404.869	82.5
405.093	94.5
405.317	102.5
405.541	100.5
405.765	101.5
405.988	111.5
406.212	149.5
406.436	215.5
406.66	133.5
406.883	101.5
407.107	99.5
407.331	101.5
407.555	107.5
407.778	103.5
408.002	97.5
408.226	92.5
408.449	91.5
408.673	83.5
408.896	83.5
409.12	93.5
409.344	90.5
409.567	93.5
409.791	82.5
410.014	83.5
410.238	92.5
410.461	79.5
410.685	90.5
410.908	97.5
411.132	99.5
411.355	88.5
411.578	80.5
411.802	87.5
412.025	86.5
412.249	81.5
412.472	104.5
412.695	87.5
412.919	91.5
413.142	93.5
413.365	95.5
413.589	90.5
413.812	94.5
414.035	95.5
414.258	72.5
414.482	88.5
414.705	89.5
414.928	78.5
415.151	92.5
415.374	94.5
415.597	83.5
415.821	98.5
416.044	86.5
416.267	92.5
416.49	78.5
416.713	89.5
416.936	90.5
417.159	92.5
417.382	95.5
417.605	74.5
417.828	88.5
418.051	88.5
418.274	88.5
418.497	91.5
418.72	90.5
418.943	90.5
419.166	89.5
419.389	89.5
419.611	86.5
419.834	95.5
420.057	87.5
420.28	91.5
420.503	80.5
420.726	70.5
420.948	88.5
421.171	103.5
421.394	88.5
421.617	81.5
421.839	78.5
422.062	91.5
422.285	94.5
422.507	95.5
422.73	107.5
422.953	82.5
423.175	86.5
423.398	91.5
423.621	78.5
423.843	85.5
424.066	79.5
424.288	96.5
424.511	97.5
424.733	110.5
424.956	90.5
425.178	107.5
425.401	92.5
425.623	104.5
425.846	93.5
426.068	90.5
426.291	90.5
426.513	92.5
426.735	90.5
426.958	83.5
427.18	104.5
427.402	130.5
427.625	149.5
427.847	119.5
428.069	116.5
428.292	97.5
428.514	93.5
428.736	91.5
428.958	77.5
429.181	86.5
429.403	87.5
429.625	96.5
429.847	94.5
430.069	89.5
430.292	94.5
430.514	90.5
430.736	85.5
430.958	74.5
431.18	84.5
431.402	82.5
431.624	85.5
431.846	95.5
432.068	90.5
432.29	66.5
432.512	78.5
432.734	94.5
432.956	92.5
433.178	108.5
433.4	103.5
433.622	85.5
433.844	90.5
434.066	91.5
434.287	98.5
434.509	86.5
434.731	98.5
434.953	85.5
435.175	98.5
435.397	99.5
435.618	89.5
435.84	99.5
436.062	116.5
436.284	115.5
436.505	96.5
436.727	117.5
436.949	82.5
437.17	78.5
437.392	87.5
437.614	81.5
437.835	99.5
438.057	116.5
438.278	105.5
438.5	96.5
438.721	106.5
438.943	93.5
439.165	100.5
439.386	88.5
439.608	91.5
439.829	96.5
440.05	112.5
440.272	140.5
440.493	79.5
440.715	86.5
440.936	104.5
441.158	87.5
441.379	94.5
441.6	91.5
441.822	92.5
442.043	82.5
442.264	96.5
442.486	103.5
442.707	98.5
442.928	108.5
443.149	110.5
443.371	119.5
443.592	98.5
443.813	101.5
444.034	111.5
444.255	107.5
444.476	85.5
444.698	100.5
444.919	85.5
445.14	142.5
445.361	123.5
445.582	108.5
445.803	129.5
446.024	120.5
446.245	132.5
446.466	110.5
446.687	92.5
446.908	87.5
447.129	90.5
447.35	91.5
447.571	80.5
447.792	82.5
448.013	90.5
448.234	97.5
448.455	95.5
448.675	93.5
448.896	111.5
449.117	98.5
449.338	86.5
449.559	122.5
449.779	139.5
450	91.5
450.221	77.5
450.442	81.5
450.662	88.5
450.883	102.5
451.104	110.5
451.324	76.5
451.545	98.5
451.766	91.5
451.986	92.5
452.207	82.5
452.428	79.5
452.648	87.5
452.869	102.5
453.089	106.5
453.31	116.5
453.53	90.5
453.751	87.5
453.971	102.5
454.192	103.5
454.412	91.5
454.633	90.5
454.853	79.5
455.073	85.5
455.294	92.5
455.514	94.5
455.734	79.5
455.955	76.5
456.175	85.5
456.395	83.5
456.616	69.5
456.836	88.5
457.056	94.5
457.276	66.5
457.497	70.5
457.717	95.5
457.937	92.5
458.157	91.5
458.377	84.5
458.598	95.5
458.818	137.5
459.038	142.5
459.258	95.5
459.478	83.5
459.698	87.5
459.918	91.5
460.138	98.5
460.358	70.5
460.578	71.5
460.798	82.5
461.018	68.5
461.238	86.5
461.458	73.5
461.678	87.5
461.898	87.5
462.118	80.5
462.338	87.5
462.558	88.5
462.777	93.5
462.997	76.5
463.217	92.5
463.437	89.5
463.657	85.5
463.876	84.5
464.096	83.5
464.316	99.5
464.536	93.5
464.755	96.5
464.975	99.5
465.195	148.5
465.414	153.5
465.634	94.5
465.854	84.5
466.073	82.5
466.293	84.5
466.512	74.5
466.732	83.5
466.951	86.5
467.171	85.5
467.391	99.5
467.61	95.5
467.829	107.5
468.049	91.5
468.268	84.5
468.488	66.5
468.707	86.5
468.927	76.5
469.146	84.5
469.365	75.5
469.585	88.5
469.804	91.5
470.023	103.5
470.243	106.5
470.462	72.5
470.681	87.5
470.901	81.5
471.12	74.5
471.339	84.5
471.558	96.5
471.777	83.5
471.997	92.5
472.216	95.5
472.435	98.5
472.654	79.5
472.873	81.5
473.092	87.5
473.311	90.5
473.53	80.5
473.749	89.5
473.968	101.5
474.187	97.5
474.406	85.5
474.625	85.5
474.844	79.5
475.063	75.5
475.282	70.5
475.501	84.5
475.72	91.5
475.939	83.5
476.158	86.5
476.377	70.5
476.596	88.5
476.814	92.5
477.033	87.5
477.252	82.5
477.471	104.5
477.69	94.5
477.908	75.5
478.127	82.5
478.346	77.5
478.564	88.5
478.783	96.5
479.002	92.5
479.22	98.5
479.439	80.5
479.658	107.5
479.876	89.5
480.095	76.5
480.313	78.5
480.532	86.5
480.751	87.5
480.969	87.5
481.188	122.5
481.406	100.5
481.624	97.5
481.843	82.5
482.061	83.5
482.28	93.5
482.498	83.5
482.717	82.5
482.935	93.5
483.153	95.5
483.372	82.5
483.59	88.5
483.808	96.5
484.027	96.5
484.245	85.5
484.463	92.5
484.681	95.5
484.9	91.5
485.118	80.5
485.336	88.5
485.554	92.5
485.772	93.5
485.99	99.5
486.209	111.5
486.427	93.5
486.645	92.5
486.863	91.5
487.081	99.5
487.299	96.5
487.517	95.5
487.735	87.5
487.953	88.5
488.171	104.5
488.389	85.5
488.607	92.5
488.825	94.5
489.043	85.5
489.261	108.5
489.479	92.5
489.696	91.5
489.914	96.5
490.132	90.5
490.35	88.5
490.568	88.5
490.786	86.5
491.003	87.5
491.221	85.5
491.439	98.5
491.657	100.5
491.874	101.5
492.092	88.5
492.31	91.5
492.527	93.5
492.745	88.5
492.963	85.5
493.18	77.5
493.398	105.5
493.615	93.5
493.833	94.5
494.05	67.5
494.268	72.5
494.485	98.5
494.703	87.5
494.92	92.5
495.138	67.5
495.355	90.5
495.573	90.5
495.79	92.5
496.008	100.5
496.225	81.5
496.442	80.5
496.66	95.5
496.877	91.5
497.094	99.5
497.312	81.5
497.529	88.5
497.746	90.5
497.963	87.5
498.181	80.5
498.398	91.5
498.615	95.5
498.832	101.5
499.049	85.5
499.267	91.5
499.484	80.5
499.701	95.5
499.918	117.5
500.135	96.5
500.352	90.5
500.569	98.5
500.786	99.5
501.003	90.5
501.22	92.5
501.437	76.5
501.654	85.5
501.871	103.5
502.088	101.5
502.305	86.5
502.522	84.5
502.739	95.5
502.956	79.5
503.172	90.5
503.389	81.5
503.606	100.5
503.823	91.5
504.04	85.5
504.256	89.5
504.473	82.5
504.69	87.5
504.907	85.5
505.123	71.5
505.34	94.5
505.557	87.5
505.773	90.5
505.99	92.5
506.207	100.5
506.423	82.5
506.64	76.5
506.856	98.5
507.073	85.5
507.289	82.5
507.506	91.5
507.722	104.5
507.939	98.5
508.155	92.5
508.372	75.5
508.588	79.5
508.805	101.5
509.021	93.5
509.238	99.5
509.454	87.5
509.67	96.5
509.887	101.5
510.103	129.5
510.319	206.5
510.536	691.5
510.752	2027.5
510.968	569.5
511.184	145.5
511.401	109.5
511.617	90.5
511.833	95.5
512.049	93.5
512.265	90.5
512.481	81.5
512.698	86.5
512.914	90.5
513.13	88.5
513.346	93.5
513.562	87.5
513.778	106.5
513.994	103.5
514.21	96.5
514.426	119.5
514.642	120.5
514.858	115.5
515.074	160.5
515.29	397.5
515.506	1268.5
515.721	458.5
515.937	130.5
516.153	117.5
516.369	94.5
516.585	101.5
516.801	97.5
517.016	95.5
517.232	89.5
517.448	90.5
517.664	79.5
517.879	96.5
518.095	92.5
518.311	92.5
518.527	99.5
518.742	90.5
518.958	100.5
519.173	91.5
519.389	85.5
519.605	94.5
519.82	94.5
520.036	93.5
520.251	104.5
520.467	100.5
520.682	91.5
520.898	106.5
521.113	106.5
521.329	116.5
521.544	179.5
521.76	516.5
521.975	2086.5
522.19	1198.5
522.406	261.5
522.621	101.5
522.836	94.5
523.052	86.5
523.267	96.5
523.482	94.5
523.698	98.5
523.913	110.5
524.128	103.5
524.343	95.5
524.559	81.5
524.774	89.5
524.989	86.5
525.204	108.5
525.419	91.5
525.634	77.5
525.849	80.5
526.064	84.5
526.28	78.5
526.495	100.5
526.71	87.5
526.925	79.5
527.14	92.5
527.355	84.5
527.57	75.5
527.785	97.5
527.999	93.5
528.214	71.5
528.429	86.5
528.644	81.5
528.859	98.5
529.074	99.5
529.289	127.5
529.503	162.5
529.718	92.5
529.933	78.5
530.148	85.5
530.363	82.5
530.577	97.5
530.792	99.5
531.007	104.5
531.221	94.5
531.436	82.5
531.651	97.5
531.865	89.5
532.08	75.5
532.295	88.5
532.509	92.5
532.724	90.5
532.938	92.5
533.153	96.5
533.367	99.5
533.582	92.5
533.796	96.5
534.011	84.5
534.225	91.5
534.44	96.5
534.654	90.5
534.868	91.5
535.083	82.5
535.297	114.5
535.511	97.5
535.726	97.5
535.94	90.5
536.154	81.5
536.369	95.5
536.583	82.5
