Data from Uncirc_1988_H10_HRD10591_00052.txt Node
Date: Wed Jan 03 12:04:14 EST 2024
User: Yrep
Spectrometer: HR+D1059
Trigger mode: 1
Integration Time (sec): 1.000000E-1
Scans to average: 1
Electric dark correction enabled: true
Nonlinearity correction enabled: false
Boxcar width: 0
XAxis mode: Wavelengths
Number of Pixels in Spectrum: 2048
>>>>>Begin Spectral Data<<<<<
223.165	-14.25
223.4	-14.25
223.635	-14.25
223.869	-26.25
224.104	-22.25
224.338	-22.25
224.573	-14.25
224.808	-5.25
225.042	-2.25
225.277	-5.25
225.511	2.75
225.746	-5.25
225.98	-4.25
226.215	26.75
226.449	23.75
226.683	19.75
226.918	24.75
227.152	23.75
227.387	39.75
227.621	54.75
227.856	53.75
228.09	54.75
228.324	43.75
228.559	66.75
228.793	53.75
229.027	62.75
229.262	74.75
229.496	71.75
229.73	71.75
229.964	92.75
230.199	64.75
230.433	80.75
230.667	87.75
230.901	73.75
231.136	68.75
231.37	72.75
231.604	86.75
231.838	87.75
232.072	73.75
232.306	80.75
232.541	77.75
232.775	84.75
233.009	86.75
233.243	79.75
233.477	89.75
233.711	84.75
233.945	68.75
234.179	70.75
234.413	82.75
234.647	105.75
234.881	80.75
235.115	78.75
235.349	80.75
235.583	81.75
235.817	74.75
236.051	85.75
236.285	90.75
236.519	88.75
236.753	81.75
236.987	85.75
237.221	87.75
237.455	85.75
237.689	70.75
237.922	85.75
238.156	74.75
238.39	84.75
238.624	78.75
238.858	80.75
239.091	81.75
239.325	83.75
239.559	70.75
239.793	91.75
240.027	83.75
240.26	79.75
240.494	75.75
240.728	90.75
240.961	77.75
241.195	69.75
241.429	70.75
241.662	89.75
241.896	73.75
242.13	92.75
242.363	70.75
242.597	68.75
242.83	72.75
243.064	85.75
243.298	81.75
243.531	85.75
243.765	77.75
243.998	81.75
244.232	87.75
244.465	95.75
244.699	84.75
244.932	87.75
245.166	87.75
245.399	73.75
245.633	77.75
245.866	70.75
246.099	77.75
246.333	91.75
246.566	81.75
246.8	92.75
247.033	81.75
247.266	86.75
247.5	69.75
247.733	95.75
247.966	89.75
248.2	73.75
248.433	74.75
248.666	69.75
248.899	83.75
249.133	99.75
249.366	87.75
249.599	104.75
249.832	75.75
250.066	87.75
250.299	72.75
250.532	88.75
250.765	80.75
250.998	95.75
251.231	85.75
251.465	84.75
251.698	86.75
251.931	89.75
252.164	83.75
252.397	71.75
252.63	77.75
252.863	87.75
253.096	82.75
253.329	86.75
253.562	84.75
253.795	85.75
254.028	70.75
254.261	68.75
254.494	69.75
254.727	94.75
254.96	97.75
255.193	69.75
255.426	87.75
255.659	75.75
255.892	77.75
256.124	81.75
256.357	86.75
256.59	86.75
256.823	83.75
257.056	85.75
257.289	79.75
257.521	88.75
257.754	89.75
257.987	89.75
258.22	78.75
258.452	81.75
258.685	83.75
258.918	78.75
259.151	83.75
259.383	86.75
259.616	80.75
259.849	95.75
260.081	94.75
260.314	91.75
260.547	77.75
260.779	91.75
261.012	79.75
261.244	88.75
261.477	96.75
261.71	99.75
261.942	100.75
262.175	98.75
262.407	86.75
262.64	78.75
262.872	85.75
263.105	92.75
263.337	85.75
263.57	75.75
263.802	98.75
264.035	102.75
264.267	81.75
264.499	79.75
264.732	88.75
264.964	77.75
265.197	93.75
265.429	97.75
265.661	82.75
265.894	88.75
266.126	78.75
266.358	99.75
266.591	78.75
266.823	88.75
267.055	72.75
267.287	77.75
267.52	70.75
267.752	79.75
267.984	94.75
268.216	91.75
268.448	79.75
268.681	87.75
268.913	86.75
269.145	105.75
269.377	95.75
269.609	90.75
269.841	82.75
270.073	83.75
270.306	85.75
270.538	89.75
270.77	85.75
271.002	95.75
271.234	88.75
271.466	86.75
271.698	75.75
271.93	95.75
272.162	82.75
272.394	90.75
272.626	88.75
272.858	85.75
273.09	88.75
273.322	64.75
273.553	87.75
273.785	86.75
274.017	112.75
274.249	104.75
274.481	88.75
274.713	80.75
274.945	90.75
275.176	93.75
275.408	95.75
275.64	90.75
275.872	85.75
276.104	81.75
276.335	93.75
276.567	97.75
276.799	103.75
277.031	91.75
277.262	87.75
277.494	93.75
277.726	83.75
277.957	83.75
278.189	86.75
278.421	96.75
278.652	105.75
278.884	79.75
279.115	93.75
279.347	87.75
279.579	70.75
279.81	93.75
280.042	93.75
280.273	89.75
280.505	103.75
280.736	77.75
280.968	70.75
281.199	79.75
281.431	91.75
281.662	88.75
281.894	98.75
282.125	82.75
282.356	114.75
282.588	137.75
282.819	97.75
283.051	86.75
283.282	72.75
283.513	103.75
283.745	89.75
283.976	92.75
284.207	93.75
284.439	94.75
284.67	95.75
284.901	84.75
285.132	88.75
285.364	85.75
285.595	95.75
285.826	73.75
286.057	91.75
286.288	85.75
286.52	95.75
286.751	89.75
286.982	81.75
287.213	78.75
287.444	82.75
287.675	98.75
287.906	104.75
288.138	78.75
288.369	100.75
288.6	82.75
288.831	81.75
289.062	75.75
289.293	106.75
289.524	92.75
289.755	87.75
289.986	83.75
290.217	87.75
290.448	80.75
290.679	95.75
290.91	82.75
291.141	89.75
291.371	94.75
291.602	85.75
291.833	92.75
292.064	96.75
292.295	89.75
292.526	95.75
292.757	72.75
292.987	88.75
293.218	86.75
293.449	93.75
293.68	82.75
293.91	91.75
294.141	91.75
294.372	99.75
294.603	80.75
294.833	100.75
295.064	92.75
295.295	82.75
295.525	88.75
295.756	91.75
295.987	119.75
296.217	118.75
296.448	133.75
296.679	96.75
296.909	70.75
297.14	86.75
297.37	92.75
297.601	93.75
297.831	93.75
298.062	87.75
298.292	86.75
298.523	94.75
298.753	95.75
298.984	90.75
299.214	90.75
299.445	90.75
299.675	101.75
299.905	95.75
300.136	84.75
300.366	89.75
300.597	90.75
300.827	94.75
301.057	113.75
301.288	101.75
301.518	86.75
301.748	87.75
301.979	90.75
302.209	110.75
302.439	100.75
302.669	78.75
302.9	100.75
303.13	86.75
303.36	86.75
303.59	97.75
303.82	110.75
304.051	90.75
304.281	88.75
304.511	95.75
304.741	84.75
304.971	91.75
305.201	91.75
305.431	81.75
305.661	95.75
305.891	89.75
306.121	95.75
306.352	101.75
306.582	101.75
306.812	107.75
307.042	87.75
307.272	99.75
307.502	93.75
307.731	89.75
307.961	91.75
308.191	95.75
308.421	105.75
308.651	89.75
308.881	97.75
309.111	88.75
309.341	96.75
309.571	107.75
309.8	109.75
310.03	96.75
310.26	90.75
310.49	96.75
310.72	98.75
310.949	101.75
311.179	94.75
311.409	72.75
311.639	97.75
311.868	97.75
312.098	94.75
312.328	93.75
312.557	104.75
312.787	95.75
313.017	97.75
313.246	100.75
313.476	101.75
313.706	95.75
313.935	103.75
314.165	107.75
314.394	94.75
314.624	108.75
314.853	104.75
315.083	95.75
315.312	93.75
315.542	100.75
315.771	67.75
316.001	88.75
316.23	89.75
316.46	107.75
316.689	99.75
316.919	97.75
317.148	84.75
317.377	98.75
317.607	90.75
317.836	90.75
318.065	97.75
318.295	75.75
318.524	94.75
318.753	85.75
318.983	95.75
319.212	104.75
319.441	109.75
319.67	116.75
319.9	101.75
320.129	89.75
320.358	88.75
320.587	110.75
320.816	106.75
321.046	97.75
321.275	98.75
321.504	103.75
321.733	95.75
321.962	92.75
322.191	114.75
322.42	89.75
322.649	111.75
322.878	109.75
323.108	116.75
323.337	117.75
323.566	137.75
323.795	151.75
324.024	207.75
324.253	410.75
324.482	857.75
324.71	1849.75
324.939	2405.75
325.168	846.75
325.397	244.75
325.626	144.75
325.855	137.75
326.084	122.75
326.313	145.75
326.542	169.75
326.77	236.75
326.999	485.75
327.228	1007.75
327.457	1907.75
327.686	1444.75
327.914	375.75
328.143	189.75
328.372	135.75
328.6	116.75
328.829	128.75
329.058	157.75
329.287	132.75
329.515	102.75
329.744	116.75
329.972	107.75
330.201	93.75
330.43	112.75
330.658	127.75
330.887	134.75
331.115	118.75
331.344	99.75
331.572	98.75
331.801	112.75
332.03	109.75
332.258	104.75
332.486	94.75
332.715	98.75
332.943	100.75
333.172	95.75
333.4	96.75
333.629	97.75
333.857	96.75
334.085	89.75
334.314	96.75
334.542	103.75
334.771	102.75
334.999	105.75
335.227	90.75
335.455	96.75
335.684	89.75
335.912	94.75
336.14	86.75
336.369	94.75
336.597	111.75
336.825	105.75
337.053	90.75
337.281	111.75
337.51	94.75
337.738	102.75
337.966	99.75
338.194	98.75
338.422	85.75
338.65	86.75
338.878	98.75
339.106	102.75
339.334	88.75
339.562	85.75
339.79	81.75
340.018	91.75
340.246	98.75
340.474	81.75
340.702	91.75
340.93	90.75
341.158	93.75
341.386	94.75
341.614	101.75
341.842	100.75
342.07	84.75
342.298	102.75
342.526	101.75
342.754	91.75
342.981	97.75
343.209	89.75
343.437	105.75
343.665	90.75
343.893	83.75
344.12	101.75
344.348	92.75
344.576	91.75
344.804	95.75
345.031	113.75
345.259	105.75
345.487	102.75
345.714	93.75
345.942	87.75
346.17	98.75
346.397	103.75
346.625	87.75
346.853	114.75
347.08	92.75
347.308	91.75
347.535	64.75
347.763	82.75
347.99	97.75
348.218	93.75
348.445	103.75
348.673	90.75
348.9	106.75
349.128	96.75
349.355	90.75
349.583	99.75
349.81	94.75
350.037	97.75
350.265	99.75
350.492	100.75
350.72	96.75
350.947	101.75
351.174	114.75
351.402	109.75
351.629	102.75
351.856	114.75
352.083	108.75
352.311	106.75
352.538	103.75
352.765	112.75
352.992	107.75
353.22	111.75
353.447	103.75
353.674	104.75
353.901	93.75
354.128	89.75
354.355	103.75
354.583	103.75
354.81	94.75
355.037	102.75
355.264	92.75
355.491	94.75
355.718	95.75
355.945	89.75
356.172	92.75
356.399	113.75
356.626	109.75
356.853	106.75
357.08	91.75
357.307	97.75
357.534	101.75
357.761	92.75
357.988	98.75
358.215	98.75
358.441	87.75
358.668	90.75
358.895	98.75
359.122	80.75
359.349	91.75
359.576	98.75
359.802	114.75
360.029	106.75
360.256	116.75
360.483	93.75
360.709	81.75
360.936	100.75
361.163	96.75
361.39	86.75
361.616	100.75
361.843	82.75
362.07	82.75
362.296	101.75
362.523	90.75
362.749	90.75
362.976	105.75
363.203	85.75
363.429	105.75
363.656	81.75
363.882	87.75
364.109	101.75
364.335	87.75
364.562	86.75
364.788	96.75
365.015	101.75
365.241	94.75
365.468	94.75
365.694	103.75
365.92	99.75
366.147	90.75
366.373	93.75
366.599	87.75
366.826	89.75
367.052	97.75
367.278	94.75
367.505	81.75
367.731	83.75
367.957	97.75
368.184	87.75
368.41	102.75
368.636	106.75
368.862	111.75
369.089	97.75
369.315	87.75
369.541	83.75
369.767	94.75
369.993	91.75
370.219	110.75
370.445	89.75
370.672	93.75
370.898	90.75
371.124	100.75
371.35	91.75
371.576	97.75
371.802	91.75
372.028	102.75
372.254	78.75
372.48	89.75
372.706	95.75
372.932	91.75
373.158	82.75
373.384	84.75
373.61	90.75
373.835	85.75
374.061	83.75
374.287	94.75
374.513	92.75
374.739	94.75
374.965	86.75
375.191	95.75
375.416	82.75
375.642	73.75
375.868	90.75
376.094	93.75
376.319	82.75
376.545	89.75
376.771	87.75
376.997	97.75
377.222	85.75
377.448	105.75
377.674	71.75
377.899	86.75
378.125	99.75
378.35	82.75
378.576	90.75
378.802	92.75
379.027	89.75
379.253	96.75
379.478	88.75
379.704	88.75
379.929	106.75
380.155	96.75
380.38	84.75
380.606	90.75
380.831	102.75
381.057	120.75
381.282	95.75
381.507	91.75
381.733	82.75
381.958	92.75
382.184	107.75
382.409	103.75
382.634	103.75
382.86	98.75
383.085	82.75
383.31	89.75
383.535	94.75
383.761	108.75
383.986	99.75
384.211	95.75
384.436	85.75
384.662	89.75
384.887	104.75
385.112	94.75
385.337	89.75
385.562	100.75
385.787	93.75
386.013	112.75
386.238	115.75
386.463	112.75
386.688	108.75
386.913	98.75
387.138	102.75
387.363	69.75
387.588	94.75
387.813	91.75
388.038	105.75
388.263	111.75
388.488	110.75
388.713	98.75
388.938	105.75
389.163	86.75
389.387	96.75
389.612	90.75
389.837	96.75
390.062	91.75
390.287	77.75
390.512	93.75
390.736	88.75
390.961	91.75
391.186	93.75
391.411	81.75
391.636	91.75
391.86	83.75
392.085	84.75
392.31	73.75
392.534	87.75
392.759	87.75
392.984	86.75
393.208	97.75
393.433	103.75
393.658	95.75
393.882	85.75
394.107	80.75
394.331	93.75
394.556	76.75
394.78	104.75
395.005	81.75
395.229	84.75
395.454	94.75
395.678	86.75
395.903	99.75
396.127	87.75
396.352	99.75
396.576	97.75
396.801	77.75
397.025	101.75
397.249	85.75
397.474	82.75
397.698	86.75
397.922	75.75
398.147	107.75
398.371	90.75
398.595	101.75
398.82	82.75
399.044	74.75
399.268	94.75
399.492	81.75
399.717	92.75
399.941	98.75
400.165	102.75
400.389	114.75
400.613	98.75
400.837	87.75
401.062	72.75
401.286	106.75
401.51	92.75
401.734	100.75
401.958	101.75
402.182	115.75
402.406	135.75
402.63	104.75
402.854	103.75
403.078	78.75
403.302	82.75
403.526	85.75
403.75	85.75
403.974	102.75
404.198	98.75
404.422	89.75
404.645	92.75
404.869	86.75
405.093	80.75
405.317	92.75
405.541	93.75
405.765	94.75
405.988	116.75
406.212	171.75
406.436	211.75
406.66	134.75
406.883	104.75
407.107	102.75
407.331	103.75
407.555	106.75
407.778	93.75
408.002	92.75
408.226	102.75
408.449	100.75
408.673	77.75
408.896	93.75
409.12	104.75
409.344	99.75
409.567	83.75
409.791	99.75
410.014	98.75
410.238	96.75
410.461	90.75
410.685	81.75
410.908	94.75
411.132	92.75
411.355	93.75
411.578	82.75
411.802	95.75
412.025	106.75
412.249	88.75
412.472	72.75
412.695	82.75
412.919	79.75
413.142	83.75
413.365	80.75
413.589	83.75
413.812	85.75
414.035	106.75
414.258	104.75
414.482	80.75
414.705	98.75
414.928	80.75
415.151	102.75
415.374	94.75
415.597	101.75
415.821	104.75
416.044	79.75
416.267	91.75
416.49	87.75
416.713	80.75
416.936	88.75
417.159	86.75
417.382	100.75
417.605	73.75
417.828	85.75
418.051	91.75
418.274	99.75
418.497	87.75
418.72	75.75
418.943	78.75
419.166	82.75
419.389	93.75
419.611	86.75
419.834	85.75
420.057	83.75
420.28	82.75
420.503	95.75
420.726	84.75
420.948	83.75
421.171	97.75
421.394	97.75
421.617	97.75
421.839	86.75
422.062	87.75
422.285	99.75
422.507	86.75
422.73	98.75
422.953	89.75
423.175	99.75
423.398	94.75
423.621	105.75
423.843	80.75
424.066	88.75
424.288	84.75
424.511	90.75
424.733	97.75
424.956	113.75
425.178	113.75
425.401	106.75
425.623	95.75
425.846	99.75
426.068	101.75
426.291	89.75
426.513	110.75
426.735	93.75
426.958	87.75
427.18	89.75
427.402	135.75
427.625	170.75
427.847	128.75
428.069	108.75
428.292	92.75
428.514	95.75
428.736	87.75
428.958	81.75
429.181	81.75
429.403	80.75
429.625	67.75
429.847	97.75
430.069	84.75
430.292	87.75
430.514	84.75
430.736	100.75
430.958	85.75
431.18	89.75
431.402	70.75
431.624	89.75
431.846	83.75
432.068	72.75
432.29	69.75
432.512	70.75
432.734	88.75
432.956	102.75
433.178	108.75
433.4	103.75
433.622	88.75
433.844	94.75
434.066	92.75
434.287	88.75
434.509	84.75
434.731	92.75
434.953	91.75
435.175	89.75
435.397	95.75
435.618	98.75
435.84	101.75
436.062	131.75
436.284	109.75
436.505	102.75
436.727	105.75
436.949	102.75
437.17	95.75
437.392	77.75
437.614	95.75
437.835	110.75
438.057	122.75
438.278	119.75
438.5	114.75
438.721	133.75
438.943	98.75
439.165	95.75
439.386	94.75
439.608	107.75
439.829	98.75
440.05	118.75
440.272	141.75
440.493	95.75
440.715	100.75
440.936	94.75
441.158	83.75
441.379	89.75
441.6	104.75
441.822	87.75
442.043	95.75
442.264	118.75
442.486	102.75
442.707	112.75
442.928	101.75
443.149	128.75
443.371	139.75
443.592	113.75
443.813	115.75
444.034	106.75
444.255	79.75
444.476	100.75
444.698	83.75
444.919	86.75
445.14	133.75
445.361	120.75
445.582	116.75
445.803	155.75
446.024	152.75
446.245	136.75
446.466	119.75
446.687	78.75
446.908	80.75
447.129	85.75
447.35	86.75
447.571	101.75
447.792	99.75
448.013	98.75
448.234	97.75
448.455	109.75
448.675	120.75
448.896	121.75
449.117	91.75
449.338	108.75
449.559	133.75
449.779	130.75
450	90.75
450.221	81.75
450.442	82.75
450.662	98.75
450.883	99.75
451.104	105.75
451.324	106.75
451.545	88.75
451.766	89.75
451.986	84.75
452.207	86.75
452.428	98.75
452.648	90.75
452.869	111.75
453.089	112.75
453.31	134.75
453.53	81.75
453.751	97.75
453.971	108.75
454.192	116.75
454.412	99.75
454.633	95.75
454.853	77.75
455.073	91.75
455.294	96.75
455.514	109.75
455.734	86.75
455.955	77.75
456.175	97.75
456.395	76.75
456.616	101.75
456.836	91.75
457.056	87.75
457.276	77.75
457.497	64.75
457.717	82.75
457.937	79.75
458.157	100.75
458.377	85.75
458.598	111.75
458.818	141.75
459.038	175.75
459.258	116.75
459.478	92.75
459.698	92.75
459.918	98.75
460.138	94.75
460.358	88.75
460.578	94.75
460.798	93.75
461.018	94.75
461.238	88.75
461.458	97.75
461.678	89.75
461.898	73.75
462.118	77.75
462.338	94.75
462.558	90.75
462.777	87.75
462.997	94.75
463.217	89.75
463.437	72.75
463.657	81.75
463.876	87.75
464.096	96.75
464.316	97.75
464.536	96.75
464.755	105.75
464.975	95.75
465.195	169.75
465.414	164.75
465.634	99.75
465.854	74.75
466.073	90.75
466.293	80.75
466.512	85.75
466.732	102.75
466.951	91.75
467.171	105.75
467.391	73.75
467.61	88.75
467.829	90.75
468.049	99.75
468.268	106.75
468.488	66.75
468.707	88.75
468.927	86.75
469.146	91.75
469.365	95.75
469.585	85.75
469.804	85.75
470.023	94.75
470.243	88.75
470.462	100.75
470.681	106.75
470.901	88.75
471.12	80.75
471.339	98.75
471.558	88.75
471.777	77.75
471.997	95.75
472.216	86.75
472.435	120.75
472.654	91.75
472.873	92.75
473.092	85.75
473.311	77.75
473.53	86.75
473.749	98.75
473.968	100.75
474.187	117.75
474.406	109.75
474.625	95.75
474.844	88.75
475.063	83.75
475.282	95.75
475.501	83.75
475.72	94.75
475.939	99.75
476.158	89.75
476.377	90.75
476.596	98.75
476.814	101.75
477.033	82.75
477.252	89.75
477.471	81.75
477.69	70.75
477.908	83.75
478.127	95.75
478.346	92.75
478.564	105.75
478.783	93.75
479.002	85.75
479.22	88.75
479.439	108.75
479.658	100.75
479.876	103.75
480.095	87.75
480.313	102.75
480.532	103.75
480.751	107.75
480.969	107.75
481.188	138.75
481.406	120.75
481.624	87.75
481.843	95.75
482.061	87.75
482.28	93.75
482.498	100.75
482.717	86.75
482.935	78.75
483.153	103.75
483.372	88.75
483.59	98.75
483.808	90.75
484.027	93.75
484.245	104.75
484.463	86.75
484.681	89.75
484.9	99.75
485.118	80.75
485.336	89.75
485.554	103.75
485.772	92.75
485.99	96.75
486.209	105.75
486.427	116.75
486.645	113.75
486.863	115.75
487.081	91.75
487.299	85.75
487.517	98.75
487.735	106.75
487.953	95.75
488.171	96.75
488.389	91.75
488.607	90.75
488.825	89.75
489.043	84.75
489.261	97.75
489.479	93.75
489.696	89.75
489.914	91.75
490.132	90.75
490.35	98.75
490.568	85.75
490.786	86.75
491.003	84.75
491.221	80.75
491.439	89.75
491.657	83.75
491.874	99.75
492.092	78.75
492.31	86.75
492.527	103.75
492.745	95.75
492.963	86.75
493.18	85.75
493.398	89.75
493.615	102.75
493.833	93.75
494.05	92.75
494.268	93.75
494.485	93.75
494.703	91.75
494.92	81.75
495.138	86.75
495.355	89.75
495.573	89.75
495.79	89.75
496.008	96.75
496.225	88.75
496.442	81.75
496.66	91.75
496.877	88.75
497.094	95.75
497.312	101.75
497.529	86.75
497.746	108.75
497.963	93.75
498.181	86.75
498.398	105.75
498.615	107.75
498.832	95.75
499.049	88.75
499.267	89.75
499.484	93.75
499.701	105.75
499.918	98.75
500.135	93.75
500.352	100.75
500.569	94.75
500.786	94.75
501.003	101.75
501.22	97.75
501.437	92.75
501.654	87.75
501.871	104.75
502.088	87.75
502.305	98.75
502.522	90.75
502.739	97.75
502.956	74.75
503.172	77.75
503.389	82.75
503.606	107.75
503.823	102.75
504.04	69.75
504.256	90.75
504.473	93.75
504.69	83.75
504.907	94.75
505.123	97.75
505.34	89.75
505.557	84.75
505.773	84.75
505.99	92.75
506.207	83.75
506.423	88.75
506.64	74.75
506.856	95.75
507.073	112.75
507.289	89.75
507.506	99.75
507.722	86.75
507.939	104.75
508.155	106.75
508.372	98.75
508.588	94.75
508.805	107.75
509.021	98.75
509.238	99.75
509.454	103.75
509.67	90.75
509.887	103.75
510.103	134.75
510.319	211.75
510.536	713.75
510.752	2116.75
510.968	591.75
511.184	141.75
511.401	135.75
511.617	107.75
511.833	93.75
512.049	106.75
512.265	85.75
512.481	103.75
512.698	103.75
512.914	105.75
513.13	97.75
513.346	90.75
513.562	85.75
513.778	89.75
513.994	101.75
514.21	91.75
514.426	126.75
514.642	120.75
514.858	128.75
515.074	161.75
515.29	421.75
