Data from Uncirc_1988_H10_HRD10591_00053.txt Node
Date: Wed Jan 03 12:04:15 EST 2024
User: Yrep
Spectrometer: HR+D1059
Trigger mode: 1
Integration Time (sec): 1.000000E-1
Scans to average: 1
Electric dark correction enabled: true
Nonlinearity correction enabled: false
Boxcar width: 0
XAxis mode: Wavelengths
Number of Pixels in Spectrum: 2048
>>>>>Begin Spectral Data<<<<<
223.165	-15.19
223.4	-15.19
223.635	-15.19
223.869	-24.19
224.104	-21.19
224.338	-6.19
224.573	-12.19
224.808	1.81
225.042	-22.19
225.277	-14.19
225.511	2.81
225.746	3.81
225.98	2.81
226.215	9.81
226.449	21.81
226.683	21.81
226.918	17.81
227.152	32.81
227.387	49.81
227.621	45.81
227.856	41.81
228.09	37.81
228.324	39.81
228.559	66.81
228.793	58.81
229.027	67.81
229.262	51.81
229.496	77.81
229.73	77.81
229.964	77.81
230.199	71.81
230.433	67.81
230.667	77.81
230.901	81.81
231.136	81.81
231.37	75.81
231.604	72.81
231.838	88.81
232.072	61.81
232.306	64.81
232.541	54.81
232.775	67.81
233.009	76.81
233.243	81.81
233.477	80.81
233.711	79.81
233.945	81.81
234.179	77.81
234.413	81.81
234.647	77.81
234.881	81.81
235.115	77.81
235.349	61.81
235.583	78.81
235.817	77.81
236.051	81.81
236.285	66.81
236.519	73.81
236.753	79.81
236.987	84.81
237.221	76.81
237.455	76.81
237.689	73.81
237.922	69.81
238.156	70.81
238.39	67.81
238.624	76.81
238.858	72.81
239.091	61.81
239.325	76.81
239.559	68.81
239.793	82.81
240.027	92.81
240.26	83.81
240.494	82.81
240.728	70.81
240.961	67.81
241.195	86.81
241.429	81.81
241.662	81.81
241.896	78.81
242.13	70.81
242.363	70.81
242.597	76.81
242.83	81.81
243.064	76.81
243.298	68.81
243.531	84.81
243.765	70.81
243.998	76.81
244.232	68.81
244.465	73.81
244.699	75.81
244.932	87.81
245.166	77.81
245.399	71.81
245.633	74.81
245.866	78.81
246.099	74.81
246.333	79.81
246.566	72.81
246.8	65.81
247.033	97.81
247.266	76.81
247.5	66.81
247.733	83.81
247.966	79.81
248.2	77.81
248.433	82.81
248.666	82.81
248.899	74.81
249.133	79.81
249.366	94.81
249.599	109.81
249.832	81.81
250.066	71.81
250.299	77.81
250.532	86.81
250.765	81.81
250.998	71.81
251.231	74.81
251.465	75.81
251.698	75.81
251.931	65.81
252.164	76.81
252.397	70.81
252.63	81.81
252.863	77.81
253.096	68.81
253.329	77.81
253.562	84.81
253.795	80.81
254.028	78.81
254.261	77.81
254.494	77.81
254.727	79.81
254.96	78.81
255.193	58.81
255.426	83.81
255.659	81.81
255.892	92.81
256.124	72.81
256.357	86.81
256.59	73.81
256.823	73.81
257.056	77.81
257.289	71.81
257.521	84.81
257.754	79.81
257.987	87.81
258.22	92.81
258.452	83.81
258.685	71.81
258.918	85.81
259.151	81.81
259.383	79.81
259.616	83.81
259.849	81.81
260.081	78.81
260.314	81.81
260.547	83.81
260.779	86.81
261.012	80.81
261.244	86.81
261.477	104.81
261.71	94.81
261.942	104.81
262.175	103.81
262.407	90.81
262.64	81.81
262.872	86.81
263.105	81.81
263.337	80.81
263.57	79.81
263.802	79.81
264.035	86.81
264.267	86.81
264.499	97.81
264.732	91.81
264.964	85.81
265.197	79.81
265.429	79.81
265.661	71.81
265.894	70.81
266.126	81.81
266.358	72.81
266.591	77.81
266.823	81.81
267.055	79.81
267.287	82.81
267.52	90.81
267.752	81.81
267.984	84.81
268.216	83.81
268.448	86.81
268.681	81.81
268.913	81.81
269.145	76.81
269.377	73.81
269.609	75.81
269.841	73.81
270.073	77.81
270.306	83.81
270.538	82.81
270.77	90.81
271.002	84.81
271.234	77.81
271.466	76.81
271.698	95.81
271.93	81.81
272.162	84.81
272.394	84.81
272.626	79.81
272.858	85.81
273.09	80.81
273.322	89.81
273.553	72.81
273.785	86.81
274.017	92.81
274.249	81.81
274.481	79.81
274.713	76.81
274.945	78.81
275.176	83.81
275.408	72.81
275.64	87.81
275.872	77.81
276.104	98.81
276.335	84.81
276.567	94.81
276.799	117.81
277.031	90.81
277.262	81.81
277.494	88.81
277.726	89.81
277.957	82.81
278.189	73.81
278.421	91.81
278.652	87.81
278.884	79.81
279.115	89.81
279.347	94.81
279.579	79.81
279.81	81.81
280.042	77.81
280.273	68.81
280.505	79.81
280.736	89.81
280.968	84.81
281.199	84.81
281.431	72.81
281.662	88.81
281.894	106.81
282.125	93.81
282.356	102.81
282.588	133.81
282.819	102.81
283.051	95.81
283.282	73.81
283.513	84.81
283.745	89.81
283.976	74.81
284.207	96.81
284.439	83.81
284.67	77.81
284.901	91.81
285.132	83.81
285.364	85.81
285.595	77.81
285.826	83.81
286.057	88.81
286.288	82.81
286.52	78.81
286.751	85.81
286.982	91.81
287.213	79.81
287.444	92.81
287.675	82.81
287.906	83.81
288.138	92.81
288.369	93.81
288.6	101.81
288.831	70.81
289.062	88.81
289.293	88.81
289.524	96.81
289.755	76.81
289.986	83.81
290.217	68.81
290.448	69.81
290.679	75.81
290.91	87.81
291.141	88.81
291.371	86.81
291.602	76.81
291.833	84.81
292.064	78.81
292.295	89.81
292.526	79.81
292.757	89.81
292.987	90.81
293.218	79.81
293.449	91.81
293.68	85.81
293.91	64.81
294.141	90.81
294.372	85.81
294.603	91.81
294.833	83.81
295.064	94.81
295.295	92.81
295.525	76.81
295.756	108.81
295.987	110.81
296.217	132.81
296.448	112.81
296.679	84.81
296.909	88.81
297.14	95.81
297.37	83.81
297.601	77.81
297.831	85.81
298.062	86.81
298.292	96.81
298.523	94.81
298.753	92.81
298.984	79.81
299.214	86.81
299.445	83.81
299.675	98.81
299.905	87.81
300.136	88.81
300.366	86.81
300.597	78.81
300.827	77.81
301.057	89.81
301.288	80.81
301.518	97.81
301.748	101.81
301.979	86.81
302.209	102.81
302.439	82.81
302.669	83.81
302.9	83.81
303.13	87.81
303.36	91.81
303.59	87.81
303.82	101.81
304.051	97.81
304.281	89.81
304.511	97.81
304.741	92.81
304.971	86.81
305.201	97.81
305.431	82.81
305.661	84.81
305.891	92.81
306.121	108.81
306.352	89.81
306.582	83.81
306.812	93.81
307.042	96.81
307.272	103.81
307.502	81.81
307.731	100.81
307.961	94.81
308.191	82.81
308.421	90.81
308.651	88.81
308.881	69.81
309.111	80.81
309.341	80.81
309.571	88.81
309.8	92.81
310.03	99.81
310.26	86.81
310.49	89.81
310.72	92.81
310.949	104.81
311.179	88.81
311.409	80.81
311.639	82.81
311.868	86.81
312.098	93.81
312.328	104.81
312.557	106.81
312.787	99.81
313.017	99.81
313.246	96.81
313.476	80.81
313.706	83.81
313.935	82.81
314.165	93.81
314.394	102.81
314.624	89.81
314.853	83.81
315.083	95.81
315.312	112.81
315.542	95.81
315.771	80.81
316.001	90.81
316.23	77.81
316.46	89.81
316.689	103.81
316.919	78.81
317.148	92.81
317.377	96.81
317.607	98.81
317.836	89.81
318.065	101.81
318.295	89.81
318.524	93.81
318.753	75.81
318.983	87.81
319.212	105.81
319.441	99.81
319.67	111.81
319.9	79.81
320.129	92.81
320.358	87.81
320.587	97.81
320.816	85.81
321.046	94.81
321.275	91.81
321.504	94.81
321.733	111.81
321.962	91.81
322.191	104.81
322.42	109.81
322.649	112.81
322.878	113.81
323.108	114.81
323.337	121.81
323.566	119.81
323.795	142.81
324.024	194.81
324.253	359.81
324.482	815.81
324.71	1622.81
324.939	2087.81
325.168	766.81
325.397	233.81
325.626	141.81
325.855	123.81
326.084	109.81
326.313	117.81
326.542	154.81
326.77	212.81
326.999	417.81
327.228	879.81
327.457	1669.81
327.686	1303.81
327.914	361.81
328.143	188.81
328.372	124.81
328.6	113.81
328.829	104.81
329.058	116.81
329.287	132.81
329.515	107.81
329.744	113.81
329.972	100.81
330.201	97.81
330.43	114.81
330.658	124.81
330.887	126.81
331.115	116.81
331.344	105.81
331.572	103.81
331.801	87.81
332.03	98.81
332.258	97.81
332.486	87.81
332.715	88.81
332.943	101.81
333.172	88.81
333.4	94.81
333.629	107.81
333.857	107.81
334.085	105.81
334.314	96.81
334.542	112.81
334.771	111.81
334.999	100.81
335.227	93.81
335.455	102.81
335.684	103.81
335.912	68.81
336.14	101.81
336.369	93.81
336.597	92.81
336.825	94.81
337.053	79.81
337.281	83.81
337.51	90.81
337.738	83.81
337.966	90.81
338.194	89.81
338.422	81.81
338.65	85.81
338.878	79.81
339.106	95.81
339.334	81.81
339.562	79.81
339.79	92.81
340.018	77.81
340.246	108.81
340.474	87.81
340.702	93.81
340.93	99.81
341.158	79.81
341.386	85.81
341.614	98.81
341.842	94.81
342.07	71.81
342.298	94.81
342.526	85.81
342.754	88.81
342.981	82.81
343.209	91.81
343.437	103.81
343.665	88.81
343.893	81.81
344.12	91.81
344.348	85.81
344.576	89.81
344.804	89.81
345.031	100.81
345.259	102.81
345.487	100.81
345.714	83.81
345.942	90.81
346.17	94.81
346.397	102.81
346.625	100.81
346.853	87.81
347.08	92.81
347.308	103.81
347.535	89.81
347.763	82.81
347.99	99.81
348.218	99.81
348.445	99.81
348.673	96.81
348.9	101.81
349.128	89.81
349.355	95.81
349.583	93.81
349.81	95.81
350.037	91.81
350.265	88.81
350.492	93.81
350.72	84.81
350.947	92.81
351.174	115.81
351.402	99.81
351.629	95.81
351.856	93.81
352.083	105.81
352.311	95.81
352.538	87.81
352.765	107.81
352.992	118.81
353.22	108.81
353.447	100.81
353.674	97.81
353.901	96.81
354.128	89.81
354.355	93.81
354.583	80.81
354.81	92.81
355.037	99.81
355.264	103.81
355.491	85.81
355.718	69.81
355.945	92.81
356.172	89.81
356.399	100.81
356.626	103.81
356.853	85.81
357.08	83.81
357.307	90.81
357.534	96.81
357.761	95.81
357.988	91.81
358.215	94.81
358.441	88.81
358.668	92.81
358.895	87.81
359.122	82.81
359.349	86.81
359.576	91.81
359.802	96.81
360.029	108.81
360.256	105.81
360.483	99.81
360.709	101.81
360.936	102.81
361.163	81.81
361.39	95.81
361.616	92.81
361.843	79.81
362.07	89.81
362.296	108.81
362.523	87.81
362.749	91.81
362.976	104.81
363.203	81.81
363.429	89.81
363.656	87.81
363.882	84.81
364.109	87.81
364.335	89.81
364.562	89.81
364.788	86.81
365.015	80.81
365.241	96.81
365.468	113.81
365.694	91.81
365.92	104.81
366.147	82.81
366.373	81.81
366.599	81.81
366.826	85.81
367.052	98.81
367.278	100.81
367.505	95.81
367.731	79.81
367.957	98.81
368.184	103.81
368.41	93.81
368.636	105.81
368.862	110.81
369.089	96.81
369.315	108.81
369.541	97.81
369.767	83.81
369.993	86.81
370.219	92.81
370.445	98.81
370.672	79.81
370.898	90.81
371.124	67.81
371.35	97.81
371.576	97.81
371.802	102.81
372.028	99.81
372.254	86.81
372.48	98.81
372.706	83.81
372.932	82.81
373.158	94.81
373.384	82.81
373.61	85.81
373.835	82.81
374.061	96.81
374.287	87.81
374.513	80.81
374.739	97.81
374.965	79.81
375.191	72.81
375.416	97.81
375.642	83.81
375.868	94.81
376.094	81.81
376.319	93.81
376.545	89.81
376.771	91.81
376.997	88.81
377.222	75.81
377.448	99.81
377.674	88.81
377.899	82.81
378.125	108.81
378.35	91.81
378.576	89.81
378.802	83.81
379.027	87.81
379.253	84.81
379.478	77.81
379.704	106.81
379.929	93.81
380.155	95.81
380.38	86.81
380.606	95.81
380.831	98.81
381.057	92.81
381.282	105.81
381.507	110.81
381.733	99.81
381.958	86.81
382.184	71.81
382.409	95.81
382.634	93.81
382.86	87.81
383.085	97.81
383.31	97.81
383.535	88.81
383.761	101.81
383.986	84.81
384.211	95.81
384.436	97.81
384.662	83.81
384.887	88.81
385.112	119.81
385.337	96.81
385.562	98.81
385.787	102.81
386.013	94.81
386.238	97.81
386.463	91.81
386.688	103.81
386.913	84.81
387.138	88.81
387.363	96.81
387.588	100.81
387.813	86.81
388.038	84.81
388.263	114.81
388.488	93.81
388.713	91.81
388.938	105.81
389.163	97.81
389.387	76.81
389.612	99.81
389.837	83.81
390.062	96.81
390.287	97.81
390.512	84.81
390.736	100.81
390.961	72.81
391.186	86.81
391.411	98.81
391.636	75.81
391.86	82.81
392.085	89.81
392.31	85.81
392.534	88.81
392.759	92.81
392.984	86.81
393.208	86.81
393.433	92.81
393.658	92.81
393.882	83.81
394.107	85.81
394.331	83.81
394.556	96.81
394.78	94.81
395.005	72.81
395.229	83.81
395.454	99.81
395.678	78.81
395.903	82.81
396.127	94.81
396.352	93.81
396.576	91.81
396.801	87.81
397.025	89.81
397.249	92.81
397.474	82.81
397.698	93.81
397.922	77.81
398.147	73.81
398.371	82.81
398.595	91.81
398.82	91.81
399.044	79.81
399.268	84.81
399.492	97.81
399.717	83.81
399.941	73.81
400.165	86.81
400.389	91.81
400.613	85.81
400.837	94.81
401.062	83.81
401.286	76.81
401.51	88.81
401.734	85.81
401.958	94.81
402.182	112.81
402.406	146.81
402.63	100.81
402.854	85.81
403.078	112.81
403.302	85.81
403.526	81.81
403.75	93.81
403.974	83.81
404.198	77.81
404.422	99.81
404.645	85.81
404.869	94.81
405.093	89.81
405.317	97.81
405.541	91.81
405.765	89.81
405.988	121.81
406.212	162.81
406.436	209.81
406.66	148.81
406.883	92.81
407.107	91.81
407.331	101.81
407.555	94.81
407.778	98.81
408.002	93.81
408.226	100.81
408.449	81.81
408.673	86.81
408.896	86.81
409.12	86.81
409.344	96.81
409.567	89.81
409.791	81.81
410.014	102.81
410.238	84.81
410.461	83.81
410.685	74.81
410.908	104.81
411.132	100.81
411.355	101.81
411.578	96.81
411.802	99.81
412.025	91.81
412.249	87.81
412.472	79.81
412.695	96.81
412.919	91.81
413.142	95.81
413.365	95.81
413.589	77.81
413.812	87.81
414.035	97.81
414.258	93.81
414.482	78.81
414.705	82.81
414.928	84.81
415.151	87.81
415.374	94.81
415.597	89.81
415.821	94.81
416.044	85.81
416.267	77.81
416.49	88.81
416.713	97.81
416.936	85.81
417.159	70.81
417.382	86.81
417.605	81.81
417.828	97.81
418.051	76.81
418.274	91.81
418.497	91.81
418.72	78.81
418.943	95.81
419.166	105.81
419.389	86.81
419.611	87.81
419.834	83.81
420.057	90.81
420.28	87.81
420.503	91.81
420.726	93.81
420.948	88.81
421.171	95.81
421.394	98.81
421.617	85.81
421.839	80.81
422.062	92.81
422.285	91.81
422.507	101.81
422.73	94.81
422.953	83.81
423.175	86.81
423.398	78.81
423.621	100.81
423.843	79.81
424.066	84.81
424.288	95.81
424.511	94.81
424.733	102.81
424.956	96.81
425.178	91.81
425.401	113.81
425.623	108.81
425.846	106.81
426.068	87.81
426.291	79.81
426.513	84.81
426.735	102.81
426.958	93.81
427.18	95.81
427.402	136.81
427.625	161.81
427.847	126.81
428.069	101.81
428.292	84.81
428.514	89.81
428.736	92.81
428.958	82.81
429.181	73.81
429.403	79.81
429.625	81.81
429.847	96.81
430.069	99.81
430.292	88.81
430.514	95.81
430.736	71.81
430.958	92.81
431.18	98.81
431.402	92.81
431.624	81.81
431.846	99.81
432.068	86.81
432.29	94.81
432.512	95.81
432.734	80.81
432.956	88.81
433.178	102.81
433.4	103.81
433.622	93.81
433.844	99.81
434.066	96.81
434.287	99.81
434.509	85.81
434.731	92.81
434.953	67.81
435.175	81.81
435.397	88.81
435.618	107.81
435.84	105.81
436.062	107.81
436.284	104.81
436.505	91.81
436.727	108.81
436.949	94.81
437.17	92.81
437.392	87.81
437.614	92.81
437.835	100.81
438.057	105.81
438.278	90.81
438.5	91.81
438.721	120.81
438.943	89.81
439.165	76.81
439.386	96.81
439.608	98.81
439.829	102.81
440.05	112.81
440.272	130.81
440.493	95.81
440.715	92.81
440.936	80.81
441.158	96.81
441.379	97.81
441.6	98.81
441.822	99.81
442.043	97.81
442.264	95.81
442.486	99.81
442.707	93.81
442.928	102.81
443.149	133.81
443.371	129.81
443.592	105.81
443.813	98.81
444.034	110.81
444.255	101.81
444.476	85.81
444.698	84.81
444.919	71.81
445.14	117.81
445.361	120.81
445.582	116.81
445.803	135.81
446.024	132.81
446.245	126.81
446.466	114.81
446.687	93.81
446.908	87.81
447.129	83.81
447.35	88.81
447.571	97.81
447.792	86.81
448.013	103.81
448.234	91.81
448.455	77.81
448.675	120.81
448.896	120.81
449.117	78.81
449.338	100.81
449.559	120.81
449.779	122.81
450	92.81
450.221	94.81
450.442	99.81
450.662	84.81
450.883	94.81
451.104	119.81
451.324	105.81
451.545	84.81
451.766	93.81
451.986	95.81
452.207	82.81
452.428	89.81
452.648	93.81
452.869	96.81
453.089	106.81
453.31	126.81
453.53	95.81
453.751	87.81
453.971	100.81
454.192	90.81
454.412	71.81
454.633	91.81
454.853	81.81
455.073	72.81
455.294	83.81
455.514	103.81
455.734	83.81
455.955	88.81
456.175	99.81
456.395	81.81
456.616	88.81
456.836	76.81
457.056	86.81
457.276	75.81
457.497	92.81
457.717	82.81
457.937	87.81
458.157	81.81
458.377	98.81
458.598	113.81
458.818	159.81
459.038	141.81
459.258	115.81
459.478	91.81
459.698	73.81
459.918	77.81
460.138	73.81
460.358	87.81
460.578	85.81
460.798	90.81
461.018	81.81
461.238	84.81
461.458	88.81
461.678	83.81
461.898	82.81
462.118	88.81
462.338	72.81
462.558	89.81
462.777	79.81
462.997	86.81
463.217	78.81
463.437	83.81
463.657	85.81
463.876	81.81
464.096	94.81
464.316	86.81
464.536	85.81
464.755	94.81
464.975	108.81
465.195	170.81
465.414	129.81
465.634	81.81
465.854	84.81
466.073	79.81
466.293	71.81
466.512	75.81
466.732	79.81
466.951	79.81
467.171	88.81
467.391	99.81
467.61	85.81
467.829	96.81
468.049	95.81
468.268	96.81
468.488	91.81
468.707	84.81
468.927	94.81
469.146	89.81
469.365	97.81
469.585	81.81
469.804	96.81
470.023	111.81
470.243	93.81
470.462	98.81
470.681	89.81
470.901	82.81
471.12	77.81
471.339	97.81
471.558	89.81
471.777	86.81
471.997	87.81
472.216	103.81
472.435	110.81
472.654	85.81
472.873	85.81
473.092	87.81
473.311	79.81
473.53	83.81
473.749	86.81
473.968	86.81
474.187	103.81
474.406	100.81
474.625	96.81
474.844	94.81
475.063	80.81
475.282	82.81
475.501	87.81
475.72	101.81
475.939	79.81
476.158	94.81
476.377	100.81
476.596	80.81
476.814	91.81
477.033	78.81
477.252	96.81
477.471	100.81
477.69	86.81
477.908	95.81
478.127	82.81
478.346	73.81
478.564	79.81
478.783	99.81
479.002	93.81
479.22	104.81
479.439	95.81
479.658	96.81
479.876	81.81
480.095	99.81
480.313	92.81
480.532	91.81
480.751	91.81
480.969	109.81
481.188	136.81
481.406	127.81
481.624	80.81
481.843	93.81
482.061	99.81
482.28	84.81
482.498	84.81
482.717	94.81
482.935	95.81
483.153	95.81
483.372	83.81
483.59	94.81
483.808	96.81
484.027	87.81
484.245	85.81
484.463	88.81
484.681	96.81
484.9	103.81
485.118	103.81
485.336	96.81
485.554	87.81
485.772	107.81
485.99	100.81
486.209	107.81
486.427	103.81
486.645	105.81
486.863	106.81
487.081	96.81
487.299	103.81
487.517	105.81
487.735	99.81
487.953	79.81
488.171	98.81
488.389	93.81
488.607	89.81
488.825	78.81
489.043	82.81
489.261	98.81
489.479	80.81
489.696	93.81
489.914	88.81
490.132	108.81
490.35	93.81
490.568	83.81
490.786	85.81
491.003	78.81
491.221	83.81
491.439	90.81
491.657	83.81
491.874	98.81
492.092	94.81
492.31	99.81
492.527	91.81
492.745	85.81
492.963	86.81
493.18	95.81
493.398	90.81
493.615	89.81
493.833	88.81
494.05	108.81
494.268	82.81
494.485	73.81
494.703	97.81
494.92	88.81
495.138	96.81
495.355	86.81
495.573	97.81
495.79	90.81
496.008	85.81
496.225	95.81
496.442	79.81
496.66	76.81
496.877	86.81
497.094	78.81
497.312	90.81
497.529	100.81
497.746	88.81
497.963	91.81
498.181	89.81
498.398	83.81
498.615	96.81
498.832	95.81
499.049	102.81
499.267	91.81
499.484	87.81
499.701	86.81
499.918	80.81
500.135	83.81
500.352	102.81
500.569	87.81
500.786	84.81
501.003	99.81
501.22	95.81
501.437	91.81
501.654	93.81
501.871	94.81
502.088	101.81
502.305	89.81
502.522	91.81
502.739	92.81
502.956	90.81
503.172	93.81
503.389	86.81
503.606	97.81
503.823	104.81
504.04	98.81
504.256	87.81
504.473	81.81
504.69	104.81
504.907	105.81
505.123	86.81
505.34	110.81
505.557	85.81
505.773	93.81
505.99	94.81
506.207	81.81
506.423	87.81
506.64	92.81
506.856	84.81
507.073	96.81
507.289	99.81
507.506	99.81
507.722	91.81
507.939	111.81
508.155	86.81
508.372	91.81
508.588	88.81
508.805	93.81
509.021	92.81
509.238	93.81
509.454	100.81
509.67	105.81
509.887	103.81
510.103	124.81
510.319	200.81
510.536	692.81
510.752	2181.81
510.968	595.81
511.184	128.81
511.401	105.81
511.617	100.81
511.833	103.81
512.049	82.81
512.265	87.81
512.481	99.81
512.698	100.81
512.914	101.81
513.13	93.81
513.346	79.81
513.562	92.81
513.778	107.81
513.994	100.81
514.21	101.81
514.426	112.81
514.642	127.81
514.858	126.81
515.074	157.81
515.29	435.81
515.506	1337.81
515.721	495.81
515.937	136.81
516.153	107.81
516.369	102.81
