Data from Uncirc_1988_H10_HRD10591_00002.txt Node
Date: Wed Jan 03 12:04:04 EST 2024
User: Yrep
Spectrometer: HR+D1059
Trigger mode: 1
Integration Time (sec): 1.000000E-1
Scans to average: 1
Electric dark correction enabled: true
Nonlinearity correction enabled: false
Boxcar width: 0
XAxis mode: Wavelengths
Number of Pixels in Spectrum: 2048
>>>>>Begin Spectral Data<<<<<
223.165	-28.44
223.4	-28.44
223.635	-28.44
223.869	-23.44
224.104	-12.44
224.338	-15.44
224.573	-16.44
224.808	-21.44
225.042	-23.44
225.277	-0.44
225.511	7.56
225.746	3.56
225.98	13.56
226.215	15.56
226.449	26.56
226.683	21.56
226.918	22.56
227.152	30.56
227.387	37.56
227.621	40.56
227.856	46.56
228.09	49.56
228.324	32.56
228.559	56.56
228.793	59.56
229.027	64.56
229.262	62.56
229.496	72.56
229.73	81.56
229.964	70.56
230.199	84.56
230.433	81.56
230.667	68.56
230.901	79.56
231.136	84.56
231.37	76.56
231.604	87.56
231.838	90.56
232.072	69.56
232.306	72.56
232.541	77.56
232.775	78.56
233.009	79.56
233.243	76.56
233.477	80.56
233.711	78.56
233.945	77.56
234.179	67.56
234.413	78.56
234.647	78.56
234.881	75.56
235.115	87.56
235.349	73.56
235.583	79.56
235.817	82.56
236.051	76.56
236.285	75.56
236.519	68.56
236.753	71.56
236.987	75.56
237.221	84.56
237.455	88.56
237.689	81.56
237.922	77.56
238.156	66.56
238.39	74.56
238.624	58.56
238.858	70.56
239.091	62.56
239.325	74.56
239.559	68.56
239.793	82.56
240.027	78.56
240.26	72.56
240.494	80.56
240.728	79.56
240.961	77.56
241.195	85.56
241.429	87.56
241.662	78.56
241.896	71.56
242.13	66.56
242.363	79.56
242.597	79.56
242.83	78.56
243.064	83.56
243.298	89.56
243.531	76.56
243.765	76.56
243.998	78.56
244.232	81.56
244.465	85.56
244.699	67.56
244.932	65.56
245.166	82.56
245.399	87.56
245.633	80.56
245.866	84.56
246.099	80.56
246.333	80.56
246.566	68.56
246.8	74.56
247.033	83.56
247.266	71.56
247.5	82.56
247.733	80.56
247.966	68.56
248.2	82.56
248.433	84.56
248.666	77.56
248.899	84.56
249.133	80.56
249.366	81.56
249.599	96.56
249.832	80.56
250.066	77.56
250.299	69.56
250.532	77.56
250.765	67.56
250.998	74.56
251.231	84.56
251.465	79.56
251.698	83.56
251.931	89.56
252.164	68.56
252.397	75.56
252.63	90.56
252.863	72.56
253.096	94.56
253.329	87.56
253.562	79.56
253.795	77.56
254.028	79.56
254.261	65.56
254.494	80.56
254.727	78.56
254.96	65.56
255.193	71.56
255.426	72.56
255.659	78.56
255.892	94.56
256.124	83.56
256.357	82.56
256.59	76.56
256.823	71.56
257.056	66.56
257.289	77.56
257.521	83.56
257.754	77.56
257.987	74.56
258.22	84.56
258.452	76.56
258.685	86.56
258.918	86.56
259.151	83.56
259.383	74.56
259.616	80.56
259.849	86.56
260.081	86.56
260.314	88.56
260.547	75.56
260.779	85.56
261.012	98.56
261.244	84.56
261.477	88.56
261.71	96.56
261.942	100.56
262.175	100.56
262.407	92.56
262.64	84.56
262.872	93.56
263.105	84.56
263.337	78.56
263.57	87.56
263.802	93.56
264.035	86.56
264.267	76.56
264.499	82.56
264.732	84.56
264.964	83.56
265.197	92.56
265.429	97.56
265.661	80.56
265.894	91.56
266.126	73.56
266.358	85.56
266.591	83.56
266.823	69.56
267.055	79.56
267.287	66.56
267.52	76.56
267.752	94.56
267.984	78.56
268.216	90.56
268.448	82.56
268.681	101.56
268.913	89.56
269.145	70.56
269.377	90.56
269.609	76.56
269.841	79.56
270.073	78.56
270.306	83.56
270.538	80.56
270.77	77.56
271.002	82.56
271.234	80.56
271.466	76.56
271.698	75.56
271.93	77.56
272.162	85.56
272.394	83.56
272.626	77.56
272.858	78.56
273.09	90.56
273.322	71.56
273.553	86.56
273.785	87.56
274.017	84.56
274.249	88.56
274.481	91.56
274.713	85.56
274.945	78.56
275.176	97.56
275.408	76.56
275.64	74.56
275.872	79.56
276.104	97.56
276.335	108.56
276.567	96.56
276.799	98.56
277.031	103.56
277.262	86.56
277.494	83.56
277.726	84.56
277.957	88.56
278.189	86.56
278.421	80.56
278.652	99.56
278.884	78.56
279.115	100.56
279.347	82.56
279.579	78.56
279.81	96.56
280.042	86.56
280.273	91.56
280.505	92.56
280.736	96.56
280.968	81.56
281.199	96.56
281.431	90.56
281.662	85.56
281.894	87.56
282.125	84.56
282.356	103.56
282.588	112.56
282.819	110.56
283.051	97.56
283.282	77.56
283.513	75.56
283.745	86.56
283.976	78.56
284.207	74.56
284.439	96.56
284.67	85.56
284.901	102.56
285.132	81.56
285.364	96.56
285.595	94.56
285.826	90.56
286.057	87.56
286.288	87.56
286.52	85.56
286.751	84.56
286.982	87.56
287.213	74.56
287.444	81.56
287.675	94.56
287.906	78.56
288.138	82.56
288.369	90.56
288.6	94.56
288.831	95.56
289.062	77.56
289.293	83.56
289.524	97.56
289.755	78.56
289.986	85.56
290.217	85.56
290.448	75.56
290.679	97.56
290.91	78.56
291.141	91.56
291.371	83.56
291.602	80.56
291.833	98.56
292.064	83.56
292.295	83.56
292.526	88.56
292.757	82.56
292.987	91.56
293.218	87.56
293.449	96.56
293.68	95.56
293.91	84.56
294.141	96.56
294.372	95.56
294.603	82.56
294.833	82.56
295.064	95.56
295.295	87.56
295.525	75.56
295.756	91.56
295.987	91.56
296.217	115.56
296.448	109.56
296.679	94.56
296.909	80.56
297.14	86.56
297.37	94.56
297.601	86.56
297.831	74.56
298.062	75.56
298.292	84.56
298.523	89.56
298.753	87.56
298.984	87.56
299.214	80.56
299.445	90.56
299.675	98.56
299.905	92.56
300.136	89.56
300.366	101.56
300.597	70.56
300.827	95.56
301.057	104.56
301.288	79.56
301.518	92.56
301.748	94.56
301.979	96.56
302.209	94.56
302.439	90.56
302.669	92.56
302.9	85.56
303.13	89.56
303.36	91.56
303.59	99.56
303.82	87.56
304.051	98.56
304.281	95.56
304.511	87.56
304.741	92.56
304.971	92.56
305.201	89.56
305.431	81.56
305.661	79.56
305.891	80.56
306.121	96.56
306.352	97.56
306.582	95.56
306.812	87.56
307.042	95.56
307.272	87.56
307.502	82.56
307.731	85.56
307.961	95.56
308.191	82.56
308.421	89.56
308.651	104.56
308.881	99.56
309.111	85.56
309.341	95.56
309.571	92.56
309.8	88.56
310.03	97.56
310.26	98.56
310.49	98.56
310.72	101.56
310.949	91.56
311.179	96.56
311.409	96.56
311.639	95.56
311.868	94.56
312.098	96.56
312.328	90.56
312.557	92.56
312.787	91.56
313.017	103.56
313.246	84.56
313.476	103.56
313.706	83.56
313.935	79.56
314.165	103.56
314.394	95.56
314.624	85.56
314.853	82.56
315.083	92.56
315.312	86.56
315.542	100.56
315.771	94.56
316.001	80.56
316.23	94.56
316.46	93.56
316.689	78.56
316.919	87.56
317.148	85.56
317.377	95.56
317.607	94.56
317.836	95.56
318.065	91.56
318.295	79.56
318.524	100.56
318.753	90.56
318.983	93.56
319.212	94.56
319.441	95.56
319.67	100.56
319.9	102.56
320.129	86.56
320.358	93.56
320.587	81.56
320.816	107.56
321.046	92.56
321.275	87.56
321.504	90.56
321.733	102.56
321.962	116.56
322.191	113.56
322.42	107.56
322.649	97.56
322.878	104.56
323.108	115.56
323.337	125.56
323.566	133.56
323.795	135.56
324.024	192.56
324.253	369.56
324.482	792.56
324.71	1672.56
324.939	2202.56
325.168	800.56
325.397	242.56
325.626	150.56
325.855	142.56
326.084	117.56
326.313	120.56
326.542	139.56
326.77	246.56
326.999	446.56
327.228	934.56
327.457	1723.56
327.686	1399.56
327.914	346.56
328.143	167.56
328.372	135.56
328.6	123.56
328.829	108.56
329.058	123.56
329.287	126.56
329.515	105.56
329.744	98.56
329.972	90.56
330.201	101.56
330.43	104.56
330.658	109.56
330.887	116.56
331.115	99.56
331.344	97.56
331.572	93.56
331.801	110.56
332.03	114.56
332.258	109.56
332.486	97.56
332.715	90.56
332.943	92.56
333.172	87.56
333.4	72.56
333.629	94.56
333.857	99.56
334.085	99.56
334.314	94.56
334.542	108.56
334.771	91.56
334.999	93.56
335.227	99.56
335.455	102.56
335.684	101.56
335.912	88.56
336.14	103.56
336.369	95.56
336.597	94.56
336.825	96.56
337.053	98.56
337.281	103.56
337.51	80.56
337.738	92.56
337.966	87.56
338.194	84.56
338.422	93.56
338.65	87.56
338.878	90.56
339.106	91.56
339.334	94.56
339.562	88.56
339.79	86.56
340.018	87.56
340.246	101.56
340.474	88.56
340.702	88.56
340.93	97.56
341.158	86.56
341.386	88.56
341.614	94.56
341.842	87.56
342.07	81.56
342.298	84.56
342.526	96.56
342.754	84.56
342.981	79.56
343.209	89.56
343.437	99.56
343.665	86.56
343.893	97.56
344.12	97.56
344.348	85.56
344.576	84.56
344.804	96.56
345.031	94.56
345.259	100.56
345.487	102.56
345.714	90.56
345.942	87.56
346.17	90.56
346.397	85.56
346.625	94.56
346.853	89.56
347.08	83.56
347.308	95.56
347.535	88.56
347.763	99.56
347.99	91.56
348.218	100.56
348.445	109.56
348.673	99.56
348.9	91.56
349.128	101.56
349.355	90.56
349.583	103.56
349.81	95.56
350.037	98.56
350.265	96.56
350.492	92.56
350.72	103.56
350.947	90.56
351.174	106.56
351.402	84.56
351.629	85.56
351.856	87.56
352.083	101.56
352.311	92.56
352.538	109.56
352.765	99.56
352.992	101.56
353.22	96.56
353.447	109.56
353.674	93.56
353.901	101.56
354.128	100.56
354.355	103.56
354.583	92.56
354.81	99.56
355.037	91.56
355.264	97.56
355.491	89.56
355.718	87.56
355.945	108.56
356.172	103.56
356.399	104.56
356.626	95.56
356.853	102.56
357.08	68.56
357.307	85.56
357.534	86.56
357.761	97.56
357.988	93.56
358.215	86.56
358.441	93.56
358.668	78.56
358.895	98.56
359.122	85.56
359.349	99.56
359.576	91.56
359.802	90.56
360.029	107.56
360.256	103.56
360.483	101.56
360.709	97.56
360.936	102.56
361.163	91.56
361.39	83.56
361.616	77.56
361.843	98.56
362.07	87.56
362.296	99.56
362.523	104.56
362.749	97.56
362.976	80.56
363.203	78.56
363.429	94.56
363.656	97.56
363.882	78.56
364.109	96.56
364.335	88.56
364.562	99.56
364.788	97.56
365.015	81.56
365.241	89.56
365.468	103.56
365.694	111.56
365.92	83.56
366.147	84.56
366.373	79.56
366.599	93.56
366.826	102.56
367.052	88.56
367.278	104.56
367.505	109.56
367.731	92.56
367.957	84.56
368.184	91.56
368.41	91.56
368.636	117.56
368.862	97.56
369.089	87.56
369.315	90.56
369.541	94.56
369.767	81.56
369.993	94.56
370.219	79.56
370.445	82.56
370.672	80.56
370.898	91.56
371.124	81.56
371.35	88.56
371.576	86.56
371.802	84.56
372.028	91.56
372.254	82.56
372.48	82.56
372.706	85.56
372.932	109.56
373.158	96.56
373.384	87.56
373.61	96.56
373.835	88.56
374.061	86.56
374.287	93.56
374.513	92.56
374.739	92.56
374.965	75.56
375.191	103.56
375.416	104.56
375.642	76.56
375.868	91.56
376.094	93.56
376.319	93.56
376.545	99.56
376.771	100.56
376.997	90.56
377.222	88.56
377.448	88.56
377.674	99.56
377.899	94.56
378.125	87.56
378.35	99.56
378.576	98.56
378.802	94.56
379.027	91.56
379.253	91.56
379.478	85.56
379.704	91.56
379.929	85.56
380.155	91.56
380.38	92.56
380.606	102.56
380.831	103.56
381.057	96.56
381.282	98.56
381.507	89.56
381.733	81.56
381.958	87.56
382.184	90.56
382.409	94.56
382.634	105.56
382.86	90.56
383.085	113.56
383.31	105.56
383.535	107.56
383.761	95.56
383.986	101.56
384.211	103.56
384.436	96.56
384.662	100.56
384.887	88.56
385.112	97.56
385.337	105.56
385.562	106.56
385.787	86.56
386.013	112.56
386.238	102.56
386.463	101.56
386.688	108.56
386.913	102.56
387.138	95.56
387.363	116.56
387.588	103.56
387.813	93.56
388.038	90.56
388.263	119.56
388.488	110.56
388.713	95.56
388.938	97.56
389.163	106.56
389.387	95.56
389.612	102.56
389.837	93.56
390.062	97.56
390.287	90.56
390.512	74.56
390.736	100.56
390.961	93.56
391.186	99.56
391.411	102.56
391.636	96.56
391.86	88.56
392.085	90.56
392.31	88.56
392.534	78.56
392.759	86.56
392.984	94.56
393.208	94.56
393.433	99.56
393.658	95.56
393.882	78.56
394.107	70.56
394.331	92.56
394.556	87.56
394.78	78.56
395.005	85.56
395.229	64.56
395.454	75.56
395.678	79.56
395.903	98.56
396.127	94.56
396.352	86.56
396.576	99.56
396.801	97.56
397.025	99.56
397.249	102.56
397.474	92.56
397.698	88.56
397.922	93.56
398.147	90.56
398.371	85.56
398.595	76.56
398.82	79.56
399.044	87.56
399.268	64.56
399.492	72.56
399.717	90.56
399.941	94.56
400.165	97.56
400.389	88.56
400.613	94.56
400.837	78.56
401.062	78.56
401.286	84.56
401.51	88.56
401.734	99.56
401.958	123.56
402.182	113.56
402.406	141.56
402.63	110.56
402.854	88.56
403.078	92.56
403.302	80.56
403.526	75.56
403.75	80.56
403.974	85.56
404.198	82.56
404.422	95.56
404.645	91.56
404.869	80.56
405.093	87.56
405.317	98.56
405.541	77.56
405.765	102.56
405.988	105.56
406.212	131.56
406.436	164.56
406.66	125.56
406.883	101.56
407.107	83.56
407.331	86.56
407.555	96.56
407.778	100.56
408.002	93.56
408.226	87.56
408.449	102.56
408.673	97.56
408.896	84.56
409.12	87.56
409.344	99.56
409.567	90.56
409.791	91.56
410.014	101.56
410.238	84.56
410.461	83.56
410.685	97.56
410.908	98.56
411.132	98.56
411.355	92.56
411.578	83.56
411.802	83.56
412.025	100.56
412.249	90.56
412.472	95.56
412.695	102.56
412.919	99.56
413.142	85.56
413.365	83.56
413.589	87.56
413.812	92.56
414.035	99.56
414.258	81.56
414.482	90.56
414.705	104.56
414.928	98.56
415.151	91.56
415.374	98.56
415.597	83.56
415.821	86.56
416.044	88.56
416.267	83.56
416.49	84.56
416.713	92.56
416.936	72.56
417.159	82.56
417.382	78.56
417.605	76.56
417.828	102.56
418.051	103.56
418.274	92.56
418.497	87.56
418.72	82.56
418.943	92.56
419.166	78.56
419.389	85.56
419.611	102.56
419.834	84.56
420.057	94.56
420.28	70.56
420.503	91.56
420.726	85.56
420.948	89.56
421.171	88.56
421.394	94.56
421.617	87.56
421.839	70.56
422.062	96.56
422.285	90.56
422.507	103.56
422.73	97.56
422.953	92.56
423.175	95.56
423.398	85.56
423.621	74.56
423.843	82.56
424.066	82.56
424.288	95.56
424.511	94.56
424.733	98.56
424.956	101.56
425.178	102.56
425.401	92.56
425.623	102.56
425.846	92.56
426.068	96.56
426.291	103.56
426.513	84.56
426.735	87.56
426.958	102.56
427.18	104.56
427.402	144.56
427.625	166.56
427.847	119.56
428.069	98.56
428.292	88.56
428.514	88.56
428.736	87.56
428.958	86.56
429.181	85.56
429.403	83.56
429.625	83.56
429.847	90.56
430.069	90.56
430.292	96.56
430.514	62.56
430.736	81.56
430.958	93.56
431.18	81.56
431.402	78.56
431.624	83.56
431.846	92.56
432.068	91.56
432.29	90.56
432.512	90.56
432.734	83.56
432.956	96.56
433.178	97.56
433.4	83.56
433.622	91.56
433.844	79.56
434.066	95.56
434.287	90.56
434.509	97.56
434.731	82.56
434.953	85.56
435.175	86.56
435.397	100.56
435.618	86.56
435.84	92.56
436.062	118.56
436.284	118.56
436.505	99.56
436.727	95.56
436.949	90.56
437.17	92.56
437.392	83.56
437.614	98.56
437.835	97.56
438.057	109.56
438.278	115.56
438.5	106.56
438.721	103.56
438.943	95.56
439.165	91.56
439.386	79.56
439.608	89.56
439.829	85.56
440.05	118.56
440.272	139.56
440.493	102.56
440.715	84.56
440.936	96.56
441.158	84.56
441.379	79.56
441.6	91.56
441.822	92.56
442.043	93.56
442.264	99.56
442.486	104.56
442.707	89.56
442.928	101.56
443.149	125.56
443.371	118.56
443.592	92.56
443.813	113.56
444.034	121.56
444.255	81.56
444.476	89.56
444.698	99.56
444.919	99.56
445.14	132.56
445.361	131.56
445.582	116.56
445.803	145.56
446.024	131.56
446.245	149.56
446.466	110.56
446.687	96.56
446.908	79.56
447.129	88.56
447.35	100.56
447.571	91.56
447.792	89.56
448.013	99.56
448.234	107.56
448.455	103.56
448.675	112.56
448.896	123.56
449.117	84.56
449.338	98.56
449.559	124.56
449.779	121.56
450	85.56
450.221	100.56
450.442	96.56
450.662	93.56
450.883	94.56
451.104	101.56
451.324	99.56
451.545	74.56
451.766	70.56
451.986	86.56
452.207	85.56
452.428	95.56
452.648	92.56
452.869	111.56
453.089	108.56
453.31	111.56
453.53	87.56
453.751	98.56
453.971	95.56
454.192	91.56
454.412	91.56
454.633	87.56
454.853	86.56
455.073	100.56
455.294	93.56
455.514	83.56
455.734	78.56
455.955	92.56
456.175	72.56
456.395	91.56
456.616	69.56
456.836	84.56
457.056	80.56
457.276	91.56
457.497	72.56
457.717	76.56
457.937	92.56
458.157	84.56
458.377	90.56
458.598	104.56
458.818	130.56
459.038	138.56
459.258	112.56
459.478	104.56
459.698	81.56
459.918	93.56
460.138	78.56
460.358	87.56
460.578	101.56
460.798	92.56
461.018	85.56
461.238	98.56
461.458	87.56
461.678	92.56
461.898	94.56
462.118	92.56
462.338	78.56
462.558	84.56
462.777	76.56
462.997	84.56
463.217	75.56
463.437	95.56
463.657	81.56
463.876	69.56
464.096	90.56
464.316	80.56
464.536	90.56
464.755	87.56
464.975	90.56
465.195	143.56
465.414	134.56
465.634	87.56
465.854	83.56
466.073	75.56
466.293	94.56
466.512	84.56
466.732	81.56
466.951	84.56
467.171	95.56
467.391	84.56
467.61	86.56
467.829	90.56
468.049	82.56
468.268	87.56
468.488	80.56
468.707	79.56
468.927	80.56
469.146	74.56
469.365	93.56
469.585	98.56
469.804	86.56
470.023	82.56
470.243	86.56
470.462	100.56
470.681	110.56
470.901	75.56
471.12	78.56
471.339	90.56
471.558	84.56
471.777	80.56
471.997	74.56
472.216	93.56
472.435	98.56
472.654	78.56
472.873	87.56
473.092	93.56
473.311	79.56
473.53	74.56
473.749	90.56
473.968	91.56
474.187	95.56
474.406	99.56
474.625	95.56
474.844	86.56
475.063	88.56
475.282	90.56
475.501	96.56
475.72	96.56
475.939	69.56
476.158	79.56
476.377	96.56
476.596	92.56
476.814	99.56
477.033	94.56
477.252	94.56
477.471	71.56
477.69	85.56
477.908	86.56
478.127	86.56
478.346	85.56
478.564	95.56
478.783	88.56
479.002	80.56
479.22	95.56
479.439	95.56
479.658	108.56
479.876	107.56
480.095	103.56
480.313	84.56
480.532	80.56
480.751	84.56
480.969	76.56
481.188	88.56
481.406	99.56
481.624	95.56
481.843	77.56
482.061	89.56
482.28	103.56
482.498	94.56
482.717	93.56
482.935	86.56
483.153	90.56
483.372	85.56
483.59	82.56
483.808	92.56
484.027	92.56
484.245	85.56
484.463	97.56
484.681	95.56
484.9	85.56
485.118	86.56
485.336	89.56
485.554	97.56
485.772	108.56
485.99	103.56
486.209	108.56
486.427	112.56
486.645	121.56
486.863	101.56
487.081	108.56
487.299	89.56
487.517	92.56
487.735	103.56
487.953	96.56
488.171	84.56
488.389	93.56
488.607	97.56
488.825	96.56
489.043	91.56
489.261	99.56
489.479	88.56
489.696	84.56
489.914	96.56
490.132	96.56
490.35	106.56
490.568	94.56
490.786	104.56
491.003	87.56
491.221	89.56
491.439	92.56
491.657	110.56
491.874	98.56
492.092	82.56
492.31	94.56
492.527	93.56
492.745	92.56
492.963	100.56
493.18	101.56
493.398	95.56
493.615	100.56
493.833	108.56
494.05	101.56
494.268	85.56
494.485	87.56
494.703	79.56
494.92	95.56
495.138	85.56
495.355	98.56
495.573	93.56
495.79	82.56
496.008	95.56
496.225	86.56
496.442	94.56
496.66	83.56
496.877	81.56
497.094	87.56
497.312	99.56
497.529	92.56
497.746	97.56
497.963	85.56
498.181	84.56
498.398	93.56
498.615	92.56
498.832	105.56
499.049	104.56
499.267	97.56
499.484	96.56
499.701	89.56
499.918	97.56
500.135	99.56
500.352	88.56
500.569	99.56
500.786	86.56
501.003	83.56
501.22	104.56
501.437	93.56
501.654	97.56
501.871	92.56
502.088	84.56
502.305	78.56
502.522	83.56
502.739	71.56
502.956	90.56
503.172	81.56
503.389	107.56
503.606	103.56
503.823	83.56
504.04	92.56
504.256	88.56
504.473	84.56
504.69	70.56
504.907	83.56
505.123	112.56
505.34	88.56
505.557	95.56
505.773	98.56
505.99	89.56
506.207	93.56
506.423	89.56
506.64	71.56
506.856	87.56
507.073	99.56
507.289	96.56
507.506	97.56
507.722	109.56
507.939	99.56
508.155	94.56
508.372	83.56
508.588	68.56
508.805	86.56
509.021	92.56
509.238	79.56
509.454	94.56
509.67	95.56
509.887	85.56
510.103	108.56
510.319	179.56
510.536	555.56
510.752	1610.56
510.968	477.56
511.184	132.56
511.401	103.56
511.617	82.56
511.833	85.56
512.049	99.56
512.265	87.56
512.481	84.56
512.698	93.56
512.914	85.56
513.13	96.56
513.346	101.56
513.562	95.56
513.778	100.56
513.994	82.56
514.21	103.56
514.426	117.56
514.642	103.56
514.858	112.56
515.074	144.56
515.29	352.56
515.506	1056.56
515.721	432.56
515.937	141.56
516.153	117.56
516.369	98.56
