Data from Uncirc_1988_H10_HRD10591_00038.txt Node
Date: Wed Jan 03 12:04:12 EST 2024
User: Yrep
Spectrometer: HR+D1059
Trigger mode: 1
Integration Time (sec): 1.000000E-1
Scans to average: 1
Electric dark correction enabled: true
Nonlinearity correction enabled: false
Boxcar width: 0
XAxis mode: Wavelengths
Number of Pixels in Spectrum: 2048
>>>>>Begin Spectral Data<<<<<
223.165	-5.5
223.4	-5.5
223.635	-5.5
223.869	-15.5
224.104	-15.5
224.338	-24.5
224.573	-23.5
224.808	-24.5
225.042	-3.5
225.277	-8.5
225.511	-20.5
225.746	5.5
225.98	5.5
226.215	18.5
226.449	22.5
226.683	20.5
226.918	26.5
227.152	42.5
227.387	50.5
227.621	50.5
227.856	30.5
228.09	52.5
228.324	61.5
228.559	50.5
228.793	56.5
229.027	70.5
229.262	81.5
229.496	65.5
229.73	84.5
229.964	74.5
230.199	85.5
230.433	78.5
230.667	79.5
230.901	75.5
231.136	90.5
231.37	71.5
231.604	81.5
231.838	82.5
232.072	78.5
232.306	83.5
232.541	74.5
232.775	68.5
233.009	85.5
233.243	79.5
233.477	72.5
233.711	66.5
233.945	88.5
234.179	82.5
234.413	80.5
234.647	86.5
234.881	80.5
235.115	76.5
235.349	80.5
235.583	75.5
235.817	88.5
236.051	84.5
236.285	73.5
236.519	100.5
236.753	68.5
236.987	86.5
237.221	88.5
237.455	80.5
237.689	67.5
237.922	62.5
238.156	74.5
238.39	85.5
238.624	73.5
238.858	91.5
239.091	78.5
239.325	76.5
239.559	74.5
239.793	66.5
240.027	92.5
240.26	92.5
240.494	87.5
240.728	84.5
240.961	82.5
241.195	82.5
241.429	94.5
241.662	89.5
241.896	74.5
242.13	82.5
242.363	74.5
242.597	73.5
242.83	87.5
243.064	80.5
243.298	73.5
243.531	73.5
243.765	87.5
243.998	74.5
244.232	87.5
244.465	84.5
244.699	78.5
244.932	71.5
245.166	86.5
245.399	90.5
245.633	69.5
245.866	87.5
246.099	88.5
246.333	74.5
246.566	86.5
246.8	72.5
247.033	66.5
247.266	99.5
247.5	88.5
247.733	93.5
247.966	87.5
248.2	90.5
248.433	86.5
248.666	76.5
248.899	78.5
249.133	80.5
249.366	85.5
249.599	106.5
249.832	84.5
250.066	82.5
250.299	67.5
250.532	98.5
250.765	71.5
250.998	78.5
251.231	78.5
251.465	68.5
251.698	80.5
251.931	75.5
252.164	79.5
252.397	78.5
252.63	87.5
252.863	74.5
253.096	87.5
253.329	88.5
253.562	83.5
253.795	85.5
254.028	88.5
254.261	87.5
254.494	70.5
254.727	76.5
254.96	95.5
255.193	84.5
255.426	98.5
255.659	92.5
255.892	64.5
256.124	72.5
256.357	76.5
256.59	95.5
256.823	92.5
257.056	87.5
257.289	88.5
257.521	91.5
257.754	76.5
257.987	67.5
258.22	76.5
258.452	82.5
258.685	80.5
258.918	81.5
259.151	65.5
259.383	93.5
259.616	79.5
259.849	96.5
260.081	72.5
260.314	79.5
260.547	86.5
260.779	93.5
261.012	88.5
261.244	80.5
261.477	86.5
261.71	100.5
261.942	114.5
262.175	115.5
262.407	96.5
262.64	100.5
262.872	84.5
263.105	90.5
263.337	89.5
263.57	81.5
263.802	81.5
264.035	84.5
264.267	76.5
264.499	79.5
264.732	90.5
264.964	82.5
265.197	91.5
265.429	84.5
265.661	85.5
265.894	82.5
266.126	84.5
266.358	86.5
266.591	73.5
266.823	87.5
267.055	71.5
267.287	92.5
267.52	83.5
267.752	89.5
267.984	88.5
268.216	87.5
268.448	103.5
268.681	82.5
268.913	87.5
269.145	83.5
269.377	87.5
269.609	79.5
269.841	79.5
270.073	87.5
270.306	91.5
270.538	88.5
270.77	80.5
271.002	87.5
271.234	93.5
271.466	76.5
271.698	94.5
271.93	86.5
272.162	87.5
272.394	86.5
272.626	83.5
272.858	89.5
273.09	80.5
273.322	90.5
273.553	96.5
273.785	100.5
274.017	70.5
274.249	96.5
274.481	81.5
274.713	94.5
274.945	93.5
275.176	85.5
275.408	97.5
275.64	83.5
275.872	97.5
276.104	98.5
276.335	91.5
276.567	84.5
276.799	111.5
277.031	90.5
277.262	84.5
277.494	97.5
277.726	91.5
277.957	80.5
278.189	90.5
278.421	84.5
278.652	99.5
278.884	88.5
279.115	94.5
279.347	92.5
279.579	85.5
279.81	77.5
280.042	88.5
280.273	97.5
280.505	107.5
280.736	85.5
280.968	95.5
281.199	98.5
281.431	94.5
281.662	87.5
281.894	99.5
282.125	111.5
282.356	117.5
282.588	128.5
282.819	121.5
283.051	82.5
283.282	90.5
283.513	90.5
283.745	87.5
283.976	98.5
284.207	82.5
284.439	85.5
284.67	89.5
284.901	91.5
285.132	90.5
285.364	82.5
285.595	86.5
285.826	105.5
286.057	97.5
286.288	92.5
286.52	96.5
286.751	91.5
286.982	99.5
287.213	94.5
287.444	82.5
287.675	84.5
287.906	82.5
288.138	103.5
288.369	92.5
288.6	81.5
288.831	94.5
289.062	86.5
289.293	100.5
289.524	84.5
289.755	96.5
289.986	85.5
290.217	78.5
290.448	81.5
290.679	84.5
290.91	91.5
291.141	93.5
291.371	81.5
291.602	91.5
291.833	77.5
292.064	89.5
292.295	100.5
292.526	89.5
292.757	94.5
292.987	86.5
293.218	78.5
293.449	82.5
293.68	99.5
293.91	98.5
294.141	96.5
294.372	101.5
294.603	90.5
294.833	80.5
295.064	91.5
295.295	91.5
295.525	79.5
295.756	107.5
295.987	119.5
296.217	124.5
296.448	121.5
296.679	105.5
296.909	104.5
297.14	82.5
297.37	95.5
297.601	94.5
297.831	88.5
298.062	99.5
298.292	84.5
298.523	90.5
298.753	87.5
298.984	81.5
299.214	98.5
299.445	89.5
299.675	78.5
299.905	90.5
300.136	102.5
300.366	85.5
300.597	86.5
300.827	96.5
301.057	96.5
301.288	110.5
301.518	100.5
301.748	81.5
301.979	101.5
302.209	101.5
302.439	101.5
302.669	86.5
302.9	86.5
303.13	83.5
303.36	100.5
303.59	109.5
303.82	99.5
304.051	92.5
304.281	91.5
304.511	78.5
304.741	86.5
304.971	91.5
305.201	93.5
305.431	94.5
305.661	96.5
305.891	104.5
306.121	91.5
306.352	103.5
306.582	107.5
306.812	107.5
307.042	96.5
307.272	85.5
307.502	85.5
307.731	100.5
307.961	94.5
308.191	103.5
308.421	105.5
308.651	89.5
308.881	79.5
309.111	97.5
309.341	99.5
309.571	88.5
309.8	95.5
310.03	95.5
310.26	90.5
310.49	86.5
310.72	90.5
310.949	109.5
311.179	99.5
311.409	81.5
311.639	105.5
311.868	111.5
312.098	96.5
312.328	103.5
312.557	93.5
312.787	97.5
313.017	87.5
313.246	95.5
313.476	102.5
313.706	89.5
313.935	95.5
314.165	95.5
314.394	105.5
314.624	103.5
314.853	106.5
315.083	92.5
315.312	95.5
315.542	106.5
315.771	100.5
316.001	99.5
316.23	91.5
316.46	87.5
316.689	99.5
316.919	103.5
317.148	78.5
317.377	91.5
317.607	100.5
317.836	89.5
318.065	92.5
318.295	96.5
318.524	93.5
318.753	92.5
318.983	93.5
319.212	105.5
319.441	106.5
319.67	112.5
319.9	95.5
320.129	91.5
320.358	104.5
320.587	103.5
320.816	102.5
321.046	85.5
321.275	86.5
321.504	90.5
321.733	97.5
321.962	102.5
322.191	110.5
322.42	112.5
322.649	117.5
322.878	106.5
323.108	125.5
323.337	106.5
323.566	144.5
323.795	146.5
324.024	206.5
324.253	383.5
324.482	792.5
324.71	1659.5
324.939	2119.5
325.168	778.5
325.397	232.5
325.626	159.5
325.855	130.5
326.084	127.5
326.313	132.5
326.542	166.5
326.77	233.5
326.999	448.5
327.228	915.5
327.457	1720.5
327.686	1319.5
327.914	358.5
328.143	183.5
328.372	130.5
328.6	123.5
328.829	116.5
329.058	106.5
329.287	115.5
329.515	108.5
329.744	92.5
329.972	111.5
330.201	111.5
330.43	107.5
330.658	116.5
330.887	128.5
331.115	120.5
331.344	82.5
331.572	103.5
331.801	107.5
332.03	91.5
332.258	90.5
332.486	86.5
332.715	102.5
332.943	76.5
333.172	83.5
333.4	101.5
333.629	102.5
333.857	103.5
334.085	87.5
334.314	103.5
334.542	96.5
334.771	112.5
334.999	103.5
335.227	97.5
335.455	100.5
335.684	86.5
335.912	104.5
336.14	99.5
336.369	101.5
336.597	74.5
336.825	102.5
337.053	88.5
337.281	95.5
337.51	96.5
337.738	95.5
337.966	99.5
338.194	90.5
338.422	94.5
338.65	95.5
338.878	91.5
339.106	97.5
339.334	82.5
339.562	82.5
339.79	97.5
340.018	90.5
340.246	106.5
340.474	98.5
340.702	97.5
340.93	114.5
341.158	90.5
341.386	94.5
341.614	98.5
341.842	97.5
342.07	89.5
342.298	106.5
342.526	98.5
342.754	90.5
342.981	91.5
343.209	86.5
343.437	94.5
343.665	107.5
343.893	94.5
344.12	94.5
344.348	96.5
344.576	89.5
344.804	87.5
345.031	97.5
345.259	102.5
345.487	96.5
345.714	96.5
345.942	103.5
346.17	106.5
346.397	92.5
346.625	89.5
346.853	94.5
347.08	96.5
347.308	87.5
347.535	112.5
347.763	100.5
347.99	105.5
348.218	102.5
348.445	114.5
348.673	94.5
348.9	98.5
349.128	94.5
349.355	95.5
349.583	77.5
349.81	95.5
350.037	98.5
350.265	98.5
350.492	108.5
350.72	102.5
350.947	91.5
351.174	99.5
351.402	104.5
351.629	113.5
351.856	102.5
352.083	117.5
352.311	102.5
352.538	112.5
352.765	121.5
352.992	113.5
353.22	119.5
353.447	108.5
353.674	102.5
353.901	96.5
354.128	106.5
354.355	90.5
354.583	99.5
354.81	94.5
355.037	107.5
355.264	95.5
355.491	104.5
355.718	88.5
355.945	87.5
356.172	107.5
356.399	98.5
356.626	97.5
356.853	87.5
357.08	94.5
357.307	80.5
357.534	80.5
357.761	89.5
357.988	95.5
358.215	87.5
358.441	119.5
358.668	98.5
358.895	91.5
359.122	90.5
359.349	94.5
359.576	99.5
359.802	102.5
360.029	112.5
360.256	100.5
360.483	80.5
360.709	90.5
360.936	86.5
361.163	96.5
361.39	84.5
361.616	97.5
361.843	106.5
362.07	80.5
362.296	108.5
362.523	89.5
362.749	88.5
362.976	91.5
363.203	85.5
363.429	81.5
363.656	91.5
363.882	95.5
364.109	103.5
364.335	92.5
364.562	106.5
364.788	114.5
365.015	100.5
365.241	106.5
365.468	111.5
365.694	99.5
365.92	93.5
366.147	96.5
366.373	83.5
366.599	99.5
366.826	82.5
367.052	73.5
367.278	94.5
367.505	83.5
367.731	96.5
367.957	84.5
368.184	107.5
368.41	107.5
368.636	101.5
368.862	108.5
369.089	100.5
369.315	84.5
369.541	96.5
369.767	89.5
369.993	94.5
370.219	87.5
370.445	100.5
370.672	74.5
370.898	82.5
371.124	102.5
371.35	95.5
371.576	86.5
371.802	80.5
372.028	84.5
372.254	85.5
372.48	95.5
372.706	99.5
372.932	90.5
373.158	85.5
373.384	92.5
373.61	93.5
373.835	106.5
374.061	84.5
374.287	107.5
374.513	92.5
374.739	95.5
374.965	100.5
375.191	98.5
375.416	96.5
375.642	83.5
375.868	87.5
376.094	96.5
376.319	91.5
376.545	86.5
376.771	76.5
376.997	98.5
377.222	92.5
377.448	99.5
377.674	91.5
377.899	100.5
378.125	82.5
378.35	105.5
378.576	99.5
378.802	86.5
379.027	82.5
379.253	91.5
379.478	99.5
379.704	73.5
379.929	97.5
380.155	90.5
380.38	105.5
380.606	100.5
380.831	108.5
381.057	92.5
381.282	98.5
381.507	101.5
381.733	111.5
381.958	106.5
382.184	102.5
382.409	102.5
382.634	109.5
382.86	84.5
383.085	108.5
383.31	104.5
383.535	101.5
383.761	99.5
383.986	96.5
384.211	96.5
384.436	99.5
384.662	96.5
384.887	98.5
385.112	93.5
385.337	97.5
385.562	90.5
385.787	105.5
386.013	119.5
386.238	113.5
386.463	95.5
386.688	111.5
386.913	103.5
387.138	106.5
387.363	102.5
387.588	93.5
387.813	102.5
388.038	84.5
388.263	115.5
388.488	124.5
388.713	97.5
388.938	90.5
389.163	104.5
389.387	110.5
389.612	94.5
389.837	85.5
390.062	88.5
390.287	100.5
390.512	103.5
390.736	94.5
390.961	82.5
391.186	97.5
391.411	89.5
391.636	103.5
391.86	83.5
392.085	84.5
392.31	82.5
392.534	96.5
392.759	92.5
392.984	82.5
393.208	86.5
393.433	101.5
393.658	110.5
393.882	88.5
394.107	95.5
394.331	92.5
394.556	89.5
394.78	87.5
395.005	90.5
395.229	92.5
395.454	89.5
395.678	91.5
395.903	84.5
396.127	96.5
396.352	91.5
396.576	75.5
396.801	104.5
397.025	98.5
397.249	77.5
397.474	103.5
397.698	82.5
397.922	81.5
398.147	96.5
398.371	88.5
398.595	80.5
398.82	98.5
399.044	89.5
399.268	102.5
399.492	87.5
399.717	79.5
399.941	86.5
400.165	91.5
400.389	100.5
400.613	82.5
400.837	88.5
401.062	90.5
401.286	83.5
401.51	88.5
401.734	89.5
401.958	102.5
402.182	115.5
402.406	153.5
402.63	116.5
402.854	95.5
403.078	91.5
403.302	102.5
403.526	99.5
403.75	100.5
403.974	88.5
404.198	88.5
404.422	90.5
404.645	98.5
404.869	87.5
405.093	89.5
405.317	108.5
405.541	104.5
405.765	104.5
405.988	115.5
406.212	170.5
406.436	196.5
406.66	138.5
406.883	107.5
407.107	96.5
407.331	100.5
407.555	87.5
407.778	92.5
408.002	86.5
408.226	88.5
408.449	94.5
408.673	100.5
408.896	90.5
409.12	102.5
409.344	87.5
409.567	104.5
409.791	93.5
410.014	99.5
410.238	101.5
410.461	94.5
410.685	89.5
410.908	94.5
411.132	97.5
411.355	115.5
411.578	87.5
411.802	75.5
412.025	106.5
412.249	86.5
412.472	96.5
412.695	91.5
412.919	85.5
413.142	83.5
413.365	92.5
413.589	87.5
413.812	104.5
414.035	106.5
414.258	90.5
414.482	96.5
414.705	93.5
414.928	100.5
415.151	80.5
415.374	87.5
415.597	99.5
415.821	91.5
416.044	93.5
416.267	86.5
416.49	80.5
416.713	87.5
416.936	82.5
417.159	89.5
417.382	98.5
417.605	86.5
417.828	98.5
418.051	95.5
418.274	81.5
418.497	98.5
418.72	84.5
418.943	86.5
419.166	88.5
419.389	105.5
419.611	94.5
419.834	93.5
420.057	90.5
420.28	97.5
420.503	91.5
420.726	92.5
420.948	94.5
421.171	88.5
421.394	99.5
421.617	105.5
421.839	82.5
422.062	102.5
422.285	94.5
422.507	104.5
422.73	93.5
422.953	81.5
423.175	87.5
423.398	91.5
423.621	79.5
423.843	99.5
424.066	91.5
424.288	82.5
424.511	92.5
424.733	95.5
424.956	107.5
425.178	101.5
425.401	91.5
425.623	101.5
425.846	79.5
426.068	102.5
426.291	87.5
426.513	101.5
426.735	89.5
426.958	98.5
427.18	107.5
427.402	140.5
427.625	166.5
427.847	144.5
428.069	102.5
428.292	74.5
428.514	84.5
428.736	80.5
428.958	82.5
429.181	98.5
429.403	76.5
429.625	77.5
429.847	84.5
430.069	110.5
430.292	100.5
430.514	84.5
430.736	86.5
430.958	91.5
431.18	74.5
431.402	88.5
431.624	79.5
431.846	81.5
432.068	89.5
432.29	84.5
432.512	83.5
432.734	95.5
432.956	90.5
433.178	107.5
433.4	111.5
433.622	80.5
433.844	94.5
434.066	88.5
434.287	99.5
434.509	90.5
434.731	99.5
434.953	104.5
435.175	95.5
435.397	81.5
435.618	80.5
435.84	107.5
436.062	117.5
436.284	117.5
436.505	112.5
436.727	104.5
436.949	85.5
437.17	85.5
437.392	96.5
437.614	96.5
437.835	120.5
438.057	108.5
438.278	114.5
438.5	106.5
438.721	131.5
438.943	105.5
439.165	71.5
439.386	92.5
439.608	86.5
439.829	102.5
440.05	120.5
440.272	130.5
440.493	102.5
440.715	88.5
440.936	92.5
441.158	97.5
441.379	97.5
441.6	91.5
441.822	84.5
442.043	102.5
442.264	112.5
442.486	92.5
442.707	96.5
442.928	100.5
443.149	122.5
443.371	142.5
443.592	106.5
443.813	114.5
444.034	113.5
444.255	92.5
444.476	86.5
444.698	95.5
444.919	79.5
445.14	134.5
445.361	122.5
445.582	116.5
445.803	126.5
446.024	134.5
446.245	134.5
446.466	103.5
446.687	88.5
446.908	99.5
447.129	94.5
447.35	90.5
447.571	89.5
447.792	109.5
448.013	115.5
448.234	111.5
448.455	118.5
448.675	118.5
448.896	115.5
449.117	109.5
449.338	102.5
449.559	135.5
449.779	124.5
450	92.5
450.221	83.5
450.442	74.5
450.662	100.5
450.883	102.5
451.104	108.5
451.324	98.5
451.545	84.5
451.766	90.5
451.986	89.5
452.207	92.5
452.428	90.5
452.648	94.5
452.869	107.5
453.089	116.5
453.31	108.5
453.53	95.5
453.751	111.5
453.971	102.5
454.192	110.5
454.412	82.5
454.633	91.5
454.853	87.5
455.073	91.5
455.294	100.5
455.514	102.5
455.734	86.5
455.955	88.5
456.175	87.5
456.395	83.5
456.616	90.5
456.836	98.5
457.056	103.5
457.276	87.5
457.497	81.5
457.717	85.5
457.937	87.5
458.157	94.5
458.377	98.5
458.598	102.5
458.818	133.5
459.038	149.5
459.258	108.5
459.478	78.5
459.698	82.5
459.918	85.5
460.138	85.5
460.358	80.5
460.578	94.5
460.798	87.5
461.018	96.5
461.238	90.5
461.458	87.5
461.678	81.5
461.898	82.5
462.118	100.5
462.338	86.5
462.558	83.5
462.777	82.5
462.997	102.5
463.217	98.5
463.437	81.5
463.657	84.5
463.876	88.5
464.096	91.5
464.316	70.5
464.536	91.5
464.755	90.5
464.975	111.5
465.195	154.5
465.414	148.5
465.634	97.5
465.854	99.5
466.073	93.5
466.293	102.5
466.512	94.5
466.732	78.5
466.951	90.5
467.171	79.5
467.391	93.5
467.61	103.5
467.829	86.5
468.049	104.5
468.268	95.5
468.488	90.5
468.707	99.5
468.927	74.5
469.146	87.5
469.365	91.5
469.585	110.5
469.804	89.5
470.023	85.5
470.243	110.5
470.462	107.5
470.681	94.5
470.901	90.5
471.12	78.5
471.339	87.5
471.558	98.5
471.777	86.5
471.997	88.5
472.216	88.5
472.435	97.5
472.654	87.5
472.873	85.5
473.092	106.5
473.311	86.5
473.53	101.5
473.749	92.5
473.968	97.5
474.187	102.5
474.406	94.5
474.625	95.5
474.844	81.5
475.063	87.5
475.282	90.5
475.501	87.5
475.72	91.5
475.939	83.5
476.158	80.5
476.377	76.5
476.596	92.5
476.814	85.5
477.033	88.5
477.252	79.5
477.471	79.5
477.69	93.5
477.908	96.5
478.127	92.5
478.346	69.5
478.564	92.5
478.783	94.5
479.002	89.5
479.22	98.5
479.439	104.5
479.658	94.5
479.876	98.5
480.095	107.5
480.313	91.5
480.532	96.5
480.751	96.5
480.969	96.5
481.188	121.5
481.406	105.5
481.624	102.5
481.843	84.5
482.061	90.5
482.28	94.5
482.498	78.5
482.717	92.5
482.935	92.5
483.153	96.5
483.372	79.5
483.59	80.5
483.808	91.5
484.027	93.5
484.245	99.5
484.463	85.5
484.681	93.5
484.9	75.5
485.118	101.5
485.336	84.5
485.554	83.5
485.772	103.5
485.99	98.5
486.209	107.5
486.427	109.5
486.645	110.5
486.863	104.5
487.081	92.5
487.299	99.5
487.517	88.5
487.735	94.5
487.953	97.5
488.171	96.5
488.389	99.5
488.607	95.5
488.825	81.5
489.043	79.5
489.261	90.5
489.479	80.5
489.696	95.5
489.914	91.5
490.132	96.5
490.35	88.5
490.568	90.5
490.786	90.5
491.003	77.5
491.221	97.5
491.439	91.5
491.657	91.5
491.874	89.5
492.092	81.5
492.31	103.5
492.527	75.5
492.745	85.5
492.963	99.5
493.18	101.5
493.398	109.5
493.615	99.5
493.833	85.5
494.05	87.5
494.268	96.5
494.485	98.5
494.703	80.5
494.92	97.5
495.138	77.5
495.355	95.5
495.573	98.5
495.79	94.5
496.008	93.5
496.225	88.5
496.442	92.5
496.66	98.5
496.877	103.5
497.094	92.5
497.312	89.5
497.529	89.5
497.746	94.5
497.963	96.5
498.181	92.5
498.398	104.5
498.615	103.5
498.832	101.5
499.049	104.5
499.267	85.5
499.484	84.5
499.701	96.5
499.918	86.5
500.135	91.5
500.352	91.5
500.569	102.5
500.786	98.5
501.003	87.5
501.22	98.5
501.437	78.5
501.654	84.5
501.871	107.5
502.088	104.5
502.305	94.5
502.522	95.5
502.739	94.5
502.956	106.5
503.172	98.5
503.389	103.5
503.606	94.5
503.823	89.5
504.04	83.5
504.256	105.5
504.473	89.5
504.69	94.5
504.907	88.5
505.123	100.5
505.34	84.5
505.557	94.5
505.773	86.5
505.99	91.5
506.207	91.5
506.423	101.5
506.64	106.5
506.856	90.5
507.073	84.5
507.289	104.5
507.506	94.5
507.722	117.5
507.939	93.5
508.155	87.5
508.372	106.5
508.588	102.5
508.805	99.5
509.021	100.5
509.238	108.5
509.454	96.5
509.67	94.5
509.887	112.5
510.103	135.5
510.319	197.5
510.536	709.5
510.752	2064.5
510.968	564.5
511.184	131.5
511.401	116.5
511.617	90.5
511.833	92.5
512.049	103.5
512.265	87.5
512.481	94.5
512.698	89.5
512.914	88.5
513.13	99.5
513.346	83.5
513.562	65.5
513.778	101.5
513.994	90.5
514.21	106.5
514.426	115.5
514.642	122.5
514.858	122.5
515.074	147.5
515.29	419.5
515.506	1272.5
515.721	471.5
515.937	150.5
516.153	99.5
516.369	94.5
516.585	84.5
516.801	96.5
517.016	94.5
517.232	81.5
517.448	88.5
517.664	87.5
517.879	88.5
518.095	105.5
518.311	91.5
518.527	84.5
518.742	85.5
518.958	98.5
519.173	83.5
519.389	98.5
519.605	103.5
519.82	98.5
520.036	101.5
520.251	123.5
520.467	117.5
520.682	96.5
520.898	99.5
521.113	116.5
521.329	147.5
521.544	183.5
521.76	506.5
521.975	2118.5
522.19	1226.5
522.406	276.5
522.621	119.5
522.836	99.5
523.052	101.5
523.267	106.5
523.482	106.5
523.698	106.5
523.913	117.5
524.128	116.5
524.343	81.5
524.559	82.5
524.774	79.5
524.989	104.5
525.204	102.5
525.419	88.5
525.634	102.5
525.849	107.5
526.064	95.5
526.28	94.5
526.495	89.5
526.71	86.5
526.925	92.5
527.14	87.5
527.355	82.5
527.57	98.5
527.785	95.5
527.999	95.5
528.214	100.5
528.429	100.5
528.644	85.5
528.859	83.5
529.074	92.5
529.289	103.5
529.503	175.5
529.718	99.5
529.933	88.5
530.148	86.5
530.363	99.5
530.577	97.5
530.792	91.5
531.007	74.5
531.221	106.5
531.436	93.5
531.651	94.5
531.865	85.5
532.08	92.5
532.295	92.5
532.509	96.5
532.724	99.5
532.938	102.5
533.153	99.5
533.367	90.5
533.582	94.5
533.796	82.5
534.011	85.5
534.225	98.5
534.44	80.5
