Data from Uncirc_1988_H10_HRD10591_00016.txt Node
Date: Wed Jan 03 12:04:07 EST 2024
User: Yrep
Spectrometer: HR+D1059
Trigger mode: 1
Integration Time (sec): 1.000000E-1
Scans to average: 1
Electric dark correction enabled: true
Nonlinearity correction enabled: false
Boxcar width: 0
XAxis mode: Wavelengths
Number of Pixels in Spectrum: 2048
>>>>>Begin Spectral Data<<<<<
223.165	-28.81
223.4	-28.81
223.635	-28.81
223.869	-21.81
224.104	-8.81
224.338	0.19
224.573	-8.81
224.808	-21.81
225.042	-1.81
225.277	-5.81
225.511	-12.81
225.746	-0.81
225.98	11.19
226.215	18.19
226.449	20.19
226.683	15.19
226.918	18.19
227.152	28.19
227.387	35.19
227.621	40.19
227.856	45.19
228.09	50.19
228.324	54.19
228.559	47.19
228.793	70.19
229.027	56.19
229.262	56.19
229.496	80.19
229.73	68.19
229.964	89.19
230.199	60.19
230.433	62.19
230.667	72.19
230.901	70.19
231.136	74.19
231.37	82.19
231.604	82.19
231.838	61.19
232.072	82.19
232.306	84.19
232.541	83.19
232.775	94.19
233.009	86.19
233.243	81.19
233.477	73.19
233.711	68.19
233.945	92.19
234.179	86.19
234.413	85.19
234.647	83.19
234.881	62.19
235.115	78.19
235.349	87.19
235.583	70.19
235.817	89.19
236.051	80.19
236.285	80.19
236.519	79.19
236.753	75.19
236.987	80.19
237.221	92.19
237.455	100.19
237.689	74.19
237.922	76.19
238.156	83.19
238.39	70.19
238.624	79.19
238.858	88.19
239.091	74.19
239.325	69.19
239.559	75.19
239.793	78.19
240.027	80.19
240.26	82.19
240.494	80.19
240.728	77.19
240.961	74.19
241.195	69.19
241.429	86.19
241.662	77.19
241.896	71.19
242.13	70.19
242.363	82.19
242.597	66.19
242.83	80.19
243.064	90.19
243.298	86.19
243.531	77.19
243.765	78.19
243.998	79.19
244.232	56.19
244.465	86.19
244.699	98.19
244.932	92.19
245.166	86.19
245.399	80.19
245.633	95.19
245.866	72.19
246.099	66.19
246.333	90.19
246.566	89.19
246.8	88.19
247.033	86.19
247.266	92.19
247.5	80.19
247.733	88.19
247.966	93.19
248.2	94.19
248.433	93.19
248.666	74.19
248.899	84.19
249.133	89.19
249.366	89.19
249.599	82.19
249.832	102.19
250.066	81.19
250.299	72.19
250.532	82.19
250.765	77.19
250.998	90.19
251.231	92.19
251.465	91.19
251.698	77.19
251.931	80.19
252.164	86.19
252.397	82.19
252.63	73.19
252.863	87.19
253.096	95.19
253.329	92.19
253.562	84.19
253.795	78.19
254.028	91.19
254.261	85.19
254.494	78.19
254.727	72.19
254.96	87.19
255.193	94.19
255.426	79.19
255.659	76.19
255.892	82.19
256.124	74.19
256.357	90.19
256.59	86.19
256.823	85.19
257.056	86.19
257.289	89.19
257.521	75.19
257.754	80.19
257.987	70.19
258.22	80.19
258.452	77.19
258.685	85.19
258.918	65.19
259.151	86.19
259.383	72.19
259.616	86.19
259.849	91.19
260.081	86.19
260.314	72.19
260.547	81.19
260.779	80.19
261.012	68.19
261.244	94.19
261.477	94.19
261.71	95.19
261.942	104.19
262.175	101.19
262.407	86.19
262.64	86.19
262.872	83.19
263.105	103.19
263.337	88.19
263.57	75.19
263.802	93.19
264.035	78.19
264.267	91.19
264.499	82.19
264.732	102.19
264.964	75.19
265.197	89.19
265.429	90.19
265.661	79.19
265.894	99.19
266.126	88.19
266.358	97.19
266.591	83.19
266.823	90.19
267.055	91.19
267.287	81.19
267.52	81.19
267.752	71.19
267.984	84.19
268.216	79.19
268.448	85.19
268.681	70.19
268.913	92.19
269.145	94.19
269.377	94.19
269.609	85.19
269.841	91.19
270.073	82.19
270.306	85.19
270.538	87.19
270.77	73.19
271.002	84.19
271.234	94.19
271.466	80.19
271.698	91.19
271.93	87.19
272.162	88.19
272.394	87.19
272.626	92.19
272.858	79.19
273.09	83.19
273.322	85.19
273.553	94.19
273.785	90.19
274.017	102.19
274.249	88.19
274.481	91.19
274.713	86.19
274.945	80.19
275.176	81.19
275.408	90.19
275.64	94.19
275.872	81.19
276.104	94.19
276.335	91.19
276.567	98.19
276.799	102.19
277.031	119.19
277.262	96.19
277.494	91.19
277.726	93.19
277.957	86.19
278.189	91.19
278.421	92.19
278.652	72.19
278.884	95.19
279.115	94.19
279.347	88.19
279.579	74.19
279.81	93.19
280.042	84.19
280.273	98.19
280.505	96.19
280.736	96.19
280.968	98.19
281.199	102.19
281.431	99.19
281.662	103.19
281.894	103.19
282.125	96.19
282.356	118.19
282.588	127.19
282.819	112.19
283.051	96.19
283.282	83.19
283.513	90.19
283.745	86.19
283.976	87.19
284.207	94.19
284.439	89.19
284.67	108.19
284.901	87.19
285.132	88.19
285.364	92.19
285.595	83.19
285.826	102.19
286.057	97.19
286.288	83.19
286.52	81.19
286.751	92.19
286.982	88.19
287.213	89.19
287.444	93.19
287.675	81.19
287.906	94.19
288.138	98.19
288.369	92.19
288.6	102.19
288.831	86.19
289.062	73.19
289.293	90.19
289.524	89.19
289.755	103.19
289.986	93.19
290.217	88.19
290.448	99.19
290.679	95.19
290.91	103.19
291.141	90.19
291.371	76.19
291.602	96.19
291.833	80.19
292.064	105.19
292.295	91.19
292.526	102.19
292.757	68.19
292.987	85.19
293.218	86.19
293.449	82.19
293.68	98.19
293.91	97.19
294.141	81.19
294.372	102.19
294.603	86.19
294.833	95.19
295.064	97.19
295.295	101.19
295.525	80.19
295.756	110.19
295.987	100.19
296.217	133.19
296.448	124.19
296.679	107.19
296.909	100.19
297.14	87.19
297.37	92.19
297.601	103.19
297.831	80.19
298.062	99.19
298.292	92.19
298.523	95.19
298.753	80.19
298.984	91.19
299.214	95.19
299.445	80.19
299.675	83.19
299.905	106.19
300.136	92.19
300.366	84.19
300.597	92.19
300.827	113.19
301.057	93.19
301.288	103.19
301.518	99.19
301.748	105.19
301.979	89.19
302.209	72.19
302.439	91.19
302.669	107.19
302.9	94.19
303.13	103.19
303.36	74.19
303.59	95.19
303.82	108.19
304.051	98.19
304.281	102.19
304.511	99.19
304.741	88.19
304.971	76.19
305.201	69.19
305.431	82.19
305.661	86.19
305.891	97.19
306.121	94.19
306.352	111.19
306.582	98.19
306.812	90.19
307.042	99.19
307.272	98.19
307.502	97.19
307.731	92.19
307.961	88.19
308.191	88.19
308.421	94.19
308.651	88.19
308.881	80.19
309.111	98.19
309.341	99.19
309.571	95.19
309.8	103.19
310.03	107.19
310.26	100.19
310.49	100.19
310.72	103.19
310.949	107.19
311.179	106.19
311.409	96.19
311.639	98.19
311.868	90.19
312.098	89.19
312.328	95.19
312.557	107.19
312.787	101.19
313.017	100.19
313.246	107.19
313.476	96.19
313.706	92.19
313.935	94.19
314.165	91.19
314.394	97.19
314.624	101.19
314.853	104.19
315.083	87.19
315.312	78.19
315.542	89.19
315.771	93.19
316.001	97.19
316.23	68.19
316.46	96.19
316.689	90.19
316.919	86.19
317.148	109.19
317.377	85.19
317.607	99.19
317.836	90.19
318.065	80.19
318.295	89.19
318.524	86.19
318.753	96.19
318.983	97.19
319.212	98.19
319.441	104.19
319.67	96.19
319.9	83.19
320.129	99.19
320.358	107.19
320.587	102.19
320.816	88.19
321.046	107.19
321.275	105.19
321.504	103.19
321.733	100.19
321.962	106.19
322.191	94.19
322.42	119.19
322.649	103.19
322.878	109.19
323.108	112.19
323.337	119.19
323.566	131.19
323.795	158.19
324.024	197.19
324.253	374.19
324.482	779.19
324.71	1630.19
324.939	2116.19
325.168	770.19
325.397	227.19
325.626	130.19
325.855	109.19
326.084	113.19
326.313	132.19
326.542	160.19
326.77	238.19
326.999	447.19
327.228	904.19
327.457	1647.19
327.686	1289.19
327.914	350.19
328.143	184.19
328.372	135.19
328.6	120.19
328.829	116.19
329.058	135.19
329.287	133.19
329.515	106.19
329.744	99.19
329.972	94.19
330.201	101.19
330.43	96.19
330.658	123.19
330.887	129.19
331.115	120.19
331.344	116.19
331.572	97.19
331.801	94.19
332.03	113.19
332.258	100.19
332.486	98.19
332.715	104.19
332.943	90.19
333.172	108.19
333.4	106.19
333.629	105.19
333.857	120.19
334.085	101.19
334.314	87.19
334.542	91.19
334.771	111.19
334.999	114.19
335.227	90.19
335.455	89.19
335.684	106.19
335.912	104.19
336.14	114.19
336.369	108.19
336.597	90.19
336.825	97.19
337.053	103.19
337.281	92.19
337.51	101.19
337.738	83.19
337.966	82.19
338.194	90.19
338.422	91.19
338.65	108.19
338.878	97.19
339.106	87.19
339.334	87.19
339.562	94.19
339.79	83.19
340.018	99.19
340.246	102.19
340.474	117.19
340.702	108.19
340.93	104.19
341.158	95.19
341.386	83.19
341.614	95.19
341.842	101.19
342.07	97.19
342.298	108.19
342.526	94.19
342.754	96.19
342.981	98.19
343.209	95.19
343.437	95.19
343.665	96.19
343.893	90.19
344.12	96.19
344.348	87.19
344.576	91.19
344.804	98.19
345.031	94.19
345.259	98.19
345.487	90.19
345.714	98.19
345.942	110.19
346.17	94.19
346.397	80.19
346.625	104.19
346.853	81.19
347.08	88.19
347.308	93.19
347.535	102.19
347.763	98.19
347.99	108.19
348.218	90.19
348.445	97.19
348.673	92.19
348.9	94.19
349.128	99.19
349.355	99.19
349.583	86.19
349.81	103.19
350.037	100.19
350.265	106.19
350.492	98.19
350.72	105.19
350.947	104.19
351.174	111.19
351.402	116.19
351.629	100.19
351.856	119.19
352.083	103.19
352.311	107.19
352.538	115.19
352.765	105.19
352.992	104.19
353.22	115.19
353.447	102.19
353.674	96.19
353.901	89.19
354.128	102.19
354.355	97.19
354.583	98.19
354.81	96.19
355.037	87.19
355.264	91.19
355.491	104.19
355.718	85.19
355.945	87.19
356.172	108.19
356.399	102.19
356.626	90.19
356.853	102.19
357.08	97.19
357.307	81.19
357.534	96.19
357.761	96.19
357.988	99.19
358.215	107.19
358.441	112.19
358.668	103.19
358.895	99.19
359.122	88.19
359.349	78.19
359.576	98.19
359.802	89.19
360.029	101.19
360.256	97.19
360.483	107.19
360.709	83.19
360.936	96.19
361.163	88.19
361.39	112.19
361.616	102.19
361.843	96.19
362.07	87.19
362.296	101.19
362.523	93.19
362.749	107.19
362.976	101.19
363.203	87.19
363.429	89.19
363.656	95.19
363.882	85.19
364.109	94.19
364.335	106.19
364.562	90.19
364.788	74.19
365.015	92.19
365.241	96.19
365.468	113.19
365.694	92.19
365.92	115.19
366.147	92.19
366.373	87.19
366.599	101.19
366.826	91.19
367.052	90.19
367.278	102.19
367.505	90.19
367.731	107.19
367.957	103.19
368.184	90.19
368.41	91.19
368.636	113.19
368.862	108.19
369.089	102.19
369.315	95.19
369.541	92.19
369.767	103.19
369.993	99.19
370.219	78.19
370.445	111.19
370.672	106.19
370.898	91.19
371.124	92.19
371.35	92.19
371.576	107.19
371.802	92.19
372.028	98.19
372.254	89.19
372.48	87.19
372.706	92.19
372.932	94.19
373.158	90.19
373.384	113.19
373.61	91.19
373.835	98.19
374.061	99.19
374.287	97.19
374.513	98.19
374.739	95.19
374.965	99.19
375.191	86.19
375.416	88.19
375.642	95.19
375.868	86.19
376.094	91.19
376.319	87.19
376.545	91.19
376.771	96.19
376.997	87.19
377.222	85.19
377.448	78.19
377.674	99.19
377.899	94.19
378.125	99.19
378.35	76.19
378.576	84.19
378.802	100.19
379.027	84.19
379.253	96.19
379.478	86.19
379.704	90.19
379.929	104.19
380.155	88.19
380.38	89.19
380.606	95.19
380.831	94.19
381.057	90.19
381.282	100.19
381.507	92.19
381.733	90.19
381.958	91.19
382.184	99.19
382.409	91.19
382.634	121.19
382.86	92.19
383.085	104.19
383.31	94.19
383.535	115.19
383.761	106.19
383.986	115.19
384.211	101.19
384.436	96.19
384.662	105.19
384.887	92.19
385.112	90.19
385.337	92.19
385.562	95.19
385.787	100.19
386.013	120.19
386.238	106.19
386.463	106.19
386.688	112.19
386.913	104.19
387.138	92.19
387.363	95.19
387.588	104.19
387.813	92.19
388.038	103.19
388.263	95.19
388.488	112.19
388.713	106.19
388.938	119.19
389.163	102.19
389.387	103.19
389.612	83.19
389.837	91.19
390.062	92.19
390.287	87.19
390.512	92.19
390.736	99.19
390.961	104.19
391.186	98.19
391.411	99.19
391.636	97.19
391.86	91.19
392.085	94.19
392.31	88.19
392.534	101.19
392.759	93.19
392.984	90.19
393.208	104.19
393.433	105.19
393.658	88.19
393.882	95.19
394.107	75.19
394.331	75.19
394.556	90.19
394.78	94.19
395.005	87.19
395.229	90.19
395.454	82.19
395.678	92.19
395.903	99.19
396.127	92.19
396.352	80.19
396.576	80.19
396.801	101.19
397.025	86.19
397.249	89.19
397.474	90.19
397.698	91.19
397.922	87.19
398.147	91.19
398.371	84.19
398.595	80.19
398.82	91.19
399.044	90.19
399.268	102.19
399.492	102.19
399.717	84.19
399.941	93.19
400.165	104.19
400.389	82.19
400.613	64.19
400.837	92.19
401.062	86.19
401.286	86.19
401.51	99.19
401.734	90.19
401.958	99.19
402.182	131.19
402.406	124.19
402.63	110.19
402.854	91.19
403.078	97.19
403.302	75.19
403.526	71.19
403.75	88.19
403.974	90.19
404.198	82.19
404.422	81.19
404.645	96.19
404.869	94.19
405.093	73.19
405.317	97.19
405.541	90.19
405.765	96.19
405.988	106.19
406.212	151.19
406.436	204.19
406.66	119.19
406.883	107.19
407.107	83.19
407.331	86.19
407.555	90.19
407.778	94.19
408.002	93.19
408.226	92.19
408.449	104.19
408.673	96.19
408.896	95.19
409.12	101.19
409.344	107.19
409.567	88.19
409.791	79.19
410.014	96.19
410.238	86.19
410.461	97.19
410.685	76.19
410.908	91.19
411.132	103.19
411.355	96.19
411.578	100.19
411.802	96.19
412.025	83.19
412.249	83.19
412.472	86.19
412.695	95.19
412.919	94.19
413.142	89.19
413.365	86.19
413.589	105.19
413.812	82.19
414.035	97.19
414.258	83.19
414.482	86.19
414.705	84.19
414.928	105.19
415.151	82.19
415.374	88.19
415.597	84.19
415.821	79.19
416.044	89.19
416.267	103.19
416.49	98.19
416.713	97.19
416.936	80.19
417.159	88.19
417.382	89.19
417.605	104.19
417.828	99.19
418.051	80.19
418.274	88.19
418.497	85.19
418.72	96.19
418.943	80.19
419.166	93.19
419.389	97.19
419.611	87.19
419.834	97.19
420.057	101.19
420.28	83.19
420.503	73.19
420.726	67.19
420.948	96.19
421.171	71.19
421.394	97.19
421.617	99.19
421.839	85.19
422.062	98.19
422.285	85.19
422.507	117.19
422.73	96.19
422.953	88.19
423.175	83.19
423.398	81.19
423.621	95.19
423.843	98.19
424.066	91.19
424.288	87.19
424.511	81.19
424.733	91.19
424.956	114.19
425.178	111.19
425.401	105.19
425.623	114.19
425.846	89.19
426.068	82.19
426.291	91.19
426.513	86.19
426.735	94.19
426.958	88.19
427.18	108.19
427.402	123.19
427.625	158.19
427.847	127.19
428.069	92.19
428.292	91.19
428.514	96.19
428.736	92.19
428.958	86.19
429.181	94.19
429.403	103.19
429.625	97.19
429.847	82.19
430.069	111.19
430.292	95.19
430.514	84.19
430.736	97.19
430.958	88.19
431.18	73.19
431.402	84.19
431.624	86.19
431.846	96.19
432.068	99.19
432.29	88.19
432.512	75.19
432.734	102.19
432.956	103.19
433.178	99.19
433.4	101.19
433.622	106.19
433.844	103.19
434.066	94.19
434.287	84.19
434.509	85.19
434.731	97.19
434.953	91.19
435.175	96.19
435.397	90.19
435.618	95.19
435.84	95.19
436.062	107.19
436.284	120.19
436.505	112.19
436.727	100.19
436.949	97.19
437.17	85.19
437.392	101.19
437.614	90.19
437.835	98.19
438.057	100.19
438.278	113.19
438.5	104.19
438.721	131.19
438.943	107.19
439.165	84.19
439.386	85.19
439.608	101.19
439.829	94.19
440.05	127.19
440.272	136.19
440.493	91.19
440.715	94.19
440.936	92.19
441.158	109.19
441.379	98.19
441.6	89.19
441.822	97.19
442.043	108.19
442.264	115.19
442.486	94.19
442.707	88.19
442.928	112.19
443.149	119.19
443.371	108.19
443.592	112.19
443.813	104.19
444.034	108.19
444.255	88.19
444.476	103.19
444.698	100.19
444.919	91.19
445.14	131.19
445.361	117.19
445.582	109.19
445.803	138.19
446.024	135.19
446.245	131.19
446.466	99.19
446.687	108.19
446.908	94.19
447.129	91.19
447.35	86.19
447.571	88.19
447.792	91.19
448.013	103.19
448.234	95.19
448.455	102.19
448.675	116.19
448.896	116.19
449.117	103.19
449.338	94.19
449.559	127.19
449.779	132.19
450	98.19
450.221	89.19
450.442	80.19
450.662	98.19
450.883	94.19
451.104	106.19
451.324	75.19
451.545	86.19
451.766	87.19
451.986	86.19
452.207	98.19
452.428	90.19
452.648	104.19
452.869	112.19
453.089	115.19
453.31	123.19
453.53	104.19
453.751	91.19
453.971	101.19
454.192	125.19
454.412	91.19
454.633	84.19
454.853	90.19
455.073	101.19
455.294	91.19
455.514	94.19
455.734	87.19
455.955	82.19
456.175	99.19
456.395	100.19
456.616	95.19
456.836	90.19
457.056	92.19
457.276	82.19
457.497	83.19
457.717	80.19
457.937	88.19
458.157	83.19
458.377	73.19
458.598	106.19
458.818	124.19
459.038	149.19
459.258	108.19
459.478	87.19
459.698	86.19
459.918	86.19
460.138	78.19
460.358	91.19
460.578	85.19
460.798	95.19
461.018	90.19
461.238	92.19
461.458	90.19
461.678	87.19
461.898	91.19
462.118	100.19
462.338	75.19
462.558	104.19
462.777	79.19
462.997	94.19
463.217	92.19
463.437	81.19
463.657	88.19
463.876	100.19
464.096	99.19
464.316	94.19
464.536	108.19
464.755	80.19
464.975	103.19
465.195	138.19
465.414	144.19
465.634	95.19
465.854	90.19
466.073	83.19
466.293	88.19
466.512	83.19
466.732	90.19
466.951	94.19
467.171	100.19
467.391	100.19
467.61	99.19
467.829	92.19
468.049	91.19
468.268	92.19
468.488	75.19
468.707	85.19
468.927	95.19
469.146	72.19
469.365	87.19
469.585	89.19
469.804	88.19
470.023	104.19
470.243	99.19
470.462	95.19
470.681	114.19
470.901	92.19
471.12	84.19
471.339	80.19
471.558	95.19
471.777	78.19
471.997	98.19
472.216	107.19
472.435	101.19
472.654	103.19
472.873	78.19
473.092	70.19
473.311	95.19
473.53	90.19
473.749	89.19
473.968	87.19
474.187	115.19
474.406	102.19
474.625	81.19
474.844	81.19
475.063	87.19
475.282	91.19
475.501	86.19
475.72	79.19
475.939	89.19
476.158	75.19
476.377	83.19
476.596	90.19
476.814	90.19
477.033	95.19
477.252	81.19
477.471	78.19
477.69	89.19
477.908	98.19
478.127	91.19
478.346	94.19
478.564	94.19
478.783	88.19
479.002	83.19
479.22	93.19
479.439	110.19
479.658	99.19
479.876	100.19
480.095	92.19
480.313	96.19
480.532	82.19
480.751	83.19
480.969	88.19
481.188	94.19
481.406	107.19
481.624	105.19
481.843	94.19
482.061	110.19
482.28	94.19
482.498	81.19
482.717	79.19
482.935	92.19
483.153	96.19
483.372	88.19
483.59	85.19
483.808	89.19
484.027	82.19
484.245	99.19
484.463	91.19
484.681	93.19
484.9	94.19
485.118	87.19
485.336	94.19
485.554	105.19
485.772	102.19
485.99	96.19
486.209	103.19
486.427	101.19
486.645	104.19
486.863	105.19
487.081	93.19
487.299	94.19
487.517	97.19
487.735	87.19
487.953	84.19
488.171	121.19
488.389	97.19
488.607	101.19
488.825	94.19
489.043	97.19
489.261	102.19
489.479	91.19
489.696	88.19
489.914	83.19
490.132	81.19
490.35	103.19
490.568	96.19
490.786	89.19
491.003	94.19
491.221	83.19
491.439	96.19
491.657	114.19
491.874	92.19
492.092	88.19
492.31	92.19
492.527	91.19
492.745	83.19
492.963	86.19
493.18	92.19
493.398	93.19
493.615	103.19
493.833	86.19
494.05	89.19
494.268	82.19
494.485	94.19
494.703	79.19
494.92	100.19
495.138	105.19
495.355	98.19
495.573	92.19
495.79	78.19
496.008	75.19
496.225	86.19
496.442	78.19
496.66	102.19
496.877	86.19
497.094	92.19
497.312	93.19
497.529	95.19
497.746	81.19
497.963	94.19
498.181	104.19
498.398	91.19
498.615	99.19
498.832	107.19
499.049	88.19
499.267	101.19
499.484	74.19
499.701	88.19
499.918	85.19
500.135	87.19
500.352	93.19
500.569	96.19
500.786	103.19
501.003	95.19
501.22	100.19
501.437	93.19
501.654	98.19
501.871	96.19
502.088	93.19
502.305	97.19
502.522	97.19
502.739	84.19
502.956	102.19
503.172	99.19
503.389	95.19
503.606	81.19
503.823	97.19
504.04	94.19
504.256	94.19
504.473	103.19
504.69	100.19
504.907	78.19
505.123	101.19
505.34	101.19
505.557	91.19
505.773	94.19
505.99	90.19
506.207	101.19
506.423	96.19
506.64	83.19
506.856	82.19
507.073	86.19
507.289	107.19
507.506	99.19
507.722	111.19
507.939	106.19
508.155	98.19
508.372	82.19
508.588	103.19
508.805	92.19
509.021	81.19
509.238	103.19
509.454	105.19
509.67	93.19
509.887	95.19
510.103	121.19
510.319	190.19
510.536	658.19
510.752	1977.19
510.968	541.19
511.184	144.19
511.401	109.19
511.617	108.19
511.833	83.19
512.049	95.19
512.265	89.19
512.481	104.19
512.698	96.19
512.914	81.19
513.13	78.19
513.346	86.19
513.562	86.19
513.778	96.19
513.994	104.19
514.21	97.19
514.426	107.19
514.642	142.19
514.858	123.19
515.074	154.19
