Data from Uncirc_1988_H10_HRD10591_00039.txt Node
Date: Wed Jan 03 12:04:12 EST 2024
User: Yrep
Spectrometer: HR+D1059
Trigger mode: 1
Integration Time (sec): 1.000000E-1
Scans to average: 1
Electric dark correction enabled: true
Nonlinearity correction enabled: false
Boxcar width: 0
XAxis mode: Wavelengths
Number of Pixels in Spectrum: 2048
>>>>>Begin Spectral Data<<<<<
223.165	-4.5
223.4	-4.5
223.635	-4.5
223.869	-23.5
224.104	-17.5
224.338	-13.5
224.573	-14.5
224.808	-13.5
225.042	-5.5
225.277	3.5
225.511	8.5
225.746	4.5
225.98	-17.5
226.215	8.5
226.449	11.5
226.683	26.5
226.918	15.5
227.152	31.5
227.387	34.5
227.621	39.5
227.856	23.5
228.09	49.5
228.324	61.5
228.559	49.5
228.793	67.5
229.027	57.5
229.262	92.5
229.496	81.5
229.73	78.5
229.964	81.5
230.199	85.5
230.433	80.5
230.667	85.5
230.901	68.5
231.136	83.5
231.37	85.5
231.604	79.5
231.838	85.5
232.072	75.5
232.306	84.5
232.541	81.5
232.775	74.5
233.009	70.5
233.243	80.5
233.477	91.5
233.711	97.5
233.945	95.5
234.179	70.5
234.413	87.5
234.647	74.5
234.881	69.5
235.115	59.5
235.349	83.5
235.583	74.5
235.817	78.5
236.051	68.5
236.285	89.5
236.519	82.5
236.753	65.5
236.987	75.5
237.221	78.5
237.455	103.5
237.689	78.5
237.922	87.5
238.156	82.5
238.39	75.5
238.624	84.5
238.858	85.5
239.091	79.5
239.325	84.5
239.559	72.5
239.793	86.5
240.027	74.5
240.26	77.5
240.494	66.5
240.728	78.5
240.961	72.5
241.195	72.5
241.429	84.5
241.662	91.5
241.896	78.5
242.13	73.5
242.363	63.5
242.597	71.5
242.83	73.5
243.064	80.5
243.298	81.5
243.531	65.5
243.765	98.5
243.998	91.5
244.232	87.5
244.465	84.5
244.699	82.5
244.932	83.5
245.166	85.5
245.399	101.5
245.633	75.5
245.866	86.5
246.099	70.5
246.333	76.5
246.566	71.5
246.8	87.5
247.033	87.5
247.266	88.5
247.5	78.5
247.733	91.5
247.966	94.5
248.2	80.5
248.433	70.5
248.666	79.5
248.899	83.5
249.133	92.5
249.366	100.5
249.599	107.5
249.832	83.5
250.066	93.5
250.299	75.5
250.532	81.5
250.765	66.5
250.998	77.5
251.231	73.5
251.465	77.5
251.698	71.5
251.931	64.5
252.164	66.5
252.397	89.5
252.63	81.5
252.863	86.5
253.096	92.5
253.329	85.5
253.562	88.5
253.795	92.5
254.028	88.5
254.261	84.5
254.494	79.5
254.727	83.5
254.96	95.5
255.193	96.5
255.426	70.5
255.659	90.5
255.892	78.5
256.124	94.5
256.357	71.5
256.59	78.5
256.823	78.5
257.056	82.5
257.289	90.5
257.521	98.5
257.754	81.5
257.987	95.5
258.22	76.5
258.452	86.5
258.685	78.5
258.918	74.5
259.151	86.5
259.383	78.5
259.616	83.5
259.849	88.5
260.081	89.5
260.314	93.5
260.547	94.5
260.779	77.5
261.012	85.5
261.244	81.5
261.477	86.5
261.71	117.5
261.942	103.5
262.175	109.5
262.407	80.5
262.64	91.5
262.872	80.5
263.105	81.5
263.337	89.5
263.57	97.5
263.802	70.5
264.035	83.5
264.267	82.5
264.499	86.5
264.732	89.5
264.964	97.5
265.197	90.5
265.429	83.5
265.661	88.5
265.894	87.5
266.126	81.5
266.358	94.5
266.591	88.5
266.823	73.5
267.055	81.5
267.287	90.5
267.52	80.5
267.752	84.5
267.984	84.5
268.216	81.5
268.448	95.5
268.681	88.5
268.913	89.5
269.145	82.5
269.377	85.5
269.609	89.5
269.841	93.5
270.073	78.5
270.306	83.5
270.538	84.5
270.77	83.5
271.002	83.5
271.234	78.5
271.466	84.5
271.698	74.5
271.93	85.5
272.162	101.5
272.394	84.5
272.626	79.5
272.858	81.5
273.09	69.5
273.322	73.5
273.553	85.5
273.785	85.5
274.017	70.5
274.249	78.5
274.481	80.5
274.713	103.5
274.945	87.5
275.176	81.5
275.408	85.5
275.64	89.5
275.872	84.5
276.104	82.5
276.335	79.5
276.567	96.5
276.799	107.5
277.031	104.5
277.262	81.5
277.494	93.5
277.726	80.5
277.957	94.5
278.189	82.5
278.421	85.5
278.652	91.5
278.884	83.5
279.115	86.5
279.347	78.5
279.579	81.5
279.81	84.5
280.042	90.5
280.273	88.5
280.505	94.5
280.736	94.5
280.968	99.5
281.199	94.5
281.431	83.5
281.662	67.5
281.894	114.5
282.125	118.5
282.356	124.5
282.588	150.5
282.819	116.5
283.051	83.5
283.282	91.5
283.513	92.5
283.745	77.5
283.976	89.5
284.207	98.5
284.439	84.5
284.67	86.5
284.901	80.5
285.132	88.5
285.364	94.5
285.595	89.5
285.826	90.5
286.057	88.5
286.288	112.5
286.52	94.5
286.751	90.5
286.982	95.5
287.213	80.5
287.444	93.5
287.675	85.5
287.906	100.5
288.138	84.5
288.369	90.5
288.6	107.5
288.831	78.5
289.062	84.5
289.293	84.5
289.524	89.5
289.755	99.5
289.986	92.5
290.217	78.5
290.448	89.5
290.679	94.5
290.91	94.5
291.141	82.5
291.371	85.5
291.602	90.5
291.833	99.5
292.064	67.5
292.295	83.5
292.526	95.5
292.757	84.5
292.987	87.5
293.218	86.5
293.449	90.5
293.68	78.5
293.91	96.5
294.141	85.5
294.372	72.5
294.603	87.5
294.833	78.5
295.064	90.5
295.295	84.5
295.525	95.5
295.756	102.5
295.987	136.5
296.217	145.5
296.448	142.5
296.679	100.5
296.909	85.5
297.14	88.5
297.37	93.5
297.601	86.5
297.831	86.5
298.062	93.5
298.292	86.5
298.523	84.5
298.753	100.5
298.984	84.5
299.214	95.5
299.445	89.5
299.675	103.5
299.905	101.5
300.136	86.5
300.366	98.5
300.597	89.5
300.827	91.5
301.057	92.5
301.288	98.5
301.518	85.5
301.748	110.5
301.979	103.5
302.209	105.5
302.439	90.5
302.669	99.5
302.9	93.5
303.13	89.5
303.36	89.5
303.59	109.5
303.82	111.5
304.051	95.5
304.281	94.5
304.511	88.5
304.741	72.5
304.971	91.5
305.201	82.5
305.431	89.5
305.661	87.5
305.891	79.5
306.121	102.5
306.352	103.5
306.582	100.5
306.812	95.5
307.042	93.5
307.272	93.5
307.502	96.5
307.731	98.5
307.961	89.5
308.191	91.5
308.421	102.5
308.651	91.5
308.881	104.5
309.111	102.5
309.341	99.5
309.571	105.5
309.8	97.5
310.03	114.5
310.26	104.5
310.49	108.5
310.72	101.5
310.949	100.5
311.179	107.5
311.409	98.5
311.639	89.5
311.868	99.5
312.098	75.5
312.328	88.5
312.557	122.5
312.787	107.5
313.017	96.5
313.246	97.5
313.476	85.5
313.706	97.5
313.935	97.5
314.165	101.5
314.394	88.5
314.624	90.5
314.853	97.5
315.083	114.5
315.312	88.5
315.542	79.5
315.771	94.5
316.001	90.5
316.23	97.5
316.46	90.5
316.689	89.5
316.919	107.5
317.148	100.5
317.377	99.5
317.607	97.5
317.836	89.5
318.065	97.5
318.295	105.5
318.524	101.5
318.753	86.5
318.983	91.5
319.212	101.5
319.441	102.5
319.67	105.5
319.9	94.5
320.129	96.5
320.358	105.5
320.587	93.5
320.816	114.5
321.046	122.5
321.275	93.5
321.504	89.5
321.733	103.5
321.962	95.5
322.191	102.5
322.42	114.5
322.649	119.5
322.878	117.5
323.108	133.5
323.337	117.5
323.566	142.5
323.795	160.5
324.024	218.5
324.253	451.5
324.482	1001.5
324.71	2055.5
324.939	2739.5
325.168	973.5
325.397	277.5
325.626	155.5
325.855	143.5
326.084	130.5
326.313	142.5
326.542	178.5
326.77	250.5
326.999	534.5
327.228	1123.5
327.457	2104.5
327.686	1662.5
327.914	440.5
328.143	202.5
328.372	150.5
328.6	125.5
328.829	134.5
329.058	149.5
329.287	119.5
329.515	112.5
329.744	113.5
329.972	123.5
330.201	114.5
330.43	133.5
330.658	132.5
330.887	153.5
331.115	123.5
331.344	105.5
331.572	102.5
331.801	101.5
332.03	97.5
332.258	101.5
332.486	87.5
332.715	91.5
332.943	101.5
333.172	85.5
333.4	91.5
333.629	98.5
333.857	120.5
334.085	117.5
334.314	100.5
334.542	99.5
334.771	100.5
334.999	100.5
335.227	93.5
335.455	90.5
335.684	102.5
335.912	99.5
336.14	94.5
336.369	113.5
336.597	99.5
336.825	90.5
337.053	93.5
337.281	105.5
337.51	100.5
337.738	94.5
337.966	98.5
338.194	96.5
338.422	100.5
338.65	87.5
338.878	99.5
339.106	83.5
339.334	111.5
339.562	89.5
339.79	90.5
340.018	86.5
340.246	101.5
340.474	113.5
340.702	103.5
340.93	99.5
341.158	87.5
341.386	88.5
341.614	91.5
341.842	82.5
342.07	97.5
342.298	90.5
342.526	70.5
342.754	93.5
342.981	93.5
343.209	100.5
343.437	110.5
343.665	81.5
343.893	93.5
344.12	82.5
344.348	90.5
344.576	88.5
344.804	86.5
345.031	95.5
345.259	99.5
345.487	100.5
345.714	102.5
345.942	96.5
346.17	81.5
346.397	105.5
346.625	88.5
346.853	89.5
347.08	90.5
347.308	76.5
347.535	87.5
347.763	105.5
347.99	107.5
348.218	101.5
348.445	104.5
348.673	107.5
348.9	96.5
349.128	99.5
349.355	84.5
349.583	83.5
349.81	95.5
350.037	106.5
350.265	93.5
350.492	91.5
350.72	102.5
350.947	98.5
351.174	110.5
351.402	120.5
351.629	112.5
351.856	101.5
352.083	96.5
352.311	112.5
352.538	116.5
352.765	103.5
352.992	113.5
353.22	109.5
353.447	89.5
353.674	90.5
353.901	82.5
354.128	97.5
354.355	122.5
354.583	97.5
354.81	98.5
355.037	98.5
355.264	90.5
355.491	92.5
355.718	103.5
355.945	86.5
356.172	99.5
356.399	101.5
356.626	104.5
356.853	93.5
357.08	99.5
357.307	91.5
357.534	95.5
357.761	101.5
357.988	86.5
358.215	106.5
358.441	87.5
358.668	93.5
358.895	92.5
359.122	87.5
359.349	98.5
359.576	102.5
359.802	100.5
360.029	112.5
360.256	105.5
360.483	93.5
360.709	106.5
360.936	106.5
361.163	93.5
361.39	94.5
361.616	75.5
361.843	87.5
362.07	95.5
362.296	108.5
362.523	104.5
362.749	88.5
362.976	85.5
363.203	93.5
363.429	89.5
363.656	86.5
363.882	91.5
364.109	96.5
364.335	88.5
364.562	99.5
364.788	107.5
365.015	102.5
365.241	94.5
365.468	122.5
365.694	106.5
365.92	94.5
366.147	97.5
366.373	94.5
366.599	88.5
366.826	93.5
367.052	100.5
367.278	102.5
367.505	88.5
367.731	104.5
367.957	92.5
368.184	99.5
368.41	113.5
368.636	96.5
368.862	122.5
369.089	109.5
369.315	98.5
369.541	85.5
369.767	91.5
369.993	88.5
370.219	106.5
370.445	104.5
370.672	90.5
370.898	101.5
371.124	90.5
371.35	81.5
371.576	83.5
371.802	87.5
372.028	81.5
372.254	84.5
372.48	90.5
372.706	83.5
372.932	90.5
373.158	88.5
373.384	90.5
373.61	96.5
373.835	83.5
374.061	88.5
374.287	88.5
374.513	99.5
374.739	89.5
374.965	89.5
375.191	73.5
375.416	89.5
375.642	88.5
375.868	92.5
376.094	99.5
376.319	91.5
376.545	85.5
376.771	100.5
376.997	94.5
377.222	91.5
377.448	88.5
377.674	89.5
377.899	91.5
378.125	90.5
378.35	93.5
378.576	88.5
378.802	87.5
379.027	94.5
379.253	80.5
379.478	70.5
379.704	101.5
379.929	88.5
380.155	109.5
380.38	93.5
380.606	85.5
380.831	95.5
381.057	93.5
381.282	86.5
381.507	103.5
381.733	90.5
381.958	85.5
382.184	93.5
382.409	113.5
382.634	95.5
382.86	105.5
383.085	91.5
383.31	101.5
383.535	109.5
383.761	83.5
383.986	106.5
384.211	88.5
384.436	110.5
384.662	99.5
384.887	82.5
385.112	103.5
385.337	99.5
385.562	94.5
385.787	117.5
386.013	97.5
386.238	97.5
386.463	108.5
386.688	118.5
386.913	95.5
387.138	89.5
387.363	97.5
387.588	107.5
387.813	99.5
388.038	86.5
388.263	98.5
388.488	109.5
388.713	81.5
388.938	102.5
389.163	100.5
389.387	111.5
389.612	93.5
389.837	96.5
390.062	96.5
390.287	91.5
390.512	88.5
390.736	87.5
390.961	102.5
391.186	94.5
391.411	99.5
391.636	104.5
391.86	82.5
392.085	60.5
392.31	99.5
392.534	101.5
392.759	90.5
392.984	86.5
393.208	89.5
393.433	91.5
393.658	103.5
393.882	88.5
394.107	81.5
394.331	96.5
394.556	85.5
394.78	103.5
395.005	90.5
395.229	90.5
395.454	88.5
395.678	98.5
395.903	91.5
396.127	98.5
396.352	73.5
396.576	113.5
396.801	90.5
397.025	107.5
397.249	95.5
397.474	90.5
397.698	81.5
397.922	98.5
398.147	101.5
398.371	86.5
398.595	100.5
398.82	93.5
399.044	86.5
399.268	86.5
399.492	87.5
399.717	110.5
399.941	75.5
400.165	95.5
400.389	101.5
400.613	90.5
400.837	80.5
401.062	91.5
401.286	75.5
401.51	89.5
401.734	94.5
401.958	100.5
402.182	138.5
402.406	162.5
402.63	127.5
402.854	95.5
403.078	101.5
403.302	97.5
403.526	79.5
403.75	88.5
403.974	77.5
404.198	85.5
404.422	95.5
404.645	94.5
404.869	90.5
405.093	97.5
405.317	115.5
405.541	98.5
405.765	102.5
405.988	124.5
406.212	170.5
406.436	234.5
406.66	147.5
406.883	110.5
407.107	95.5
407.331	85.5
407.555	89.5
407.778	96.5
408.002	99.5
408.226	94.5
408.449	84.5
408.673	91.5
408.896	85.5
409.12	94.5
409.344	89.5
409.567	89.5
409.791	91.5
410.014	91.5
410.238	78.5
410.461	103.5
410.685	99.5
410.908	91.5
411.132	106.5
411.355	95.5
411.578	83.5
411.802	96.5
412.025	87.5
412.249	98.5
412.472	95.5
412.695	99.5
412.919	89.5
413.142	85.5
413.365	102.5
413.589	85.5
413.812	91.5
414.035	88.5
414.258	95.5
414.482	86.5
414.705	85.5
414.928	88.5
415.151	80.5
415.374	82.5
415.597	96.5
415.821	90.5
416.044	99.5
416.267	85.5
416.49	94.5
416.713	96.5
416.936	86.5
417.159	90.5
417.382	88.5
417.605	88.5
417.828	97.5
418.051	103.5
418.274	98.5
418.497	89.5
418.72	85.5
418.943	84.5
419.166	94.5
419.389	90.5
419.611	102.5
419.834	86.5
420.057	102.5
420.28	93.5
420.503	83.5
420.726	72.5
420.948	104.5
421.171	93.5
421.394	103.5
421.617	86.5
421.839	90.5
422.062	105.5
422.285	91.5
422.507	95.5
422.73	97.5
422.953	86.5
423.175	83.5
423.398	74.5
423.621	99.5
423.843	83.5
424.066	79.5
424.288	86.5
424.511	97.5
424.733	112.5
424.956	114.5
425.178	110.5
425.401	102.5
425.623	113.5
425.846	89.5
426.068	85.5
426.291	105.5
426.513	104.5
426.735	83.5
426.958	104.5
427.18	103.5
427.402	150.5
427.625	182.5
427.847	126.5
428.069	105.5
428.292	97.5
428.514	84.5
428.736	93.5
428.958	81.5
429.181	86.5
429.403	90.5
429.625	91.5
429.847	85.5
430.069	99.5
430.292	87.5
430.514	78.5
430.736	86.5
430.958	84.5
431.18	94.5
431.402	93.5
431.624	90.5
431.846	101.5
432.068	97.5
432.29	82.5
432.512	83.5
432.734	75.5
432.956	97.5
433.178	95.5
433.4	96.5
433.622	101.5
433.844	94.5
434.066	99.5
434.287	87.5
434.509	99.5
434.731	92.5
434.953	93.5
435.175	85.5
435.397	78.5
435.618	94.5
435.84	116.5
436.062	130.5
436.284	107.5
436.505	103.5
436.727	101.5
436.949	89.5
437.17	93.5
437.392	87.5
437.614	95.5
437.835	120.5
438.057	126.5
438.278	105.5
438.5	109.5
438.721	123.5
438.943	107.5
439.165	91.5
439.386	93.5
439.608	90.5
439.829	109.5
440.05	123.5
440.272	142.5
440.493	105.5
440.715	84.5
440.936	91.5
441.158	103.5
441.379	93.5
441.6	104.5
441.822	95.5
442.043	95.5
442.264	110.5
442.486	110.5
442.707	92.5
442.928	115.5
443.149	146.5
443.371	137.5
443.592	121.5
443.813	114.5
444.034	121.5
444.255	94.5
444.476	89.5
444.698	85.5
444.919	85.5
445.14	152.5
445.361	135.5
445.582	129.5
445.803	134.5
446.024	135.5
446.245	149.5
446.466	116.5
446.687	97.5
446.908	83.5
447.129	93.5
447.35	89.5
447.571	112.5
447.792	105.5
448.013	74.5
448.234	113.5
448.455	104.5
448.675	125.5
448.896	126.5
449.117	98.5
449.338	104.5
449.559	128.5
449.779	134.5
450	83.5
450.221	94.5
450.442	90.5
450.662	101.5
450.883	112.5
451.104	128.5
451.324	87.5
451.545	89.5
451.766	91.5
451.986	88.5
452.207	81.5
452.428	79.5
452.648	111.5
452.869	112.5
453.089	110.5
453.31	134.5
453.53	105.5
453.751	96.5
453.971	97.5
454.192	126.5
454.412	81.5
454.633	83.5
454.853	91.5
455.073	90.5
455.294	82.5
455.514	101.5
455.734	100.5
455.955	99.5
456.175	77.5
456.395	68.5
456.616	93.5
456.836	83.5
457.056	92.5
457.276	73.5
457.497	80.5
457.717	83.5
457.937	71.5
458.157	85.5
458.377	105.5
458.598	99.5
458.818	177.5
459.038	179.5
459.258	120.5
459.478	89.5
459.698	85.5
459.918	97.5
460.138	85.5
460.358	97.5
460.578	91.5
460.798	97.5
461.018	111.5
461.238	97.5
461.458	74.5
461.678	87.5
461.898	93.5
462.118	83.5
462.338	89.5
462.558	93.5
462.777	93.5
462.997	87.5
463.217	69.5
463.437	87.5
463.657	81.5
463.876	98.5
464.096	93.5
464.316	94.5
464.536	87.5
464.755	95.5
464.975	106.5
465.195	183.5
465.414	165.5
465.634	97.5
465.854	72.5
466.073	77.5
466.293	97.5
466.512	74.5
466.732	86.5
466.951	97.5
467.171	99.5
467.391	87.5
467.61	101.5
467.829	104.5
468.049	95.5
468.268	102.5
468.488	108.5
468.707	91.5
468.927	81.5
469.146	87.5
469.365	102.5
469.585	110.5
469.804	96.5
470.023	89.5
470.243	89.5
470.462	99.5
470.681	102.5
470.901	82.5
471.12	72.5
471.339	96.5
471.558	94.5
471.777	78.5
471.997	74.5
472.216	96.5
472.435	101.5
472.654	73.5
472.873	85.5
473.092	101.5
473.311	113.5
473.53	84.5
473.749	84.5
473.968	108.5
474.187	94.5
474.406	103.5
474.625	84.5
474.844	84.5
475.063	84.5
475.282	82.5
475.501	89.5
475.72	83.5
475.939	75.5
476.158	83.5
476.377	80.5
476.596	81.5
476.814	90.5
477.033	94.5
477.252	93.5
477.471	73.5
477.69	84.5
477.908	92.5
478.127	94.5
478.346	93.5
478.564	92.5
478.783	93.5
479.002	97.5
479.22	96.5
479.439	83.5
479.658	89.5
479.876	95.5
480.095	89.5
480.313	89.5
480.532	87.5
480.751	99.5
480.969	100.5
481.188	127.5
481.406	105.5
481.624	98.5
481.843	91.5
482.061	96.5
482.28	89.5
482.498	96.5
482.717	97.5
482.935	97.5
483.153	89.5
483.372	86.5
483.59	96.5
483.808	97.5
484.027	81.5
484.245	101.5
484.463	87.5
484.681	88.5
484.9	89.5
485.118	96.5
485.336	91.5
485.554	89.5
485.772	109.5
485.99	102.5
486.209	106.5
486.427	114.5
486.645	100.5
486.863	115.5
487.081	102.5
487.299	107.5
487.517	105.5
487.735	89.5
487.953	85.5
488.171	96.5
488.389	101.5
488.607	98.5
488.825	93.5
489.043	93.5
489.261	90.5
489.479	98.5
489.696	81.5
489.914	94.5
490.132	94.5
490.35	80.5
490.568	97.5
490.786	96.5
491.003	102.5
491.221	97.5
491.439	88.5
491.657	100.5
491.874	93.5
492.092	89.5
492.31	94.5
492.527	89.5
492.745	87.5
492.963	94.5
493.18	93.5
493.398	86.5
493.615	105.5
493.833	103.5
494.05	94.5
494.268	95.5
494.485	96.5
494.703	88.5
494.92	105.5
495.138	97.5
495.355	95.5
495.573	103.5
495.79	98.5
496.008	95.5
496.225	95.5
496.442	87.5
496.66	106.5
496.877	95.5
497.094	93.5
497.312	91.5
497.529	101.5
497.746	101.5
497.963	106.5
498.181	93.5
498.398	91.5
498.615	108.5
498.832	105.5
499.049	102.5
499.267	87.5
499.484	87.5
499.701	85.5
499.918	98.5
500.135	86.5
500.352	82.5
500.569	81.5
500.786	98.5
501.003	96.5
501.22	88.5
501.437	83.5
501.654	95.5
501.871	95.5
502.088	80.5
502.305	80.5
502.522	100.5
502.739	94.5
502.956	100.5
503.172	82.5
503.389	93.5
503.606	111.5
503.823	97.5
504.04	96.5
504.256	98.5
504.473	88.5
504.69	93.5
504.907	95.5
505.123	105.5
505.34	103.5
505.557	107.5
505.773	95.5
505.99	93.5
506.207	93.5
506.423	94.5
506.64	85.5
506.856	100.5
507.073	89.5
507.289	86.5
507.506	94.5
507.722	112.5
507.939	112.5
508.155	101.5
508.372	89.5
508.588	90.5
508.805	103.5
509.021	96.5
509.238	112.5
509.454	100.5
509.67	99.5
509.887	101.5
510.103	145.5
510.319	234.5
510.536	840.5
510.752	2730.5
510.968	749.5
511.184	163.5
511.401	119.5
511.617	90.5
511.833	88.5
512.049	104.5
512.265	80.5
512.481	86.5
512.698	97.5
512.914	106.5
513.13	101.5
513.346	100.5
513.562	79.5
513.778	94.5
513.994	102.5
514.21	117.5
514.426	133.5
514.642	137.5
514.858	136.5
515.074	186.5
515.29	531.5
515.506	1799.5
515.721	617.5
515.937	179.5
516.153	122.5
516.369	93.5
516.585	95.5
516.801	99.5
517.016	95.5
517.232	87.5
517.448	78.5
517.664	82.5
517.879	106.5
518.095	102.5
518.311	100.5
518.527	94.5
518.742	94.5
518.958	94.5
519.173	94.5
519.389	97.5
519.605	96.5
519.82	102.5
520.036	99.5
520.251	115.5
520.467	119.5
520.682	107.5
520.898	117.5
521.113	132.5
521.329	156.5
521.544	227.5
521.76	678.5
521.975	2997.5
522.19	1717.5
522.406	351.5
522.621	121.5
522.836	111.5
523.052	115.5
523.267	88.5
523.482	87.5
523.698	124.5
523.913	129.5
524.128	104.5
524.343	106.5
524.559	92.5
524.774	103.5
524.989	94.5
525.204	93.5
525.419	100.5
525.634	103.5
525.849	95.5
526.064	94.5
526.28	83.5
526.495	81.5
526.71	73.5
526.925	95.5
527.14	79.5
527.355	99.5
527.57	104.5
527.785	91.5
527.999	81.5
528.214	79.5
528.429	101.5
528.644	101.5
528.859	86.5
529.074	104.5
529.289	136.5
529.503	194.5
529.718	112.5
529.933	85.5
530.148	84.5
530.363	84.5
530.577	84.5
530.792	89.5
531.007	83.5
531.221	94.5
531.436	103.5
531.651	99.5
531.865	81.5
532.08	93.5
532.295	90.5
532.509	111.5
532.724	99.5
532.938	86.5
533.153	98.5
533.367	93.5
533.582	90.5
533.796	95.5
534.011	90.5
534.225	93.5
