Data from Uncirc_1988_H10_HRD10591_00045.txt Node
Date: Wed Jan 03 12:04:13 EST 2024
User: Yrep
Spectrometer: HR+D1059
Trigger mode: 1
Integration Time (sec): 1.000000E-1
Scans to average: 1
Electric dark correction enabled: true
Nonlinearity correction enabled: false
Boxcar width: 0
XAxis mode: Wavelengths
Number of Pixels in Spectrum: 2048
>>>>>Begin Spectral Data<<<<<
223.165	-20.06
223.4	-20.06
223.635	-20.06
223.869	-27.06
224.104	-13.06
224.338	-16.06
224.573	-8.06
224.808	-2.06
225.042	-1.06
225.277	-12.06
225.511	-2.06
225.746	-3.06
225.98	2.94
226.215	20.94
226.449	20.94
226.683	16.94
226.918	12.94
227.152	29.94
227.387	39.94
227.621	40.94
227.856	39.94
228.09	43.94
228.324	47.94
228.559	49.94
228.793	52.94
229.027	56.94
229.262	70.94
229.496	79.94
229.73	91.94
229.964	83.94
230.199	71.94
230.433	80.94
230.667	93.94
230.901	83.94
231.136	83.94
231.37	82.94
231.604	82.94
231.838	95.94
232.072	83.94
232.306	84.94
232.541	77.94
232.775	95.94
233.009	81.94
233.243	84.94
233.477	75.94
233.711	77.94
233.945	75.94
234.179	81.94
234.413	75.94
234.647	79.94
234.881	71.94
235.115	84.94
235.349	79.94
235.583	84.94
235.817	67.94
236.051	69.94
236.285	93.94
236.519	80.94
236.753	73.94
236.987	77.94
237.221	88.94
237.455	103.94
237.689	81.94
237.922	66.94
238.156	87.94
238.39	79.94
238.624	80.94
238.858	79.94
239.091	74.94
239.325	84.94
239.559	79.94
239.793	82.94
240.027	86.94
240.26	77.94
240.494	75.94
240.728	64.94
240.961	71.94
241.195	87.94
241.429	73.94
241.662	84.94
241.896	82.94
242.13	70.94
242.363	77.94
242.597	78.94
242.83	91.94
243.064	81.94
243.298	70.94
243.531	65.94
243.765	81.94
243.998	83.94
244.232	65.94
244.465	89.94
244.699	77.94
244.932	89.94
245.166	71.94
245.399	64.94
245.633	77.94
245.866	80.94
246.099	79.94
246.333	68.94
246.566	82.94
246.8	79.94
247.033	76.94
247.266	82.94
247.5	81.94
247.733	63.94
247.966	82.94
248.2	84.94
248.433	72.94
248.666	84.94
248.899	85.94
249.133	92.94
249.366	87.94
249.599	97.94
249.832	76.94
250.066	84.94
250.299	83.94
250.532	88.94
250.765	75.94
250.998	88.94
251.231	79.94
251.465	86.94
251.698	73.94
251.931	74.94
252.164	81.94
252.397	81.94
252.63	98.94
252.863	70.94
253.096	83.94
253.329	78.94
253.562	88.94
253.795	79.94
254.028	55.94
254.261	79.94
254.494	70.94
254.727	77.94
254.96	91.94
255.193	83.94
255.426	66.94
255.659	73.94
255.892	75.94
256.124	75.94
256.357	72.94
256.59	81.94
256.823	75.94
257.056	85.94
257.289	78.94
257.521	71.94
257.754	72.94
257.987	72.94
258.22	80.94
258.452	78.94
258.685	88.94
258.918	89.94
259.151	74.94
259.383	82.94
259.616	75.94
259.849	79.94
260.081	73.94
260.314	77.94
260.547	79.94
260.779	82.94
261.012	77.94
261.244	96.94
261.477	93.94
261.71	95.94
261.942	115.94
262.175	120.94
262.407	96.94
262.64	81.94
262.872	99.94
263.105	75.94
263.337	69.94
263.57	71.94
263.802	95.94
264.035	83.94
264.267	69.94
264.499	77.94
264.732	69.94
264.964	84.94
265.197	85.94
265.429	76.94
265.661	69.94
265.894	76.94
266.126	77.94
266.358	83.94
266.591	81.94
266.823	95.94
267.055	80.94
267.287	94.94
267.52	88.94
267.752	69.94
267.984	74.94
268.216	70.94
268.448	79.94
268.681	93.94
268.913	75.94
269.145	76.94
269.377	84.94
269.609	78.94
269.841	90.94
270.073	85.94
270.306	71.94
270.538	87.94
270.77	103.94
271.002	83.94
271.234	85.94
271.466	77.94
271.698	91.94
271.93	83.94
272.162	80.94
272.394	89.94
272.626	84.94
272.858	87.94
273.09	72.94
273.322	88.94
273.553	79.94
273.785	85.94
274.017	79.94
274.249	93.94
274.481	84.94
274.713	83.94
274.945	86.94
275.176	89.94
275.408	77.94
275.64	93.94
275.872	102.94
276.104	88.94
276.335	88.94
276.567	106.94
276.799	113.94
277.031	105.94
277.262	85.94
277.494	72.94
277.726	90.94
277.957	83.94
278.189	75.94
278.421	76.94
278.652	84.94
278.884	81.94
279.115	82.94
279.347	89.94
279.579	98.94
279.81	80.94
280.042	82.94
280.273	81.94
280.505	94.94
280.736	77.94
280.968	79.94
281.199	73.94
281.431	93.94
281.662	79.94
281.894	98.94
282.125	94.94
282.356	109.94
282.588	156.94
282.819	124.94
283.051	98.94
283.282	69.94
283.513	91.94
283.745	92.94
283.976	86.94
284.207	81.94
284.439	89.94
284.67	86.94
284.901	95.94
285.132	77.94
285.364	91.94
285.595	94.94
285.826	85.94
286.057	87.94
286.288	89.94
286.52	72.94
286.751	73.94
286.982	71.94
287.213	76.94
287.444	101.94
287.675	91.94
287.906	75.94
288.138	102.94
288.369	81.94
288.6	72.94
288.831	97.94
289.062	80.94
289.293	83.94
289.524	92.94
289.755	88.94
289.986	88.94
290.217	79.94
290.448	90.94
290.679	80.94
290.91	93.94
291.141	88.94
291.371	95.94
291.602	81.94
291.833	100.94
292.064	77.94
292.295	78.94
292.526	66.94
292.757	78.94
292.987	75.94
293.218	93.94
293.449	86.94
293.68	86.94
293.91	84.94
294.141	104.94
294.372	79.94
294.603	86.94
294.833	83.94
295.064	86.94
295.295	93.94
295.525	88.94
295.756	115.94
295.987	113.94
296.217	139.94
296.448	120.94
296.679	81.94
296.909	75.94
297.14	87.94
297.37	69.94
297.601	79.94
297.831	87.94
298.062	87.94
298.292	85.94
298.523	85.94
298.753	68.94
298.984	85.94
299.214	91.94
299.445	88.94
299.675	90.94
299.905	90.94
300.136	76.94
300.366	69.94
300.597	87.94
300.827	94.94
301.057	95.94
301.288	104.94
301.518	98.94
301.748	79.94
301.979	88.94
302.209	92.94
302.439	95.94
302.669	94.94
302.9	73.94
303.13	84.94
303.36	104.94
303.59	97.94
303.82	115.94
304.051	105.94
304.281	100.94
304.511	93.94
304.741	82.94
304.971	89.94
305.201	97.94
305.431	87.94
305.661	86.94
305.891	94.94
306.121	97.94
306.352	89.94
306.582	102.94
306.812	93.94
307.042	100.94
307.272	96.94
307.502	92.94
307.731	79.94
307.961	92.94
308.191	79.94
308.421	91.94
308.651	101.94
308.881	79.94
309.111	97.94
309.341	85.94
309.571	108.94
309.8	98.94
310.03	95.94
310.26	96.94
310.49	104.94
310.72	94.94
310.949	118.94
311.179	102.94
311.409	91.94
311.639	86.94
311.868	102.94
312.098	93.94
312.328	101.94
312.557	99.94
312.787	94.94
313.017	112.94
313.246	100.94
313.476	79.94
313.706	88.94
313.935	91.94
314.165	103.94
314.394	108.94
314.624	89.94
314.853	89.94
315.083	85.94
315.312	96.94
315.542	88.94
315.771	84.94
316.001	83.94
316.23	92.94
316.46	90.94
316.689	94.94
316.919	94.94
317.148	78.94
317.377	97.94
317.607	115.94
317.836	98.94
318.065	95.94
318.295	79.94
318.524	87.94
318.753	101.94
318.983	93.94
319.212	103.94
319.441	104.94
319.67	105.94
319.9	92.94
320.129	102.94
320.358	115.94
320.587	91.94
320.816	101.94
321.046	117.94
321.275	104.94
321.504	89.94
321.733	101.94
321.962	101.94
322.191	99.94
322.42	104.94
322.649	118.94
322.878	112.94
323.108	133.94
323.337	121.94
323.566	134.94
323.795	153.94
324.024	212.94
324.253	440.94
324.482	998.94
324.71	2165.94
324.939	2917.94
325.168	998.94
325.397	289.94
325.626	160.94
325.855	139.94
326.084	136.94
326.313	142.94
326.542	165.94
326.77	265.94
326.999	537.94
327.228	1173.94
327.457	2247.94
327.686	1778.94
327.914	446.94
328.143	203.94
328.372	147.94
328.6	132.94
328.829	123.94
329.058	142.94
329.287	133.94
329.515	106.94
329.744	104.94
329.972	123.94
330.201	124.94
330.43	123.94
330.658	129.94
330.887	158.94
331.115	117.94
331.344	93.94
331.572	101.94
331.801	115.94
332.03	118.94
332.258	104.94
332.486	94.94
332.715	104.94
332.943	94.94
333.172	94.94
333.4	92.94
333.629	96.94
333.857	111.94
334.085	110.94
334.314	108.94
334.542	120.94
334.771	100.94
334.999	115.94
335.227	104.94
335.455	109.94
335.684	103.94
335.912	93.94
336.14	101.94
336.369	100.94
336.597	99.94
336.825	95.94
337.053	91.94
337.281	85.94
337.51	98.94
337.738	82.94
337.966	81.94
338.194	101.94
338.422	88.94
338.65	111.94
338.878	93.94
339.106	84.94
339.334	93.94
339.562	95.94
339.79	97.94
340.018	79.94
340.246	85.94
340.474	91.94
340.702	78.94
340.93	85.94
341.158	102.94
341.386	88.94
341.614	93.94
341.842	93.94
342.07	97.94
342.298	85.94
342.526	95.94
342.754	85.94
342.981	86.94
343.209	86.94
343.437	104.94
343.665	86.94
343.893	80.94
344.12	99.94
344.348	79.94
344.576	79.94
344.804	88.94
345.031	89.94
345.259	98.94
345.487	85.94
345.714	82.94
345.942	85.94
346.17	84.94
346.397	98.94
346.625	91.94
346.853	96.94
347.08	101.94
347.308	78.94
347.535	87.94
347.763	103.94
347.99	91.94
348.218	107.94
348.445	104.94
348.673	95.94
348.9	81.94
349.128	95.94
349.355	95.94
349.583	91.94
349.81	93.94
350.037	104.94
350.265	95.94
350.492	82.94
350.72	87.94
350.947	98.94
351.174	101.94
351.402	107.94
351.629	108.94
351.856	102.94
352.083	101.94
352.311	101.94
352.538	105.94
352.765	112.94
352.992	109.94
353.22	116.94
353.447	106.94
353.674	110.94
353.901	99.94
354.128	95.94
354.355	121.94
354.583	93.94
354.81	107.94
355.037	101.94
355.264	76.94
355.491	82.94
355.718	101.94
355.945	87.94
356.172	75.94
356.399	101.94
356.626	89.94
356.853	88.94
357.08	96.94
357.307	91.94
357.534	84.94
357.761	109.94
357.988	92.94
358.215	99.94
358.441	97.94
358.668	95.94
358.895	76.94
359.122	83.94
359.349	99.94
359.576	91.94
359.802	106.94
360.029	103.94
360.256	118.94
360.483	107.94
360.709	95.94
360.936	81.94
361.163	99.94
361.39	95.94
361.616	100.94
361.843	88.94
362.07	89.94
362.296	91.94
362.523	95.94
362.749	96.94
362.976	85.94
363.203	80.94
363.429	89.94
363.656	90.94
363.882	95.94
364.109	100.94
364.335	93.94
364.562	100.94
364.788	82.94
365.015	81.94
365.241	94.94
365.468	116.94
365.694	109.94
365.92	89.94
366.147	91.94
366.373	84.94
366.599	101.94
366.826	98.94
367.052	81.94
367.278	89.94
367.505	87.94
367.731	88.94
367.957	92.94
368.184	90.94
368.41	92.94
368.636	116.94
368.862	116.94
369.089	101.94
369.315	87.94
369.541	92.94
369.767	87.94
369.993	83.94
370.219	86.94
370.445	87.94
370.672	72.94
370.898	95.94
371.124	99.94
371.35	91.94
371.576	88.94
371.802	88.94
372.028	98.94
372.254	87.94
372.48	75.94
372.706	77.94
372.932	85.94
373.158	72.94
373.384	95.94
373.61	92.94
373.835	87.94
374.061	89.94
374.287	100.94
374.513	88.94
374.739	85.94
374.965	78.94
375.191	81.94
375.416	82.94
375.642	89.94
375.868	97.94
376.094	83.94
376.319	81.94
376.545	89.94
376.771	75.94
376.997	92.94
377.222	88.94
377.448	92.94
377.674	101.94
377.899	95.94
378.125	94.94
378.35	90.94
378.576	102.94
378.802	85.94
379.027	93.94
379.253	86.94
379.478	95.94
379.704	94.94
379.929	94.94
380.155	87.94
380.38	81.94
380.606	90.94
380.831	106.94
381.057	94.94
381.282	91.94
381.507	67.94
381.733	95.94
381.958	92.94
382.184	90.94
382.409	87.94
382.634	108.94
382.86	99.94
383.085	96.94
383.31	97.94
383.535	102.94
383.761	109.94
383.986	93.94
384.211	88.94
384.436	101.94
384.662	99.94
384.887	84.94
385.112	106.94
385.337	109.94
385.562	100.94
385.787	113.94
386.013	105.94
386.238	93.94
386.463	101.94
386.688	97.94
386.913	95.94
387.138	93.94
387.363	102.94
387.588	100.94
387.813	98.94
388.038	105.94
388.263	99.94
388.488	107.94
388.713	98.94
388.938	99.94
389.163	89.94
389.387	85.94
389.612	96.94
389.837	94.94
390.062	100.94
390.287	87.94
390.512	72.94
390.736	88.94
390.961	80.94
391.186	92.94
391.411	97.94
391.636	85.94
391.86	94.94
392.085	87.94
392.31	83.94
392.534	80.94
392.759	88.94
392.984	78.94
393.208	88.94
393.433	96.94
393.658	95.94
393.882	90.94
394.107	79.94
394.331	87.94
394.556	88.94
394.78	93.94
395.005	77.94
395.229	86.94
395.454	87.94
395.678	80.94
395.903	94.94
396.127	70.94
396.352	83.94
396.576	91.94
396.801	104.94
397.025	96.94
397.249	76.94
397.474	98.94
397.698	86.94
397.922	89.94
398.147	89.94
398.371	80.94
398.595	82.94
398.82	91.94
399.044	85.94
399.268	100.94
399.492	89.94
399.717	84.94
399.941	85.94
400.165	97.94
400.389	112.94
400.613	96.94
400.837	95.94
401.062	84.94
401.286	83.94
401.51	93.94
401.734	95.94
401.958	96.94
402.182	128.94
402.406	162.94
402.63	126.94
402.854	93.94
403.078	94.94
403.302	98.94
403.526	88.94
403.75	89.94
403.974	77.94
404.198	83.94
404.422	88.94
404.645	91.94
404.869	97.94
405.093	95.94
405.317	101.94
405.541	96.94
405.765	110.94
405.988	133.94
406.212	177.94
406.436	244.94
406.66	148.94
406.883	89.94
407.107	93.94
407.331	111.94
407.555	103.94
407.778	102.94
408.002	98.94
408.226	95.94
408.449	83.94
408.673	94.94
408.896	94.94
409.12	102.94
409.344	95.94
409.567	81.94
409.791	97.94
410.014	91.94
410.238	81.94
410.461	102.94
410.685	92.94
410.908	88.94
411.132	100.94
411.355	100.94
411.578	88.94
411.802	100.94
412.025	72.94
412.249	84.94
412.472	90.94
412.695	96.94
412.919	103.94
413.142	83.94
413.365	90.94
413.589	83.94
413.812	87.94
414.035	81.94
414.258	96.94
414.482	87.94
414.705	84.94
414.928	82.94
415.151	86.94
415.374	80.94
415.597	98.94
415.821	88.94
416.044	86.94
416.267	95.94
416.49	101.94
416.713	95.94
416.936	91.94
417.159	96.94
417.382	89.94
417.605	85.94
417.828	98.94
418.051	97.94
418.274	99.94
418.497	91.94
418.72	87.94
418.943	76.94
419.166	92.94
419.389	86.94
419.611	89.94
419.834	93.94
420.057	96.94
420.28	78.94
420.503	97.94
420.726	82.94
420.948	88.94
421.171	96.94
421.394	91.94
421.617	82.94
421.839	88.94
422.062	83.94
422.285	99.94
422.507	111.94
422.73	114.94
422.953	101.94
423.175	79.94
423.398	83.94
423.621	109.94
423.843	86.94
424.066	93.94
424.288	81.94
424.511	95.94
424.733	107.94
424.956	105.94
425.178	91.94
425.401	113.94
425.623	101.94
425.846	99.94
426.068	108.94
426.291	95.94
426.513	88.94
426.735	94.94
426.958	96.94
427.18	126.94
427.402	150.94
427.625	200.94
427.847	134.94
428.069	112.94
428.292	93.94
428.514	80.94
428.736	90.94
428.958	77.94
429.181	80.94
429.403	89.94
429.625	90.94
429.847	99.94
430.069	120.94
430.292	99.94
430.514	89.94
430.736	87.94
430.958	84.94
431.18	92.94
431.402	94.94
431.624	77.94
431.846	84.94
432.068	91.94
432.29	87.94
432.512	92.94
432.734	85.94
432.956	88.94
433.178	102.94
433.4	98.94
433.622	85.94
433.844	78.94
434.066	88.94
434.287	102.94
434.509	86.94
434.731	94.94
434.953	80.94
435.175	85.94
435.397	81.94
435.618	89.94
435.84	103.94
436.062	155.94
436.284	128.94
436.505	98.94
436.727	112.94
436.949	95.94
437.17	93.94
437.392	94.94
437.614	92.94
437.835	90.94
438.057	131.94
438.278	118.94
438.5	113.94
438.721	153.94
438.943	116.94
439.165	88.94
439.386	96.94
439.608	100.94
439.829	97.94
440.05	134.94
440.272	161.94
440.493	92.94
440.715	81.94
440.936	108.94
441.158	93.94
441.379	95.94
441.6	96.94
441.822	95.94
442.043	102.94
442.264	103.94
442.486	83.94
442.707	93.94
442.928	109.94
443.149	129.94
443.371	128.94
443.592	110.94
443.813	121.94
444.034	109.94
444.255	89.94
444.476	87.94
444.698	91.94
444.919	83.94
445.14	138.94
445.361	127.94
445.582	114.94
445.803	160.94
446.024	157.94
446.245	158.94
446.466	115.94
446.687	88.94
446.908	92.94
447.129	85.94
447.35	93.94
447.571	80.94
447.792	85.94
448.013	101.94
448.234	110.94
448.455	103.94
448.675	119.94
448.896	119.94
449.117	94.94
449.338	100.94
449.559	137.94
449.779	162.94
450	95.94
450.221	91.94
450.442	96.94
450.662	94.94
450.883	105.94
451.104	112.94
451.324	99.94
451.545	99.94
451.766	94.94
451.986	91.94
452.207	88.94
452.428	88.94
452.648	92.94
452.869	104.94
453.089	120.94
453.31	122.94
453.53	98.94
453.751	99.94
453.971	97.94
454.192	116.94
454.412	102.94
454.633	91.94
454.853	93.94
455.073	81.94
455.294	102.94
455.514	97.94
455.734	118.94
455.955	104.94
456.175	88.94
456.395	87.94
456.616	90.94
456.836	94.94
457.056	89.94
457.276	75.94
457.497	86.94
457.717	90.94
457.937	85.94
458.157	91.94
458.377	87.94
458.598	123.94
458.818	153.94
459.038	173.94
459.258	115.94
459.478	91.94
459.698	87.94
459.918	91.94
460.138	95.94
460.358	80.94
460.578	82.94
460.798	101.94
461.018	79.94
461.238	79.94
461.458	101.94
461.678	87.94
461.898	93.94
462.118	103.94
462.338	84.94
462.558	81.94
462.777	79.94
462.997	73.94
463.217	78.94
463.437	79.94
463.657	89.94
463.876	87.94
464.096	87.94
464.316	89.94
464.536	94.94
464.755	79.94
464.975	109.94
465.195	181.94
465.414	177.94
465.634	114.94
465.854	91.94
466.073	88.94
466.293	95.94
466.512	83.94
466.732	79.94
466.951	85.94
467.171	105.94
467.391	101.94
467.61	98.94
467.829	91.94
468.049	87.94
468.268	97.94
468.488	85.94
468.707	80.94
468.927	82.94
469.146	87.94
469.365	94.94
469.585	85.94
469.804	105.94
470.023	103.94
470.243	98.94
470.462	88.94
470.681	113.94
470.901	96.94
471.12	86.94
471.339	90.94
471.558	93.94
471.777	93.94
471.997	99.94
472.216	114.94
472.435	113.94
472.654	97.94
472.873	87.94
473.092	65.94
473.311	81.94
473.53	81.94
473.749	83.94
473.968	102.94
474.187	114.94
474.406	106.94
474.625	99.94
474.844	92.94
475.063	91.94
475.282	94.94
475.501	89.94
475.72	83.94
475.939	81.94
476.158	91.94
476.377	87.94
476.596	90.94
476.814	79.94
477.033	85.94
477.252	97.94
477.471	83.94
477.69	88.94
477.908	80.94
478.127	92.94
478.346	99.94
478.564	89.94
478.783	103.94
479.002	88.94
479.22	96.94
479.439	86.94
479.658	104.94
479.876	91.94
480.095	101.94
480.313	94.94
480.532	87.94
480.751	85.94
480.969	93.94
481.188	126.94
481.406	126.94
481.624	97.94
481.843	81.94
482.061	93.94
482.28	90.94
482.498	91.94
482.717	86.94
482.935	89.94
483.153	89.94
483.372	86.94
483.59	84.94
483.808	94.94
484.027	85.94
484.245	95.94
484.463	95.94
484.681	82.94
484.9	101.94
485.118	93.94
485.336	97.94
485.554	100.94
485.772	91.94
485.99	96.94
486.209	103.94
486.427	98.94
486.645	108.94
486.863	111.94
487.081	102.94
487.299	89.94
487.517	85.94
487.735	94.94
487.953	93.94
488.171	100.94
488.389	100.94
488.607	88.94
488.825	99.94
489.043	92.94
489.261	89.94
489.479	95.94
489.696	88.94
489.914	70.94
490.132	83.94
490.35	87.94
490.568	82.94
490.786	80.94
491.003	85.94
491.221	98.94
491.439	98.94
491.657	104.94
491.874	73.94
492.092	97.94
492.31	102.94
492.527	87.94
492.745	84.94
492.963	83.94
493.18	89.94
493.398	95.94
493.615	104.94
493.833	79.94
494.05	85.94
494.268	96.94
494.485	88.94
494.703	92.94
494.92	87.94
495.138	72.94
495.355	84.94
495.573	90.94
495.79	88.94
496.008	95.94
496.225	83.94
496.442	89.94
496.66	81.94
496.877	101.94
497.094	95.94
497.312	82.94
497.529	85.94
497.746	103.94
497.963	94.94
498.181	108.94
498.398	96.94
498.615	111.94
498.832	100.94
499.049	94.94
499.267	92.94
499.484	79.94
499.701	85.94
499.918	97.94
500.135	91.94
500.352	89.94
500.569	105.94
500.786	95.94
501.003	82.94
501.22	105.94
501.437	103.94
501.654	98.94
501.871	112.94
502.088	101.94
502.305	95.94
502.522	99.94
502.739	92.94
502.956	95.94
503.172	81.94
503.389	95.94
503.606	105.94
503.823	105.94
504.04	90.94
504.256	89.94
504.473	94.94
504.69	99.94
504.907	85.94
505.123	84.94
505.34	94.94
505.557	83.94
505.773	91.94
505.99	101.94
506.207	103.94
506.423	104.94
506.64	96.94
506.856	100.94
507.073	85.94
507.289	91.94
507.506	99.94
507.722	111.94
507.939	115.94
508.155	110.94
508.372	82.94
508.588	95.94
508.805	90.94
509.021	97.94
509.238	110.94
509.454	103.94
509.67	109.94
509.887	105.94
510.103	137.94
510.319	238.94
510.536	789.94
510.752	2568.94
510.968	665.94
511.184	161.94
511.401	111.94
511.617	109.94
511.833	98.94
512.049	83.94
512.265	95.94
512.481	97.94
512.698	100.94
512.914	82.94
513.13	97.94
513.346	106.94
513.562	92.94
513.778	89.94
513.994	93.94
514.21	99.94
514.426	113.94
514.642	148.94
514.858	141.94
515.074	179.94
515.29	525.94
515.506	1677.94
