Data from Uncirc_1988_H10_HRD10591_00028.txt Node
Date: Wed Jan 03 12:04:10 EST 2024
User: Yrep
Spectrometer: HR+D1059
Trigger mode: 1
Integration Time (sec): 1.000000E-1
Scans to average: 1
Electric dark correction enabled: true
Nonlinearity correction enabled: false
Boxcar width: 0
XAxis mode: Wavelengths
Number of Pixels in Spectrum: 2048
>>>>>Begin Spectral Data<<<<<
223.165	-19.44
223.4	-19.44
223.635	-19.44
223.869	-22.44
224.104	-14.44
224.338	-17.44
224.573	-15.44
224.808	-8.44
225.042	-19.44
225.277	-16.44
225.511	-2.44
225.746	-0.44
225.98	15.56
226.215	17.56
226.449	18.56
226.683	18.56
226.918	31.56
227.152	34.56
227.387	36.56
227.621	23.56
227.856	55.56
228.09	42.56
228.324	46.56
228.559	63.56
228.793	54.56
229.027	56.56
229.262	56.56
229.496	75.56
229.73	80.56
229.964	82.56
230.199	80.56
230.433	82.56
230.667	69.56
230.901	74.56
231.136	85.56
231.37	83.56
231.604	75.56
231.838	80.56
232.072	80.56
232.306	89.56
232.541	86.56
232.775	81.56
233.009	70.56
233.243	82.56
233.477	79.56
233.711	73.56
233.945	71.56
234.179	76.56
234.413	81.56
234.647	88.56
234.881	67.56
235.115	70.56
235.349	72.56
235.583	78.56
235.817	82.56
236.051	75.56
236.285	70.56
236.519	77.56
236.753	74.56
236.987	80.56
237.221	78.56
237.455	91.56
237.689	91.56
237.922	83.56
238.156	79.56
238.39	72.56
238.624	69.56
238.858	80.56
239.091	74.56
239.325	70.56
239.559	66.56
239.793	74.56
240.027	76.56
240.26	70.56
240.494	64.56
240.728	78.56
240.961	72.56
241.195	67.56
241.429	72.56
241.662	61.56
241.896	71.56
242.13	74.56
242.363	66.56
242.597	83.56
242.83	82.56
243.064	64.56
243.298	68.56
243.531	76.56
243.765	78.56
243.998	62.56
244.232	70.56
244.465	86.56
244.699	88.56
244.932	71.56
245.166	64.56
245.399	67.56
245.633	62.56
245.866	64.56
246.099	85.56
246.333	66.56
246.566	67.56
246.8	76.56
247.033	76.56
247.266	78.56
247.5	63.56
247.733	78.56
247.966	78.56
248.2	74.56
248.433	81.56
248.666	91.56
248.899	86.56
249.133	97.56
249.366	81.56
249.599	91.56
249.832	89.56
250.066	79.56
250.299	70.56
250.532	81.56
250.765	68.56
250.998	77.56
251.231	61.56
251.465	67.56
251.698	79.56
251.931	70.56
252.164	74.56
252.397	88.56
252.63	78.56
252.863	87.56
253.096	78.56
253.329	79.56
253.562	74.56
253.795	74.56
254.028	79.56
254.261	88.56
254.494	69.56
254.727	84.56
254.96	89.56
255.193	81.56
255.426	87.56
255.659	80.56
255.892	80.56
256.124	87.56
256.357	85.56
256.59	65.56
256.823	88.56
257.056	87.56
257.289	74.56
257.521	84.56
257.754	82.56
257.987	90.56
258.22	79.56
258.452	71.56
258.685	59.56
258.918	72.56
259.151	82.56
259.383	90.56
259.616	84.56
259.849	81.56
260.081	79.56
260.314	78.56
260.547	84.56
260.779	77.56
261.012	78.56
261.244	77.56
261.477	88.56
261.71	86.56
261.942	99.56
262.175	108.56
262.407	100.56
262.64	86.56
262.872	83.56
263.105	87.56
263.337	91.56
263.57	85.56
263.802	82.56
264.035	67.56
264.267	78.56
264.499	83.56
264.732	77.56
264.964	78.56
265.197	72.56
265.429	89.56
265.661	94.56
265.894	86.56
266.126	71.56
266.358	74.56
266.591	93.56
266.823	82.56
267.055	78.56
267.287	79.56
267.52	84.56
267.752	71.56
267.984	86.56
268.216	88.56
268.448	89.56
268.681	95.56
268.913	88.56
269.145	76.56
269.377	74.56
269.609	77.56
269.841	82.56
270.073	72.56
270.306	80.56
270.538	90.56
270.77	90.56
271.002	86.56
271.234	95.56
271.466	81.56
271.698	71.56
271.93	80.56
272.162	87.56
272.394	85.56
272.626	89.56
272.858	96.56
273.09	66.56
273.322	74.56
273.553	69.56
273.785	80.56
274.017	97.56
274.249	91.56
274.481	77.56
274.713	84.56
274.945	97.56
275.176	76.56
275.408	67.56
275.64	93.56
275.872	86.56
276.104	65.56
276.335	81.56
276.567	82.56
276.799	98.56
277.031	95.56
277.262	103.56
277.494	95.56
277.726	82.56
277.957	77.56
278.189	69.56
278.421	83.56
278.652	78.56
278.884	81.56
279.115	78.56
279.347	83.56
279.579	87.56
279.81	80.56
280.042	88.56
280.273	97.56
280.505	85.56
280.736	86.56
280.968	77.56
281.199	88.56
281.431	78.56
281.662	80.56
281.894	79.56
282.125	110.56
282.356	110.56
282.588	117.56
282.819	113.56
283.051	84.56
283.282	89.56
283.513	88.56
283.745	86.56
283.976	91.56
284.207	85.56
284.439	92.56
284.67	91.56
284.901	94.56
285.132	86.56
285.364	90.56
285.595	94.56
285.826	88.56
286.057	80.56
286.288	90.56
286.52	78.56
286.751	86.56
286.982	86.56
287.213	79.56
287.444	79.56
287.675	91.56
287.906	79.56
288.138	69.56
288.369	88.56
288.6	83.56
288.831	79.56
289.062	93.56
289.293	87.56
289.524	89.56
289.755	78.56
289.986	95.56
290.217	82.56
290.448	85.56
290.679	79.56
290.91	86.56
291.141	86.56
291.371	94.56
291.602	71.56
291.833	75.56
292.064	76.56
292.295	90.56
292.526	72.56
292.757	82.56
292.987	87.56
293.218	92.56
293.449	88.56
293.68	83.56
293.91	97.56
294.141	78.56
294.372	85.56
294.603	83.56
294.833	90.56
295.064	69.56
295.295	89.56
295.525	101.56
295.756	95.56
295.987	112.56
296.217	124.56
296.448	105.56
296.679	92.56
296.909	93.56
297.14	94.56
297.37	89.56
297.601	93.56
297.831	90.56
298.062	76.56
298.292	86.56
298.523	83.56
298.753	80.56
298.984	98.56
299.214	82.56
299.445	88.56
299.675	82.56
299.905	92.56
300.136	88.56
300.366	82.56
300.597	81.56
300.827	80.56
301.057	85.56
301.288	101.56
301.518	85.56
301.748	85.56
301.979	89.56
302.209	82.56
302.439	82.56
302.669	87.56
302.9	70.56
303.13	82.56
303.36	86.56
303.59	92.56
303.82	100.56
304.051	78.56
304.281	84.56
304.511	82.56
304.741	85.56
304.971	81.56
305.201	87.56
305.431	88.56
305.661	81.56
305.891	76.56
306.121	94.56
306.352	86.56
306.582	99.56
306.812	93.56
307.042	97.56
307.272	70.56
307.502	82.56
307.731	94.56
307.961	87.56
308.191	83.56
308.421	101.56
308.651	94.56
308.881	80.56
309.111	100.56
309.341	101.56
309.571	102.56
309.8	105.56
310.03	93.56
310.26	85.56
310.49	70.56
310.72	79.56
310.949	91.56
311.179	98.56
311.409	83.56
311.639	77.56
311.868	100.56
312.098	94.56
312.328	97.56
312.557	87.56
312.787	110.56
313.017	90.56
313.246	91.56
313.476	84.56
313.706	95.56
313.935	87.56
314.165	94.56
314.394	92.56
314.624	84.56
314.853	85.56
315.083	95.56
315.312	97.56
315.542	79.56
315.771	87.56
316.001	78.56
316.23	88.56
316.46	89.56
316.689	89.56
316.919	82.56
317.148	87.56
317.377	85.56
317.607	77.56
317.836	87.56
318.065	91.56
318.295	85.56
318.524	74.56
318.753	102.56
318.983	78.56
319.212	98.56
319.441	99.56
319.67	99.56
319.9	86.56
320.129	96.56
320.358	86.56
320.587	93.56
320.816	93.56
321.046	110.56
321.275	92.56
321.504	92.56
321.733	97.56
321.962	104.56
322.191	85.56
322.42	102.56
322.649	104.56
322.878	113.56
323.108	112.56
323.337	123.56
323.566	107.56
323.795	135.56
324.024	196.56
324.253	370.56
324.482	829.56
324.71	1712.56
324.939	2190.56
325.168	802.56
325.397	238.56
325.626	162.56
325.855	143.56
326.084	122.56
326.313	123.56
326.542	146.56
326.77	232.56
326.999	432.56
327.228	952.56
327.457	1744.56
327.686	1356.56
327.914	360.56
328.143	176.56
328.372	133.56
328.6	122.56
328.829	113.56
329.058	124.56
329.287	120.56
329.515	103.56
329.744	102.56
329.972	94.56
330.201	81.56
330.43	111.56
330.658	125.56
330.887	123.56
331.115	116.56
331.344	97.56
331.572	90.56
331.801	105.56
332.03	95.56
332.258	83.56
332.486	70.56
332.715	97.56
332.943	88.56
333.172	78.56
333.4	90.56
333.629	107.56
333.857	104.56
334.085	107.56
334.314	88.56
334.542	102.56
334.771	95.56
334.999	98.56
335.227	96.56
335.455	87.56
335.684	86.56
335.912	93.56
336.14	94.56
336.369	104.56
336.597	103.56
336.825	97.56
337.053	94.56
337.281	89.56
337.51	103.56
337.738	87.56
337.966	83.56
338.194	85.56
338.422	74.56
338.65	83.56
338.878	91.56
339.106	102.56
339.334	114.56
339.562	86.56
339.79	90.56
340.018	89.56
340.246	72.56
340.474	91.56
340.702	85.56
340.93	84.56
341.158	108.56
341.386	107.56
341.614	80.56
341.842	92.56
342.07	94.56
342.298	90.56
342.526	81.56
342.754	81.56
342.981	96.56
343.209	88.56
343.437	106.56
343.665	95.56
343.893	99.56
344.12	97.56
344.348	74.56
344.576	89.56
344.804	83.56
345.031	94.56
345.259	86.56
345.487	116.56
345.714	93.56
345.942	84.56
346.17	90.56
346.397	90.56
346.625	82.56
346.853	95.56
347.08	80.56
347.308	87.56
347.535	94.56
347.763	91.56
347.99	86.56
348.218	88.56
348.445	86.56
348.673	91.56
348.9	87.56
349.128	83.56
349.355	102.56
349.583	85.56
349.81	84.56
350.037	92.56
350.265	86.56
350.492	87.56
350.72	78.56
350.947	94.56
351.174	93.56
351.402	110.56
351.629	95.56
351.856	91.56
352.083	114.56
352.311	100.56
352.538	101.56
352.765	125.56
352.992	117.56
353.22	112.56
353.447	99.56
353.674	91.56
353.901	93.56
354.128	107.56
354.355	97.56
354.583	82.56
354.81	81.56
355.037	96.56
355.264	107.56
355.491	92.56
355.718	93.56
355.945	89.56
356.172	90.56
356.399	85.56
356.626	96.56
356.853	82.56
357.08	97.56
357.307	84.56
357.534	85.56
357.761	95.56
357.988	102.56
358.215	89.56
358.441	82.56
358.668	97.56
358.895	93.56
359.122	86.56
359.349	68.56
359.576	78.56
359.802	86.56
360.029	111.56
360.256	94.56
360.483	98.56
360.709	73.56
360.936	75.56
361.163	90.56
361.39	74.56
361.616	97.56
361.843	71.56
362.07	91.56
362.296	96.56
362.523	60.56
362.749	84.56
362.976	85.56
363.203	91.56
363.429	92.56
363.656	91.56
363.882	82.56
364.109	86.56
364.335	85.56
364.562	86.56
364.788	96.56
365.015	104.56
365.241	102.56
365.468	99.56
365.694	102.56
365.92	92.56
366.147	92.56
366.373	84.56
366.599	87.56
366.826	72.56
367.052	92.56
367.278	74.56
367.505	94.56
367.731	104.56
367.957	86.56
368.184	76.56
368.41	93.56
368.636	104.56
368.862	122.56
369.089	111.56
369.315	88.56
369.541	85.56
369.767	90.56
369.993	74.56
370.219	100.56
370.445	102.56
370.672	78.56
370.898	69.56
371.124	61.56
371.35	80.56
371.576	87.56
371.802	82.56
372.028	79.56
372.254	88.56
372.48	86.56
372.706	82.56
372.932	76.56
373.158	84.56
373.384	79.56
373.61	84.56
373.835	86.56
374.061	76.56
374.287	104.56
374.513	96.56
374.739	92.56
374.965	86.56
375.191	96.56
375.416	89.56
375.642	80.56
375.868	90.56
376.094	92.56
376.319	93.56
376.545	82.56
376.771	81.56
376.997	94.56
377.222	98.56
377.448	91.56
377.674	81.56
377.899	81.56
378.125	86.56
378.35	101.56
378.576	84.56
378.802	86.56
379.027	87.56
379.253	92.56
379.478	94.56
379.704	85.56
379.929	94.56
380.155	82.56
380.38	84.56
380.606	88.56
380.831	95.56
381.057	101.56
381.282	93.56
381.507	97.56
381.733	100.56
381.958	90.56
382.184	92.56
382.409	94.56
382.634	96.56
382.86	84.56
383.085	99.56
383.31	92.56
383.535	105.56
383.761	100.56
383.986	106.56
384.211	90.56
384.436	78.56
384.662	101.56
384.887	98.56
385.112	91.56
385.337	82.56
385.562	93.56
385.787	87.56
386.013	83.56
386.238	107.56
386.463	96.56
386.688	97.56
386.913	103.56
387.138	97.56
387.363	84.56
387.588	107.56
387.813	88.56
388.038	102.56
388.263	100.56
388.488	103.56
388.713	90.56
388.938	83.56
389.163	75.56
389.387	91.56
389.612	89.56
389.837	99.56
390.062	99.56
390.287	104.56
390.512	95.56
390.736	96.56
390.961	99.56
391.186	105.56
391.411	81.56
391.636	75.56
391.86	90.56
392.085	82.56
392.31	77.56
392.534	86.56
392.759	90.56
392.984	79.56
393.208	82.56
393.433	101.56
393.658	95.56
393.882	89.56
394.107	81.56
394.331	79.56
394.556	76.56
394.78	82.56
395.005	81.56
395.229	84.56
395.454	97.56
395.678	90.56
395.903	87.56
396.127	79.56
396.352	92.56
396.576	83.56
396.801	96.56
397.025	91.56
397.249	88.56
397.474	92.56
397.698	93.56
397.922	79.56
398.147	74.56
398.371	89.56
398.595	90.56
398.82	87.56
399.044	91.56
399.268	87.56
399.492	76.56
399.717	77.56
399.941	84.56
400.165	94.56
400.389	93.56
400.613	89.56
400.837	86.56
401.062	82.56
401.286	70.56
401.51	90.56
401.734	94.56
401.958	100.56
402.182	129.56
402.406	131.56
402.63	105.56
402.854	93.56
403.078	100.56
403.302	78.56
403.526	88.56
403.75	86.56
403.974	86.56
404.198	90.56
404.422	93.56
404.645	82.56
404.869	82.56
405.093	86.56
405.317	95.56
405.541	96.56
405.765	94.56
405.988	113.56
406.212	140.56
406.436	198.56
406.66	125.56
406.883	105.56
407.107	85.56
407.331	93.56
407.555	93.56
407.778	81.56
408.002	88.56
408.226	85.56
408.449	92.56
408.673	83.56
408.896	97.56
409.12	101.56
409.344	94.56
409.567	100.56
409.791	83.56
410.014	108.56
410.238	94.56
410.461	102.56
410.685	103.56
410.908	93.56
411.132	107.56
411.355	103.56
411.578	92.56
411.802	91.56
412.025	81.56
412.249	91.56
412.472	80.56
412.695	94.56
412.919	78.56
413.142	93.56
413.365	78.56
413.589	64.56
413.812	92.56
414.035	100.56
414.258	69.56
414.482	92.56
414.705	103.56
414.928	81.56
415.151	92.56
415.374	90.56
415.597	100.56
415.821	81.56
416.044	97.56
416.267	83.56
416.49	88.56
416.713	86.56
416.936	96.56
417.159	77.56
417.382	98.56
417.605	79.56
417.828	85.56
418.051	85.56
418.274	82.56
418.497	79.56
418.72	104.56
418.943	85.56
419.166	100.56
419.389	80.56
419.611	71.56
419.834	74.56
420.057	95.56
420.28	74.56
420.503	80.56
420.726	82.56
420.948	88.56
421.171	89.56
421.394	80.56
421.617	78.56
421.839	83.56
422.062	84.56
422.285	87.56
422.507	102.56
422.73	113.56
422.953	88.56
423.175	91.56
423.398	69.56
423.621	77.56
423.843	92.56
424.066	86.56
424.288	88.56
424.511	73.56
424.733	84.56
424.956	110.56
425.178	92.56
425.401	87.56
425.623	80.56
425.846	82.56
426.068	75.56
426.291	93.56
426.513	102.56
426.735	96.56
426.958	92.56
427.18	99.56
427.402	122.56
427.625	150.56
427.847	126.56
428.069	92.56
428.292	85.56
428.514	102.56
428.736	87.56
428.958	79.56
429.181	85.56
429.403	87.56
429.625	83.56
429.847	91.56
430.069	69.56
430.292	98.56
430.514	76.56
430.736	84.56
430.958	79.56
431.18	67.56
431.402	70.56
431.624	75.56
431.846	84.56
432.068	78.56
432.29	98.56
432.512	76.56
432.734	97.56
432.956	89.56
433.178	103.56
433.4	85.56
433.622	90.56
433.844	95.56
434.066	98.56
434.287	104.56
434.509	98.56
434.731	91.56
434.953	88.56
435.175	77.56
435.397	96.56
435.618	87.56
435.84	104.56
436.062	91.56
436.284	111.56
436.505	96.56
436.727	104.56
436.949	93.56
437.17	85.56
437.392	92.56
437.614	88.56
437.835	97.56
438.057	115.56
438.278	101.56
438.5	100.56
438.721	103.56
438.943	88.56
439.165	91.56
439.386	92.56
439.608	99.56
439.829	107.56
440.05	105.56
440.272	121.56
440.493	99.56
440.715	93.56
440.936	95.56
441.158	87.56
441.379	84.56
441.6	91.56
441.822	79.56
442.043	92.56
442.264	88.56
442.486	100.56
442.707	91.56
442.928	103.56
443.149	120.56
443.371	118.56
443.592	88.56
443.813	103.56
444.034	105.56
444.255	88.56
444.476	89.56
444.698	92.56
444.919	92.56
445.14	135.56
445.361	107.56
445.582	110.56
445.803	114.56
446.024	133.56
446.245	139.56
446.466	103.56
446.687	94.56
446.908	80.56
447.129	100.56
447.35	102.56
447.571	81.56
447.792	94.56
448.013	114.56
448.234	102.56
448.455	93.56
448.675	110.56
448.896	125.56
449.117	96.56
449.338	104.56
449.559	124.56
449.779	131.56
450	97.56
450.221	92.56
450.442	75.56
450.662	98.56
450.883	99.56
451.104	103.56
451.324	82.56
451.545	87.56
451.766	86.56
451.986	88.56
452.207	86.56
452.428	93.56
452.648	97.56
452.869	98.56
453.089	103.56
453.31	116.56
453.53	92.56
453.751	87.56
453.971	91.56
454.192	97.56
454.412	84.56
454.633	93.56
454.853	85.56
455.073	79.56
455.294	99.56
455.514	92.56
455.734	88.56
455.955	84.56
456.175	79.56
456.395	71.56
456.616	91.56
456.836	62.56
457.056	87.56
457.276	75.56
457.497	77.56
457.717	61.56
457.937	86.56
458.157	86.56
458.377	84.56
458.598	101.56
458.818	135.56
459.038	154.56
459.258	107.56
459.478	90.56
459.698	82.56
459.918	79.56
460.138	67.56
460.358	78.56
460.578	94.56
460.798	102.56
461.018	87.56
461.238	78.56
461.458	77.56
461.678	86.56
461.898	103.56
462.118	71.56
462.338	92.56
462.558	88.56
462.777	90.56
462.997	88.56
463.217	72.56
463.437	77.56
463.657	82.56
463.876	80.56
464.096	105.56
464.316	94.56
464.536	102.56
464.755	100.56
464.975	111.56
465.195	156.56
465.414	131.56
465.634	105.56
465.854	84.56
466.073	84.56
466.293	85.56
466.512	90.56
466.732	72.56
466.951	98.56
467.171	85.56
467.391	98.56
467.61	91.56
467.829	94.56
468.049	96.56
468.268	82.56
468.488	82.56
468.707	79.56
468.927	79.56
469.146	88.56
469.365	82.56
469.585	98.56
469.804	88.56
470.023	88.56
470.243	92.56
470.462	83.56
470.681	87.56
470.901	76.56
471.12	103.56
471.339	95.56
471.558	78.56
471.777	77.56
471.997	90.56
472.216	74.56
472.435	91.56
472.654	86.56
472.873	82.56
473.092	86.56
473.311	104.56
473.53	95.56
473.749	92.56
473.968	80.56
474.187	91.56
474.406	101.56
474.625	92.56
474.844	88.56
475.063	84.56
475.282	74.56
475.501	82.56
475.72	99.56
475.939	80.56
476.158	80.56
476.377	77.56
476.596	87.56
476.814	80.56
477.033	95.56
477.252	94.56
477.471	62.56
477.69	90.56
477.908	82.56
478.127	95.56
478.346	78.56
478.564	71.56
478.783	82.56
479.002	86.56
479.22	88.56
479.439	106.56
479.658	100.56
479.876	90.56
480.095	83.56
480.313	105.56
480.532	104.56
480.751	84.56
480.969	85.56
481.188	121.56
481.406	103.56
481.624	84.56
481.843	83.56
482.061	77.56
482.28	70.56
482.498	93.56
482.717	89.56
482.935	96.56
483.153	82.56
483.372	74.56
483.59	86.56
483.808	79.56
484.027	88.56
484.245	98.56
484.463	81.56
484.681	92.56
484.9	88.56
485.118	98.56
485.336	84.56
485.554	92.56
485.772	94.56
485.99	102.56
486.209	106.56
486.427	104.56
486.645	94.56
486.863	101.56
487.081	101.56
487.299	92.56
487.517	86.56
487.735	85.56
487.953	93.56
488.171	95.56
488.389	105.56
488.607	104.56
488.825	84.56
489.043	91.56
489.261	97.56
489.479	90.56
489.696	82.56
489.914	86.56
490.132	89.56
490.35	103.56
490.568	92.56
490.786	76.56
491.003	103.56
491.221	94.56
491.439	77.56
491.657	100.56
491.874	89.56
492.092	90.56
492.31	96.56
492.527	88.56
492.745	88.56
492.963	85.56
493.18	77.56
493.398	88.56
493.615	99.56
493.833	98.56
494.05	89.56
494.268	93.56
494.485	96.56
494.703	90.56
494.92	80.56
495.138	88.56
495.355	98.56
495.573	78.56
495.79	86.56
496.008	80.56
496.225	90.56
496.442	88.56
496.66	98.56
496.877	89.56
497.094	82.56
497.312	71.56
497.529	94.56
497.746	80.56
497.963	70.56
498.181	92.56
498.398	97.56
498.615	104.56
498.832	90.56
499.049	88.56
499.267	94.56
499.484	83.56
499.701	85.56
499.918	83.56
500.135	86.56
500.352	93.56
500.569	96.56
500.786	94.56
501.003	77.56
501.22	75.56
501.437	85.56
501.654	78.56
501.871	85.56
502.088	90.56
502.305	96.56
502.522	82.56
502.739	92.56
502.956	82.56
503.172	93.56
503.389	88.56
503.606	89.56
503.823	87.56
504.04	93.56
504.256	90.56
504.473	91.56
504.69	94.56
504.907	102.56
505.123	98.56
505.34	95.56
505.557	99.56
505.773	99.56
505.99	86.56
506.207	90.56
506.423	75.56
506.64	95.56
506.856	84.56
507.073	83.56
507.289	87.56
507.506	108.56
507.722	95.56
507.939	103.56
508.155	94.56
508.372	109.56
508.588	95.56
508.805	87.56
509.021	101.56
509.238	101.56
509.454	104.56
509.67	104.56
509.887	126.56
510.103	125.56
510.319	196.56
510.536	716.56
510.752	2204.56
510.968	601.56
511.184	151.56
511.401	100.56
511.617	94.56
511.833	83.56
512.049	84.56
512.265	91.56
512.481	94.56
512.698	80.56
512.914	82.56
513.13	102.56
513.346	93.56
513.562	82.56
513.778	90.56
513.994	91.56
514.21	92.56
514.426	104.56
514.642	142.56
514.858	114.56
515.074	172.56
515.29	424.56
515.506	1329.56
515.721	490.56
515.937	132.56
516.153	109.56
516.369	80.56
516.585	92.56
