Data from Uncirc_1988_H10_HRD10591_00093.txt Node
Date: Wed Jan 03 12:04:23 EST 2024
User: Yrep
Spectrometer: HR+D1059
Trigger mode: 1
Integration Time (sec): 1.000000E-1
Scans to average: 1
Electric dark correction enabled: true
Nonlinearity correction enabled: false
Boxcar width: 0
XAxis mode: Wavelengths
Number of Pixels in Spectrum: 2048
>>>>>Begin Spectral Data<<<<<
223.165	-7.31
223.4	-7.31
223.635	-7.31
223.869	-20.31
224.104	-28.31
224.338	-17.31
224.573	-19.31
224.808	-19.31
225.042	-15.31
225.277	-6.31
225.511	5.69
225.746	0.69
225.98	16.69
226.215	10.69
226.449	31.69
226.683	25.69
226.918	28.69
227.152	13.69
227.387	31.69
227.621	49.69
227.856	34.69
228.09	49.69
228.324	58.69
228.559	57.69
228.793	43.69
229.027	49.69
229.262	77.69
229.496	74.69
229.73	94.69
229.964	77.69
230.199	79.69
230.433	82.69
230.667	74.69
230.901	84.69
231.136	66.69
231.37	79.69
231.604	95.69
231.838	83.69
232.072	81.69
232.306	86.69
232.541	83.69
232.775	80.69
233.009	89.69
233.243	79.69
233.477	94.69
233.711	85.69
233.945	84.69
234.179	80.69
234.413	89.69
234.647	76.69
234.881	97.69
235.115	80.69
235.349	75.69
235.583	80.69
235.817	73.69
236.051	83.69
236.285	79.69
236.519	80.69
236.753	89.69
236.987	73.69
237.221	93.69
237.455	101.69
237.689	74.69
237.922	98.69
238.156	81.69
238.39	79.69
238.624	82.69
238.858	82.69
239.091	85.69
239.325	82.69
239.559	90.69
239.793	69.69
240.027	92.69
240.26	91.69
240.494	75.69
240.728	88.69
240.961	73.69
241.195	85.69
241.429	79.69
241.662	83.69
241.896	87.69
242.13	69.69
242.363	79.69
242.597	61.69
242.83	80.69
243.064	76.69
243.298	82.69
243.531	69.69
243.765	75.69
243.998	84.69
244.232	87.69
244.465	80.69
244.699	78.69
244.932	88.69
245.166	77.69
245.399	64.69
245.633	68.69
245.866	71.69
246.099	80.69
246.333	77.69
246.566	71.69
246.8	70.69
247.033	81.69
247.266	75.69
247.5	87.69
247.733	90.69
247.966	96.69
248.2	94.69
248.433	73.69
248.666	77.69
248.899	95.69
249.133	83.69
249.366	106.69
249.599	102.69
249.832	72.69
250.066	83.69
250.299	79.69
250.532	80.69
250.765	77.69
250.998	82.69
251.231	81.69
251.465	86.69
251.698	87.69
251.931	89.69
252.164	69.69
252.397	79.69
252.63	83.69
252.863	85.69
253.096	93.69
253.329	85.69
253.562	72.69
253.795	92.69
254.028	84.69
254.261	87.69
254.494	75.69
254.727	90.69
254.96	79.69
255.193	77.69
255.426	88.69
255.659	76.69
255.892	85.69
256.124	84.69
256.357	81.69
256.59	73.69
256.823	78.69
257.056	83.69
257.289	77.69
257.521	80.69
257.754	75.69
257.987	89.69
258.22	79.69
258.452	93.69
258.685	89.69
258.918	73.69
259.151	77.69
259.383	78.69
259.616	88.69
259.849	70.69
260.081	93.69
260.314	82.69
260.547	93.69
260.779	84.69
261.012	81.69
261.244	84.69
261.477	83.69
261.71	96.69
261.942	108.69
262.175	116.69
262.407	77.69
262.64	82.69
262.872	90.69
263.105	73.69
263.337	97.69
263.57	89.69
263.802	76.69
264.035	88.69
264.267	86.69
264.499	90.69
264.732	85.69
264.964	92.69
265.197	81.69
265.429	81.69
265.661	82.69
265.894	81.69
266.126	79.69
266.358	85.69
266.591	87.69
266.823	83.69
267.055	82.69
267.287	77.69
267.52	90.69
267.752	97.69
267.984	88.69
268.216	85.69
268.448	95.69
268.681	99.69
268.913	80.69
269.145	71.69
269.377	81.69
269.609	70.69
269.841	81.69
270.073	89.69
270.306	81.69
270.538	98.69
270.77	89.69
271.002	74.69
271.234	84.69
271.466	66.69
271.698	77.69
271.93	89.69
272.162	72.69
272.394	81.69
272.626	93.69
272.858	96.69
273.09	92.69
273.322	74.69
273.553	75.69
273.785	85.69
274.017	89.69
274.249	67.69
274.481	87.69
274.713	85.69
274.945	93.69
275.176	79.69
275.408	88.69
275.64	82.69
275.872	86.69
276.104	100.69
276.335	93.69
276.567	102.69
276.799	113.69
277.031	101.69
277.262	98.69
277.494	106.69
277.726	99.69
277.957	72.69
278.189	83.69
278.421	88.69
278.652	90.69
278.884	79.69
279.115	87.69
279.347	76.69
279.579	84.69
279.81	72.69
280.042	89.69
280.273	105.69
280.505	94.69
280.736	83.69
280.968	78.69
281.199	91.69
281.431	89.69
281.662	87.69
281.894	91.69
282.125	95.69
282.356	111.69
282.588	144.69
282.819	115.69
283.051	99.69
283.282	82.69
283.513	99.69
283.745	101.69
283.976	81.69
284.207	94.69
284.439	85.69
284.67	88.69
284.901	90.69
285.132	103.69
285.364	104.69
285.595	91.69
285.826	90.69
286.057	92.69
286.288	77.69
286.52	91.69
286.751	84.69
286.982	88.69
287.213	93.69
287.444	91.69
287.675	91.69
287.906	73.69
288.138	90.69
288.369	99.69
288.6	91.69
288.831	99.69
289.062	93.69
289.293	87.69
289.524	79.69
289.755	99.69
289.986	83.69
290.217	84.69
290.448	90.69
290.679	70.69
290.91	90.69
291.141	83.69
291.371	100.69
291.602	95.69
291.833	94.69
292.064	86.69
292.295	81.69
292.526	90.69
292.757	87.69
292.987	96.69
293.218	85.69
293.449	89.69
293.68	69.69
293.91	99.69
294.141	102.69
294.372	86.69
294.603	96.69
294.833	90.69
295.064	95.69
295.295	91.69
295.525	97.69
295.756	100.69
295.987	121.69
296.217	141.69
296.448	135.69
296.679	95.69
296.909	90.69
297.14	82.69
297.37	93.69
297.601	72.69
297.831	99.69
298.062	80.69
298.292	90.69
298.523	89.69
298.753	80.69
298.984	87.69
299.214	95.69
299.445	96.69
299.675	91.69
299.905	98.69
300.136	106.69
300.366	79.69
300.597	91.69
300.827	99.69
301.057	116.69
301.288	91.69
301.518	95.69
301.748	90.69
301.979	102.69
302.209	81.69
302.439	94.69
302.669	89.69
302.9	94.69
303.13	95.69
303.36	87.69
303.59	100.69
303.82	102.69
304.051	91.69
304.281	98.69
304.511	87.69
304.741	91.69
304.971	95.69
305.201	92.69
305.431	97.69
305.661	94.69
305.891	95.69
306.121	111.69
306.352	100.69
306.582	101.69
306.812	104.69
307.042	103.69
307.272	97.69
307.502	97.69
307.731	97.69
307.961	96.69
308.191	100.69
308.421	85.69
308.651	87.69
308.881	85.69
309.111	97.69
309.341	104.69
309.571	95.69
309.8	91.69
310.03	97.69
310.26	90.69
310.49	103.69
310.72	95.69
310.949	98.69
311.179	92.69
311.409	87.69
311.639	108.69
311.868	85.69
312.098	100.69
312.328	102.69
312.557	110.69
312.787	98.69
313.017	98.69
313.246	113.69
313.476	94.69
313.706	95.69
313.935	97.69
314.165	95.69
314.394	101.69
314.624	97.69
314.853	101.69
315.083	98.69
315.312	116.69
315.542	92.69
315.771	84.69
316.001	81.69
316.23	96.69
316.46	87.69
316.689	82.69
316.919	87.69
317.148	84.69
317.377	90.69
317.607	85.69
317.836	88.69
318.065	94.69
318.295	97.69
318.524	88.69
318.753	96.69
318.983	86.69
319.212	105.69
319.441	123.69
319.67	107.69
319.9	70.69
320.129	91.69
320.358	98.69
320.587	82.69
320.816	81.69
321.046	102.69
321.275	103.69
321.504	100.69
321.733	92.69
321.962	102.69
322.191	101.69
322.42	117.69
322.649	109.69
322.878	121.69
323.108	115.69
323.337	120.69
323.566	132.69
323.795	152.69
324.024	223.69
324.253	421.69
324.482	863.69
324.71	1835.69
324.939	2453.69
325.168	879.69
325.397	260.69
325.626	157.69
325.855	136.69
326.084	133.69
326.313	144.69
326.542	159.69
326.77	240.69
326.999	501.69
327.228	1045.69
327.457	1925.69
327.686	1525.69
327.914	399.69
328.143	208.69
328.372	149.69
328.6	129.69
328.829	133.69
329.058	127.69
329.287	122.69
329.515	114.69
329.744	106.69
329.972	111.69
330.201	117.69
330.43	151.69
330.658	147.69
330.887	154.69
331.115	128.69
331.344	106.69
331.572	110.69
331.801	97.69
332.03	95.69
332.258	103.69
332.486	102.69
332.715	105.69
332.943	93.69
333.172	101.69
333.4	106.69
333.629	103.69
333.857	105.69
334.085	109.69
334.314	125.69
334.542	143.69
334.771	141.69
334.999	107.69
335.227	97.69
335.455	90.69
335.684	99.69
335.912	89.69
336.14	98.69
336.369	94.69
336.597	104.69
336.825	99.69
337.053	99.69
337.281	98.69
337.51	98.69
337.738	91.69
337.966	79.69
338.194	101.69
338.422	88.69
338.65	99.69
338.878	106.69
339.106	81.69
339.334	94.69
339.562	105.69
339.79	81.69
340.018	82.69
340.246	81.69
340.474	77.69
340.702	95.69
340.93	86.69
341.158	104.69
341.386	95.69
341.614	99.69
341.842	93.69
342.07	90.69
342.298	82.69
342.526	94.69
342.754	95.69
342.981	89.69
343.209	79.69
343.437	103.69
343.665	88.69
343.893	89.69
344.12	97.69
344.348	90.69
344.576	89.69
344.804	95.69
345.031	91.69
345.259	97.69
345.487	95.69
345.714	93.69
345.942	90.69
346.17	92.69
346.397	87.69
346.625	89.69
346.853	100.69
347.08	100.69
347.308	90.69
347.535	99.69
347.763	104.69
347.99	114.69
348.218	89.69
348.445	99.69
348.673	99.69
348.9	83.69
349.128	88.69
349.355	88.69
349.583	93.69
349.81	99.69
350.037	103.69
350.265	96.69
350.492	94.69
350.72	101.69
350.947	110.69
351.174	103.69
351.402	119.69
351.629	102.69
351.856	89.69
352.083	94.69
352.311	97.69
352.538	121.69
352.765	106.69
352.992	123.69
353.22	110.69
353.447	107.69
353.674	110.69
353.901	95.69
354.128	105.69
354.355	94.69
354.583	93.69
354.81	108.69
355.037	103.69
355.264	109.69
355.491	97.69
355.718	96.69
355.945	77.69
356.172	81.69
356.399	78.69
356.626	100.69
356.853	93.69
357.08	86.69
357.307	73.69
357.534	96.69
357.761	87.69
357.988	89.69
358.215	96.69
358.441	79.69
358.668	91.69
358.895	81.69
359.122	93.69
359.349	101.69
359.576	95.69
359.802	89.69
360.029	112.69
360.256	108.69
360.483	99.69
360.709	97.69
360.936	98.69
361.163	106.69
361.39	106.69
361.616	91.69
361.843	88.69
362.07	100.69
362.296	87.69
362.523	86.69
362.749	80.69
362.976	85.69
363.203	93.69
363.429	93.69
363.656	98.69
363.882	101.69
364.109	75.69
364.335	97.69
364.562	89.69
364.788	101.69
365.015	96.69
365.241	98.69
365.468	113.69
365.694	101.69
365.92	110.69
366.147	83.69
366.373	87.69
366.599	85.69
366.826	90.69
367.052	95.69
367.278	79.69
367.505	97.69
367.731	87.69
367.957	100.69
368.184	93.69
368.41	104.69
368.636	118.69
368.862	116.69
369.089	107.69
369.315	110.69
369.541	82.69
369.767	97.69
369.993	107.69
370.219	91.69
370.445	85.69
370.672	97.69
370.898	91.69
371.124	86.69
371.35	89.69
371.576	78.69
371.802	78.69
372.028	88.69
372.254	91.69
372.48	94.69
372.706	91.69
372.932	87.69
373.158	89.69
373.384	95.69
373.61	95.69
373.835	90.69
374.061	82.69
374.287	79.69
374.513	89.69
374.739	98.69
374.965	72.69
375.191	77.69
375.416	88.69
375.642	84.69
375.868	93.69
376.094	86.69
376.319	86.69
376.545	95.69
376.771	83.69
376.997	90.69
377.222	86.69
377.448	89.69
377.674	85.69
377.899	104.69
378.125	85.69
378.35	98.69
378.576	84.69
378.802	88.69
379.027	85.69
379.253	91.69
379.478	90.69
379.704	92.69
379.929	95.69
380.155	85.69
380.38	88.69
380.606	81.69
380.831	92.69
381.057	93.69
381.282	84.69
381.507	87.69
381.733	105.69
381.958	87.69
382.184	113.69
382.409	98.69
382.634	125.69
382.86	90.69
383.085	106.69
383.31	89.69
383.535	102.69
383.761	98.69
383.986	97.69
384.211	88.69
384.436	96.69
384.662	85.69
384.887	90.69
385.112	93.69
385.337	109.69
385.562	101.69
385.787	101.69
386.013	104.69
386.238	115.69
386.463	114.69
386.688	119.69
386.913	99.69
387.138	111.69
387.363	107.69
387.588	106.69
387.813	107.69
388.038	104.69
388.263	87.69
388.488	126.69
388.713	97.69
388.938	95.69
389.163	95.69
389.387	91.69
389.612	81.69
389.837	85.69
390.062	72.69
390.287	106.69
390.512	80.69
390.736	101.69
390.961	86.69
391.186	72.69
391.411	85.69
391.636	77.69
391.86	92.69
392.085	85.69
392.31	100.69
392.534	88.69
392.759	73.69
392.984	84.69
393.208	93.69
393.433	81.69
393.658	83.69
393.882	98.69
394.107	96.69
394.331	92.69
394.556	75.69
394.78	83.69
395.005	81.69
395.229	88.69
395.454	75.69
395.678	84.69
395.903	105.69
396.127	92.69
396.352	83.69
396.576	89.69
396.801	85.69
397.025	83.69
397.249	105.69
397.474	105.69
397.698	80.69
397.922	102.69
398.147	83.69
398.371	95.69
398.595	88.69
398.82	89.69
399.044	99.69
399.268	82.69
399.492	88.69
399.717	91.69
399.941	95.69
400.165	93.69
400.389	98.69
400.613	91.69
400.837	97.69
401.062	96.69
401.286	101.69
401.51	83.69
401.734	104.69
401.958	99.69
402.182	121.69
402.406	169.69
402.63	119.69
402.854	111.69
403.078	112.69
403.302	85.69
403.526	87.69
403.75	92.69
403.974	88.69
404.198	87.69
404.422	89.69
404.645	94.69
404.869	95.69
405.093	99.69
405.317	109.69
405.541	88.69
405.765	89.69
405.988	106.69
406.212	157.69
406.436	235.69
406.66	141.69
406.883	99.69
407.107	86.69
407.331	99.69
407.555	110.69
407.778	97.69
408.002	73.69
408.226	95.69
408.449	77.69
408.673	69.69
408.896	95.69
409.12	90.69
409.344	87.69
409.567	92.69
409.791	105.69
410.014	107.69
410.238	93.69
410.461	85.69
410.685	90.69
410.908	94.69
411.132	95.69
411.355	98.69
411.578	106.69
411.802	89.69
412.025	81.69
412.249	96.69
412.472	98.69
412.695	88.69
412.919	95.69
413.142	89.69
413.365	87.69
413.589	81.69
413.812	86.69
414.035	85.69
414.258	80.69
414.482	100.69
414.705	87.69
414.928	95.69
415.151	87.69
415.374	82.69
415.597	94.69
415.821	99.69
416.044	82.69
416.267	91.69
416.49	85.69
416.713	100.69
416.936	89.69
417.159	104.69
417.382	67.69
417.605	96.69
417.828	86.69
418.051	89.69
418.274	107.69
418.497	91.69
418.72	86.69
418.943	93.69
419.166	78.69
419.389	94.69
419.611	112.69
419.834	93.69
420.057	90.69
420.28	83.69
420.503	101.69
420.726	88.69
420.948	94.69
421.171	93.69
421.394	67.69
421.617	83.69
421.839	98.69
422.062	86.69
422.285	89.69
422.507	97.69
422.73	106.69
422.953	87.69
423.175	76.69
423.398	101.69
423.621	91.69
423.843	83.69
424.066	98.69
424.288	96.69
424.511	91.69
424.733	101.69
424.956	113.69
425.178	101.69
425.401	100.69
425.623	96.69
425.846	83.69
426.068	107.69
426.291	96.69
426.513	89.69
426.735	85.69
426.958	103.69
427.18	110.69
427.402	123.69
427.625	183.69
427.847	138.69
428.069	119.69
428.292	85.69
428.514	87.69
428.736	75.69
428.958	84.69
429.181	78.69
429.403	97.69
429.625	96.69
429.847	85.69
430.069	94.69
430.292	96.69
430.514	85.69
430.736	89.69
430.958	88.69
431.18	86.69
431.402	87.69
431.624	87.69
431.846	78.69
432.068	86.69
432.29	85.69
432.512	102.69
432.734	94.69
432.956	79.69
433.178	98.69
433.4	107.69
433.622	89.69
433.844	93.69
434.066	90.69
434.287	98.69
434.509	90.69
434.731	99.69
434.953	89.69
435.175	89.69
435.397	92.69
435.618	104.69
435.84	108.69
436.062	138.69
436.284	128.69
436.505	98.69
436.727	96.69
436.949	104.69
437.17	88.69
437.392	103.69
437.614	101.69
437.835	113.69
438.057	136.69
438.278	120.69
438.5	92.69
438.721	127.69
438.943	113.69
439.165	85.69
439.386	94.69
439.608	81.69
439.829	104.69
440.05	134.69
440.272	150.69
440.493	106.69
440.715	83.69
440.936	89.69
441.158	105.69
441.379	90.69
441.6	102.69
441.822	96.69
442.043	107.69
442.264	106.69
442.486	112.69
442.707	101.69
442.928	98.69
443.149	133.69
443.371	134.69
443.592	111.69
443.813	116.69
444.034	122.69
444.255	87.69
444.476	76.69
444.698	83.69
444.919	77.69
445.14	131.69
445.361	131.69
445.582	112.69
445.803	144.69
446.024	148.69
446.245	132.69
446.466	120.69
446.687	102.69
446.908	94.69
447.129	103.69
447.35	99.69
447.571	89.69
447.792	90.69
448.013	92.69
448.234	99.69
448.455	94.69
448.675	111.69
448.896	113.69
449.117	110.69
449.338	115.69
449.559	128.69
449.779	150.69
450	97.69
450.221	100.69
450.442	77.69
450.662	83.69
450.883	114.69
451.104	112.69
451.324	86.69
451.545	85.69
451.766	90.69
451.986	88.69
452.207	101.69
452.428	109.69
452.648	85.69
452.869	116.69
453.089	114.69
453.31	109.69
453.53	93.69
453.751	107.69
453.971	100.69
454.192	106.69
454.412	84.69
454.633	102.69
454.853	78.69
455.073	79.69
455.294	73.69
455.514	107.69
455.734	95.69
455.955	79.69
456.175	81.69
456.395	97.69
456.616	93.69
456.836	99.69
457.056	91.69
457.276	88.69
457.497	98.69
457.717	90.69
457.937	96.69
458.157	94.69
458.377	92.69
458.598	102.69
458.818	145.69
459.038	161.69
459.258	101.69
459.478	88.69
459.698	90.69
459.918	93.69
460.138	81.69
460.358	86.69
460.578	95.69
460.798	93.69
461.018	96.69
461.238	87.69
461.458	75.69
461.678	95.69
461.898	93.69
462.118	90.69
462.338	81.69
462.558	89.69
462.777	89.69
462.997	89.69
463.217	75.69
463.437	84.69
463.657	92.69
463.876	86.69
464.096	70.69
464.316	88.69
464.536	84.69
464.755	110.69
464.975	97.69
465.195	179.69
465.414	139.69
465.634	102.69
465.854	69.69
466.073	86.69
466.293	83.69
466.512	86.69
466.732	93.69
466.951	91.69
467.171	90.69
467.391	103.69
467.61	99.69
467.829	96.69
468.049	88.69
468.268	107.69
468.488	88.69
468.707	77.69
468.927	91.69
469.146	72.69
469.365	83.69
469.585	89.69
469.804	84.69
470.023	85.69
470.243	91.69
470.462	103.69
470.681	105.69
470.901	83.69
471.12	90.69
471.339	95.69
471.558	83.69
471.777	90.69
471.997	83.69
472.216	119.69
472.435	168.69
472.654	97.69
472.873	106.69
473.092	89.69
473.311	79.69
473.53	83.69
473.749	85.69
473.968	103.69
474.187	99.69
474.406	94.69
474.625	87.69
474.844	108.69
475.063	79.69
475.282	81.69
475.501	95.69
475.72	102.69
475.939	82.69
476.158	86.69
476.377	84.69
476.596	84.69
476.814	102.69
477.033	84.69
477.252	89.69
477.471	96.69
477.69	95.69
477.908	75.69
478.127	101.69
478.346	101.69
478.564	92.69
478.783	100.69
479.002	87.69
479.22	91.69
479.439	88.69
479.658	88.69
479.876	111.69
480.095	82.69
480.313	90.69
480.532	90.69
480.751	93.69
480.969	132.69
481.188	222.69
481.406	168.69
481.624	94.69
481.843	87.69
482.061	92.69
482.28	75.69
482.498	87.69
482.717	90.69
482.935	80.69
483.153	84.69
483.372	83.69
483.59	93.69
483.808	85.69
484.027	82.69
484.245	98.69
484.463	85.69
484.681	91.69
484.9	94.69
485.118	107.69
485.336	115.69
485.554	101.69
485.772	91.69
485.99	107.69
486.209	107.69
486.427	98.69
486.645	107.69
486.863	106.69
487.081	103.69
487.299	95.69
487.517	102.69
487.735	101.69
487.953	92.69
488.171	100.69
488.389	107.69
488.607	106.69
488.825	100.69
489.043	73.69
489.261	82.69
489.479	96.69
489.696	94.69
489.914	93.69
490.132	93.69
490.35	94.69
490.568	97.69
490.786	94.69
491.003	87.69
491.221	82.69
491.439	93.69
491.657	84.69
491.874	93.69
492.092	89.69
492.31	89.69
492.527	82.69
492.745	85.69
492.963	88.69
493.18	80.69
493.398	95.69
493.615	92.69
493.833	82.69
494.05	74.69
494.268	92.69
494.485	105.69
494.703	88.69
494.92	103.69
495.138	92.69
495.355	97.69
495.573	83.69
495.79	98.69
496.008	93.69
496.225	95.69
496.442	87.69
496.66	95.69
496.877	84.69
497.094	88.69
497.312	101.69
497.529	95.69
497.746	81.69
497.963	97.69
498.181	88.69
498.398	101.69
498.615	114.69
498.832	102.69
499.049	101.69
499.267	102.69
499.484	79.69
499.701	79.69
499.918	93.69
500.135	96.69
500.352	73.69
500.569	86.69
500.786	93.69
501.003	95.69
501.22	74.69
501.437	83.69
501.654	106.69
501.871	101.69
502.088	93.69
502.305	93.69
502.522	95.69
502.739	96.69
502.956	89.69
503.172	92.69
503.389	107.69
503.606	104.69
503.823	93.69
504.04	80.69
504.256	100.69
504.473	95.69
504.69	103.69
504.907	84.69
505.123	106.69
505.34	94.69
505.557	86.69
505.773	94.69
505.99	94.69
506.207	72.69
506.423	98.69
506.64	81.69
506.856	81.69
507.073	101.69
507.289	101.69
507.506	80.69
507.722	118.69
507.939	113.69
508.155	89.69
508.372	93.69
508.588	103.69
508.805	97.69
509.021	100.69
509.238	106.69
509.454	108.69
509.67	97.69
509.887	103.69
510.103	119.69
510.319	201.69
510.536	758.69
510.752	2387.69
510.968	653.69
511.184	150.69
511.401	119.69
511.617	93.69
511.833	101.69
512.049	95.69
512.265	92.69
512.481	96.69
512.698	101.69
512.914	93.69
513.13	103.69
513.346	101.69
513.562	95.69
513.778	111.69
513.994	97.69
514.21	99.69
514.426	121.69
514.642	121.69
514.858	132.69
515.074	148.69
