Data from Uncirc_1988_H10_HRD10591_00011.txt Node
Date: Wed Jan 03 12:04:06 EST 2024
User: Yrep
Spectrometer: HR+D1059
Trigger mode: 1
Integration Time (sec): 1.000000E-1
Scans to average: 1
Electric dark correction enabled: true
Nonlinearity correction enabled: false
Boxcar width: 0
XAxis mode: Wavelengths
Number of Pixels in Spectrum: 2048
>>>>>Begin Spectral Data<<<<<
223.165	-26.12
223.4	-26.12
223.635	-26.12
223.869	-10.12
224.104	-19.12
224.338	-23.12
224.573	-5.12
224.808	-21.12
225.042	-23.12
225.277	-14.12
225.511	14.88
225.746	12.88
225.98	16.88
226.215	10.88
226.449	2.88
226.683	18.88
226.918	22.88
227.152	41.88
227.387	25.88
227.621	47.88
227.856	46.88
228.09	44.88
228.324	29.88
228.559	62.88
228.793	40.88
229.027	70.88
229.262	60.88
229.496	74.88
229.73	87.88
229.964	83.88
230.199	69.88
230.433	72.88
230.667	75.88
230.901	71.88
231.136	86.88
231.37	90.88
231.604	87.88
231.838	87.88
232.072	63.88
232.306	65.88
232.541	83.88
232.775	88.88
233.009	82.88
233.243	73.88
233.477	80.88
233.711	82.88
233.945	88.88
234.179	80.88
234.413	83.88
234.647	86.88
234.881	66.88
235.115	87.88
235.349	80.88
235.583	75.88
235.817	70.88
236.051	76.88
236.285	77.88
236.519	80.88
236.753	74.88
236.987	69.88
237.221	86.88
237.455	94.88
237.689	77.88
237.922	76.88
238.156	83.88
238.39	76.88
238.624	68.88
238.858	66.88
239.091	69.88
239.325	77.88
239.559	90.88
239.793	84.88
240.027	72.88
240.26	63.88
240.494	56.88
240.728	72.88
240.961	70.88
241.195	65.88
241.429	67.88
241.662	75.88
241.896	81.88
242.13	66.88
242.363	71.88
242.597	66.88
242.83	76.88
243.064	79.88
243.298	74.88
243.531	94.88
243.765	70.88
243.998	82.88
244.232	79.88
244.465	84.88
244.699	92.88
244.932	73.88
245.166	84.88
245.399	80.88
245.633	81.88
245.866	71.88
246.099	68.88
246.333	77.88
246.566	71.88
246.8	77.88
247.033	67.88
247.266	75.88
247.5	85.88
247.733	76.88
247.966	76.88
248.2	81.88
248.433	82.88
248.666	76.88
248.899	77.88
249.133	78.88
249.366	95.88
249.599	103.88
249.832	88.88
250.066	67.88
250.299	75.88
250.532	78.88
250.765	65.88
250.998	68.88
251.231	70.88
251.465	95.88
251.698	76.88
251.931	80.88
252.164	82.88
252.397	88.88
252.63	83.88
252.863	90.88
253.096	85.88
253.329	70.88
253.562	78.88
253.795	83.88
254.028	79.88
254.261	77.88
254.494	75.88
254.727	84.88
254.96	70.88
255.193	91.88
255.426	72.88
255.659	88.88
255.892	84.88
256.124	75.88
256.357	79.88
256.59	71.88
256.823	81.88
257.056	69.88
257.289	71.88
257.521	80.88
257.754	83.88
257.987	84.88
258.22	87.88
258.452	72.88
258.685	67.88
258.918	60.88
259.151	81.88
259.383	84.88
259.616	83.88
259.849	85.88
260.081	81.88
260.314	78.88
260.547	83.88
260.779	90.88
261.012	83.88
261.244	84.88
261.477	84.88
261.71	91.88
261.942	102.88
262.175	103.88
262.407	84.88
262.64	83.88
262.872	97.88
263.105	77.88
263.337	87.88
263.57	72.88
263.802	77.88
264.035	85.88
264.267	78.88
264.499	82.88
264.732	82.88
264.964	93.88
265.197	77.88
265.429	78.88
265.661	89.88
265.894	77.88
266.126	89.88
266.358	78.88
266.591	82.88
266.823	84.88
267.055	83.88
267.287	83.88
267.52	85.88
267.752	89.88
267.984	70.88
268.216	88.88
268.448	80.88
268.681	86.88
268.913	93.88
269.145	81.88
269.377	83.88
269.609	65.88
269.841	74.88
270.073	80.88
270.306	81.88
270.538	93.88
270.77	82.88
271.002	76.88
271.234	82.88
271.466	66.88
271.698	74.88
271.93	90.88
272.162	90.88
272.394	97.88
272.626	89.88
272.858	71.88
273.09	81.88
273.322	78.88
273.553	79.88
273.785	85.88
274.017	85.88
274.249	79.88
274.481	80.88
274.713	90.88
274.945	82.88
275.176	83.88
275.408	83.88
275.64	86.88
275.872	78.88
276.104	74.88
276.335	81.88
276.567	106.88
276.799	91.88
277.031	94.88
277.262	103.88
277.494	85.88
277.726	80.88
277.957	98.88
278.189	81.88
278.421	98.88
278.652	93.88
278.884	93.88
279.115	88.88
279.347	93.88
279.579	86.88
279.81	82.88
280.042	91.88
280.273	75.88
280.505	92.88
280.736	92.88
280.968	69.88
281.199	99.88
281.431	85.88
281.662	82.88
281.894	87.88
282.125	95.88
282.356	112.88
282.588	108.88
282.819	98.88
283.051	77.88
283.282	82.88
283.513	79.88
283.745	78.88
283.976	80.88
284.207	89.88
284.439	77.88
284.67	87.88
284.901	84.88
285.132	72.88
285.364	70.88
285.595	83.88
285.826	79.88
286.057	94.88
286.288	87.88
286.52	84.88
286.751	82.88
286.982	91.88
287.213	84.88
287.444	100.88
287.675	85.88
287.906	91.88
288.138	74.88
288.369	79.88
288.6	79.88
288.831	85.88
289.062	91.88
289.293	90.88
289.524	89.88
289.755	88.88
289.986	79.88
290.217	84.88
290.448	88.88
290.679	75.88
290.91	84.88
291.141	101.88
291.371	85.88
291.602	94.88
291.833	87.88
292.064	92.88
292.295	87.88
292.526	81.88
292.757	84.88
292.987	92.88
293.218	81.88
293.449	87.88
293.68	98.88
293.91	88.88
294.141	96.88
294.372	83.88
294.603	76.88
294.833	85.88
295.064	93.88
295.295	88.88
295.525	98.88
295.756	95.88
295.987	102.88
296.217	117.88
296.448	109.88
296.679	87.88
296.909	85.88
297.14	93.88
297.37	86.88
297.601	74.88
297.831	67.88
298.062	85.88
298.292	95.88
298.523	104.88
298.753	80.88
298.984	93.88
299.214	85.88
299.445	90.88
299.675	73.88
299.905	108.88
300.136	76.88
300.366	84.88
300.597	98.88
300.827	97.88
301.057	109.88
301.288	107.88
301.518	99.88
301.748	71.88
301.979	88.88
302.209	93.88
302.439	76.88
302.669	81.88
302.9	98.88
303.13	88.88
303.36	95.88
303.59	100.88
303.82	97.88
304.051	86.88
304.281	84.88
304.511	90.88
304.741	89.88
304.971	93.88
305.201	85.88
305.431	92.88
305.661	87.88
305.891	79.88
306.121	79.88
306.352	92.88
306.582	87.88
306.812	99.88
307.042	96.88
307.272	97.88
307.502	87.88
307.731	94.88
307.961	97.88
308.191	94.88
308.421	83.88
308.651	85.88
308.881	110.88
309.111	90.88
309.341	101.88
309.571	106.88
309.8	94.88
310.03	99.88
310.26	104.88
310.49	101.88
310.72	84.88
310.949	97.88
311.179	107.88
311.409	97.88
311.639	98.88
311.868	92.88
312.098	84.88
312.328	78.88
312.557	102.88
312.787	97.88
313.017	104.88
313.246	109.88
313.476	94.88
313.706	99.88
313.935	90.88
314.165	91.88
314.394	87.88
314.624	104.88
314.853	99.88
315.083	87.88
315.312	88.88
315.542	94.88
315.771	87.88
316.001	98.88
316.23	87.88
316.46	94.88
316.689	84.88
316.919	81.88
317.148	85.88
317.377	89.88
317.607	81.88
317.836	82.88
318.065	98.88
318.295	87.88
318.524	91.88
318.753	91.88
318.983	93.88
319.212	100.88
319.441	102.88
319.67	104.88
319.9	97.88
320.129	86.88
320.358	86.88
320.587	96.88
320.816	92.88
321.046	94.88
321.275	91.88
321.504	83.88
321.733	107.88
321.962	92.88
322.191	96.88
322.42	91.88
322.649	104.88
322.878	95.88
323.108	119.88
323.337	113.88
323.566	116.88
323.795	162.88
324.024	195.88
324.253	360.88
324.482	756.88
324.71	1568.88
324.939	2062.88
325.168	753.88
325.397	233.88
325.626	143.88
325.855	114.88
326.084	111.88
326.313	134.88
326.542	155.88
326.77	237.88
326.999	446.88
327.228	899.88
327.457	1635.88
327.686	1265.88
327.914	328.88
328.143	169.88
328.372	123.88
328.6	117.88
328.829	98.88
329.058	122.88
329.287	115.88
329.515	97.88
329.744	98.88
329.972	108.88
330.201	82.88
330.43	111.88
330.658	112.88
330.887	122.88
331.115	109.88
331.344	104.88
331.572	93.88
331.801	99.88
332.03	104.88
332.258	89.88
332.486	88.88
332.715	97.88
332.943	110.88
333.172	78.88
333.4	101.88
333.629	85.88
333.857	98.88
334.085	99.88
334.314	103.88
334.542	112.88
334.771	103.88
334.999	100.88
335.227	97.88
335.455	94.88
335.684	95.88
335.912	80.88
336.14	93.88
336.369	103.88
336.597	88.88
336.825	89.88
337.053	98.88
337.281	85.88
337.51	89.88
337.738	90.88
337.966	89.88
338.194	84.88
338.422	94.88
338.65	80.88
338.878	88.88
339.106	88.88
339.334	88.88
339.562	86.88
339.79	71.88
340.018	94.88
340.246	87.88
340.474	102.88
340.702	108.88
340.93	99.88
341.158	96.88
341.386	99.88
341.614	86.88
341.842	97.88
342.07	83.88
342.298	69.88
342.526	85.88
342.754	88.88
342.981	86.88
343.209	94.88
343.437	92.88
343.665	92.88
343.893	91.88
344.12	82.88
344.348	81.88
344.576	92.88
344.804	91.88
345.031	80.88
345.259	99.88
345.487	94.88
345.714	79.88
345.942	96.88
346.17	81.88
346.397	84.88
346.625	95.88
346.853	88.88
347.08	84.88
347.308	91.88
347.535	100.88
347.763	101.88
347.99	88.88
348.218	90.88
348.445	93.88
348.673	87.88
348.9	90.88
349.128	85.88
349.355	92.88
349.583	85.88
349.81	92.88
350.037	86.88
350.265	96.88
350.492	98.88
350.72	101.88
350.947	98.88
351.174	112.88
351.402	103.88
351.629	98.88
351.856	90.88
352.083	91.88
352.311	104.88
352.538	110.88
352.765	99.88
352.992	103.88
353.22	103.88
353.447	101.88
353.674	111.88
353.901	113.88
354.128	104.88
354.355	106.88
354.583	94.88
354.81	86.88
355.037	87.88
355.264	93.88
355.491	87.88
355.718	100.88
355.945	105.88
356.172	86.88
356.399	85.88
356.626	93.88
356.853	87.88
357.08	86.88
357.307	78.88
357.534	97.88
357.761	88.88
357.988	109.88
358.215	96.88
358.441	112.88
358.668	96.88
358.895	88.88
359.122	92.88
359.349	91.88
359.576	83.88
359.802	95.88
360.029	103.88
360.256	96.88
360.483	100.88
360.709	76.88
360.936	95.88
361.163	108.88
361.39	98.88
361.616	80.88
361.843	82.88
362.07	91.88
362.296	90.88
362.523	87.88
362.749	83.88
362.976	86.88
363.203	94.88
363.429	98.88
363.656	84.88
363.882	85.88
364.109	67.88
364.335	80.88
364.562	86.88
364.788	88.88
365.015	100.88
365.241	108.88
365.468	99.88
365.694	98.88
365.92	94.88
366.147	84.88
366.373	85.88
366.599	92.88
366.826	85.88
367.052	95.88
367.278	81.88
367.505	88.88
367.731	92.88
367.957	72.88
368.184	88.88
368.41	87.88
368.636	106.88
368.862	111.88
369.089	94.88
369.315	88.88
369.541	84.88
369.767	101.88
369.993	88.88
370.219	90.88
370.445	83.88
370.672	86.88
370.898	92.88
371.124	94.88
371.35	86.88
371.576	93.88
371.802	86.88
372.028	76.88
372.254	92.88
372.48	75.88
372.706	88.88
372.932	85.88
373.158	80.88
373.384	91.88
373.61	101.88
373.835	86.88
374.061	81.88
374.287	102.88
374.513	90.88
374.739	94.88
374.965	81.88
375.191	93.88
375.416	82.88
375.642	83.88
375.868	99.88
376.094	96.88
376.319	90.88
376.545	82.88
376.771	90.88
376.997	93.88
377.222	92.88
377.448	93.88
377.674	91.88
377.899	92.88
378.125	76.88
378.35	99.88
378.576	99.88
378.802	100.88
379.027	73.88
379.253	103.88
379.478	85.88
379.704	92.88
379.929	82.88
380.155	78.88
380.38	99.88
380.606	99.88
380.831	90.88
381.057	103.88
381.282	80.88
381.507	100.88
381.733	99.88
381.958	90.88
382.184	88.88
382.409	82.88
382.634	96.88
382.86	95.88
383.085	87.88
383.31	90.88
383.535	98.88
383.761	91.88
383.986	90.88
384.211	92.88
384.436	104.88
384.662	97.88
384.887	88.88
385.112	92.88
385.337	104.88
385.562	93.88
385.787	101.88
386.013	102.88
386.238	93.88
386.463	107.88
386.688	100.88
386.913	99.88
387.138	87.88
387.363	105.88
387.588	104.88
387.813	92.88
388.038	91.88
388.263	105.88
388.488	104.88
388.713	87.88
388.938	80.88
389.163	98.88
389.387	111.88
389.612	111.88
389.837	99.88
390.062	82.88
390.287	76.88
390.512	91.88
390.736	96.88
390.961	89.88
391.186	103.88
391.411	94.88
391.636	88.88
391.86	77.88
392.085	101.88
392.31	80.88
392.534	89.88
392.759	101.88
392.984	96.88
393.208	104.88
393.433	100.88
393.658	95.88
393.882	93.88
394.107	87.88
394.331	87.88
394.556	68.88
394.78	84.88
395.005	91.88
395.229	85.88
395.454	77.88
395.678	78.88
395.903	66.88
396.127	85.88
396.352	90.88
396.576	82.88
396.801	85.88
397.025	107.88
397.249	99.88
397.474	94.88
397.698	92.88
397.922	83.88
398.147	91.88
398.371	86.88
398.595	64.88
398.82	82.88
399.044	91.88
399.268	95.88
399.492	97.88
399.717	106.88
399.941	80.88
400.165	84.88
400.389	90.88
400.613	101.88
400.837	91.88
401.062	97.88
401.286	88.88
401.51	88.88
401.734	102.88
401.958	98.88
402.182	108.88
402.406	134.88
402.63	104.88
402.854	83.88
403.078	92.88
403.302	94.88
403.526	84.88
403.75	96.88
403.974	78.88
404.198	87.88
404.422	75.88
404.645	79.88
404.869	76.88
405.093	92.88
405.317	79.88
405.541	106.88
405.765	86.88
405.988	99.88
406.212	155.88
406.436	188.88
406.66	118.88
406.883	100.88
407.107	91.88
407.331	98.88
407.555	98.88
407.778	86.88
408.002	92.88
408.226	77.88
408.449	81.88
408.673	107.88
408.896	99.88
409.12	91.88
409.344	71.88
409.567	94.88
409.791	98.88
410.014	92.88
410.238	87.88
410.461	90.88
410.685	93.88
410.908	96.88
411.132	100.88
411.355	99.88
411.578	103.88
411.802	101.88
412.025	98.88
412.249	78.88
412.472	102.88
412.695	100.88
412.919	82.88
413.142	84.88
413.365	90.88
413.589	83.88
413.812	82.88
414.035	85.88
414.258	79.88
414.482	93.88
414.705	97.88
414.928	81.88
415.151	86.88
415.374	97.88
415.597	78.88
415.821	87.88
416.044	91.88
416.267	81.88
416.49	81.88
416.713	100.88
416.936	86.88
417.159	94.88
417.382	86.88
417.605	70.88
417.828	87.88
418.051	94.88
418.274	89.88
418.497	93.88
418.72	86.88
418.943	91.88
419.166	79.88
419.389	74.88
419.611	83.88
419.834	90.88
420.057	94.88
420.28	81.88
420.503	88.88
420.726	84.88
420.948	103.88
421.171	92.88
421.394	94.88
421.617	80.88
421.839	91.88
422.062	83.88
422.285	78.88
422.507	84.88
422.73	107.88
422.953	91.88
423.175	86.88
423.398	84.88
423.621	72.88
423.843	94.88
424.066	72.88
424.288	94.88
424.511	90.88
424.733	97.88
424.956	83.88
425.178	95.88
425.401	90.88
425.623	93.88
425.846	71.88
426.068	82.88
426.291	82.88
426.513	104.88
426.735	87.88
426.958	93.88
427.18	103.88
427.402	116.88
427.625	133.88
427.847	107.88
428.069	94.88
428.292	77.88
428.514	78.88
428.736	80.88
428.958	78.88
429.181	82.88
429.403	86.88
429.625	81.88
429.847	90.88
430.069	78.88
430.292	97.88
430.514	102.88
430.736	106.88
430.958	95.88
431.18	81.88
431.402	81.88
431.624	86.88
431.846	102.88
432.068	92.88
432.29	95.88
432.512	80.88
432.734	82.88
432.956	106.88
433.178	89.88
433.4	93.88
433.622	87.88
433.844	88.88
434.066	87.88
434.287	84.88
434.509	79.88
434.731	91.88
434.953	75.88
435.175	87.88
435.397	80.88
435.618	97.88
435.84	105.88
436.062	115.88
436.284	105.88
436.505	104.88
436.727	85.88
436.949	64.88
437.17	74.88
437.392	81.88
437.614	81.88
437.835	85.88
438.057	118.88
438.278	115.88
438.5	99.88
438.721	111.88
438.943	94.88
439.165	65.88
439.386	96.88
439.608	92.88
439.829	90.88
440.05	107.88
440.272	133.88
440.493	97.88
440.715	96.88
440.936	91.88
441.158	74.88
441.379	86.88
441.6	80.88
441.822	86.88
442.043	103.88
442.264	96.88
442.486	82.88
442.707	93.88
442.928	91.88
443.149	121.88
443.371	111.88
443.592	116.88
443.813	101.88
444.034	110.88
444.255	87.88
444.476	89.88
444.698	87.88
444.919	81.88
445.14	127.88
445.361	123.88
445.582	117.88
445.803	132.88
446.024	118.88
446.245	132.88
446.466	98.88
446.687	81.88
446.908	82.88
447.129	96.88
447.35	79.88
447.571	82.88
447.792	86.88
448.013	101.88
448.234	98.88
448.455	97.88
448.675	101.88
448.896	114.88
449.117	84.88
449.338	92.88
449.559	113.88
449.779	118.88
450	84.88
450.221	80.88
450.442	81.88
450.662	94.88
450.883	99.88
451.104	95.88
451.324	70.88
451.545	93.88
451.766	68.88
451.986	85.88
452.207	90.88
452.428	78.88
452.648	82.88
452.869	107.88
453.089	101.88
453.31	101.88
453.53	85.88
453.751	90.88
453.971	99.88
454.192	97.88
454.412	90.88
454.633	92.88
454.853	70.88
455.073	82.88
455.294	75.88
455.514	95.88
455.734	106.88
455.955	93.88
456.175	100.88
456.395	94.88
456.616	72.88
456.836	74.88
457.056	78.88
457.276	87.88
457.497	68.88
457.717	96.88
457.937	85.88
458.157	90.88
458.377	91.88
458.598	87.88
458.818	140.88
459.038	135.88
459.258	104.88
459.478	85.88
459.698	85.88
459.918	87.88
460.138	90.88
460.358	75.88
460.578	74.88
460.798	87.88
461.018	89.88
461.238	95.88
461.458	90.88
461.678	68.88
461.898	76.88
462.118	80.88
462.338	86.88
462.558	77.88
462.777	93.88
462.997	92.88
463.217	91.88
463.437	79.88
463.657	70.88
463.876	91.88
464.096	97.88
464.316	87.88
464.536	91.88
464.755	80.88
464.975	104.88
465.195	139.88
465.414	133.88
465.634	90.88
465.854	88.88
466.073	82.88
466.293	94.88
466.512	88.88
466.732	83.88
466.951	94.88
467.171	95.88
467.391	106.88
467.61	94.88
467.829	90.88
468.049	81.88
468.268	81.88
468.488	72.88
468.707	71.88
468.927	74.88
469.146	79.88
469.365	98.88
469.585	79.88
469.804	92.88
470.023	77.88
470.243	95.88
470.462	111.88
470.681	94.88
470.901	74.88
471.12	70.88
471.339	91.88
471.558	87.88
471.777	78.88
471.997	86.88
472.216	98.88
472.435	71.88
472.654	70.88
472.873	100.88
473.092	106.88
473.311	96.88
473.53	79.88
473.749	87.88
473.968	103.88
474.187	99.88
474.406	84.88
474.625	71.88
474.844	90.88
475.063	82.88
475.282	69.88
475.501	75.88
475.72	69.88
475.939	92.88
476.158	83.88
476.377	84.88
476.596	102.88
476.814	77.88
477.033	90.88
477.252	92.88
477.471	105.88
477.69	90.88
477.908	70.88
478.127	71.88
478.346	78.88
478.564	71.88
478.783	87.88
479.002	96.88
479.22	85.88
479.439	101.88
479.658	88.88
479.876	89.88
480.095	104.88
480.313	83.88
480.532	94.88
480.751	72.88
480.969	90.88
481.188	94.88
481.406	100.88
481.624	84.88
481.843	84.88
482.061	70.88
482.28	93.88
482.498	86.88
482.717	86.88
482.935	94.88
483.153	84.88
483.372	108.88
483.59	90.88
483.808	80.88
484.027	81.88
484.245	94.88
484.463	78.88
484.681	87.88
484.9	92.88
485.118	87.88
485.336	96.88
485.554	91.88
485.772	99.88
485.99	90.88
486.209	99.88
486.427	110.88
486.645	114.88
486.863	99.88
487.081	86.88
487.299	83.88
487.517	87.88
487.735	87.88
487.953	93.88
488.171	84.88
488.389	93.88
488.607	85.88
488.825	80.88
489.043	85.88
489.261	91.88
489.479	85.88
489.696	92.88
489.914	101.88
490.132	76.88
490.35	94.88
490.568	85.88
490.786	81.88
491.003	80.88
491.221	93.88
491.439	95.88
491.657	93.88
491.874	101.88
492.092	90.88
492.31	90.88
492.527	98.88
492.745	100.88
492.963	91.88
493.18	74.88
493.398	92.88
493.615	82.88
493.833	91.88
494.05	85.88
494.268	84.88
494.485	100.88
494.703	94.88
494.92	96.88
495.138	86.88
495.355	98.88
495.573	91.88
495.79	101.88
496.008	87.88
496.225	82.88
496.442	84.88
496.66	96.88
496.877	85.88
497.094	77.88
497.312	100.88
497.529	78.88
497.746	90.88
497.963	97.88
498.181	99.88
498.398	106.88
498.615	101.88
498.832	103.88
499.049	101.88
499.267	91.88
499.484	92.88
499.701	86.88
499.918	87.88
500.135	90.88
500.352	89.88
500.569	83.88
500.786	83.88
501.003	98.88
501.22	87.88
501.437	95.88
501.654	96.88
501.871	115.88
502.088	94.88
502.305	97.88
502.522	98.88
502.739	80.88
502.956	94.88
503.172	75.88
503.389	85.88
503.606	110.88
503.823	83.88
504.04	94.88
504.256	109.88
504.473	81.88
504.69	93.88
504.907	85.88
505.123	93.88
505.34	79.88
505.557	76.88
505.773	92.88
505.99	88.88
506.207	88.88
506.423	90.88
506.64	101.88
506.856	86.88
507.073	93.88
507.289	110.88
507.506	103.88
507.722	108.88
507.939	102.88
508.155	103.88
508.372	91.88
508.588	100.88
508.805	65.88
509.021	76.88
509.238	108.88
509.454	98.88
509.67	83.88
509.887	102.88
510.103	119.88
510.319	175.88
510.536	616.88
510.752	1832.88
510.968	508.88
511.184	142.88
511.401	105.88
511.617	97.88
511.833	84.88
512.049	99.88
512.265	94.88
512.481	100.88
512.698	91.88
512.914	99.88
513.13	102.88
513.346	99.88
513.562	96.88
513.778	102.88
513.994	96.88
514.21	106.88
514.426	113.88
514.642	114.88
514.858	107.88
515.074	140.88
515.29	357.88
515.506	1164.88
515.721	424.88
515.937	135.88
516.153	99.88
516.369	95.88
516.585	79.88
