Data from Uncirc_1988_H10_HRD10591_00027.txt Node
Date: Wed Jan 03 12:04:09 EST 2024
User: Yrep
Spectrometer: HR+D1059
Trigger mode: 1
Integration Time (sec): 1.000000E-1
Scans to average: 1
Electric dark correction enabled: true
Nonlinearity correction enabled: false
Boxcar width: 0
XAxis mode: Wavelengths
Number of Pixels in Spectrum: 2048
>>>>>Begin Spectral Data<<<<<
223.165	-14.88
223.4	-14.88
223.635	-14.88
223.869	-2.88
224.104	-17.88
224.338	-26.88
224.573	-10.88
224.808	2.12
225.042	-12.88
225.277	-15.88
225.511	-4.88
225.746	4.12
225.98	8.12
226.215	19.12
226.449	11.12
226.683	16.12
226.918	15.12
227.152	31.12
227.387	32.12
227.621	38.12
227.856	44.12
228.09	44.12
228.324	64.12
228.559	61.12
228.793	63.12
229.027	60.12
229.262	56.12
229.496	86.12
229.73	87.12
229.964	78.12
230.199	75.12
230.433	85.12
230.667	77.12
230.901	78.12
231.136	81.12
231.37	70.12
231.604	70.12
231.838	77.12
232.072	81.12
232.306	99.12
232.541	79.12
232.775	75.12
233.009	73.12
233.243	81.12
233.477	72.12
233.711	88.12
233.945	84.12
234.179	69.12
234.413	85.12
234.647	76.12
234.881	81.12
235.115	76.12
235.349	70.12
235.583	79.12
235.817	68.12
236.051	79.12
236.285	76.12
236.519	84.12
236.753	78.12
236.987	86.12
237.221	83.12
237.455	83.12
237.689	72.12
237.922	71.12
238.156	87.12
238.39	63.12
238.624	67.12
238.858	83.12
239.091	69.12
239.325	77.12
239.559	69.12
239.793	74.12
240.027	74.12
240.26	84.12
240.494	82.12
240.728	72.12
240.961	80.12
241.195	84.12
241.429	70.12
241.662	77.12
241.896	87.12
242.13	80.12
242.363	68.12
242.597	70.12
242.83	73.12
243.064	75.12
243.298	79.12
243.531	64.12
243.765	75.12
243.998	81.12
244.232	71.12
244.465	79.12
244.699	77.12
244.932	85.12
245.166	82.12
245.399	80.12
245.633	73.12
245.866	76.12
246.099	92.12
246.333	80.12
246.566	71.12
246.8	71.12
247.033	75.12
247.266	81.12
247.5	86.12
247.733	79.12
247.966	69.12
248.2	83.12
248.433	77.12
248.666	64.12
248.899	85.12
249.133	72.12
249.366	95.12
249.599	99.12
249.832	71.12
250.066	80.12
250.299	92.12
250.532	71.12
250.765	81.12
250.998	80.12
251.231	72.12
251.465	82.12
251.698	84.12
251.931	82.12
252.164	88.12
252.397	77.12
252.63	74.12
252.863	80.12
253.096	71.12
253.329	91.12
253.562	87.12
253.795	81.12
254.028	75.12
254.261	84.12
254.494	79.12
254.727	75.12
254.96	84.12
255.193	90.12
255.426	88.12
255.659	85.12
255.892	78.12
256.124	72.12
256.357	76.12
256.59	93.12
256.823	79.12
257.056	77.12
257.289	84.12
257.521	81.12
257.754	84.12
257.987	70.12
258.22	86.12
258.452	87.12
258.685	77.12
258.918	80.12
259.151	79.12
259.383	83.12
259.616	85.12
259.849	70.12
260.081	79.12
260.314	69.12
260.547	73.12
260.779	84.12
261.012	81.12
261.244	94.12
261.477	77.12
261.71	96.12
261.942	116.12
262.175	134.12
262.407	95.12
262.64	89.12
262.872	86.12
263.105	103.12
263.337	105.12
263.57	88.12
263.802	79.12
264.035	81.12
264.267	77.12
264.499	80.12
264.732	96.12
264.964	86.12
265.197	81.12
265.429	82.12
265.661	66.12
265.894	71.12
266.126	80.12
266.358	83.12
266.591	70.12
266.823	71.12
267.055	87.12
267.287	81.12
267.52	84.12
267.752	77.12
267.984	81.12
268.216	76.12
268.448	71.12
268.681	69.12
268.913	93.12
269.145	92.12
269.377	73.12
269.609	73.12
269.841	81.12
270.073	78.12
270.306	83.12
270.538	81.12
270.77	80.12
271.002	84.12
271.234	72.12
271.466	77.12
271.698	76.12
271.93	80.12
272.162	92.12
272.394	91.12
272.626	87.12
272.858	87.12
273.09	91.12
273.322	81.12
273.553	86.12
273.785	87.12
274.017	97.12
274.249	87.12
274.481	77.12
274.713	87.12
274.945	80.12
275.176	87.12
275.408	84.12
275.64	86.12
275.872	95.12
276.104	88.12
276.335	99.12
276.567	99.12
276.799	110.12
277.031	115.12
277.262	93.12
277.494	85.12
277.726	87.12
277.957	73.12
278.189	78.12
278.421	91.12
278.652	77.12
278.884	79.12
279.115	89.12
279.347	78.12
279.579	83.12
279.81	75.12
280.042	87.12
280.273	82.12
280.505	89.12
280.736	94.12
280.968	79.12
281.199	94.12
281.431	82.12
281.662	83.12
281.894	77.12
282.125	89.12
282.356	122.12
282.588	144.12
282.819	110.12
283.051	103.12
283.282	90.12
283.513	86.12
283.745	93.12
283.976	83.12
284.207	101.12
284.439	85.12
284.67	89.12
284.901	98.12
285.132	88.12
285.364	96.12
285.595	88.12
285.826	90.12
286.057	87.12
286.288	91.12
286.52	78.12
286.751	83.12
286.982	84.12
287.213	81.12
287.444	100.12
287.675	83.12
287.906	81.12
288.138	91.12
288.369	107.12
288.6	86.12
288.831	79.12
289.062	79.12
289.293	85.12
289.524	85.12
289.755	98.12
289.986	79.12
290.217	91.12
290.448	90.12
290.679	86.12
290.91	87.12
291.141	89.12
291.371	86.12
291.602	95.12
291.833	83.12
292.064	88.12
292.295	89.12
292.526	99.12
292.757	79.12
292.987	95.12
293.218	79.12
293.449	92.12
293.68	98.12
293.91	108.12
294.141	80.12
294.372	78.12
294.603	85.12
294.833	82.12
295.064	86.12
295.295	83.12
295.525	98.12
295.756	103.12
295.987	117.12
296.217	148.12
296.448	113.12
296.679	100.12
296.909	87.12
297.14	77.12
297.37	78.12
297.601	81.12
297.831	87.12
298.062	82.12
298.292	83.12
298.523	88.12
298.753	97.12
298.984	104.12
299.214	94.12
299.445	106.12
299.675	105.12
299.905	101.12
300.136	102.12
300.366	85.12
300.597	90.12
300.827	86.12
301.057	96.12
301.288	109.12
301.518	89.12
301.748	93.12
301.979	84.12
302.209	89.12
302.439	92.12
302.669	93.12
302.9	106.12
303.13	89.12
303.36	118.12
303.59	107.12
303.82	101.12
304.051	91.12
304.281	88.12
304.511	79.12
304.741	79.12
304.971	90.12
305.201	87.12
305.431	80.12
305.661	85.12
305.891	88.12
306.121	85.12
306.352	105.12
306.582	97.12
306.812	97.12
307.042	83.12
307.272	91.12
307.502	82.12
307.731	80.12
307.961	84.12
308.191	85.12
308.421	103.12
308.651	93.12
308.881	79.12
309.111	92.12
309.341	84.12
309.571	109.12
309.8	92.12
310.03	113.12
310.26	99.12
310.49	85.12
310.72	107.12
310.949	98.12
311.179	87.12
311.409	90.12
311.639	91.12
311.868	94.12
312.098	98.12
312.328	93.12
312.557	103.12
312.787	106.12
313.017	106.12
313.246	104.12
313.476	102.12
313.706	103.12
313.935	101.12
314.165	94.12
314.394	110.12
314.624	87.12
314.853	95.12
315.083	94.12
315.312	92.12
315.542	99.12
315.771	94.12
316.001	88.12
316.23	98.12
316.46	90.12
316.689	87.12
316.919	86.12
317.148	97.12
317.377	93.12
317.607	95.12
317.836	91.12
318.065	93.12
318.295	92.12
318.524	101.12
318.753	94.12
318.983	101.12
319.212	86.12
319.441	108.12
319.67	93.12
319.9	94.12
320.129	92.12
320.358	96.12
320.587	85.12
320.816	103.12
321.046	94.12
321.275	96.12
321.504	96.12
321.733	115.12
321.962	90.12
322.191	116.12
322.42	119.12
322.649	105.12
322.878	119.12
323.108	133.12
323.337	141.12
323.566	142.12
323.795	171.12
324.024	249.12
324.253	495.12
324.482	1060.12
324.71	2289.12
324.939	3131.12
325.168	1103.12
325.397	295.12
325.626	169.12
325.855	126.12
326.084	156.12
326.313	151.12
326.542	179.12
326.77	273.12
326.999	578.12
327.228	1237.12
327.457	2397.12
327.686	1894.12
327.914	452.12
328.143	217.12
328.372	161.12
328.6	132.12
328.829	137.12
329.058	150.12
329.287	132.12
329.515	114.12
329.744	109.12
329.972	107.12
330.201	108.12
330.43	108.12
330.658	131.12
330.887	175.12
331.115	140.12
331.344	99.12
331.572	102.12
331.801	114.12
332.03	122.12
332.258	104.12
332.486	95.12
332.715	104.12
332.943	87.12
333.172	102.12
333.4	111.12
333.629	112.12
333.857	107.12
334.085	108.12
334.314	99.12
334.542	103.12
334.771	111.12
334.999	99.12
335.227	95.12
335.455	88.12
335.684	85.12
335.912	113.12
336.14	116.12
336.369	114.12
336.597	91.12
336.825	114.12
337.053	90.12
337.281	104.12
337.51	83.12
337.738	108.12
337.966	81.12
338.194	86.12
338.422	92.12
338.65	81.12
338.878	97.12
339.106	98.12
339.334	101.12
339.562	88.12
339.79	96.12
340.018	96.12
340.246	93.12
340.474	85.12
340.702	94.12
340.93	86.12
341.158	85.12
341.386	99.12
341.614	110.12
341.842	88.12
342.07	92.12
342.298	102.12
342.526	91.12
342.754	86.12
342.981	76.12
343.209	81.12
343.437	105.12
343.665	87.12
343.893	91.12
344.12	94.12
344.348	85.12
344.576	94.12
344.804	91.12
345.031	86.12
345.259	99.12
345.487	102.12
345.714	98.12
345.942	84.12
346.17	98.12
346.397	107.12
346.625	86.12
346.853	99.12
347.08	89.12
347.308	96.12
347.535	97.12
347.763	98.12
347.99	103.12
348.218	100.12
348.445	114.12
348.673	103.12
348.9	92.12
349.128	97.12
349.355	95.12
349.583	107.12
349.81	100.12
350.037	97.12
350.265	97.12
350.492	96.12
350.72	101.12
350.947	102.12
351.174	117.12
351.402	120.12
351.629	103.12
351.856	101.12
352.083	113.12
352.311	112.12
352.538	129.12
352.765	104.12
352.992	110.12
353.22	117.12
353.447	111.12
353.674	97.12
353.901	97.12
354.128	95.12
354.355	93.12
354.583	92.12
354.81	104.12
355.037	89.12
355.264	82.12
355.491	83.12
355.718	80.12
355.945	96.12
356.172	92.12
356.399	95.12
356.626	96.12
356.853	88.12
357.08	91.12
357.307	95.12
357.534	97.12
357.761	86.12
357.988	97.12
358.215	92.12
358.441	96.12
358.668	85.12
358.895	87.12
359.122	78.12
359.349	93.12
359.576	97.12
359.802	99.12
360.029	133.12
360.256	116.12
360.483	101.12
360.709	85.12
360.936	92.12
361.163	99.12
361.39	82.12
361.616	93.12
361.843	91.12
362.07	105.12
362.296	98.12
362.523	86.12
362.749	93.12
362.976	83.12
363.203	91.12
363.429	89.12
363.656	100.12
363.882	90.12
364.109	97.12
364.335	105.12
364.562	75.12
364.788	97.12
365.015	90.12
365.241	103.12
365.468	110.12
365.694	100.12
365.92	114.12
366.147	92.12
366.373	80.12
366.599	83.12
366.826	94.12
367.052	69.12
367.278	87.12
367.505	102.12
367.731	97.12
367.957	90.12
368.184	71.12
368.41	100.12
368.636	111.12
368.862	141.12
369.089	116.12
369.315	102.12
369.541	77.12
369.767	101.12
369.993	84.12
370.219	84.12
370.445	95.12
370.672	67.12
370.898	77.12
371.124	91.12
371.35	84.12
371.576	94.12
371.802	102.12
372.028	86.12
372.254	92.12
372.48	89.12
372.706	83.12
372.932	92.12
373.158	81.12
373.384	86.12
373.61	102.12
373.835	106.12
374.061	77.12
374.287	99.12
374.513	88.12
374.739	105.12
374.965	91.12
375.191	96.12
375.416	92.12
375.642	84.12
375.868	100.12
376.094	88.12
376.319	93.12
376.545	88.12
376.771	87.12
376.997	90.12
377.222	87.12
377.448	88.12
377.674	90.12
377.899	103.12
378.125	84.12
378.35	91.12
378.576	87.12
378.802	76.12
379.027	98.12
379.253	99.12
379.478	94.12
379.704	104.12
379.929	80.12
380.155	100.12
380.38	91.12
380.606	101.12
380.831	87.12
381.057	98.12
381.282	85.12
381.507	95.12
381.733	97.12
381.958	96.12
382.184	96.12
382.409	89.12
382.634	99.12
382.86	109.12
383.085	100.12
383.31	111.12
383.535	109.12
383.761	95.12
383.986	106.12
384.211	91.12
384.436	85.12
384.662	111.12
384.887	97.12
385.112	99.12
385.337	92.12
385.562	94.12
385.787	99.12
386.013	103.12
386.238	117.12
386.463	100.12
386.688	105.12
386.913	84.12
387.138	110.12
387.363	93.12
387.588	108.12
387.813	97.12
388.038	94.12
388.263	103.12
388.488	95.12
388.713	86.12
388.938	92.12
389.163	101.12
389.387	92.12
389.612	77.12
389.837	82.12
390.062	89.12
390.287	86.12
390.512	91.12
390.736	77.12
390.961	79.12
391.186	75.12
391.411	91.12
391.636	88.12
391.86	89.12
392.085	77.12
392.31	91.12
392.534	79.12
392.759	83.12
392.984	89.12
393.208	84.12
393.433	104.12
393.658	91.12
393.882	88.12
394.107	92.12
394.331	90.12
394.556	76.12
394.78	85.12
395.005	82.12
395.229	92.12
395.454	92.12
395.678	79.12
395.903	77.12
396.127	87.12
396.352	87.12
396.576	95.12
396.801	81.12
397.025	99.12
397.249	88.12
397.474	82.12
397.698	90.12
397.922	95.12
398.147	86.12
398.371	84.12
398.595	70.12
398.82	91.12
399.044	84.12
399.268	79.12
399.492	80.12
399.717	89.12
399.941	90.12
400.165	109.12
400.389	79.12
400.613	95.12
400.837	92.12
401.062	89.12
401.286	88.12
401.51	76.12
401.734	101.12
401.958	99.12
402.182	124.12
402.406	185.12
402.63	123.12
402.854	101.12
403.078	86.12
403.302	89.12
403.526	99.12
403.75	76.12
403.974	97.12
404.198	84.12
404.422	97.12
404.645	90.12
404.869	71.12
405.093	81.12
405.317	98.12
405.541	97.12
405.765	107.12
405.988	139.12
406.212	196.12
406.436	284.12
406.66	175.12
406.883	112.12
407.107	101.12
407.331	116.12
407.555	105.12
407.778	108.12
408.002	85.12
408.226	98.12
408.449	96.12
408.673	97.12
408.896	101.12
409.12	104.12
409.344	80.12
409.567	90.12
409.791	89.12
410.014	92.12
410.238	91.12
410.461	88.12
410.685	99.12
410.908	92.12
411.132	110.12
411.355	96.12
411.578	107.12
411.802	88.12
412.025	89.12
412.249	96.12
412.472	96.12
412.695	100.12
412.919	80.12
413.142	96.12
413.365	83.12
413.589	86.12
413.812	94.12
414.035	79.12
414.258	88.12
414.482	83.12
414.705	91.12
414.928	86.12
415.151	85.12
415.374	91.12
415.597	95.12
415.821	96.12
416.044	82.12
416.267	88.12
416.49	87.12
416.713	85.12
416.936	85.12
417.159	94.12
417.382	99.12
417.605	87.12
417.828	115.12
418.051	100.12
418.274	77.12
418.497	80.12
418.72	81.12
418.943	87.12
419.166	83.12
419.389	83.12
419.611	71.12
419.834	91.12
420.057	87.12
420.28	96.12
420.503	75.12
420.726	87.12
420.948	89.12
421.171	102.12
421.394	87.12
421.617	102.12
421.839	89.12
422.062	84.12
422.285	99.12
422.507	92.12
422.73	109.12
422.953	94.12
423.175	92.12
423.398	83.12
423.621	82.12
423.843	100.12
424.066	71.12
424.288	91.12
424.511	94.12
424.733	103.12
424.956	122.12
425.178	101.12
425.401	119.12
425.623	122.12
425.846	104.12
426.068	109.12
426.291	96.12
426.513	95.12
426.735	86.12
426.958	111.12
427.18	113.12
427.402	158.12
427.625	191.12
427.847	130.12
428.069	98.12
428.292	96.12
428.514	85.12
428.736	87.12
428.958	82.12
429.181	79.12
429.403	85.12
429.625	95.12
429.847	86.12
430.069	113.12
430.292	91.12
430.514	87.12
430.736	89.12
430.958	87.12
431.18	77.12
431.402	75.12
431.624	82.12
431.846	93.12
432.068	78.12
432.29	81.12
432.512	92.12
432.734	89.12
432.956	109.12
433.178	110.12
433.4	121.12
433.622	87.12
433.844	89.12
434.066	88.12
434.287	90.12
434.509	97.12
434.731	95.12
434.953	81.12
435.175	71.12
435.397	94.12
435.618	102.12
435.84	110.12
436.062	137.12
436.284	124.12
436.505	111.12
436.727	108.12
436.949	87.12
437.17	92.12
437.392	93.12
437.614	101.12
437.835	111.12
438.057	140.12
438.278	129.12
438.5	103.12
438.721	143.12
438.943	128.12
439.165	86.12
439.386	83.12
439.608	97.12
439.829	107.12
440.05	143.12
440.272	180.12
440.493	115.12
440.715	96.12
440.936	85.12
441.158	99.12
441.379	94.12
441.6	97.12
441.822	99.12
442.043	91.12
442.264	113.12
442.486	123.12
442.707	90.12
442.928	114.12
443.149	140.12
443.371	150.12
443.592	117.12
443.813	125.12
444.034	114.12
444.255	90.12
444.476	96.12
444.698	91.12
444.919	94.12
445.14	143.12
445.361	147.12
445.582	121.12
445.803	173.12
446.024	177.12
446.245	159.12
446.466	115.12
446.687	89.12
446.908	93.12
447.129	92.12
447.35	92.12
447.571	94.12
447.792	95.12
448.013	104.12
448.234	109.12
448.455	101.12
448.675	140.12
448.896	138.12
449.117	105.12
449.338	113.12
449.559	144.12
449.779	174.12
450	100.12
450.221	85.12
450.442	99.12
450.662	96.12
450.883	104.12
451.104	130.12
451.324	100.12
451.545	82.12
451.766	79.12
451.986	89.12
452.207	85.12
452.428	101.12
452.648	109.12
452.869	128.12
453.089	113.12
453.31	129.12
453.53	114.12
453.751	91.12
453.971	115.12
454.192	136.12
454.412	102.12
454.633	79.12
454.853	97.12
455.073	88.12
455.294	93.12
455.514	109.12
455.734	104.12
455.955	82.12
456.175	75.12
456.395	87.12
456.616	81.12
456.836	90.12
457.056	91.12
457.276	66.12
457.497	82.12
457.717	83.12
457.937	92.12
458.157	75.12
458.377	90.12
458.598	107.12
458.818	184.12
459.038	229.12
459.258	128.12
459.478	89.12
459.698	105.12
459.918	88.12
460.138	100.12
460.358	88.12
460.578	88.12
460.798	88.12
461.018	92.12
461.238	72.12
461.458	79.12
461.678	68.12
461.898	77.12
462.118	88.12
462.338	95.12
462.558	80.12
462.777	98.12
462.997	88.12
463.217	76.12
463.437	92.12
463.657	75.12
463.876	98.12
464.096	87.12
464.316	102.12
464.536	108.12
464.755	100.12
464.975	114.12
465.195	205.12
465.414	205.12
465.634	113.12
465.854	88.12
466.073	88.12
466.293	87.12
466.512	75.12
466.732	82.12
466.951	89.12
467.171	85.12
467.391	96.12
467.61	123.12
467.829	92.12
468.049	87.12
468.268	100.12
468.488	73.12
468.707	89.12
468.927	81.12
469.146	76.12
469.365	81.12
469.585	97.12
469.804	93.12
470.023	99.12
470.243	99.12
470.462	112.12
470.681	124.12
470.901	87.12
471.12	84.12
471.339	81.12
471.558	95.12
471.777	89.12
471.997	88.12
472.216	92.12
472.435	91.12
472.654	81.12
472.873	95.12
473.092	87.12
473.311	84.12
473.53	82.12
473.749	89.12
473.968	104.12
474.187	106.12
474.406	109.12
474.625	91.12
474.844	91.12
475.063	97.12
475.282	89.12
475.501	94.12
475.72	95.12
475.939	92.12
476.158	84.12
476.377	87.12
476.596	79.12
476.814	94.12
477.033	111.12
477.252	97.12
477.471	85.12
477.69	92.12
477.908	80.12
478.127	87.12
478.346	95.12
478.564	85.12
478.783	105.12
479.002	94.12
479.22	97.12
479.439	103.12
479.658	114.12
479.876	107.12
480.095	122.12
480.313	106.12
480.532	78.12
480.751	95.12
480.969	83.12
481.188	121.12
481.406	131.12
481.624	104.12
481.843	93.12
482.061	87.12
482.28	94.12
482.498	87.12
482.717	82.12
482.935	85.12
483.153	89.12
483.372	79.12
483.59	99.12
483.808	97.12
484.027	92.12
484.245	97.12
484.463	84.12
484.681	95.12
484.9	100.12
485.118	99.12
485.336	93.12
485.554	86.12
485.772	107.12
485.99	82.12
486.209	97.12
486.427	96.12
486.645	100.12
486.863	112.12
487.081	103.12
487.299	87.12
487.517	89.12
487.735	99.12
487.953	100.12
488.171	96.12
488.389	95.12
488.607	100.12
488.825	100.12
489.043	95.12
489.261	104.12
489.479	91.12
489.696	88.12
489.914	82.12
490.132	91.12
490.35	81.12
490.568	91.12
490.786	91.12
491.003	85.12
491.221	87.12
491.439	99.12
491.657	88.12
491.874	87.12
492.092	100.12
492.31	96.12
492.527	83.12
492.745	93.12
492.963	93.12
493.18	92.12
493.398	120.12
493.615	86.12
493.833	84.12
494.05	87.12
494.268	93.12
494.485	103.12
494.703	95.12
494.92	83.12
495.138	90.12
495.355	80.12
495.573	85.12
495.79	88.12
496.008	91.12
496.225	86.12
496.442	101.12
496.66	102.12
496.877	85.12
497.094	92.12
497.312	82.12
497.529	99.12
497.746	91.12
497.963	78.12
498.181	100.12
498.398	90.12
498.615	113.12
498.832	111.12
499.049	71.12
499.267	79.12
499.484	90.12
499.701	88.12
499.918	102.12
500.135	77.12
500.352	87.12
500.569	84.12
500.786	97.12
501.003	96.12
501.22	85.12
501.437	100.12
501.654	95.12
501.871	115.12
502.088	99.12
502.305	103.12
502.522	91.12
502.739	91.12
502.956	110.12
503.172	91.12
503.389	104.12
503.606	111.12
503.823	99.12
504.04	86.12
504.256	87.12
504.473	81.12
504.69	83.12
504.907	97.12
505.123	86.12
505.34	89.12
505.557	80.12
505.773	88.12
505.99	88.12
506.207	90.12
506.423	89.12
506.64	92.12
506.856	96.12
507.073	92.12
507.289	72.12
507.506	89.12
507.722	109.12
507.939	141.12
508.155	105.12
508.372	93.12
508.588	93.12
508.805	104.12
509.021	96.12
509.238	92.12
509.454	98.12
509.67	106.12
509.887	109.12
510.103	130.12
510.319	240.12
510.536	897.12
510.752	2967.12
510.968	784.12
511.184	168.12
511.401	117.12
511.617	94.12
511.833	96.12
512.049	93.12
512.265	102.12
512.481	90.12
512.698	82.12
512.914	79.12
513.13	109.12
513.346	100.12
513.562	108.12
513.778	77.12
513.994	104.12
514.21	124.12
514.426	121.12
514.642	138.12
514.858	146.12
515.074	200.12
