Data from Uncirc_1988_H10_HRD10591_00062.txt Node
Date: Wed Jan 03 12:04:16 EST 2024
User: Yrep
Spectrometer: HR+D1059
Trigger mode: 1
Integration Time (sec): 1.000000E-1
Scans to average: 1
Electric dark correction enabled: true
Nonlinearity correction enabled: false
Boxcar width: 0
XAxis mode: Wavelengths
Number of Pixels in Spectrum: 2048
>>>>>Begin Spectral Data<<<<<
223.165	-13.75
223.4	-13.75
223.635	-13.75
223.869	-16.75
224.104	-18.75
224.338	-10.75
224.573	-16.75
224.808	-27.75
225.042	1.25
225.277	11.25
225.511	-1.75
225.746	5.25
225.98	-7.75
226.215	2.25
226.449	4.25
226.683	33.25
226.918	23.25
227.152	33.25
227.387	34.25
227.621	32.25
227.856	60.25
228.09	38.25
228.324	54.25
228.559	59.25
228.793	65.25
229.027	70.25
229.262	72.25
229.496	79.25
229.73	91.25
229.964	71.25
230.199	68.25
230.433	78.25
230.667	75.25
230.901	70.25
231.136	84.25
231.37	81.25
231.604	68.25
231.838	97.25
232.072	97.25
232.306	74.25
232.541	73.25
232.775	68.25
233.009	80.25
233.243	70.25
233.477	75.25
233.711	88.25
233.945	77.25
234.179	91.25
234.413	71.25
234.647	75.25
234.881	75.25
235.115	79.25
235.349	86.25
235.583	91.25
235.817	84.25
236.051	69.25
236.285	70.25
236.519	72.25
236.753	85.25
236.987	77.25
237.221	82.25
237.455	79.25
237.689	74.25
237.922	76.25
238.156	91.25
238.39	71.25
238.624	64.25
238.858	67.25
239.091	75.25
239.325	78.25
239.559	75.25
239.793	87.25
240.027	71.25
240.26	64.25
240.494	83.25
240.728	83.25
240.961	70.25
241.195	91.25
241.429	68.25
241.662	81.25
241.896	85.25
242.13	70.25
242.363	72.25
242.597	68.25
242.83	60.25
243.064	67.25
243.298	83.25
243.531	79.25
243.765	79.25
243.998	81.25
244.232	87.25
244.465	73.25
244.699	79.25
244.932	83.25
245.166	79.25
245.399	84.25
245.633	82.25
245.866	68.25
246.099	59.25
246.333	66.25
246.566	91.25
246.8	97.25
247.033	88.25
247.266	70.25
247.5	65.25
247.733	86.25
247.966	77.25
248.2	81.25
248.433	87.25
248.666	69.25
248.899	79.25
249.133	86.25
249.366	88.25
249.599	95.25
249.832	85.25
250.066	85.25
250.299	95.25
250.532	76.25
250.765	78.25
250.998	62.25
251.231	79.25
251.465	72.25
251.698	83.25
251.931	79.25
252.164	81.25
252.397	72.25
252.63	75.25
252.863	71.25
253.096	87.25
253.329	87.25
253.562	79.25
253.795	80.25
254.028	86.25
254.261	80.25
254.494	83.25
254.727	92.25
254.96	75.25
255.193	78.25
255.426	88.25
255.659	81.25
255.892	68.25
256.124	66.25
256.357	86.25
256.59	76.25
256.823	92.25
257.056	84.25
257.289	85.25
257.521	77.25
257.754	80.25
257.987	81.25
258.22	85.25
258.452	83.25
258.685	92.25
258.918	83.25
259.151	72.25
259.383	73.25
259.616	79.25
259.849	99.25
260.081	79.25
260.314	95.25
260.547	78.25
260.779	84.25
261.012	70.25
261.244	72.25
261.477	84.25
261.71	109.25
261.942	117.25
262.175	118.25
262.407	80.25
262.64	87.25
262.872	63.25
263.105	86.25
263.337	77.25
263.57	98.25
263.802	75.25
264.035	83.25
264.267	79.25
264.499	79.25
264.732	81.25
264.964	86.25
265.197	80.25
265.429	91.25
265.661	93.25
265.894	83.25
266.126	95.25
266.358	98.25
266.591	73.25
266.823	82.25
267.055	89.25
267.287	88.25
267.52	85.25
267.752	93.25
267.984	89.25
268.216	83.25
268.448	98.25
268.681	77.25
268.913	81.25
269.145	88.25
269.377	98.25
269.609	89.25
269.841	81.25
270.073	92.25
270.306	81.25
270.538	79.25
270.77	80.25
271.002	85.25
271.234	72.25
271.466	102.25
271.698	91.25
271.93	81.25
272.162	85.25
272.394	96.25
272.626	73.25
272.858	78.25
273.09	76.25
273.322	74.25
273.553	99.25
273.785	81.25
274.017	81.25
274.249	94.25
274.481	65.25
274.713	87.25
274.945	77.25
275.176	87.25
275.408	93.25
275.64	85.25
275.872	88.25
276.104	86.25
276.335	106.25
276.567	86.25
276.799	101.25
277.031	94.25
277.262	103.25
277.494	83.25
277.726	86.25
277.957	94.25
278.189	99.25
278.421	87.25
278.652	91.25
278.884	95.25
279.115	85.25
279.347	84.25
279.579	70.25
279.81	70.25
280.042	89.25
280.273	91.25
280.505	80.25
280.736	100.25
280.968	95.25
281.199	75.25
281.431	88.25
281.662	83.25
281.894	91.25
282.125	109.25
282.356	113.25
282.588	137.25
282.819	117.25
283.051	85.25
283.282	80.25
283.513	93.25
283.745	84.25
283.976	78.25
284.207	84.25
284.439	96.25
284.67	102.25
284.901	88.25
285.132	80.25
285.364	95.25
285.595	87.25
285.826	96.25
286.057	83.25
286.288	90.25
286.52	95.25
286.751	81.25
286.982	98.25
287.213	91.25
287.444	96.25
287.675	84.25
287.906	93.25
288.138	86.25
288.369	95.25
288.6	84.25
288.831	83.25
289.062	91.25
289.293	82.25
289.524	78.25
289.755	77.25
289.986	91.25
290.217	65.25
290.448	83.25
290.679	78.25
290.91	96.25
291.141	95.25
291.371	100.25
291.602	81.25
291.833	91.25
292.064	89.25
292.295	87.25
292.526	99.25
292.757	92.25
292.987	102.25
293.218	98.25
293.449	104.25
293.68	89.25
293.91	85.25
294.141	75.25
294.372	85.25
294.603	97.25
294.833	96.25
295.064	92.25
295.295	96.25
295.525	94.25
295.756	88.25
295.987	128.25
296.217	130.25
296.448	120.25
296.679	104.25
296.909	76.25
297.14	95.25
297.37	100.25
297.601	75.25
297.831	82.25
298.062	98.25
298.292	95.25
298.523	75.25
298.753	78.25
298.984	80.25
299.214	94.25
299.445	89.25
299.675	85.25
299.905	96.25
300.136	95.25
300.366	68.25
300.597	85.25
300.827	79.25
301.057	103.25
301.288	101.25
301.518	96.25
301.748	93.25
301.979	95.25
302.209	106.25
302.439	94.25
302.669	75.25
302.9	86.25
303.13	85.25
303.36	95.25
303.59	94.25
303.82	81.25
304.051	84.25
304.281	92.25
304.511	97.25
304.741	80.25
304.971	86.25
305.201	87.25
305.431	78.25
305.661	102.25
305.891	79.25
306.121	113.25
306.352	96.25
306.582	103.25
306.812	96.25
307.042	102.25
307.272	106.25
307.502	97.25
307.731	89.25
307.961	89.25
308.191	81.25
308.421	86.25
308.651	88.25
308.881	99.25
309.111	96.25
309.341	92.25
309.571	83.25
309.8	100.25
310.03	100.25
310.26	88.25
310.49	91.25
310.72	83.25
310.949	95.25
311.179	100.25
311.409	87.25
311.639	89.25
311.868	100.25
312.098	100.25
312.328	96.25
312.557	104.25
312.787	103.25
313.017	110.25
313.246	94.25
313.476	76.25
313.706	96.25
313.935	95.25
314.165	102.25
314.394	103.25
314.624	90.25
314.853	94.25
315.083	116.25
315.312	109.25
315.542	88.25
315.771	100.25
316.001	96.25
316.23	93.25
316.46	95.25
316.689	83.25
316.919	100.25
317.148	91.25
317.377	104.25
317.607	81.25
317.836	93.25
318.065	90.25
318.295	80.25
318.524	94.25
318.753	99.25
318.983	104.25
319.212	98.25
319.441	112.25
319.67	103.25
319.9	89.25
320.129	94.25
320.358	89.25
320.587	109.25
320.816	114.25
321.046	106.25
321.275	83.25
321.504	86.25
321.733	83.25
321.962	101.25
322.191	83.25
322.42	100.25
322.649	120.25
322.878	106.25
323.108	115.25
323.337	119.25
323.566	144.25
323.795	158.25
324.024	199.25
324.253	412.25
324.482	856.25
324.71	1800.25
324.939	2476.25
325.168	884.25
325.397	262.25
325.626	155.25
325.855	131.25
326.084	133.25
326.313	158.25
326.542	159.25
326.77	226.25
326.999	478.25
327.228	968.25
327.457	1825.25
327.686	1504.25
327.914	401.25
328.143	180.25
328.372	162.25
328.6	131.25
328.829	108.25
329.058	108.25
329.287	125.25
329.515	124.25
329.744	116.25
329.972	110.25
330.201	110.25
330.43	106.25
330.658	118.25
330.887	142.25
331.115	135.25
331.344	96.25
331.572	93.25
331.801	109.25
332.03	102.25
332.258	100.25
332.486	90.25
332.715	81.25
332.943	79.25
333.172	94.25
333.4	105.25
333.629	105.25
333.857	122.25
334.085	95.25
334.314	111.25
334.542	124.25
334.771	119.25
334.999	88.25
335.227	89.25
335.455	101.25
335.684	105.25
335.912	95.25
336.14	90.25
336.369	99.25
336.597	99.25
336.825	81.25
337.053	93.25
337.281	84.25
337.51	84.25
337.738	102.25
337.966	90.25
338.194	99.25
338.422	90.25
338.65	86.25
338.878	87.25
339.106	87.25
339.334	95.25
339.562	94.25
339.79	85.25
340.018	96.25
340.246	81.25
340.474	99.25
340.702	96.25
340.93	93.25
341.158	93.25
341.386	92.25
341.614	95.25
341.842	77.25
342.07	86.25
342.298	96.25
342.526	100.25
342.754	89.25
342.981	93.25
343.209	76.25
343.437	98.25
343.665	99.25
343.893	86.25
344.12	102.25
344.348	100.25
344.576	85.25
344.804	85.25
345.031	104.25
345.259	91.25
345.487	91.25
345.714	100.25
345.942	79.25
346.17	91.25
346.397	92.25
346.625	94.25
346.853	89.25
347.08	100.25
347.308	96.25
347.535	100.25
347.763	108.25
347.99	95.25
348.218	107.25
348.445	103.25
348.673	97.25
348.9	83.25
349.128	94.25
349.355	102.25
349.583	86.25
349.81	75.25
350.037	86.25
350.265	86.25
350.492	95.25
350.72	89.25
350.947	105.25
351.174	115.25
351.402	113.25
351.629	99.25
351.856	100.25
352.083	95.25
352.311	97.25
352.538	107.25
352.765	104.25
352.992	115.25
353.22	103.25
353.447	105.25
353.674	96.25
353.901	110.25
354.128	92.25
354.355	90.25
354.583	94.25
354.81	100.25
355.037	91.25
355.264	94.25
355.491	98.25
355.718	98.25
355.945	109.25
356.172	96.25
356.399	84.25
356.626	92.25
356.853	97.25
357.08	94.25
357.307	101.25
357.534	93.25
357.761	84.25
357.988	108.25
358.215	87.25
358.441	103.25
358.668	92.25
358.895	86.25
359.122	88.25
359.349	88.25
359.576	94.25
359.802	92.25
360.029	106.25
360.256	97.25
360.483	97.25
360.709	91.25
360.936	89.25
361.163	91.25
361.39	86.25
361.616	99.25
361.843	83.25
362.07	77.25
362.296	101.25
362.523	95.25
362.749	85.25
362.976	82.25
363.203	75.25
363.429	85.25
363.656	91.25
363.882	91.25
364.109	103.25
364.335	89.25
364.562	78.25
364.788	88.25
365.015	95.25
365.241	95.25
365.468	104.25
365.694	100.25
365.92	83.25
366.147	90.25
366.373	92.25
366.599	98.25
366.826	97.25
367.052	111.25
367.278	77.25
367.505	89.25
367.731	93.25
367.957	92.25
368.184	89.25
368.41	102.25
368.636	120.25
368.862	116.25
369.089	93.25
369.315	83.25
369.541	102.25
369.767	95.25
369.993	97.25
370.219	95.25
370.445	80.25
370.672	75.25
370.898	86.25
371.124	92.25
371.35	92.25
371.576	104.25
371.802	91.25
372.028	95.25
372.254	92.25
372.48	102.25
372.706	102.25
372.932	99.25
373.158	104.25
373.384	91.25
373.61	91.25
373.835	93.25
374.061	90.25
374.287	84.25
374.513	99.25
374.739	92.25
374.965	81.25
375.191	91.25
375.416	92.25
375.642	80.25
375.868	99.25
376.094	89.25
376.319	102.25
376.545	94.25
376.771	89.25
376.997	87.25
377.222	81.25
377.448	94.25
377.674	79.25
377.899	88.25
378.125	97.25
378.35	97.25
378.576	101.25
378.802	102.25
379.027	83.25
379.253	104.25
379.478	82.25
379.704	76.25
379.929	97.25
380.155	86.25
380.38	81.25
380.606	88.25
380.831	96.25
381.057	107.25
381.282	99.25
381.507	78.25
381.733	92.25
381.958	95.25
382.184	106.25
382.409	97.25
382.634	96.25
382.86	95.25
383.085	109.25
383.31	94.25
383.535	108.25
383.761	104.25
383.986	92.25
384.211	96.25
384.436	89.25
384.662	100.25
384.887	103.25
385.112	100.25
385.337	93.25
385.562	95.25
385.787	102.25
386.013	110.25
386.238	108.25
386.463	118.25
386.688	98.25
386.913	92.25
387.138	90.25
387.363	98.25
387.588	99.25
387.813	89.25
388.038	103.25
388.263	110.25
388.488	110.25
388.713	90.25
388.938	86.25
389.163	85.25
389.387	88.25
389.612	83.25
389.837	92.25
390.062	101.25
390.287	91.25
390.512	78.25
390.736	87.25
390.961	98.25
391.186	92.25
391.411	113.25
391.636	95.25
391.86	90.25
392.085	90.25
392.31	92.25
392.534	99.25
392.759	88.25
392.984	95.25
393.208	80.25
393.433	87.25
393.658	97.25
393.882	90.25
394.107	93.25
394.331	84.25
394.556	85.25
394.78	82.25
395.005	92.25
395.229	95.25
395.454	100.25
395.678	81.25
395.903	91.25
396.127	76.25
396.352	72.25
396.576	90.25
396.801	69.25
397.025	101.25
397.249	92.25
397.474	68.25
397.698	96.25
397.922	99.25
398.147	94.25
398.371	102.25
398.595	87.25
398.82	77.25
399.044	93.25
399.268	81.25
399.492	89.25
399.717	88.25
399.941	91.25
400.165	90.25
400.389	92.25
400.613	92.25
400.837	92.25
401.062	95.25
401.286	92.25
401.51	90.25
401.734	85.25
401.958	95.25
402.182	108.25
402.406	155.25
402.63	124.25
402.854	95.25
403.078	81.25
403.302	87.25
403.526	75.25
403.75	95.25
403.974	72.25
404.198	75.25
404.422	79.25
404.645	79.25
404.869	91.25
405.093	94.25
405.317	100.25
405.541	91.25
405.765	82.25
405.988	116.25
406.212	172.25
406.436	211.25
406.66	144.25
406.883	103.25
407.107	94.25
407.331	105.25
407.555	95.25
407.778	102.25
408.002	110.25
408.226	81.25
408.449	88.25
408.673	88.25
408.896	86.25
409.12	92.25
409.344	92.25
409.567	89.25
409.791	88.25
410.014	99.25
410.238	95.25
410.461	79.25
410.685	89.25
410.908	101.25
411.132	98.25
411.355	111.25
411.578	105.25
411.802	77.25
412.025	93.25
412.249	99.25
412.472	81.25
412.695	86.25
412.919	96.25
413.142	88.25
413.365	104.25
413.589	85.25
413.812	79.25
414.035	81.25
414.258	96.25
414.482	92.25
414.705	84.25
414.928	93.25
415.151	79.25
415.374	88.25
415.597	97.25
415.821	81.25
416.044	88.25
416.267	99.25
416.49	78.25
416.713	85.25
416.936	97.25
417.159	93.25
417.382	90.25
417.605	86.25
417.828	89.25
418.051	91.25
418.274	91.25
418.497	93.25
418.72	86.25
418.943	96.25
419.166	88.25
419.389	96.25
419.611	80.25
419.834	81.25
420.057	89.25
420.28	91.25
420.503	72.25
420.726	86.25
420.948	94.25
421.171	82.25
421.394	81.25
421.617	100.25
421.839	90.25
422.062	88.25
422.285	90.25
422.507	101.25
422.73	88.25
422.953	94.25
423.175	88.25
423.398	84.25
423.621	102.25
423.843	84.25
424.066	89.25
424.288	88.25
424.511	82.25
424.733	94.25
424.956	99.25
425.178	96.25
425.401	103.25
425.623	91.25
425.846	91.25
426.068	91.25
426.291	78.25
426.513	71.25
426.735	81.25
426.958	103.25
427.18	103.25
427.402	133.25
427.625	161.25
427.847	127.25
428.069	116.25
428.292	94.25
428.514	80.25
428.736	87.25
428.958	82.25
429.181	82.25
429.403	83.25
429.625	91.25
429.847	95.25
430.069	108.25
430.292	105.25
430.514	85.25
430.736	80.25
430.958	100.25
431.18	81.25
431.402	66.25
431.624	94.25
431.846	93.25
432.068	77.25
432.29	94.25
432.512	83.25
432.734	87.25
432.956	94.25
433.178	99.25
433.4	93.25
433.622	102.25
433.844	94.25
434.066	79.25
434.287	89.25
434.509	89.25
434.731	99.25
434.953	87.25
435.175	99.25
435.397	86.25
435.618	84.25
435.84	101.25
436.062	126.25
436.284	118.25
436.505	114.25
436.727	94.25
436.949	98.25
437.17	82.25
437.392	88.25
437.614	92.25
437.835	107.25
438.057	117.25
438.278	111.25
438.5	103.25
438.721	115.25
438.943	101.25
439.165	97.25
439.386	86.25
439.608	87.25
439.829	101.25
440.05	128.25
440.272	142.25
440.493	96.25
440.715	93.25
440.936	99.25
441.158	85.25
441.379	103.25
441.6	96.25
441.822	87.25
442.043	97.25
442.264	104.25
442.486	102.25
442.707	100.25
442.928	114.25
443.149	132.25
443.371	156.25
443.592	119.25
443.813	113.25
444.034	111.25
444.255	97.25
444.476	96.25
444.698	84.25
444.919	86.25
445.14	130.25
445.361	119.25
445.582	102.25
445.803	127.25
446.024	133.25
446.245	121.25
446.466	116.25
446.687	91.25
446.908	85.25
447.129	64.25
447.35	94.25
447.571	85.25
447.792	85.25
448.013	110.25
448.234	112.25
448.455	84.25
448.675	113.25
448.896	127.25
449.117	113.25
449.338	96.25
449.559	133.25
449.779	130.25
450	87.25
450.221	97.25
450.442	82.25
450.662	88.25
450.883	104.25
451.104	116.25
451.324	83.25
451.545	96.25
451.766	106.25
451.986	91.25
452.207	100.25
452.428	94.25
452.648	98.25
452.869	94.25
453.089	94.25
453.31	109.25
453.53	109.25
453.751	89.25
453.971	101.25
454.192	94.25
454.412	87.25
454.633	79.25
454.853	96.25
455.073	88.25
455.294	87.25
455.514	88.25
455.734	91.25
455.955	87.25
456.175	95.25
456.395	83.25
456.616	81.25
456.836	79.25
457.056	78.25
457.276	80.25
457.497	94.25
457.717	81.25
457.937	77.25
458.157	92.25
458.377	86.25
458.598	101.25
458.818	143.25
459.038	156.25
459.258	116.25
459.478	104.25
459.698	101.25
459.918	92.25
460.138	81.25
460.358	95.25
460.578	85.25
460.798	97.25
461.018	91.25
461.238	101.25
461.458	86.25
461.678	81.25
461.898	74.25
462.118	94.25
462.338	84.25
462.558	81.25
462.777	83.25
462.997	85.25
463.217	87.25
463.437	77.25
463.657	76.25
463.876	84.25
464.096	75.25
464.316	88.25
464.536	82.25
464.755	91.25
464.975	95.25
465.195	162.25
465.414	160.25
465.634	72.25
465.854	79.25
466.073	85.25
466.293	81.25
466.512	91.25
466.732	86.25
466.951	84.25
467.171	86.25
467.391	88.25
467.61	98.25
467.829	92.25
468.049	96.25
468.268	84.25
468.488	77.25
468.707	93.25
468.927	94.25
469.146	81.25
469.365	94.25
469.585	101.25
469.804	103.25
470.023	84.25
470.243	87.25
470.462	94.25
470.681	91.25
470.901	91.25
471.12	85.25
471.339	85.25
471.558	64.25
471.777	85.25
471.997	83.25
472.216	102.25
472.435	118.25
472.654	88.25
472.873	78.25
473.092	86.25
473.311	84.25
473.53	87.25
473.749	59.25
473.968	99.25
474.187	95.25
474.406	103.25
474.625	81.25
474.844	89.25
475.063	76.25
475.282	81.25
475.501	78.25
475.72	91.25
475.939	83.25
476.158	79.25
476.377	93.25
476.596	83.25
476.814	73.25
477.033	107.25
477.252	95.25
477.471	104.25
477.69	93.25
477.908	81.25
478.127	88.25
478.346	81.25
478.564	85.25
478.783	86.25
479.002	95.25
479.22	87.25
479.439	97.25
479.658	101.25
479.876	92.25
480.095	100.25
480.313	92.25
480.532	86.25
480.751	95.25
480.969	113.25
481.188	151.25
481.406	124.25
481.624	83.25
481.843	80.25
482.061	87.25
482.28	88.25
482.498	96.25
482.717	86.25
482.935	70.25
483.153	89.25
483.372	90.25
483.59	82.25
483.808	98.25
484.027	87.25
484.245	103.25
484.463	85.25
484.681	85.25
484.9	78.25
485.118	99.25
485.336	104.25
485.554	96.25
485.772	108.25
485.99	96.25
486.209	100.25
486.427	116.25
486.645	102.25
486.863	106.25
487.081	97.25
487.299	93.25
487.517	95.25
487.735	86.25
487.953	73.25
488.171	93.25
488.389	92.25
488.607	107.25
488.825	93.25
489.043	82.25
489.261	100.25
489.479	88.25
489.696	96.25
489.914	88.25
490.132	83.25
490.35	91.25
490.568	97.25
490.786	80.25
491.003	94.25
491.221	90.25
491.439	86.25
491.657	101.25
491.874	103.25
492.092	79.25
492.31	88.25
492.527	86.25
492.745	97.25
492.963	110.25
493.18	91.25
493.398	92.25
493.615	109.25
493.833	89.25
494.05	88.25
494.268	88.25
494.485	82.25
494.703	87.25
494.92	86.25
495.138	107.25
495.355	87.25
495.573	87.25
495.79	88.25
496.008	94.25
496.225	80.25
496.442	81.25
496.66	98.25
496.877	94.25
497.094	104.25
497.312	93.25
497.529	87.25
497.746	91.25
497.963	86.25
498.181	84.25
498.398	107.25
498.615	103.25
498.832	95.25
499.049	94.25
499.267	73.25
499.484	80.25
499.701	84.25
499.918	101.25
500.135	90.25
500.352	95.25
500.569	103.25
500.786	102.25
501.003	99.25
501.22	92.25
501.437	85.25
501.654	99.25
501.871	94.25
502.088	92.25
502.305	89.25
502.522	87.25
502.739	98.25
502.956	87.25
503.172	78.25
503.389	96.25
503.606	96.25
503.823	93.25
504.04	101.25
504.256	96.25
504.473	82.25
504.69	82.25
504.907	85.25
505.123	101.25
505.34	78.25
505.557	104.25
505.773	104.25
505.99	91.25
506.207	87.25
506.423	75.25
506.64	95.25
506.856	101.25
507.073	92.25
507.289	88.25
507.506	97.25
507.722	110.25
507.939	102.25
508.155	90.25
508.372	86.25
508.588	90.25
508.805	91.25
509.021	95.25
509.238	96.25
509.454	105.25
509.67	102.25
509.887	117.25
510.103	133.25
510.319	222.25
510.536	747.25
510.752	2317.25
510.968	630.25
511.184	144.25
511.401	111.25
511.617	95.25
511.833	94.25
512.049	97.25
512.265	89.25
512.481	87.25
512.698	103.25
512.914	105.25
513.13	94.25
513.346	105.25
513.562	91.25
513.778	112.25
513.994	95.25
514.21	100.25
514.426	110.25
514.642	140.25
514.858	114.25
515.074	170.25
515.29	437.25
515.506	1433.25
515.721	534.25
