Data from Uncirc_1988_H10_HRD10591_00013.txt Node
Date: Wed Jan 03 12:04:07 EST 2024
User: Yrep
Spectrometer: HR+D1059
Trigger mode: 1
Integration Time (sec): 1.000000E-1
Scans to average: 1
Electric dark correction enabled: true
Nonlinearity correction enabled: false
Boxcar width: 0
XAxis mode: Wavelengths
Number of Pixels in Spectrum: 2048
>>>>>Begin Spectral Data<<<<<
223.165	-15
223.4	-15
223.635	-15
223.869	-22
224.104	-21
224.338	-18
224.573	-16
224.808	-27
225.042	-4
225.277	17
225.511	-7
225.746	2
225.98	7
226.215	10
226.449	15
226.683	25
226.918	21
227.152	33
227.387	45
227.621	31
227.856	46
228.09	53
228.324	54
228.559	54
228.793	64
229.027	61
229.262	74
229.496	62
229.73	73
229.964	76
230.199	60
230.433	70
230.667	77
230.901	81
231.136	68
231.37	65
231.604	80
231.838	83
232.072	88
232.306	70
232.541	66
232.775	66
233.009	75
233.243	89
233.477	69
233.711	85
233.945	70
234.179	77
234.413	75
234.647	72
234.881	71
235.115	85
235.349	78
235.583	72
235.817	87
236.051	78
236.285	78
236.519	64
236.753	81
236.987	63
237.221	86
237.455	85
237.689	84
237.922	89
238.156	63
238.39	81
238.624	74
238.858	75
239.091	81
239.325	85
239.559	74
239.793	81
240.027	75
240.26	74
240.494	69
240.728	53
240.961	74
241.195	69
241.429	74
241.662	70
241.896	80
242.13	76
242.363	63
242.597	69
242.83	69
243.064	73
243.298	68
243.531	73
243.765	73
243.998	70
244.232	89
244.465	68
244.699	75
244.932	69
245.166	65
245.399	69
245.633	81
245.866	75
246.099	61
246.333	81
246.566	80
246.8	71
247.033	74
247.266	79
247.5	78
247.733	94
247.966	86
248.2	67
248.433	77
248.666	71
248.899	82
249.133	72
249.366	92
249.599	76
249.832	71
250.066	75
250.299	81
250.532	87
250.765	87
250.998	76
251.231	85
251.465	91
251.698	73
251.931	69
252.164	85
252.397	95
252.63	85
252.863	74
253.096	83
253.329	68
253.562	75
253.795	85
254.028	77
254.261	91
254.494	83
254.727	92
254.96	70
255.193	80
255.426	81
255.659	82
255.892	75
256.124	70
256.357	86
256.59	75
256.823	85
257.056	85
257.289	75
257.521	95
257.754	64
257.987	70
258.22	88
258.452	75
258.685	86
258.918	75
259.151	60
259.383	84
259.616	82
259.849	86
260.081	78
260.314	93
260.547	78
260.779	68
261.012	73
261.244	73
261.477	82
261.71	94
261.942	101
262.175	97
262.407	81
262.64	77
262.872	83
263.105	71
263.337	84
263.57	79
263.802	83
264.035	76
264.267	82
264.499	74
264.732	76
264.964	76
265.197	93
265.429	94
265.661	77
265.894	71
266.126	83
266.358	73
266.591	86
266.823	62
267.055	80
267.287	82
267.52	93
267.752	86
267.984	86
268.216	84
268.448	88
268.681	74
268.913	78
269.145	77
269.377	85
269.609	78
269.841	72
270.073	88
270.306	89
270.538	98
270.77	66
271.002	94
271.234	78
271.466	95
271.698	87
271.93	81
272.162	63
272.394	92
272.626	75
272.858	86
273.09	90
273.322	74
273.553	93
273.785	86
274.017	65
274.249	61
274.481	81
274.713	79
274.945	91
275.176	96
275.408	87
275.64	77
275.872	88
276.104	99
276.335	89
276.567	95
276.799	102
277.031	92
277.262	85
277.494	93
277.726	88
277.957	84
278.189	87
278.421	86
278.652	88
278.884	91
279.115	67
279.347	76
279.579	77
279.81	81
280.042	86
280.273	85
280.505	79
280.736	89
280.968	89
281.199	83
281.431	78
281.662	77
281.894	88
282.125	99
282.356	120
282.588	132
282.819	115
283.051	92
283.282	80
283.513	85
283.745	101
283.976	103
284.207	86
284.439	86
284.67	69
284.901	87
285.132	74
285.364	85
285.595	88
285.826	86
286.057	95
286.288	80
286.52	84
286.751	83
286.982	98
287.213	99
287.444	95
287.675	75
287.906	67
288.138	91
288.369	95
288.6	86
288.831	95
289.062	79
289.293	79
289.524	98
289.755	102
289.986	93
290.217	87
290.448	78
290.679	80
290.91	73
291.141	77
291.371	78
291.602	79
291.833	84
292.064	79
292.295	79
292.526	82
292.757	82
292.987	60
293.218	101
293.449	86
293.68	77
293.91	91
294.141	87
294.372	82
294.603	84
294.833	90
295.064	87
295.295	93
295.525	95
295.756	97
295.987	107
296.217	125
296.448	122
296.679	79
296.909	90
297.14	88
297.37	85
297.601	90
297.831	95
298.062	88
298.292	90
298.523	92
298.753	91
298.984	77
299.214	76
299.445	105
299.675	85
299.905	85
300.136	103
300.366	85
300.597	99
300.827	82
301.057	91
301.288	108
301.518	91
301.748	95
301.979	105
302.209	90
302.439	84
302.669	92
302.9	81
303.13	83
303.36	85
303.59	99
303.82	102
304.051	94
304.281	88
304.511	86
304.741	87
304.971	88
305.201	102
305.431	100
305.661	79
305.891	91
306.121	99
306.352	113
306.582	92
306.812	98
307.042	79
307.272	79
307.502	92
307.731	89
307.961	77
308.191	89
308.421	95
308.651	96
308.881	89
309.111	87
309.341	95
309.571	91
309.8	77
310.03	89
310.26	100
310.49	105
310.72	87
310.949	103
311.179	82
311.409	82
311.639	81
311.868	93
312.098	107
312.328	87
312.557	84
312.787	95
313.017	91
313.246	97
313.476	89
313.706	99
313.935	88
314.165	90
314.394	93
314.624	85
314.853	103
315.083	93
315.312	82
315.542	90
315.771	90
316.001	87
316.23	80
316.46	86
316.689	87
316.919	89
317.148	83
317.377	85
317.607	85
317.836	89
318.065	83
318.295	94
318.524	96
318.753	81
318.983	95
319.212	98
319.441	93
319.67	86
319.9	90
320.129	85
320.358	95
320.587	93
320.816	107
321.046	100
321.275	89
321.504	90
321.733	85
321.962	85
322.191	93
322.42	105
322.649	105
322.878	109
323.108	111
323.337	115
323.566	127
323.795	133
324.024	204
324.253	369
324.482	775
324.71	1617
324.939	2085
325.168	760
325.397	228
325.626	131
325.855	112
326.084	121
326.313	128
326.542	154
326.77	209
326.999	429
327.228	913
327.457	1687
327.686	1310
327.914	357
328.143	168
328.372	131
328.6	114
328.829	115
329.058	110
329.287	121
329.515	93
329.744	103
329.972	98
330.201	91
330.43	91
330.658	105
330.887	121
331.115	127
331.344	107
331.572	90
331.801	108
332.03	96
332.258	107
332.486	87
332.715	83
332.943	92
333.172	87
333.4	100
333.629	104
333.857	97
334.085	94
334.314	89
334.542	94
334.771	95
334.999	85
335.227	93
335.455	90
335.684	97
335.912	90
336.14	89
336.369	84
336.597	90
336.825	95
337.053	89
337.281	98
337.51	85
337.738	95
337.966	89
338.194	81
338.422	87
338.65	93
338.878	113
339.106	98
339.334	93
339.562	88
339.79	76
340.018	93
340.246	91
340.474	77
340.702	84
340.93	94
341.158	87
341.386	88
341.614	105
341.842	99
342.07	103
342.298	79
342.526	79
342.754	71
342.981	81
343.209	98
343.437	86
343.665	87
343.893	92
344.12	102
344.348	87
344.576	85
344.804	92
345.031	89
345.259	95
345.487	82
345.714	84
345.942	81
346.17	82
346.397	84
346.625	89
346.853	90
347.08	83
347.308	81
347.535	95
347.763	98
347.99	83
348.218	99
348.445	87
348.673	80
348.9	98
349.128	105
349.355	99
349.583	90
349.81	82
350.037	94
350.265	91
350.492	92
350.72	83
350.947	90
351.174	91
351.402	96
351.629	90
351.856	102
352.083	87
352.311	109
352.538	113
352.765	107
352.992	105
353.22	97
353.447	98
353.674	86
353.901	105
354.128	92
354.355	107
354.583	91
354.81	109
355.037	108
355.264	91
355.491	82
355.718	80
355.945	90
356.172	93
356.399	95
356.626	86
356.853	89
357.08	89
357.307	77
357.534	89
357.761	88
357.988	87
358.215	90
358.441	95
358.668	93
358.895	97
359.122	101
359.349	89
359.576	92
359.802	97
360.029	98
360.256	103
360.483	107
360.709	89
360.936	83
361.163	85
361.39	90
361.616	93
361.843	89
362.07	97
362.296	93
362.523	84
362.749	75
362.976	90
363.203	87
363.429	91
363.656	86
363.882	84
364.109	91
364.335	83
364.562	90
364.788	96
365.015	86
365.241	102
365.468	90
365.694	101
365.92	82
366.147	90
366.373	95
366.599	85
366.826	82
367.052	86
367.278	93
367.505	89
367.731	100
367.957	99
368.184	88
368.41	87
368.636	93
368.862	97
369.089	91
369.315	88
369.541	78
369.767	83
369.993	85
370.219	91
370.445	91
370.672	79
370.898	94
371.124	81
371.35	90
371.576	87
371.802	86
372.028	92
372.254	70
372.48	81
372.706	100
372.932	85
373.158	86
373.384	87
373.61	83
373.835	79
374.061	75
374.287	86
374.513	81
374.739	83
374.965	100
375.191	76
375.416	81
375.642	90
375.868	88
376.094	86
376.319	91
376.545	89
376.771	82
376.997	100
377.222	86
377.448	85
377.674	90
377.899	109
378.125	96
378.35	86
378.576	84
378.802	85
379.027	94
379.253	76
379.478	82
379.704	90
379.929	95
380.155	78
380.38	98
380.606	98
380.831	96
381.057	103
381.282	83
381.507	77
381.733	83
381.958	79
382.184	92
382.409	97
382.634	100
382.86	90
383.085	114
383.31	81
383.535	90
383.761	88
383.986	94
384.211	84
384.436	98
384.662	69
384.887	101
385.112	95
385.337	86
385.562	97
385.787	100
386.013	96
386.238	99
386.463	94
386.688	114
386.913	109
387.138	107
387.363	89
387.588	92
387.813	103
388.038	110
388.263	116
388.488	112
388.713	105
388.938	86
389.163	102
389.387	87
389.612	98
389.837	83
390.062	78
390.287	94
390.512	101
390.736	92
390.961	81
391.186	95
391.411	92
391.636	92
391.86	85
392.085	82
392.31	97
392.534	92
392.759	91
392.984	81
393.208	95
393.433	83
393.658	93
393.882	83
394.107	83
394.331	65
394.556	89
394.78	95
395.005	78
395.229	85
395.454	102
395.678	82
395.903	94
396.127	85
396.352	67
396.576	86
396.801	81
397.025	69
397.249	80
397.474	91
397.698	91
397.922	86
398.147	75
398.371	84
398.595	96
398.82	92
399.044	97
399.268	95
399.492	82
399.717	89
399.941	83
400.165	106
400.389	91
400.613	70
400.837	74
401.062	76
401.286	97
401.51	90
401.734	73
401.958	101
402.182	124
402.406	120
402.63	108
402.854	91
403.078	90
403.302	89
403.526	92
403.75	91
403.974	80
404.198	94
404.422	77
404.645	73
404.869	81
405.093	94
405.317	105
405.541	96
405.765	92
405.988	107
406.212	153
406.436	194
406.66	110
406.883	99
407.107	89
407.331	90
407.555	93
407.778	96
408.002	88
408.226	85
408.449	72
408.673	72
408.896	100
409.12	94
409.344	92
409.567	87
409.791	86
410.014	101
410.238	85
410.461	85
410.685	69
410.908	91
411.132	105
411.355	114
411.578	80
411.802	80
412.025	71
412.249	91
412.472	72
412.695	95
412.919	81
413.142	82
413.365	83
413.589	82
413.812	91
414.035	96
414.258	75
414.482	80
414.705	65
414.928	91
415.151	82
415.374	89
415.597	96
415.821	92
416.044	84
416.267	85
416.49	83
416.713	88
416.936	92
417.159	89
417.382	78
417.605	89
417.828	108
418.051	84
418.274	73
418.497	90
418.72	79
418.943	108
419.166	101
419.389	64
419.611	88
419.834	86
420.057	91
420.28	77
420.503	87
420.726	91
420.948	82
421.171	104
421.394	81
421.617	88
421.839	100
422.062	88
422.285	90
422.507	94
422.73	95
422.953	82
423.175	80
423.398	85
423.621	79
423.843	74
424.066	91
424.288	85
424.511	94
424.733	92
424.956	102
425.178	101
425.401	96
425.623	105
425.846	92
426.068	75
426.291	79
426.513	100
426.735	82
426.958	96
427.18	91
427.402	135
427.625	154
427.847	128
428.069	91
428.292	71
428.514	90
428.736	77
428.958	79
429.181	87
429.403	74
429.625	80
429.847	98
430.069	93
430.292	109
430.514	79
430.736	105
430.958	82
431.18	77
431.402	77
431.624	85
431.846	88
432.068	93
432.29	78
432.512	97
432.734	87
432.956	75
433.178	87
433.4	82
433.622	89
433.844	98
434.066	78
434.287	86
434.509	89
434.731	97
434.953	92
435.175	80
435.397	101
435.618	101
435.84	96
436.062	113
436.284	125
436.505	104
436.727	103
436.949	101
437.17	104
437.392	87
437.614	96
437.835	94
438.057	116
438.278	105
438.5	106
438.721	122
438.943	89
439.165	88
439.386	78
439.608	93
439.829	90
440.05	109
440.272	126
440.493	95
440.715	94
440.936	89
441.158	82
441.379	93
441.6	90
441.822	93
442.043	78
442.264	106
442.486	82
442.707	103
442.928	108
443.149	117
443.371	127
443.592	97
443.813	103
444.034	100
444.255	78
444.476	85
444.698	90
444.919	96
445.14	126
445.361	124
445.582	111
445.803	131
446.024	129
446.245	123
446.466	108
446.687	91
446.908	85
447.129	91
447.35	83
447.571	95
447.792	81
448.013	97
448.234	98
448.455	101
448.675	125
448.896	104
449.117	109
449.338	95
449.559	126
449.779	120
450	90
450.221	84
450.442	88
450.662	89
450.883	101
451.104	96
451.324	93
451.545	84
451.766	83
451.986	66
452.207	77
452.428	89
452.648	104
452.869	106
453.089	116
453.31	108
453.53	82
453.751	75
453.971	93
454.192	111
454.412	86
454.633	94
454.853	99
455.073	84
455.294	95
455.514	99
455.734	88
455.955	67
456.175	90
456.395	85
456.616	83
456.836	79
457.056	85
457.276	84
457.497	81
457.717	71
457.937	79
458.157	82
458.377	83
458.598	103
458.818	140
459.038	137
459.258	102
459.478	93
459.698	82
459.918	90
460.138	77
460.358	93
460.578	77
460.798	82
461.018	87
461.238	78
461.458	96
461.678	87
461.898	83
462.118	81
462.338	93
462.558	92
462.777	91
462.997	88
463.217	79
463.437	94
463.657	73
463.876	98
464.096	85
464.316	78
464.536	77
464.755	88
464.975	93
465.195	156
465.414	142
465.634	103
465.854	79
466.073	98
466.293	97
466.512	96
466.732	91
466.951	99
467.171	86
467.391	96
467.61	95
467.829	89
468.049	83
468.268	100
468.488	77
468.707	93
468.927	96
469.146	83
469.365	97
469.585	83
469.804	84
470.023	89
470.243	95
470.462	78
470.681	97
470.901	85
471.12	78
471.339	89
471.558	82
471.777	95
471.997	81
472.216	80
472.435	86
472.654	83
472.873	84
473.092	81
473.311	84
473.53	87
473.749	85
473.968	91
474.187	109
474.406	92
474.625	88
474.844	78
475.063	75
475.282	84
475.501	75
475.72	92
475.939	75
476.158	76
476.377	97
476.596	89
476.814	89
477.033	91
477.252	92
477.471	74
477.69	91
477.908	88
478.127	89
478.346	88
478.564	87
478.783	82
479.002	92
479.22	87
479.439	102
479.658	104
479.876	101
480.095	86
480.313	105
480.532	96
480.751	96
480.969	87
481.188	93
481.406	92
481.624	81
481.843	75
482.061	84
482.28	86
482.498	78
482.717	77
482.935	86
483.153	86
483.372	82
483.59	92
483.808	82
484.027	97
484.245	90
484.463	81
484.681	93
484.9	82
485.118	98
485.336	86
485.554	100
485.772	88
485.99	116
486.209	106
486.427	113
486.645	100
486.863	104
487.081	91
487.299	82
487.517	87
487.735	99
487.953	62
488.171	85
488.389	79
488.607	98
488.825	83
489.043	82
489.261	92
489.479	81
489.696	93
489.914	103
490.132	90
490.35	81
490.568	80
490.786	86
491.003	97
491.221	82
491.439	87
491.657	83
491.874	85
492.092	81
492.31	86
492.527	92
492.745	95
492.963	94
493.18	98
493.398	97
493.615	100
493.833	91
494.05	104
494.268	79
494.485	93
494.703	98
494.92	75
495.138	77
495.355	106
495.573	91
495.79	92
496.008	83
496.225	91
496.442	84
496.66	92
496.877	102
497.094	91
497.312	98
497.529	92
497.746	80
497.963	88
498.181	79
498.398	96
498.615	103
498.832	101
499.049	93
499.267	97
499.484	90
499.701	91
499.918	81
500.135	79
500.352	85
500.569	83
500.786	92
501.003	92
501.22	103
501.437	84
501.654	98
501.871	98
502.088	73
502.305	94
502.522	87
502.739	91
502.956	76
503.172	95
503.389	88
503.606	97
503.823	91
504.04	93
504.256	93
504.473	93
504.69	94
504.907	102
505.123	98
505.34	93
505.557	95
505.773	75
505.99	89
506.207	84
506.423	97
506.64	83
506.856	92
507.073	100
507.289	102
507.506	94
507.722	96
507.939	105
508.155	86
508.372	82
508.588	98
508.805	106
509.021	100
509.238	94
509.454	79
509.67	107
509.887	99
510.103	109
510.319	186
510.536	633
510.752	1828
510.968	532
511.184	133
511.401	103
511.617	88
511.833	79
512.049	81
512.265	90
512.481	102
512.698	98
512.914	79
513.13	83
513.346	95
513.562	100
513.778	85
513.994	85
514.21	99
514.426	110
514.642	116
514.858	109
515.074	150
515.29	386
515.506	1202
515.721	447
515.937	139
516.153	102
516.369	99
516.585	90
516.801	80
517.016	101
517.232	86
517.448	84
517.664	90
517.879	85
518.095	100
518.311	85
518.527	98
518.742	98
518.958	89
519.173	92
519.389	99
519.605	97
519.82	89
520.036	100
520.251	101
520.467	102
520.682	106
520.898	105
521.113	122
521.329	119
521.544	180
521.76	472
521.975	2007
522.19	1173
522.406	275
522.621	113
522.836	106
523.052	93
523.267	106
523.482	81
523.698	91
523.913	105
524.128	98
524.343	99
524.559	95
524.774	100
524.989	101
525.204	106
525.419	86
525.634	87
525.849	81
526.064	82
526.28	99
526.495	87
526.71	93
526.925	86
527.14	95
527.355	84
527.57	96
527.785	91
527.999	94
528.214	101
528.429	85
528.644	93
528.859	99
529.074	101
529.289	111
529.503	163
529.718	103
529.933	91
530.148	94
530.363	93
530.577	90
530.792	96
531.007	89
531.221	101
531.436	87
531.651	82
531.865	81
532.08	95
532.295	95
532.509	91
532.724	85
532.938	93
533.153	94
533.367	98
533.582	87
533.796	99
534.011	81
534.225	91
534.44	93
534.654	111
534.868	86
535.083	89
535.297	92
535.511	90
535.726	82
535.94	97
536.154	91
536.369	94
536.583	90
536.797	90
537.011	75
537.225	92
537.44	94
537.654	70
537.868	77
538.082	91
538.296	74
538.51	91
538.724	94
538.938	98
539.153	90
539.367	104
539.581	91
539.795	73
540.009	92
540.222	79
540.436	79
540.65	83
540.864	73
541.078	94
541.292	87
541.506	75
541.72	81
541.934	97
542.147	91
542.361	91
542.575	86
542.789	83
543.002	91
543.216	91
543.43	91
543.644	96
543.857	83
544.071	87
544.285	79
544.498	86
544.712	86
544.925	80
545.139	90
545.352	89
545.566	96
545.779	94
545.993	99
546.206	94
546.42	83
546.633	100
546.847	85
547.06	79
547.274	80
547.487	79
547.7	75
547.914	79
548.127	90
548.34	68
548.554	86
548.767	75
548.98	84
549.193	84
549.407	73
549.62	78
549.833	81
550.046	81
550.259	78
550.473	91
550.686	99
550.899	89
551.112	89
551.325	91
551.538	87
551.751	85
551.964	84
552.177	85
552.39	82
552.603	71
552.816	93
553.029	83
553.242	83
553.455	100
553.667	99
553.88	83
554.093	89
554.306	86
554.519	87
554.732	82
554.944	96
555.157	105
555.37	91
555.583	91
555.795	94
556.008	81
556.221	76
556.433	96
556.646	95
556.859	82
557.071	105
557.284	87
557.496	94
557.709	85
557.921	88
558.134	103
558.346	87
558.559	93
558.771	90
558.984	80
559.196	90
559.409	85
559.621	111
559.833	80
560.046	92
560.258	77
560.47	82
560.683	78
560.895	75
561.107	83
561.32	85
561.532	96
561.744	79
561.956	95
562.168	93
562.381	85
562.593	77
562.805	83
563.017	72
563.229	101
563.441	84
563.653	83
563.865	80
564.077	91
564.289	70
564.501	77
564.713	97
564.925	93
565.137	100
565.349	81
565.561	70
565.773	88
565.985	83
566.197	70
566.408	91
566.62	90
566.832	86
567.044	94
567.255	74
567.467	83
567.679	85
567.891	85
568.102	93
568.314	81
568.526	78
568.737	79
568.949	81
569.161	86
569.372	96
569.584	87
569.795	94
570.007	114
570.218	213
570.43	124
570.641	83
570.853	83
571.064	87
571.276	98
571.487	85
571.698	78
571.91	81
572.121	91
572.333	85
572.544	82
572.755	92
572.966	86
573.178	87
573.389	83
573.6	79
573.811	89
574.023	86
574.234	87
574.445	95
574.656	87
574.867	86
575.078	89
575.289	93
575.501	83
575.712	89
575.923	93
576.134	79
576.345	82
576.556	91
576.767	101
576.978	77
577.188	82
577.399	93
577.61	77
577.821	88
578.032	103
578.243	210
578.454	630
578.665	190
578.875	93
579.086	89
579.297	91
579.508	94
579.718	90
579.929	97
580.14	72
580.35	79
580.561	81
580.772	86
580.982	82
581.193	81
581.403	80
581.614	88
581.825	95
582.035	86
582.246	91
582.456	79
582.667	88
582.877	83
583.087	89
583.298	82
583.508	85
583.719	77
583.929	84
584.139	84
584.35	90
584.56	88
584.77	84
584.981	78
585.191	80
585.401	92
585.611	86
585.821	81
586.032	93
