Data from Uncirc_1988_H10_HRD10591_00069.txt Node
Date: Wed Jan 03 12:04:18 EST 2024
User: Yrep
Spectrometer: HR+D1059
Trigger mode: 1
Integration Time (sec): 1.000000E-1
Scans to average: 1
Electric dark correction enabled: true
Nonlinearity correction enabled: false
Boxcar width: 0
XAxis mode: Wavelengths
Number of Pixels in Spectrum: 2048
>>>>>Begin Spectral Data<<<<<
223.165	-5.94
223.4	-5.94
223.635	-5.94
223.869	-29.94
224.104	-20.94
224.338	-28.94
224.573	-28.94
224.808	-19.94
225.042	-19.94
225.277	2.06
225.511	4.06
225.746	9.06
225.98	10.06
226.215	12.06
226.449	29.06
226.683	31.06
226.918	33.06
227.152	24.06
227.387	37.06
227.621	42.06
227.856	40.06
228.09	60.06
228.324	57.06
228.559	46.06
228.793	64.06
229.027	57.06
229.262	66.06
229.496	80.06
229.73	87.06
229.964	82.06
230.199	79.06
230.433	80.06
230.667	81.06
230.901	93.06
231.136	72.06
231.37	73.06
231.604	93.06
231.838	98.06
232.072	77.06
232.306	72.06
232.541	82.06
232.775	74.06
233.009	74.06
233.243	95.06
233.477	91.06
233.711	76.06
233.945	87.06
234.179	86.06
234.413	87.06
234.647	91.06
234.881	89.06
235.115	99.06
235.349	85.06
235.583	75.06
235.817	68.06
236.051	75.06
236.285	79.06
236.519	98.06
236.753	82.06
236.987	84.06
237.221	90.06
237.455	89.06
237.689	81.06
237.922	82.06
238.156	83.06
238.39	84.06
238.624	80.06
238.858	72.06
239.091	88.06
239.325	79.06
239.559	84.06
239.793	75.06
240.027	83.06
240.26	79.06
240.494	92.06
240.728	77.06
240.961	96.06
241.195	77.06
241.429	79.06
241.662	84.06
241.896	83.06
242.13	80.06
242.363	85.06
242.597	66.06
242.83	83.06
243.064	82.06
243.298	85.06
243.531	91.06
243.765	92.06
243.998	70.06
244.232	83.06
244.465	93.06
244.699	63.06
244.932	83.06
245.166	76.06
245.399	82.06
245.633	79.06
245.866	89.06
246.099	76.06
246.333	84.06
246.566	91.06
246.8	89.06
247.033	84.06
247.266	75.06
247.5	94.06
247.733	86.06
247.966	84.06
248.2	88.06
248.433	75.06
248.666	73.06
248.899	95.06
249.133	85.06
249.366	106.06
249.599	118.06
249.832	84.06
250.066	88.06
250.299	96.06
250.532	82.06
250.765	68.06
250.998	90.06
251.231	87.06
251.465	89.06
251.698	86.06
251.931	84.06
252.164	82.06
252.397	82.06
252.63	86.06
252.863	91.06
253.096	81.06
253.329	93.06
253.562	85.06
253.795	89.06
254.028	68.06
254.261	85.06
254.494	77.06
254.727	88.06
254.96	81.06
255.193	96.06
255.426	87.06
255.659	85.06
255.892	94.06
256.124	95.06
256.357	75.06
256.59	80.06
256.823	75.06
257.056	107.06
257.289	92.06
257.521	93.06
257.754	99.06
257.987	94.06
258.22	84.06
258.452	74.06
258.685	71.06
258.918	87.06
259.151	109.06
259.383	89.06
259.616	81.06
259.849	83.06
260.081	76.06
260.314	95.06
260.547	89.06
260.779	91.06
261.012	87.06
261.244	100.06
261.477	94.06
261.71	97.06
261.942	106.06
262.175	125.06
262.407	91.06
262.64	84.06
262.872	95.06
263.105	84.06
263.337	90.06
263.57	83.06
263.802	80.06
264.035	82.06
264.267	80.06
264.499	79.06
264.732	84.06
264.964	85.06
265.197	91.06
265.429	103.06
265.661	85.06
265.894	87.06
266.126	97.06
266.358	94.06
266.591	76.06
266.823	85.06
267.055	91.06
267.287	95.06
267.52	79.06
267.752	89.06
267.984	76.06
268.216	84.06
268.448	75.06
268.681	83.06
268.913	92.06
269.145	96.06
269.377	89.06
269.609	90.06
269.841	81.06
270.073	85.06
270.306	75.06
270.538	103.06
270.77	86.06
271.002	78.06
271.234	83.06
271.466	99.06
271.698	91.06
271.93	82.06
272.162	79.06
272.394	89.06
272.626	91.06
272.858	74.06
273.09	93.06
273.322	99.06
273.553	72.06
273.785	86.06
274.017	96.06
274.249	99.06
274.481	89.06
274.713	87.06
274.945	83.06
275.176	87.06
275.408	102.06
275.64	85.06
275.872	95.06
276.104	91.06
276.335	93.06
276.567	98.06
276.799	98.06
277.031	101.06
277.262	92.06
277.494	69.06
277.726	99.06
277.957	88.06
278.189	83.06
278.421	104.06
278.652	93.06
278.884	92.06
279.115	77.06
279.347	88.06
279.579	88.06
279.81	89.06
280.042	91.06
280.273	88.06
280.505	88.06
280.736	89.06
280.968	76.06
281.199	100.06
281.431	87.06
281.662	90.06
281.894	95.06
282.125	110.06
282.356	128.06
282.588	131.06
282.819	124.06
283.051	98.06
283.282	73.06
283.513	84.06
283.745	92.06
283.976	72.06
284.207	108.06
284.439	91.06
284.67	86.06
284.901	71.06
285.132	94.06
285.364	90.06
285.595	90.06
285.826	96.06
286.057	83.06
286.288	95.06
286.52	84.06
286.751	98.06
286.982	98.06
287.213	83.06
287.444	92.06
287.675	83.06
287.906	103.06
288.138	104.06
288.369	108.06
288.6	83.06
288.831	91.06
289.062	97.06
289.293	104.06
289.524	82.06
289.755	84.06
289.986	91.06
290.217	96.06
290.448	106.06
290.679	97.06
290.91	82.06
291.141	93.06
291.371	96.06
291.602	100.06
291.833	93.06
292.064	85.06
292.295	85.06
292.526	84.06
292.757	92.06
292.987	90.06
293.218	90.06
293.449	93.06
293.68	100.06
293.91	92.06
294.141	104.06
294.372	93.06
294.603	97.06
294.833	89.06
295.064	87.06
295.295	93.06
295.525	91.06
295.756	104.06
295.987	129.06
296.217	148.06
296.448	111.06
296.679	102.06
296.909	74.06
297.14	88.06
297.37	96.06
297.601	101.06
297.831	97.06
298.062	99.06
298.292	95.06
298.523	95.06
298.753	87.06
298.984	91.06
299.214	92.06
299.445	104.06
299.675	99.06
299.905	85.06
300.136	100.06
300.366	100.06
300.597	83.06
300.827	97.06
301.057	102.06
301.288	117.06
301.518	99.06
301.748	101.06
301.979	104.06
302.209	108.06
302.439	100.06
302.669	94.06
302.9	99.06
303.13	86.06
303.36	98.06
303.59	109.06
303.82	111.06
304.051	109.06
304.281	90.06
304.511	92.06
304.741	92.06
304.971	94.06
305.201	85.06
305.431	91.06
305.661	104.06
305.891	98.06
306.121	98.06
306.352	108.06
306.582	112.06
306.812	99.06
307.042	83.06
307.272	91.06
307.502	97.06
307.731	102.06
307.961	106.06
308.191	70.06
308.421	95.06
308.651	102.06
308.881	82.06
309.111	90.06
309.341	100.06
309.571	96.06
309.8	103.06
310.03	109.06
310.26	92.06
310.49	87.06
310.72	109.06
310.949	116.06
311.179	122.06
311.409	89.06
311.639	104.06
311.868	111.06
312.098	83.06
312.328	105.06
312.557	106.06
312.787	114.06
313.017	98.06
313.246	96.06
313.476	105.06
313.706	97.06
313.935	97.06
314.165	112.06
314.394	104.06
314.624	100.06
314.853	91.06
315.083	100.06
315.312	97.06
315.542	92.06
315.771	101.06
316.001	97.06
316.23	105.06
316.46	109.06
316.689	102.06
316.919	104.06
317.148	97.06
317.377	98.06
317.607	81.06
317.836	90.06
318.065	102.06
318.295	87.06
318.524	91.06
318.753	92.06
318.983	90.06
319.212	98.06
319.441	96.06
319.67	106.06
319.9	101.06
320.129	111.06
320.358	105.06
320.587	112.06
320.816	115.06
321.046	116.06
321.275	101.06
321.504	103.06
321.733	100.06
321.962	106.06
322.191	114.06
322.42	114.06
322.649	114.06
322.878	124.06
323.108	123.06
323.337	121.06
323.566	160.06
323.795	154.06
324.024	218.06
324.253	417.06
324.482	914.06
324.71	1932.06
324.939	2476.06
325.168	910.06
325.397	254.06
325.626	164.06
325.855	142.06
326.084	139.06
326.313	144.06
326.542	169.06
326.77	243.06
326.999	513.06
327.228	1057.06
327.457	1928.06
327.686	1513.06
327.914	415.06
328.143	221.06
328.372	159.06
328.6	130.06
328.829	112.06
329.058	135.06
329.287	134.06
329.515	124.06
329.744	106.06
329.972	115.06
330.201	111.06
330.43	131.06
330.658	139.06
330.887	146.06
331.115	134.06
331.344	102.06
331.572	103.06
331.801	96.06
332.03	100.06
332.258	103.06
332.486	99.06
332.715	93.06
332.943	98.06
333.172	96.06
333.4	104.06
333.629	116.06
333.857	131.06
334.085	118.06
334.314	104.06
334.542	140.06
334.771	130.06
334.999	98.06
335.227	106.06
335.455	105.06
335.684	99.06
335.912	101.06
336.14	108.06
336.369	112.06
336.597	117.06
336.825	118.06
337.053	101.06
337.281	107.06
337.51	98.06
337.738	97.06
337.966	109.06
338.194	108.06
338.422	87.06
338.65	92.06
338.878	100.06
339.106	97.06
339.334	100.06
339.562	85.06
339.79	84.06
340.018	99.06
340.246	99.06
340.474	115.06
340.702	107.06
340.93	90.06
341.158	102.06
341.386	103.06
341.614	99.06
341.842	107.06
342.07	95.06
342.298	97.06
342.526	91.06
342.754	88.06
342.981	97.06
343.209	102.06
343.437	112.06
343.665	107.06
343.893	98.06
344.12	109.06
344.348	100.06
344.576	92.06
344.804	100.06
345.031	93.06
345.259	93.06
345.487	100.06
345.714	97.06
345.942	101.06
346.17	88.06
346.397	103.06
346.625	114.06
346.853	109.06
347.08	90.06
347.308	100.06
347.535	106.06
347.763	106.06
347.99	108.06
348.218	106.06
348.445	115.06
348.673	107.06
348.9	95.06
349.128	77.06
349.355	87.06
349.583	103.06
349.81	86.06
350.037	97.06
350.265	83.06
350.492	99.06
350.72	102.06
350.947	106.06
351.174	109.06
351.402	109.06
351.629	104.06
351.856	110.06
352.083	114.06
352.311	110.06
352.538	118.06
352.765	115.06
352.992	118.06
353.22	110.06
353.447	95.06
353.674	111.06
353.901	95.06
354.128	109.06
354.355	102.06
354.583	101.06
354.81	85.06
355.037	97.06
355.264	99.06
355.491	85.06
355.718	106.06
355.945	87.06
356.172	87.06
356.399	107.06
356.626	96.06
356.853	93.06
357.08	94.06
357.307	109.06
357.534	98.06
357.761	101.06
357.988	96.06
358.215	89.06
358.441	96.06
358.668	104.06
358.895	99.06
359.122	99.06
359.349	89.06
359.576	98.06
359.802	98.06
360.029	123.06
360.256	113.06
360.483	99.06
360.709	107.06
360.936	117.06
361.163	96.06
361.39	103.06
361.616	102.06
361.843	98.06
362.07	108.06
362.296	104.06
362.523	100.06
362.749	97.06
362.976	82.06
363.203	86.06
363.429	88.06
363.656	104.06
363.882	99.06
364.109	103.06
364.335	104.06
364.562	92.06
364.788	106.06
365.015	95.06
365.241	103.06
365.468	121.06
365.694	118.06
365.92	100.06
366.147	100.06
366.373	95.06
366.599	83.06
366.826	95.06
367.052	97.06
367.278	76.06
367.505	98.06
367.731	87.06
367.957	87.06
368.184	102.06
368.41	100.06
368.636	113.06
368.862	124.06
369.089	123.06
369.315	90.06
369.541	106.06
369.767	92.06
369.993	102.06
370.219	96.06
370.445	91.06
370.672	89.06
370.898	88.06
371.124	96.06
371.35	112.06
371.576	100.06
371.802	101.06
372.028	111.06
372.254	99.06
372.48	95.06
372.706	88.06
372.932	98.06
373.158	93.06
373.384	84.06
373.61	91.06
373.835	91.06
374.061	105.06
374.287	81.06
374.513	75.06
374.739	105.06
374.965	88.06
375.191	89.06
375.416	95.06
375.642	95.06
375.868	84.06
376.094	107.06
376.319	96.06
376.545	91.06
376.771	103.06
376.997	100.06
377.222	93.06
377.448	102.06
377.674	84.06
377.899	77.06
378.125	89.06
378.35	93.06
378.576	88.06
378.802	82.06
379.027	86.06
379.253	110.06
379.478	106.06
379.704	85.06
379.929	92.06
380.155	102.06
380.38	100.06
380.606	95.06
380.831	89.06
381.057	88.06
381.282	99.06
381.507	96.06
381.733	101.06
381.958	94.06
382.184	88.06
382.409	91.06
382.634	101.06
382.86	107.06
383.085	102.06
383.31	94.06
383.535	111.06
383.761	82.06
383.986	108.06
384.211	105.06
384.436	97.06
384.662	90.06
384.887	99.06
385.112	96.06
385.337	126.06
385.562	100.06
385.787	99.06
386.013	120.06
386.238	116.06
386.463	101.06
386.688	116.06
386.913	92.06
387.138	87.06
387.363	109.06
387.588	116.06
387.813	103.06
388.038	106.06
388.263	105.06
388.488	100.06
388.713	100.06
388.938	108.06
389.163	107.06
389.387	107.06
389.612	110.06
389.837	95.06
390.062	96.06
390.287	89.06
390.512	106.06
390.736	98.06
390.961	82.06
391.186	87.06
391.411	97.06
391.636	97.06
391.86	88.06
392.085	77.06
392.31	100.06
392.534	95.06
392.759	85.06
392.984	84.06
393.208	99.06
393.433	96.06
393.658	99.06
393.882	75.06
394.107	97.06
394.331	93.06
394.556	89.06
394.78	106.06
395.005	84.06
395.229	89.06
395.454	102.06
395.678	107.06
395.903	103.06
396.127	82.06
396.352	96.06
396.576	83.06
396.801	87.06
397.025	84.06
397.249	85.06
397.474	97.06
397.698	92.06
397.922	88.06
398.147	97.06
398.371	96.06
398.595	82.06
398.82	93.06
399.044	95.06
399.268	96.06
399.492	96.06
399.717	71.06
399.941	99.06
400.165	83.06
400.389	99.06
400.613	88.06
400.837	79.06
401.062	96.06
401.286	79.06
401.51	100.06
401.734	95.06
401.958	109.06
402.182	136.06
402.406	160.06
402.63	123.06
402.854	96.06
403.078	91.06
403.302	83.06
403.526	85.06
403.75	96.06
403.974	83.06
404.198	73.06
404.422	86.06
404.645	102.06
404.869	89.06
405.093	100.06
405.317	96.06
405.541	103.06
405.765	102.06
405.988	114.06
406.212	180.06
406.436	237.06
406.66	147.06
406.883	96.06
407.107	101.06
407.331	107.06
407.555	85.06
407.778	94.06
408.002	100.06
408.226	89.06
408.449	88.06
408.673	79.06
408.896	95.06
409.12	93.06
409.344	88.06
409.567	99.06
409.791	77.06
410.014	96.06
410.238	94.06
410.461	84.06
410.685	114.06
410.908	83.06
411.132	108.06
411.355	122.06
411.578	104.06
411.802	96.06
412.025	90.06
412.249	97.06
412.472	92.06
412.695	101.06
412.919	92.06
413.142	90.06
413.365	106.06
413.589	81.06
413.812	99.06
414.035	117.06
414.258	113.06
414.482	95.06
414.705	100.06
414.928	102.06
415.151	100.06
415.374	112.06
415.597	89.06
415.821	90.06
416.044	104.06
416.267	94.06
416.49	93.06
416.713	91.06
416.936	82.06
417.159	91.06
417.382	94.06
417.605	99.06
417.828	89.06
418.051	114.06
418.274	92.06
418.497	100.06
418.72	93.06
418.943	97.06
419.166	94.06
419.389	77.06
419.611	85.06
419.834	107.06
420.057	98.06
420.28	86.06
420.503	94.06
420.726	103.06
420.948	79.06
421.171	111.06
421.394	105.06
421.617	75.06
421.839	92.06
422.062	95.06
422.285	89.06
422.507	105.06
422.73	103.06
422.953	90.06
423.175	98.06
423.398	89.06
423.621	74.06
423.843	87.06
424.066	98.06
424.288	99.06
424.511	79.06
424.733	101.06
424.956	106.06
425.178	100.06
425.401	106.06
425.623	103.06
425.846	73.06
426.068	97.06
426.291	99.06
426.513	100.06
426.735	99.06
426.958	98.06
427.18	113.06
427.402	137.06
427.625	176.06
427.847	135.06
428.069	117.06
428.292	102.06
428.514	91.06
428.736	101.06
428.958	98.06
429.181	83.06
429.403	102.06
429.625	91.06
429.847	104.06
430.069	96.06
430.292	98.06
430.514	88.06
430.736	70.06
430.958	91.06
431.18	74.06
431.402	85.06
431.624	93.06
431.846	82.06
432.068	84.06
432.29	94.06
432.512	95.06
432.734	96.06
432.956	89.06
433.178	93.06
433.4	108.06
433.622	98.06
433.844	108.06
434.066	90.06
434.287	91.06
434.509	89.06
434.731	85.06
434.953	93.06
435.175	87.06
435.397	92.06
435.618	111.06
435.84	114.06
436.062	109.06
436.284	124.06
436.505	102.06
436.727	107.06
436.949	89.06
437.17	107.06
437.392	89.06
437.614	98.06
437.835	110.06
438.057	105.06
438.278	117.06
438.5	113.06
438.721	127.06
438.943	108.06
439.165	104.06
439.386	101.06
439.608	99.06
439.829	100.06
440.05	115.06
440.272	154.06
440.493	109.06
440.715	113.06
440.936	101.06
441.158	73.06
441.379	83.06
441.6	97.06
441.822	107.06
442.043	93.06
442.264	103.06
442.486	103.06
442.707	103.06
442.928	108.06
443.149	146.06
443.371	137.06
443.592	116.06
443.813	115.06
444.034	115.06
444.255	115.06
444.476	87.06
444.698	88.06
444.919	81.06
445.14	145.06
445.361	131.06
445.582	108.06
445.803	141.06
446.024	131.06
446.245	144.06
446.466	120.06
446.687	93.06
446.908	92.06
447.129	106.06
447.35	108.06
447.571	100.06
447.792	99.06
448.013	101.06
448.234	116.06
448.455	110.06
448.675	115.06
448.896	118.06
449.117	114.06
449.338	115.06
449.559	113.06
449.779	147.06
450	96.06
450.221	91.06
450.442	87.06
450.662	96.06
450.883	118.06
451.104	106.06
451.324	84.06
451.545	72.06
451.766	91.06
451.986	99.06
452.207	82.06
452.428	98.06
452.648	98.06
452.869	112.06
453.089	110.06
453.31	116.06
453.53	95.06
453.751	101.06
453.971	120.06
454.192	108.06
454.412	113.06
454.633	89.06
454.853	94.06
455.073	88.06
455.294	96.06
455.514	103.06
455.734	97.06
455.955	78.06
456.175	106.06
456.395	94.06
456.616	92.06
456.836	98.06
457.056	92.06
457.276	96.06
457.497	85.06
457.717	95.06
457.937	92.06
458.157	100.06
458.377	100.06
458.598	111.06
458.818	168.06
459.038	169.06
459.258	120.06
459.478	88.06
459.698	60.06
459.918	89.06
460.138	88.06
460.358	91.06
460.578	89.06
460.798	88.06
461.018	91.06
461.238	96.06
461.458	76.06
461.678	93.06
461.898	96.06
462.118	91.06
462.338	90.06
462.558	95.06
462.777	95.06
462.997	86.06
463.217	88.06
463.437	95.06
463.657	90.06
463.876	103.06
464.096	89.06
464.316	87.06
464.536	95.06
464.755	95.06
464.975	107.06
465.195	154.06
465.414	153.06
465.634	87.06
465.854	83.06
466.073	93.06
466.293	81.06
466.512	94.06
466.732	93.06
466.951	96.06
467.171	97.06
467.391	79.06
467.61	116.06
467.829	87.06
468.049	103.06
468.268	113.06
468.488	90.06
468.707	87.06
468.927	92.06
469.146	98.06
469.365	84.06
469.585	87.06
469.804	108.06
470.023	84.06
470.243	99.06
470.462	104.06
470.681	117.06
470.901	98.06
471.12	99.06
471.339	88.06
471.558	83.06
471.777	82.06
471.997	93.06
472.216	101.06
472.435	146.06
472.654	89.06
472.873	84.06
473.092	87.06
473.311	89.06
473.53	95.06
473.749	81.06
473.968	110.06
474.187	120.06
474.406	109.06
474.625	99.06
474.844	97.06
475.063	82.06
475.282	91.06
475.501	92.06
475.72	107.06
475.939	79.06
476.158	91.06
476.377	84.06
476.596	90.06
476.814	94.06
477.033	101.06
477.252	87.06
477.471	92.06
477.69	99.06
477.908	90.06
478.127	70.06
478.346	96.06
478.564	102.06
478.783	90.06
479.002	102.06
479.22	92.06
479.439	94.06
479.658	100.06
479.876	90.06
480.095	101.06
480.313	101.06
480.532	89.06
480.751	85.06
480.969	110.06
481.188	187.06
481.406	132.06
481.624	99.06
481.843	95.06
482.061	91.06
482.28	98.06
482.498	88.06
482.717	88.06
482.935	89.06
483.153	75.06
483.372	75.06
483.59	106.06
483.808	108.06
484.027	95.06
484.245	97.06
484.463	95.06
484.681	101.06
484.9	99.06
485.118	99.06
485.336	91.06
485.554	99.06
485.772	112.06
485.99	107.06
486.209	89.06
486.427	98.06
486.645	95.06
486.863	113.06
487.081	106.06
487.299	104.06
487.517	109.06
487.735	94.06
487.953	98.06
488.171	103.06
488.389	100.06
488.607	97.06
488.825	103.06
489.043	110.06
489.261	97.06
489.479	102.06
489.696	93.06
489.914	95.06
490.132	77.06
490.35	86.06
490.568	91.06
490.786	89.06
491.003	102.06
491.221	95.06
491.439	92.06
491.657	89.06
491.874	98.06
492.092	83.06
492.31	97.06
492.527	101.06
492.745	91.06
492.963	102.06
493.18	99.06
493.398	106.06
493.615	104.06
493.833	97.06
494.05	95.06
494.268	103.06
494.485	85.06
494.703	76.06
494.92	87.06
495.138	91.06
495.355	81.06
495.573	92.06
495.79	83.06
496.008	88.06
496.225	93.06
496.442	107.06
496.66	98.06
496.877	96.06
497.094	103.06
497.312	97.06
497.529	102.06
497.746	100.06
497.963	93.06
498.181	96.06
498.398	99.06
498.615	106.06
498.832	100.06
499.049	89.06
499.267	81.06
499.484	88.06
499.701	85.06
499.918	87.06
500.135	101.06
500.352	104.06
500.569	99.06
500.786	93.06
501.003	106.06
501.22	88.06
501.437	77.06
501.654	88.06
501.871	120.06
502.088	86.06
502.305	86.06
502.522	106.06
502.739	97.06
502.956	110.06
503.172	105.06
503.389	96.06
503.606	113.06
503.823	109.06
504.04	88.06
504.256	96.06
504.473	99.06
504.69	87.06
504.907	108.06
505.123	99.06
505.34	87.06
505.557	86.06
505.773	83.06
505.99	98.06
506.207	97.06
506.423	95.06
506.64	96.06
506.856	85.06
507.073	85.06
507.289	107.06
507.506	105.06
507.722	114.06
507.939	112.06
508.155	82.06
508.372	102.06
508.588	76.06
508.805	97.06
509.021	104.06
509.238	97.06
509.454	113.06
509.67	106.06
509.887	115.06
510.103	156.06
510.319	231.06
510.536	833.06
510.752	2602.06
510.968	684.06
511.184	156.06
511.401	113.06
511.617	106.06
511.833	100.06
512.049	101.06
512.265	106.06
512.481	100.06
512.698	103.06
512.914	103.06
513.13	90.06
513.346	97.06
