Data from Uncirc_1988_H10_HRD10591_00030.txt Node
Date: Wed Jan 03 12:04:10 EST 2024
User: Yrep
Spectrometer: HR+D1059
Trigger mode: 1
Integration Time (sec): 1.000000E-1
Scans to average: 1
Electric dark correction enabled: true
Nonlinearity correction enabled: false
Boxcar width: 0
XAxis mode: Wavelengths
Number of Pixels in Spectrum: 2048
>>>>>Begin Spectral Data<<<<<
223.165	-20.12
223.4	-20.12
223.635	-20.12
223.869	-33.12
224.104	-19.12
224.338	-18.12
224.573	-8.12
224.808	-4.12
225.042	-18.12
225.277	-0.12
225.511	-3.12
225.746	2.88
225.98	8.88
226.215	5.88
226.449	23.88
226.683	24.88
226.918	27.88
227.152	29.88
227.387	27.88
227.621	23.88
227.856	29.88
228.09	47.88
228.324	45.88
228.559	70.88
228.793	62.88
229.027	71.88
229.262	65.88
229.496	67.88
229.73	83.88
229.964	57.88
230.199	70.88
230.433	72.88
230.667	62.88
230.901	60.88
231.136	88.88
231.37	75.88
231.604	65.88
231.838	70.88
232.072	76.88
232.306	65.88
232.541	78.88
232.775	69.88
233.009	75.88
233.243	81.88
233.477	92.88
233.711	80.88
233.945	84.88
234.179	72.88
234.413	75.88
234.647	75.88
234.881	87.88
235.115	78.88
235.349	81.88
235.583	82.88
235.817	85.88
236.051	66.88
236.285	81.88
236.519	67.88
236.753	77.88
236.987	80.88
237.221	80.88
237.455	86.88
237.689	72.88
237.922	84.88
238.156	79.88
238.39	69.88
238.624	73.88
238.858	65.88
239.091	75.88
239.325	77.88
239.559	80.88
239.793	93.88
240.027	80.88
240.26	98.88
240.494	91.88
240.728	76.88
240.961	75.88
241.195	75.88
241.429	75.88
241.662	81.88
241.896	77.88
242.13	80.88
242.363	83.88
242.597	78.88
242.83	80.88
243.064	62.88
243.298	74.88
243.531	72.88
243.765	68.88
243.998	74.88
244.232	81.88
244.465	88.88
244.699	74.88
244.932	69.88
245.166	83.88
245.399	86.88
245.633	73.88
245.866	72.88
246.099	70.88
246.333	77.88
246.566	83.88
246.8	68.88
247.033	79.88
247.266	71.88
247.5	84.88
247.733	79.88
247.966	87.88
248.2	65.88
248.433	81.88
248.666	73.88
248.899	69.88
249.133	62.88
249.366	75.88
249.599	85.88
249.832	83.88
250.066	97.88
250.299	79.88
250.532	79.88
250.765	80.88
250.998	83.88
251.231	77.88
251.465	85.88
251.698	83.88
251.931	82.88
252.164	70.88
252.397	81.88
252.63	77.88
252.863	68.88
253.096	73.88
253.329	81.88
253.562	75.88
253.795	87.88
254.028	79.88
254.261	66.88
254.494	73.88
254.727	82.88
254.96	70.88
255.193	83.88
255.426	90.88
255.659	85.88
255.892	70.88
256.124	88.88
256.357	90.88
256.59	91.88
256.823	68.88
257.056	69.88
257.289	70.88
257.521	76.88
257.754	79.88
257.987	76.88
258.22	78.88
258.452	76.88
258.685	86.88
258.918	82.88
259.151	83.88
259.383	62.88
259.616	87.88
259.849	72.88
260.081	69.88
260.314	85.88
260.547	84.88
260.779	85.88
261.012	69.88
261.244	79.88
261.477	77.88
261.71	66.88
261.942	87.88
262.175	107.88
262.407	90.88
262.64	73.88
262.872	81.88
263.105	89.88
263.337	72.88
263.57	83.88
263.802	91.88
264.035	89.88
264.267	78.88
264.499	93.88
264.732	86.88
264.964	82.88
265.197	74.88
265.429	80.88
265.661	82.88
265.894	93.88
266.126	85.88
266.358	81.88
266.591	80.88
266.823	92.88
267.055	76.88
267.287	87.88
267.52	83.88
267.752	83.88
267.984	50.88
268.216	78.88
268.448	86.88
268.681	81.88
268.913	87.88
269.145	94.88
269.377	88.88
269.609	86.88
269.841	84.88
270.073	97.88
270.306	83.88
270.538	91.88
270.77	66.88
271.002	75.88
271.234	70.88
271.466	94.88
271.698	96.88
271.93	75.88
272.162	71.88
272.394	88.88
272.626	85.88
272.858	85.88
273.09	89.88
273.322	83.88
273.553	96.88
273.785	91.88
274.017	80.88
274.249	84.88
274.481	81.88
274.713	86.88
274.945	75.88
275.176	90.88
275.408	79.88
275.64	97.88
275.872	98.88
276.104	95.88
276.335	90.88
276.567	94.88
276.799	97.88
277.031	94.88
277.262	105.88
277.494	98.88
277.726	85.88
277.957	87.88
278.189	92.88
278.421	83.88
278.652	96.88
278.884	99.88
279.115	75.88
279.347	91.88
279.579	85.88
279.81	81.88
280.042	81.88
280.273	95.88
280.505	83.88
280.736	73.88
280.968	86.88
281.199	91.88
281.431	84.88
281.662	75.88
281.894	85.88
282.125	109.88
282.356	103.88
282.588	121.88
282.819	105.88
283.051	100.88
283.282	94.88
283.513	82.88
283.745	73.88
283.976	82.88
284.207	78.88
284.439	77.88
284.67	97.88
284.901	103.88
285.132	90.88
285.364	71.88
285.595	99.88
285.826	77.88
286.057	85.88
286.288	85.88
286.52	81.88
286.751	75.88
286.982	95.88
287.213	90.88
287.444	87.88
287.675	90.88
287.906	91.88
288.138	67.88
288.369	83.88
288.6	92.88
288.831	90.88
289.062	86.88
289.293	92.88
289.524	86.88
289.755	89.88
289.986	76.88
290.217	86.88
290.448	75.88
290.679	85.88
290.91	83.88
291.141	87.88
291.371	86.88
291.602	86.88
291.833	66.88
292.064	86.88
292.295	83.88
292.526	91.88
292.757	89.88
292.987	90.88
293.218	84.88
293.449	100.88
293.68	87.88
293.91	89.88
294.141	92.88
294.372	93.88
294.603	83.88
294.833	84.88
295.064	87.88
295.295	76.88
295.525	89.88
295.756	97.88
295.987	100.88
296.217	95.88
296.448	104.88
296.679	103.88
296.909	80.88
297.14	76.88
297.37	91.88
297.601	90.88
297.831	81.88
298.062	91.88
298.292	93.88
298.523	83.88
298.753	83.88
298.984	96.88
299.214	85.88
299.445	87.88
299.675	90.88
299.905	96.88
300.136	88.88
300.366	86.88
300.597	84.88
300.827	86.88
301.057	86.88
301.288	104.88
301.518	83.88
301.748	91.88
301.979	109.88
302.209	99.88
302.439	96.88
302.669	87.88
302.9	71.88
303.13	89.88
303.36	105.88
303.59	109.88
303.82	110.88
304.051	81.88
304.281	81.88
304.511	91.88
304.741	103.88
304.971	90.88
305.201	77.88
305.431	92.88
305.661	81.88
305.891	94.88
306.121	93.88
306.352	87.88
306.582	81.88
306.812	91.88
307.042	82.88
307.272	83.88
307.502	77.88
307.731	94.88
307.961	79.88
308.191	96.88
308.421	93.88
308.651	95.88
308.881	88.88
309.111	91.88
309.341	95.88
309.571	93.88
309.8	94.88
310.03	88.88
310.26	81.88
310.49	101.88
310.72	113.88
310.949	89.88
311.179	87.88
311.409	92.88
311.639	98.88
311.868	92.88
312.098	97.88
312.328	102.88
312.557	98.88
312.787	103.88
313.017	99.88
313.246	72.88
313.476	101.88
313.706	86.88
313.935	86.88
314.165	90.88
314.394	90.88
314.624	93.88
314.853	108.88
315.083	94.88
315.312	101.88
315.542	93.88
315.771	105.88
316.001	72.88
316.23	96.88
316.46	79.88
316.689	91.88
316.919	87.88
317.148	96.88
317.377	98.88
317.607	96.88
317.836	89.88
318.065	98.88
318.295	89.88
318.524	95.88
318.753	84.88
318.983	96.88
319.212	101.88
319.441	104.88
319.67	97.88
319.9	84.88
320.129	84.88
320.358	85.88
320.587	87.88
320.816	97.88
321.046	85.88
321.275	93.88
321.504	80.88
321.733	91.88
321.962	89.88
322.191	90.88
322.42	94.88
322.649	100.88
322.878	99.88
323.108	102.88
323.337	100.88
323.566	100.88
323.795	126.88
324.024	176.88
324.253	319.88
324.482	682.88
324.71	1369.88
324.939	1783.88
325.168	659.88
325.397	213.88
325.626	136.88
325.855	136.88
326.084	125.88
326.313	118.88
326.542	143.88
326.77	211.88
326.999	387.88
327.228	791.88
327.457	1428.88
327.686	1125.88
327.914	311.88
328.143	167.88
328.372	134.88
328.6	101.88
328.829	115.88
329.058	128.88
329.287	114.88
329.515	111.88
329.744	97.88
329.972	96.88
330.201	96.88
330.43	92.88
330.658	102.88
330.887	127.88
331.115	127.88
331.344	94.88
331.572	113.88
331.801	94.88
332.03	91.88
332.258	93.88
332.486	93.88
332.715	91.88
332.943	80.88
333.172	99.88
333.4	111.88
333.629	109.88
333.857	102.88
334.085	89.88
334.314	95.88
334.542	95.88
334.771	103.88
334.999	119.88
335.227	83.88
335.455	93.88
335.684	93.88
335.912	93.88
336.14	99.88
336.369	99.88
336.597	89.88
336.825	99.88
337.053	83.88
337.281	88.88
337.51	96.88
337.738	101.88
337.966	87.88
338.194	88.88
338.422	76.88
338.65	96.88
338.878	99.88
339.106	95.88
339.334	107.88
339.562	70.88
339.79	85.88
340.018	95.88
340.246	92.88
340.474	93.88
340.702	99.88
340.93	113.88
341.158	101.88
341.386	103.88
341.614	97.88
341.842	95.88
342.07	83.88
342.298	96.88
342.526	91.88
342.754	86.88
342.981	87.88
343.209	94.88
343.437	99.88
343.665	79.88
343.893	93.88
344.12	83.88
344.348	84.88
344.576	79.88
344.804	81.88
345.031	100.88
345.259	80.88
345.487	87.88
345.714	96.88
345.942	87.88
346.17	87.88
346.397	93.88
346.625	108.88
346.853	105.88
347.08	95.88
347.308	83.88
347.535	104.88
347.763	95.88
347.99	91.88
348.218	85.88
348.445	92.88
348.673	100.88
348.9	102.88
349.128	96.88
349.355	91.88
349.583	92.88
349.81	91.88
350.037	89.88
350.265	94.88
350.492	103.88
350.72	93.88
350.947	96.88
351.174	104.88
351.402	96.88
351.629	98.88
351.856	103.88
352.083	83.88
352.311	104.88
352.538	93.88
352.765	118.88
352.992	120.88
353.22	106.88
353.447	102.88
353.674	104.88
353.901	101.88
354.128	102.88
354.355	90.88
354.583	96.88
354.81	79.88
355.037	86.88
355.264	92.88
355.491	105.88
355.718	100.88
355.945	105.88
356.172	83.88
356.399	79.88
356.626	86.88
356.853	85.88
357.08	94.88
357.307	95.88
357.534	103.88
357.761	102.88
357.988	100.88
358.215	97.88
358.441	76.88
358.668	100.88
358.895	80.88
359.122	80.88
359.349	82.88
359.576	99.88
359.802	97.88
360.029	114.88
360.256	104.88
360.483	84.88
360.709	94.88
360.936	105.88
361.163	88.88
361.39	95.88
361.616	87.88
361.843	94.88
362.07	78.88
362.296	89.88
362.523	77.88
362.749	81.88
362.976	82.88
363.203	97.88
363.429	85.88
363.656	91.88
363.882	82.88
364.109	80.88
364.335	96.88
364.562	100.88
364.788	87.88
365.015	107.88
365.241	94.88
365.468	99.88
365.694	98.88
365.92	88.88
366.147	93.88
366.373	77.88
366.599	91.88
366.826	96.88
367.052	97.88
367.278	113.88
367.505	111.88
367.731	84.88
367.957	75.88
368.184	88.88
368.41	89.88
368.636	104.88
368.862	105.88
369.089	100.88
369.315	88.88
369.541	104.88
369.767	100.88
369.993	78.88
370.219	81.88
370.445	89.88
370.672	95.88
370.898	90.88
371.124	94.88
371.35	96.88
371.576	96.88
371.802	77.88
372.028	91.88
372.254	82.88
372.48	81.88
372.706	83.88
372.932	90.88
373.158	92.88
373.384	103.88
373.61	79.88
373.835	83.88
374.061	94.88
374.287	76.88
374.513	92.88
374.739	86.88
374.965	76.88
375.191	90.88
375.416	75.88
375.642	87.88
375.868	94.88
376.094	91.88
376.319	86.88
376.545	93.88
376.771	71.88
376.997	95.88
377.222	86.88
377.448	91.88
377.674	80.88
377.899	100.88
378.125	102.88
378.35	88.88
378.576	75.88
378.802	100.88
379.027	80.88
379.253	92.88
379.478	79.88
379.704	97.88
379.929	102.88
380.155	95.88
380.38	104.88
380.606	96.88
380.831	99.88
381.057	101.88
381.282	113.88
381.507	89.88
381.733	82.88
381.958	79.88
382.184	87.88
382.409	99.88
382.634	93.88
382.86	93.88
383.085	87.88
383.31	99.88
383.535	82.88
383.761	94.88
383.986	93.88
384.211	89.88
384.436	109.88
384.662	98.88
384.887	97.88
385.112	100.88
385.337	87.88
385.562	92.88
385.787	96.88
386.013	104.88
386.238	106.88
386.463	114.88
386.688	100.88
386.913	83.88
387.138	99.88
387.363	114.88
387.588	102.88
387.813	99.88
388.038	104.88
388.263	113.88
388.488	109.88
388.713	92.88
388.938	97.88
389.163	87.88
389.387	110.88
389.612	100.88
389.837	103.88
390.062	100.88
390.287	95.88
390.512	89.88
390.736	94.88
390.961	92.88
391.186	86.88
391.411	95.88
391.636	85.88
391.86	76.88
392.085	89.88
392.31	97.88
392.534	86.88
392.759	83.88
392.984	79.88
393.208	86.88
393.433	91.88
393.658	80.88
393.882	80.88
394.107	70.88
394.331	84.88
394.556	76.88
394.78	94.88
395.005	85.88
395.229	77.88
395.454	78.88
395.678	82.88
395.903	78.88
396.127	83.88
396.352	91.88
396.576	75.88
396.801	92.88
397.025	91.88
397.249	85.88
397.474	83.88
397.698	91.88
397.922	101.88
398.147	86.88
398.371	85.88
398.595	83.88
398.82	84.88
399.044	85.88
399.268	85.88
399.492	89.88
399.717	94.88
399.941	86.88
400.165	97.88
400.389	85.88
400.613	78.88
400.837	88.88
401.062	82.88
401.286	95.88
401.51	93.88
401.734	85.88
401.958	95.88
402.182	109.88
402.406	145.88
402.63	111.88
402.854	82.88
403.078	96.88
403.302	95.88
403.526	87.88
403.75	91.88
403.974	81.88
404.198	89.88
404.422	97.88
404.645	88.88
404.869	88.88
405.093	99.88
405.317	86.88
405.541	87.88
405.765	95.88
405.988	107.88
406.212	132.88
406.436	180.88
406.66	127.88
406.883	93.88
407.107	82.88
407.331	103.88
407.555	84.88
407.778	89.88
408.002	83.88
408.226	86.88
408.449	91.88
408.673	88.88
408.896	98.88
409.12	80.88
409.344	93.88
409.567	61.88
409.791	68.88
410.014	83.88
410.238	103.88
410.461	80.88
410.685	99.88
410.908	107.88
411.132	104.88
411.355	97.88
411.578	100.88
411.802	86.88
412.025	91.88
412.249	81.88
412.472	93.88
412.695	82.88
412.919	91.88
413.142	81.88
413.365	88.88
413.589	86.88
413.812	83.88
414.035	97.88
414.258	99.88
414.482	91.88
414.705	93.88
414.928	73.88
415.151	88.88
415.374	78.88
415.597	95.88
415.821	82.88
416.044	96.88
416.267	83.88
416.49	88.88
416.713	89.88
416.936	85.88
417.159	85.88
417.382	85.88
417.605	90.88
417.828	97.88
418.051	94.88
418.274	86.88
418.497	82.88
418.72	83.88
418.943	89.88
419.166	94.88
419.389	86.88
419.611	79.88
419.834	68.88
420.057	81.88
420.28	81.88
420.503	101.88
420.726	69.88
420.948	71.88
421.171	88.88
421.394	78.88
421.617	99.88
421.839	82.88
422.062	102.88
422.285	90.88
422.507	105.88
422.73	105.88
422.953	84.88
423.175	89.88
423.398	95.88
423.621	85.88
423.843	93.88
424.066	88.88
424.288	87.88
424.511	80.88
424.733	96.88
424.956	101.88
425.178	103.88
425.401	105.88
425.623	99.88
425.846	109.88
426.068	86.88
426.291	91.88
426.513	79.88
426.735	85.88
426.958	91.88
427.18	104.88
427.402	131.88
427.625	148.88
427.847	112.88
428.069	95.88
428.292	95.88
428.514	86.88
428.736	80.88
428.958	82.88
429.181	93.88
429.403	94.88
429.625	86.88
429.847	84.88
430.069	96.88
430.292	83.88
430.514	78.88
430.736	96.88
430.958	72.88
431.18	83.88
431.402	74.88
431.624	86.88
431.846	86.88
432.068	84.88
432.29	86.88
432.512	91.88
432.734	90.88
432.956	85.88
433.178	89.88
433.4	94.88
433.622	80.88
433.844	88.88
434.066	74.88
434.287	105.88
434.509	83.88
434.731	84.88
434.953	96.88
435.175	91.88
435.397	73.88
435.618	96.88
435.84	92.88
436.062	115.88
436.284	105.88
436.505	96.88
436.727	97.88
436.949	89.88
437.17	89.88
437.392	87.88
437.614	94.88
437.835	99.88
438.057	112.88
438.278	98.88
438.5	96.88
438.721	107.88
438.943	86.88
439.165	91.88
439.386	78.88
439.608	88.88
439.829	92.88
440.05	117.88
440.272	125.88
440.493	99.88
440.715	88.88
440.936	79.88
441.158	95.88
441.379	88.88
441.6	93.88
441.822	73.88
442.043	82.88
442.264	83.88
442.486	100.88
442.707	77.88
442.928	99.88
443.149	115.88
443.371	117.88
443.592	95.88
443.813	95.88
444.034	94.88
444.255	93.88
444.476	87.88
444.698	83.88
444.919	88.88
445.14	139.88
445.361	121.88
445.582	116.88
445.803	120.88
446.024	115.88
446.245	129.88
446.466	101.88
446.687	85.88
446.908	83.88
447.129	93.88
447.35	85.88
447.571	85.88
447.792	86.88
448.013	96.88
448.234	95.88
448.455	87.88
448.675	99.88
448.896	105.88
449.117	78.88
449.338	104.88
449.559	117.88
449.779	126.88
450	82.88
450.221	75.88
450.442	81.88
450.662	78.88
450.883	88.88
451.104	93.88
451.324	100.88
451.545	87.88
451.766	80.88
451.986	94.88
452.207	86.88
452.428	92.88
452.648	91.88
452.869	90.88
453.089	98.88
453.31	109.88
453.53	98.88
453.751	97.88
453.971	95.88
454.192	103.88
454.412	96.88
454.633	76.88
454.853	98.88
455.073	98.88
455.294	96.88
455.514	81.88
455.734	84.88
455.955	81.88
456.175	74.88
456.395	86.88
456.616	88.88
456.836	86.88
457.056	76.88
457.276	89.88
457.497	85.88
457.717	72.88
457.937	79.88
458.157	69.88
458.377	79.88
458.598	97.88
458.818	126.88
459.038	127.88
459.258	107.88
459.478	85.88
459.698	80.88
459.918	87.88
460.138	73.88
460.358	80.88
460.578	89.88
460.798	81.88
461.018	99.88
461.238	85.88
461.458	88.88
461.678	89.88
461.898	80.88
462.118	87.88
462.338	97.88
462.558	92.88
462.777	75.88
462.997	91.88
463.217	86.88
463.437	90.88
463.657	77.88
463.876	77.88
464.096	81.88
464.316	96.88
464.536	97.88
464.755	90.88
464.975	85.88
465.195	133.88
465.414	127.88
465.634	93.88
465.854	79.88
466.073	86.88
466.293	81.88
466.512	80.88
466.732	64.88
466.951	87.88
467.171	84.88
467.391	85.88
467.61	103.88
467.829	89.88
468.049	79.88
468.268	82.88
468.488	78.88
468.707	85.88
468.927	75.88
469.146	91.88
469.365	88.88
469.585	86.88
469.804	85.88
470.023	84.88
470.243	80.88
470.462	82.88
470.681	100.88
470.901	77.88
471.12	94.88
471.339	92.88
471.558	76.88
471.777	80.88
471.997	89.88
472.216	78.88
472.435	101.88
472.654	83.88
472.873	82.88
473.092	95.88
473.311	77.88
473.53	84.88
473.749	108.88
473.968	94.88
474.187	91.88
474.406	100.88
474.625	93.88
474.844	92.88
475.063	82.88
475.282	72.88
475.501	89.88
475.72	87.88
475.939	68.88
476.158	66.88
476.377	94.88
476.596	83.88
476.814	77.88
477.033	84.88
477.252	86.88
477.471	92.88
477.69	90.88
477.908	83.88
478.127	87.88
478.346	114.88
478.564	97.88
478.783	81.88
479.002	88.88
479.22	95.88
479.439	104.88
479.658	104.88
479.876	83.88
480.095	89.88
480.313	95.88
480.532	83.88
480.751	88.88
480.969	96.88
481.188	104.88
481.406	94.88
481.624	85.88
481.843	97.88
482.061	72.88
482.28	100.88
482.498	87.88
482.717	87.88
482.935	87.88
483.153	95.88
483.372	81.88
483.59	95.88
483.808	83.88
484.027	87.88
484.245	84.88
484.463	92.88
484.681	92.88
484.9	84.88
485.118	90.88
485.336	97.88
485.554	94.88
485.772	96.88
485.99	108.88
486.209	102.88
486.427	101.88
486.645	105.88
486.863	90.88
487.081	98.88
487.299	103.88
487.517	101.88
487.735	91.88
487.953	85.88
488.171	92.88
488.389	103.88
488.607	105.88
488.825	81.88
489.043	91.88
489.261	87.88
489.479	88.88
489.696	88.88
489.914	87.88
490.132	98.88
490.35	89.88
490.568	82.88
490.786	79.88
491.003	76.88
491.221	76.88
491.439	81.88
491.657	94.88
491.874	78.88
492.092	89.88
492.31	94.88
492.527	68.88
492.745	87.88
492.963	87.88
493.18	81.88
493.398	96.88
493.615	107.88
493.833	93.88
494.05	86.88
494.268	97.88
494.485	92.88
494.703	77.88
494.92	87.88
495.138	78.88
495.355	105.88
495.573	95.88
495.79	83.88
496.008	92.88
496.225	94.88
496.442	82.88
496.66	89.88
496.877	75.88
497.094	93.88
497.312	75.88
497.529	85.88
497.746	98.88
497.963	80.88
498.181	87.88
498.398	89.88
498.615	103.88
498.832	93.88
499.049	98.88
499.267	81.88
499.484	91.88
499.701	79.88
499.918	90.88
500.135	85.88
500.352	82.88
500.569	87.88
500.786	99.88
501.003	75.88
501.22	80.88
501.437	86.88
501.654	79.88
501.871	98.88
502.088	89.88
502.305	78.88
502.522	96.88
502.739	95.88
502.956	79.88
503.172	77.88
503.389	91.88
503.606	107.88
503.823	103.88
504.04	95.88
504.256	95.88
504.473	77.88
504.69	100.88
504.907	100.88
505.123	80.88
505.34	99.88
505.557	106.88
505.773	73.88
505.99	93.88
506.207	94.88
506.423	84.88
506.64	85.88
506.856	87.88
507.073	94.88
507.289	81.88
507.506	85.88
507.722	103.88
507.939	103.88
508.155	86.88
508.372	77.88
508.588	86.88
508.805	81.88
509.021	95.88
509.238	96.88
509.454	96.88
509.67	89.88
509.887	98.88
510.103	99.88
510.319	184.88
510.536	609.88
510.752	1729.88
510.968	502.88
511.184	136.88
511.401	107.88
511.617	89.88
511.833	90.88
512.049	95.88
512.265	76.88
512.481	100.88
512.698	92.88
512.914	107.88
513.13	84.88
513.346	85.88
513.562	96.88
513.778	101.88
513.994	94.88
514.21	98.88
514.426	109.88
514.642	117.88
514.858	110.88
515.074	124.88
515.29	344.88
515.506	1039.88
515.721	415.88
515.937	125.88
516.153	103.88
516.369	100.88
516.585	104.88
516.801	96.88
