Data from Uncirc_1988_H10_HRD10591_00026.txt Node
Date: Wed Jan 03 12:04:09 EST 2024
User: Yrep
Spectrometer: HR+D1059
Trigger mode: 1
Integration Time (sec): 1.000000E-1
Scans to average: 1
Electric dark correction enabled: true
Nonlinearity correction enabled: false
Boxcar width: 0
XAxis mode: Wavelengths
Number of Pixels in Spectrum: 2048
>>>>>Begin Spectral Data<<<<<
223.165	-27.25
223.4	-27.25
223.635	-27.25
223.869	-10.25
224.104	-12.25
224.338	-18.25
224.573	-12.25
224.808	-9.25
225.042	-4.25
225.277	2.75
225.511	-12.25
225.746	-2.25
225.98	6.75
226.215	8.75
226.449	-0.25
226.683	23.75
226.918	22.75
227.152	43.75
227.387	35.75
227.621	37.75
227.856	52.75
228.09	35.75
228.324	49.75
228.559	48.75
228.793	50.75
229.027	62.75
229.262	60.75
229.496	73.75
229.73	84.75
229.964	88.75
230.199	63.75
230.433	78.75
230.667	67.75
230.901	86.75
231.136	91.75
231.37	75.75
231.604	90.75
231.838	76.75
232.072	86.75
232.306	86.75
232.541	87.75
232.775	92.75
233.009	83.75
233.243	79.75
233.477	88.75
233.711	81.75
233.945	87.75
234.179	84.75
234.413	88.75
234.647	89.75
234.881	83.75
235.115	89.75
235.349	88.75
235.583	73.75
235.817	84.75
236.051	66.75
236.285	84.75
236.519	80.75
236.753	86.75
236.987	70.75
237.221	82.75
237.455	88.75
237.689	79.75
237.922	83.75
238.156	82.75
238.39	74.75
238.624	74.75
238.858	80.75
239.091	74.75
239.325	74.75
239.559	71.75
239.793	78.75
240.027	94.75
240.26	74.75
240.494	88.75
240.728	87.75
240.961	82.75
241.195	86.75
241.429	84.75
241.662	84.75
241.896	93.75
242.13	71.75
242.363	78.75
242.597	96.75
242.83	79.75
243.064	79.75
243.298	82.75
243.531	83.75
243.765	62.75
243.998	84.75
244.232	84.75
244.465	86.75
244.699	79.75
244.932	81.75
245.166	76.75
245.399	97.75
245.633	82.75
245.866	86.75
246.099	79.75
246.333	86.75
246.566	78.75
246.8	64.75
247.033	82.75
247.266	71.75
247.5	82.75
247.733	77.75
247.966	87.75
248.2	84.75
248.433	69.75
248.666	82.75
248.899	77.75
249.133	98.75
249.366	114.75
249.599	103.75
249.832	81.75
250.066	88.75
250.299	75.75
250.532	79.75
250.765	61.75
250.998	82.75
251.231	86.75
251.465	77.75
251.698	77.75
251.931	92.75
252.164	82.75
252.397	86.75
252.63	91.75
252.863	73.75
253.096	78.75
253.329	89.75
253.562	88.75
253.795	82.75
254.028	86.75
254.261	85.75
254.494	88.75
254.727	79.75
254.96	80.75
255.193	87.75
255.426	82.75
255.659	82.75
255.892	81.75
256.124	82.75
256.357	95.75
256.59	80.75
256.823	78.75
257.056	83.75
257.289	94.75
257.521	77.75
257.754	91.75
257.987	86.75
258.22	91.75
258.452	82.75
258.685	63.75
258.918	80.75
259.151	97.75
259.383	91.75
259.616	82.75
259.849	88.75
260.081	89.75
260.314	86.75
260.547	82.75
260.779	74.75
261.012	61.75
261.244	89.75
261.477	96.75
261.71	88.75
261.942	98.75
262.175	114.75
262.407	91.75
262.64	90.75
262.872	83.75
263.105	84.75
263.337	96.75
263.57	94.75
263.802	89.75
264.035	91.75
264.267	86.75
264.499	82.75
264.732	94.75
264.964	83.75
265.197	76.75
265.429	100.75
265.661	71.75
265.894	92.75
266.126	91.75
266.358	89.75
266.591	73.75
266.823	85.75
267.055	87.75
267.287	85.75
267.52	88.75
267.752	87.75
267.984	87.75
268.216	98.75
268.448	78.75
268.681	86.75
268.913	92.75
269.145	75.75
269.377	69.75
269.609	88.75
269.841	90.75
270.073	89.75
270.306	106.75
270.538	93.75
270.77	95.75
271.002	87.75
271.234	85.75
271.466	76.75
271.698	89.75
271.93	100.75
272.162	83.75
272.394	94.75
272.626	78.75
272.858	86.75
273.09	78.75
273.322	87.75
273.553	74.75
273.785	95.75
274.017	86.75
274.249	92.75
274.481	85.75
274.713	89.75
274.945	91.75
275.176	82.75
275.408	90.75
275.64	91.75
275.872	98.75
276.104	99.75
276.335	91.75
276.567	86.75
276.799	96.75
277.031	99.75
277.262	92.75
277.494	95.75
277.726	85.75
277.957	93.75
278.189	102.75
278.421	92.75
278.652	101.75
278.884	94.75
279.115	73.75
279.347	94.75
279.579	85.75
279.81	93.75
280.042	73.75
280.273	84.75
280.505	75.75
280.736	93.75
280.968	90.75
281.199	83.75
281.431	90.75
281.662	92.75
281.894	91.75
282.125	91.75
282.356	108.75
282.588	130.75
282.819	113.75
283.051	97.75
283.282	97.75
283.513	93.75
283.745	96.75
283.976	90.75
284.207	97.75
284.439	92.75
284.67	88.75
284.901	68.75
285.132	73.75
285.364	97.75
285.595	82.75
285.826	88.75
286.057	96.75
286.288	98.75
286.52	88.75
286.751	79.75
286.982	86.75
287.213	98.75
287.444	89.75
287.675	86.75
287.906	84.75
288.138	86.75
288.369	79.75
288.6	100.75
288.831	92.75
289.062	83.75
289.293	95.75
289.524	94.75
289.755	89.75
289.986	87.75
290.217	83.75
290.448	107.75
290.679	91.75
290.91	88.75
291.141	91.75
291.371	93.75
291.602	91.75
291.833	85.75
292.064	91.75
292.295	96.75
292.526	95.75
292.757	76.75
292.987	83.75
293.218	92.75
293.449	106.75
293.68	105.75
293.91	93.75
294.141	105.75
294.372	95.75
294.603	99.75
294.833	100.75
295.064	96.75
295.295	94.75
295.525	103.75
295.756	102.75
295.987	99.75
296.217	130.75
296.448	116.75
296.679	99.75
296.909	93.75
297.14	93.75
297.37	99.75
297.601	92.75
297.831	98.75
298.062	83.75
298.292	89.75
298.523	80.75
298.753	79.75
298.984	75.75
299.214	92.75
299.445	98.75
299.675	86.75
299.905	101.75
300.136	94.75
300.366	90.75
300.597	94.75
300.827	101.75
301.057	93.75
301.288	97.75
301.518	96.75
301.748	80.75
301.979	112.75
302.209	90.75
302.439	86.75
302.669	87.75
302.9	100.75
303.13	86.75
303.36	98.75
303.59	90.75
303.82	101.75
304.051	77.75
304.281	111.75
304.511	96.75
304.741	92.75
304.971	90.75
305.201	95.75
305.431	100.75
305.661	102.75
305.891	84.75
306.121	86.75
306.352	109.75
306.582	92.75
306.812	96.75
307.042	99.75
307.272	99.75
307.502	92.75
307.731	106.75
307.961	89.75
308.191	81.75
308.421	98.75
308.651	91.75
308.881	107.75
309.111	91.75
309.341	112.75
309.571	88.75
309.8	105.75
310.03	86.75
310.26	86.75
310.49	96.75
310.72	98.75
310.949	101.75
311.179	104.75
311.409	92.75
311.639	95.75
311.868	98.75
312.098	100.75
312.328	113.75
312.557	99.75
312.787	98.75
313.017	100.75
313.246	93.75
313.476	102.75
313.706	97.75
313.935	103.75
314.165	83.75
314.394	108.75
314.624	108.75
314.853	95.75
315.083	93.75
315.312	96.75
315.542	102.75
315.771	102.75
316.001	98.75
316.23	85.75
316.46	94.75
316.689	99.75
316.919	95.75
317.148	96.75
317.377	86.75
317.607	89.75
317.836	91.75
318.065	88.75
318.295	83.75
318.524	87.75
318.753	75.75
318.983	88.75
319.212	92.75
319.441	106.75
319.67	104.75
319.9	106.75
320.129	96.75
320.358	98.75
320.587	79.75
320.816	111.75
321.046	83.75
321.275	99.75
321.504	80.75
321.733	110.75
321.962	110.75
322.191	103.75
322.42	83.75
322.649	94.75
322.878	110.75
323.108	106.75
323.337	121.75
323.566	119.75
323.795	133.75
324.024	200.75
324.253	350.75
324.482	748.75
324.71	1542.75
324.939	1993.75
325.168	746.75
325.397	228.75
325.626	147.75
325.855	121.75
326.084	117.75
326.313	142.75
326.542	145.75
326.77	217.75
326.999	448.75
327.228	875.75
327.457	1606.75
327.686	1294.75
327.914	351.75
328.143	182.75
328.372	141.75
328.6	113.75
328.829	91.75
329.058	114.75
329.287	112.75
329.515	106.75
329.744	99.75
329.972	99.75
330.201	107.75
330.43	106.75
330.658	109.75
330.887	128.75
331.115	115.75
331.344	105.75
331.572	88.75
331.801	103.75
332.03	95.75
332.258	90.75
332.486	98.75
332.715	106.75
332.943	99.75
333.172	96.75
333.4	103.75
333.629	100.75
333.857	107.75
334.085	117.75
334.314	86.75
334.542	95.75
334.771	90.75
334.999	97.75
335.227	104.75
335.455	92.75
335.684	86.75
335.912	92.75
336.14	88.75
336.369	112.75
336.597	91.75
336.825	96.75
337.053	93.75
337.281	99.75
337.51	102.75
337.738	95.75
337.966	94.75
338.194	96.75
338.422	86.75
338.65	100.75
338.878	86.75
339.106	105.75
339.334	101.75
339.562	100.75
339.79	86.75
340.018	107.75
340.246	89.75
340.474	98.75
340.702	89.75
340.93	83.75
341.158	97.75
341.386	94.75
341.614	97.75
341.842	97.75
342.07	89.75
342.298	103.75
342.526	91.75
342.754	72.75
342.981	91.75
343.209	101.75
343.437	106.75
343.665	72.75
343.893	82.75
344.12	92.75
344.348	100.75
344.576	103.75
344.804	102.75
345.031	89.75
345.259	95.75
345.487	94.75
345.714	85.75
345.942	86.75
346.17	81.75
346.397	89.75
346.625	96.75
346.853	105.75
347.08	98.75
347.308	88.75
347.535	86.75
347.763	91.75
347.99	93.75
348.218	102.75
348.445	95.75
348.673	95.75
348.9	83.75
349.128	100.75
349.355	94.75
349.583	80.75
349.81	98.75
350.037	103.75
350.265	100.75
350.492	90.75
350.72	98.75
350.947	107.75
351.174	121.75
351.402	95.75
351.629	103.75
351.856	114.75
352.083	88.75
352.311	109.75
352.538	121.75
352.765	107.75
352.992	119.75
353.22	98.75
353.447	111.75
353.674	113.75
353.901	98.75
354.128	97.75
354.355	115.75
354.583	82.75
354.81	104.75
355.037	81.75
355.264	101.75
355.491	105.75
355.718	85.75
355.945	94.75
356.172	98.75
356.399	111.75
356.626	98.75
356.853	90.75
357.08	84.75
357.307	97.75
357.534	94.75
357.761	89.75
357.988	103.75
358.215	94.75
358.441	97.75
358.668	97.75
358.895	97.75
359.122	92.75
359.349	83.75
359.576	86.75
359.802	92.75
360.029	110.75
360.256	112.75
360.483	88.75
360.709	92.75
360.936	102.75
361.163	103.75
361.39	100.75
361.616	80.75
361.843	100.75
362.07	97.75
362.296	92.75
362.523	88.75
362.749	97.75
362.976	92.75
363.203	90.75
363.429	88.75
363.656	83.75
363.882	85.75
364.109	96.75
364.335	105.75
364.562	89.75
364.788	89.75
365.015	86.75
365.241	90.75
365.468	98.75
365.694	114.75
365.92	99.75
366.147	89.75
366.373	94.75
366.599	98.75
366.826	88.75
367.052	81.75
367.278	100.75
367.505	96.75
367.731	76.75
367.957	87.75
368.184	90.75
368.41	83.75
368.636	117.75
368.862	116.75
369.089	100.75
369.315	88.75
369.541	105.75
369.767	88.75
369.993	88.75
370.219	91.75
370.445	99.75
370.672	85.75
370.898	98.75
371.124	85.75
371.35	94.75
371.576	95.75
371.802	101.75
372.028	80.75
372.254	84.75
372.48	85.75
372.706	94.75
372.932	100.75
373.158	95.75
373.384	89.75
373.61	94.75
373.835	91.75
374.061	90.75
374.287	93.75
374.513	99.75
374.739	91.75
374.965	90.75
375.191	88.75
375.416	89.75
375.642	78.75
375.868	86.75
376.094	90.75
376.319	109.75
376.545	105.75
376.771	95.75
376.997	108.75
377.222	92.75
377.448	88.75
377.674	91.75
377.899	91.75
378.125	95.75
378.35	102.75
378.576	94.75
378.802	104.75
379.027	103.75
379.253	89.75
379.478	86.75
379.704	86.75
379.929	101.75
380.155	102.75
380.38	83.75
380.606	96.75
380.831	101.75
381.057	96.75
381.282	90.75
381.507	99.75
381.733	87.75
381.958	93.75
382.184	108.75
382.409	94.75
382.634	111.75
382.86	101.75
383.085	95.75
383.31	83.75
383.535	94.75
383.761	97.75
383.986	104.75
384.211	94.75
384.436	106.75
384.662	98.75
384.887	94.75
385.112	92.75
385.337	100.75
385.562	94.75
385.787	113.75
386.013	98.75
386.238	98.75
386.463	98.75
386.688	102.75
386.913	100.75
387.138	97.75
387.363	102.75
387.588	98.75
387.813	102.75
388.038	100.75
388.263	101.75
388.488	106.75
388.713	94.75
388.938	101.75
389.163	100.75
389.387	102.75
389.612	82.75
389.837	104.75
390.062	94.75
390.287	97.75
390.512	99.75
390.736	99.75
390.961	87.75
391.186	90.75
391.411	97.75
391.636	91.75
391.86	82.75
392.085	79.75
392.31	110.75
392.534	102.75
392.759	88.75
392.984	87.75
393.208	76.75
393.433	90.75
393.658	97.75
393.882	88.75
394.107	80.75
394.331	74.75
394.556	87.75
394.78	87.75
395.005	91.75
395.229	84.75
395.454	83.75
395.678	96.75
395.903	98.75
396.127	96.75
396.352	95.75
396.576	87.75
396.801	98.75
397.025	88.75
397.249	87.75
397.474	85.75
397.698	94.75
397.922	89.75
398.147	89.75
398.371	96.75
398.595	92.75
398.82	81.75
399.044	81.75
399.268	93.75
399.492	86.75
399.717	91.75
399.941	80.75
400.165	95.75
400.389	90.75
400.613	75.75
400.837	89.75
401.062	79.75
401.286	82.75
401.51	100.75
401.734	102.75
401.958	98.75
402.182	122.75
402.406	130.75
402.63	106.75
402.854	87.75
403.078	93.75
403.302	78.75
403.526	82.75
403.75	95.75
403.974	94.75
404.198	92.75
404.422	81.75
404.645	86.75
404.869	104.75
405.093	78.75
405.317	106.75
405.541	99.75
405.765	105.75
405.988	112.75
406.212	153.75
406.436	214.75
406.66	140.75
406.883	104.75
407.107	96.75
407.331	93.75
407.555	91.75
407.778	101.75
408.002	94.75
408.226	95.75
408.449	87.75
408.673	102.75
408.896	88.75
409.12	91.75
409.344	88.75
409.567	98.75
409.791	92.75
410.014	98.75
410.238	94.75
410.461	94.75
410.685	104.75
410.908	93.75
411.132	94.75
411.355	97.75
411.578	97.75
411.802	100.75
412.025	101.75
412.249	93.75
412.472	98.75
412.695	78.75
412.919	82.75
413.142	84.75
413.365	84.75
413.589	99.75
413.812	83.75
414.035	97.75
414.258	105.75
414.482	95.75
414.705	89.75
414.928	80.75
415.151	80.75
415.374	86.75
415.597	84.75
415.821	96.75
416.044	106.75
416.267	89.75
416.49	82.75
416.713	93.75
416.936	96.75
417.159	87.75
417.382	88.75
417.605	95.75
417.828	84.75
418.051	87.75
418.274	101.75
418.497	76.75
418.72	80.75
418.943	77.75
419.166	82.75
419.389	82.75
419.611	76.75
419.834	96.75
420.057	88.75
420.28	91.75
420.503	83.75
420.726	95.75
420.948	81.75
421.171	94.75
421.394	96.75
421.617	80.75
421.839	76.75
422.062	84.75
422.285	94.75
422.507	111.75
422.73	108.75
422.953	84.75
423.175	98.75
423.398	94.75
423.621	87.75
423.843	91.75
424.066	95.75
424.288	94.75
424.511	97.75
424.733	98.75
424.956	104.75
425.178	98.75
425.401	91.75
425.623	103.75
425.846	82.75
426.068	99.75
426.291	96.75
426.513	87.75
426.735	86.75
426.958	83.75
427.18	100.75
427.402	121.75
427.625	146.75
427.847	114.75
428.069	98.75
428.292	82.75
428.514	82.75
428.736	84.75
428.958	86.75
429.181	86.75
429.403	81.75
429.625	89.75
429.847	92.75
430.069	94.75
430.292	100.75
430.514	89.75
430.736	74.75
430.958	80.75
431.18	88.75
431.402	84.75
431.624	102.75
431.846	91.75
432.068	94.75
432.29	96.75
432.512	98.75
432.734	74.75
432.956	81.75
433.178	101.75
433.4	91.75
433.622	100.75
433.844	95.75
434.066	102.75
434.287	86.75
434.509	88.75
434.731	73.75
434.953	88.75
435.175	86.75
435.397	90.75
435.618	88.75
435.84	95.75
436.062	116.75
436.284	110.75
436.505	99.75
436.727	105.75
436.949	91.75
437.17	88.75
437.392	94.75
437.614	101.75
437.835	94.75
438.057	106.75
438.278	94.75
438.5	97.75
438.721	105.75
438.943	111.75
439.165	88.75
439.386	94.75
439.608	90.75
439.829	100.75
440.05	105.75
440.272	133.75
440.493	90.75
440.715	85.75
440.936	104.75
441.158	92.75
441.379	100.75
441.6	93.75
441.822	93.75
442.043	92.75
442.264	110.75
442.486	90.75
442.707	96.75
442.928	99.75
443.149	122.75
443.371	124.75
443.592	86.75
443.813	104.75
444.034	116.75
444.255	90.75
444.476	94.75
444.698	92.75
444.919	90.75
445.14	125.75
445.361	134.75
445.582	112.75
445.803	134.75
446.024	129.75
446.245	116.75
446.466	116.75
446.687	86.75
446.908	108.75
447.129	84.75
447.35	94.75
447.571	82.75
447.792	88.75
448.013	74.75
448.234	85.75
448.455	95.75
448.675	108.75
448.896	92.75
449.117	106.75
449.338	92.75
449.559	129.75
449.779	148.75
450	95.75
450.221	74.75
450.442	91.75
450.662	91.75
450.883	106.75
451.104	100.75
451.324	96.75
451.545	85.75
451.766	87.75
451.986	97.75
452.207	98.75
452.428	98.75
452.648	95.75
452.869	97.75
453.089	94.75
453.31	102.75
453.53	98.75
453.751	88.75
453.971	94.75
454.192	87.75
454.412	83.75
454.633	100.75
454.853	96.75
455.073	78.75
455.294	91.75
455.514	93.75
455.734	97.75
455.955	105.75
456.175	94.75
456.395	77.75
456.616	78.75
456.836	73.75
457.056	91.75
457.276	99.75
457.497	83.75
457.717	92.75
457.937	110.75
458.157	87.75
458.377	81.75
458.598	92.75
458.818	133.75
459.038	142.75
459.258	109.75
459.478	88.75
459.698	91.75
459.918	88.75
460.138	80.75
460.358	94.75
460.578	102.75
460.798	85.75
461.018	85.75
461.238	68.75
461.458	82.75
461.678	72.75
461.898	84.75
462.118	82.75
462.338	94.75
462.558	85.75
462.777	87.75
462.997	97.75
463.217	91.75
463.437	87.75
463.657	96.75
463.876	98.75
464.096	81.75
464.316	86.75
464.536	98.75
464.755	112.75
464.975	91.75
465.195	147.75
465.414	125.75
465.634	94.75
465.854	85.75
466.073	84.75
466.293	86.75
466.512	82.75
466.732	94.75
466.951	100.75
467.171	95.75
467.391	107.75
467.61	95.75
467.829	105.75
468.049	83.75
468.268	84.75
468.488	78.75
468.707	82.75
468.927	88.75
469.146	90.75
469.365	92.75
469.585	81.75
469.804	99.75
470.023	78.75
470.243	100.75
470.462	84.75
470.681	102.75
470.901	106.75
471.12	98.75
471.339	98.75
471.558	79.75
471.777	82.75
471.997	89.75
472.216	89.75
472.435	87.75
472.654	88.75
472.873	79.75
473.092	97.75
473.311	89.75
473.53	96.75
473.749	96.75
473.968	90.75
474.187	104.75
474.406	91.75
474.625	94.75
474.844	99.75
475.063	80.75
475.282	98.75
475.501	90.75
475.72	84.75
475.939	86.75
476.158	85.75
476.377	89.75
476.596	93.75
476.814	88.75
477.033	106.75
477.252	79.75
477.471	90.75
477.69	89.75
477.908	85.75
478.127	82.75
478.346	76.75
478.564	92.75
478.783	83.75
479.002	81.75
479.22	88.75
479.439	103.75
479.658	99.75
479.876	107.75
480.095	94.75
480.313	98.75
480.532	102.75
480.751	88.75
480.969	90.75
481.188	106.75
481.406	101.75
481.624	95.75
481.843	103.75
482.061	84.75
482.28	101.75
482.498	103.75
482.717	85.75
482.935	87.75
483.153	104.75
483.372	80.75
483.59	95.75
483.808	100.75
484.027	101.75
484.245	94.75
484.463	104.75
484.681	108.75
484.9	101.75
485.118	98.75
485.336	91.75
485.554	86.75
485.772	102.75
485.99	111.75
486.209	103.75
486.427	113.75
486.645	115.75
486.863	107.75
487.081	101.75
487.299	108.75
487.517	105.75
487.735	98.75
487.953	87.75
488.171	94.75
488.389	86.75
488.607	97.75
488.825	74.75
489.043	98.75
489.261	87.75
489.479	91.75
489.696	87.75
489.914	81.75
490.132	87.75
490.35	92.75
490.568	83.75
490.786	83.75
491.003	80.75
491.221	90.75
491.439	83.75
491.657	99.75
491.874	90.75
492.092	91.75
492.31	84.75
492.527	96.75
492.745	95.75
492.963	93.75
493.18	65.75
493.398	98.75
493.615	104.75
493.833	108.75
494.05	80.75
494.268	102.75
494.485	88.75
494.703	90.75
494.92	88.75
495.138	104.75
495.355	100.75
495.573	92.75
495.79	107.75
496.008	83.75
496.225	87.75
496.442	75.75
496.66	96.75
496.877	100.75
497.094	98.75
497.312	87.75
497.529	102.75
497.746	101.75
497.963	87.75
498.181	89.75
498.398	96.75
498.615	95.75
498.832	91.75
499.049	94.75
499.267	91.75
499.484	82.75
499.701	88.75
499.918	93.75
500.135	88.75
500.352	99.75
500.569	84.75
500.786	81.75
501.003	98.75
501.22	90.75
501.437	98.75
501.654	99.75
501.871	103.75
502.088	88.75
502.305	90.75
502.522	93.75
502.739	98.75
502.956	94.75
503.172	86.75
503.389	87.75
503.606	102.75
503.823	108.75
504.04	94.75
504.256	90.75
504.473	98.75
504.69	86.75
504.907	112.75
505.123	88.75
505.34	87.75
505.557	94.75
505.773	90.75
505.99	74.75
506.207	90.75
506.423	91.75
506.64	93.75
506.856	82.75
507.073	96.75
507.289	91.75
507.506	102.75
507.722	106.75
507.939	104.75
508.155	98.75
508.372	99.75
508.588	96.75
508.805	92.75
509.021	101.75
509.238	92.75
509.454	103.75
509.67	103.75
509.887	111.75
510.103	134.75
510.319	211.75
510.536	628.75
510.752	1834.75
510.968	519.75
511.184	142.75
511.401	111.75
511.617	104.75
511.833	112.75
512.049	97.75
512.265	88.75
512.481	103.75
512.698	93.75
512.914	98.75
513.13	92.75
513.346	88.75
513.562	95.75
513.778	91.75
513.994	118.75
514.21	97.75
514.426	116.75
514.642	134.75
514.858	122.75
515.074	147.75
515.29	379.75
515.506	1130.75
