Data from Uncirc_1988_H10_HRD10591_00100.txt Node
Date: Wed Jan 03 12:04:24 EST 2024
User: Yrep
Spectrometer: HR+D1059
Trigger mode: 1
Integration Time (sec): 1.000000E-1
Scans to average: 1
Electric dark correction enabled: true
Nonlinearity correction enabled: false
Boxcar width: 0
XAxis mode: Wavelengths
Number of Pixels in Spectrum: 2048
>>>>>Begin Spectral Data<<<<<
223.165	-11.94
223.4	-11.94
223.635	-11.94
223.869	-16.94
224.104	-17.94
224.338	-1.94
224.573	-17.94
224.808	-15.94
225.042	-8.94
225.277	-11.94
225.511	2.06
225.746	3.06
225.98	14.06
226.215	-9.94
226.449	12.06
226.683	23.06
226.918	24.06
227.152	35.06
227.387	34.06
227.621	39.06
227.856	43.06
228.09	43.06
228.324	36.06
228.559	63.06
228.793	55.06
229.027	64.06
229.262	72.06
229.496	66.06
229.73	73.06
229.964	72.06
230.199	63.06
230.433	68.06
230.667	79.06
230.901	71.06
231.136	82.06
231.37	55.06
231.604	68.06
231.838	76.06
232.072	81.06
232.306	79.06
232.541	83.06
232.775	78.06
233.009	82.06
233.243	82.06
233.477	71.06
233.711	89.06
233.945	82.06
234.179	77.06
234.413	77.06
234.647	66.06
234.881	80.06
235.115	88.06
235.349	69.06
235.583	65.06
235.817	90.06
236.051	80.06
236.285	66.06
236.519	77.06
236.753	64.06
236.987	80.06
237.221	92.06
237.455	92.06
237.689	75.06
237.922	75.06
238.156	78.06
238.39	75.06
238.624	69.06
238.858	71.06
239.091	78.06
239.325	83.06
239.559	91.06
239.793	77.06
240.027	69.06
240.26	74.06
240.494	68.06
240.728	74.06
240.961	95.06
241.195	80.06
241.429	77.06
241.662	74.06
241.896	81.06
242.13	66.06
242.363	76.06
242.597	68.06
242.83	68.06
243.064	73.06
243.298	67.06
243.531	85.06
243.765	74.06
243.998	78.06
244.232	73.06
244.465	90.06
244.699	83.06
244.932	77.06
245.166	77.06
245.399	78.06
245.633	72.06
245.866	82.06
246.099	68.06
246.333	74.06
246.566	74.06
246.8	62.06
247.033	74.06
247.266	84.06
247.5	74.06
247.733	66.06
247.966	68.06
248.2	86.06
248.433	68.06
248.666	82.06
248.899	83.06
249.133	81.06
249.366	91.06
249.599	82.06
249.832	78.06
250.066	70.06
250.299	70.06
250.532	69.06
250.765	64.06
250.998	76.06
251.231	79.06
251.465	96.06
251.698	78.06
251.931	90.06
252.164	78.06
252.397	99.06
252.63	68.06
252.863	87.06
253.096	79.06
253.329	72.06
253.562	89.06
253.795	72.06
254.028	80.06
254.261	82.06
254.494	90.06
254.727	78.06
254.96	78.06
255.193	72.06
255.426	71.06
255.659	69.06
255.892	86.06
256.124	82.06
256.357	94.06
256.59	74.06
256.823	74.06
257.056	65.06
257.289	83.06
257.521	76.06
257.754	93.06
257.987	86.06
258.22	74.06
258.452	85.06
258.685	83.06
258.918	78.06
259.151	90.06
259.383	91.06
259.616	84.06
259.849	86.06
260.081	89.06
260.314	79.06
260.547	83.06
260.779	70.06
261.012	71.06
261.244	89.06
261.477	83.06
261.71	81.06
261.942	104.06
262.175	127.06
262.407	94.06
262.64	84.06
262.872	88.06
263.105	87.06
263.337	69.06
263.57	76.06
263.802	69.06
264.035	75.06
264.267	66.06
264.499	82.06
264.732	86.06
264.964	79.06
265.197	85.06
265.429	77.06
265.661	80.06
265.894	82.06
266.126	87.06
266.358	85.06
266.591	77.06
266.823	65.06
267.055	93.06
267.287	80.06
267.52	86.06
267.752	89.06
267.984	94.06
268.216	77.06
268.448	97.06
268.681	78.06
268.913	83.06
269.145	72.06
269.377	84.06
269.609	72.06
269.841	84.06
270.073	78.06
270.306	93.06
270.538	86.06
270.77	75.06
271.002	80.06
271.234	76.06
271.466	78.06
271.698	90.06
271.93	82.06
272.162	74.06
272.394	80.06
272.626	90.06
272.858	88.06
273.09	86.06
273.322	90.06
273.553	73.06
273.785	87.06
274.017	76.06
274.249	86.06
274.481	78.06
274.713	74.06
274.945	92.06
275.176	84.06
275.408	85.06
275.64	89.06
275.872	91.06
276.104	97.06
276.335	93.06
276.567	96.06
276.799	95.06
277.031	103.06
277.262	92.06
277.494	85.06
277.726	95.06
277.957	81.06
278.189	86.06
278.421	98.06
278.652	93.06
278.884	92.06
279.115	83.06
279.347	80.06
279.579	88.06
279.81	95.06
280.042	90.06
280.273	90.06
280.505	87.06
280.736	86.06
280.968	95.06
281.199	86.06
281.431	85.06
281.662	91.06
281.894	81.06
282.125	95.06
282.356	123.06
282.588	157.06
282.819	104.06
283.051	86.06
283.282	95.06
283.513	76.06
283.745	86.06
283.976	74.06
284.207	102.06
284.439	86.06
284.67	95.06
284.901	94.06
285.132	84.06
285.364	96.06
285.595	75.06
285.826	84.06
286.057	95.06
286.288	91.06
286.52	78.06
286.751	88.06
286.982	86.06
287.213	84.06
287.444	93.06
287.675	86.06
287.906	89.06
288.138	92.06
288.369	93.06
288.6	90.06
288.831	88.06
289.062	97.06
289.293	89.06
289.524	98.06
289.755	86.06
289.986	97.06
290.217	72.06
290.448	76.06
290.679	98.06
290.91	93.06
291.141	78.06
291.371	96.06
291.602	98.06
291.833	83.06
292.064	94.06
292.295	85.06
292.526	87.06
292.757	91.06
292.987	91.06
293.218	80.06
293.449	87.06
293.68	86.06
293.91	77.06
294.141	87.06
294.372	94.06
294.603	91.06
294.833	85.06
295.064	92.06
295.295	98.06
295.525	91.06
295.756	106.06
295.987	117.06
296.217	147.06
296.448	140.06
296.679	98.06
296.909	100.06
297.14	78.06
297.37	86.06
297.601	91.06
297.831	87.06
298.062	89.06
298.292	100.06
298.523	89.06
298.753	94.06
298.984	87.06
299.214	85.06
299.445	77.06
299.675	87.06
299.905	103.06
300.136	103.06
300.366	76.06
300.597	85.06
300.827	101.06
301.057	112.06
301.288	100.06
301.518	99.06
301.748	92.06
301.979	97.06
302.209	84.06
302.439	96.06
302.669	97.06
302.9	90.06
303.13	94.06
303.36	90.06
303.59	101.06
303.82	115.06
304.051	86.06
304.281	91.06
304.511	99.06
304.741	75.06
304.971	75.06
305.201	94.06
305.431	88.06
305.661	99.06
305.891	87.06
306.121	104.06
306.352	112.06
306.582	104.06
306.812	98.06
307.042	109.06
307.272	90.06
307.502	93.06
307.731	93.06
307.961	97.06
308.191	86.06
308.421	85.06
308.651	87.06
308.881	84.06
309.111	95.06
309.341	84.06
309.571	103.06
309.8	86.06
310.03	82.06
310.26	85.06
310.49	79.06
310.72	86.06
310.949	105.06
311.179	107.06
311.409	91.06
311.639	102.06
311.868	100.06
312.098	83.06
312.328	91.06
312.557	101.06
312.787	99.06
313.017	97.06
313.246	97.06
313.476	102.06
313.706	85.06
313.935	92.06
314.165	110.06
314.394	88.06
314.624	97.06
314.853	105.06
315.083	91.06
315.312	104.06
315.542	86.06
315.771	98.06
316.001	90.06
316.23	86.06
316.46	92.06
316.689	88.06
316.919	103.06
317.148	93.06
317.377	112.06
317.607	84.06
317.836	92.06
318.065	92.06
318.295	97.06
318.524	87.06
318.753	78.06
318.983	93.06
319.212	91.06
319.441	107.06
319.67	111.06
319.9	92.06
320.129	112.06
320.358	93.06
320.587	106.06
320.816	94.06
321.046	103.06
321.275	103.06
321.504	91.06
321.733	80.06
321.962	99.06
322.191	101.06
322.42	111.06
322.649	107.06
322.878	111.06
323.108	111.06
323.337	124.06
323.566	135.06
323.795	154.06
324.024	222.06
324.253	470.06
324.482	972.06
324.71	2099.06
324.939	2762.06
325.168	994.06
325.397	274.06
325.626	166.06
325.855	128.06
326.084	132.06
326.313	141.06
326.542	151.06
326.77	245.06
326.999	543.06
327.228	1140.06
327.457	2138.06
327.686	1706.06
327.914	444.06
328.143	202.06
328.372	188.06
328.6	138.06
328.829	130.06
329.058	126.06
329.287	139.06
329.515	110.06
329.744	103.06
329.972	107.06
330.201	116.06
330.43	168.06
330.658	143.06
330.887	158.06
331.115	119.06
331.344	100.06
331.572	112.06
331.801	110.06
332.03	111.06
332.258	101.06
332.486	97.06
332.715	95.06
332.943	102.06
333.172	97.06
333.4	98.06
333.629	102.06
333.857	106.06
334.085	116.06
334.314	141.06
334.542	170.06
334.771	174.06
334.999	111.06
335.227	104.06
335.455	103.06
335.684	97.06
335.912	103.06
336.14	86.06
336.369	98.06
336.597	90.06
336.825	102.06
337.053	90.06
337.281	90.06
337.51	99.06
337.738	84.06
337.966	80.06
338.194	86.06
338.422	90.06
338.65	99.06
338.878	94.06
339.106	84.06
339.334	90.06
339.562	89.06
339.79	90.06
340.018	96.06
340.246	90.06
340.474	85.06
340.702	101.06
340.93	103.06
341.158	84.06
341.386	75.06
341.614	90.06
341.842	97.06
342.07	94.06
342.298	92.06
342.526	88.06
342.754	103.06
342.981	99.06
343.209	94.06
343.437	100.06
343.665	96.06
343.893	88.06
344.12	89.06
344.348	93.06
344.576	89.06
344.804	101.06
345.031	98.06
345.259	97.06
345.487	111.06
345.714	101.06
345.942	83.06
346.17	94.06
346.397	92.06
346.625	94.06
346.853	90.06
347.08	108.06
347.308	109.06
347.535	90.06
347.763	96.06
347.99	100.06
348.218	120.06
348.445	110.06
348.673	94.06
348.9	92.06
349.128	89.06
349.355	90.06
349.583	93.06
349.81	99.06
350.037	95.06
350.265	80.06
350.492	91.06
350.72	92.06
350.947	110.06
351.174	94.06
351.402	123.06
351.629	110.06
351.856	105.06
352.083	87.06
352.311	101.06
352.538	95.06
352.765	103.06
352.992	108.06
353.22	103.06
353.447	110.06
353.674	115.06
353.901	103.06
354.128	97.06
354.355	98.06
354.583	91.06
354.81	95.06
355.037	98.06
355.264	84.06
355.491	94.06
355.718	79.06
355.945	83.06
356.172	94.06
356.399	95.06
356.626	87.06
356.853	83.06
357.08	93.06
357.307	94.06
357.534	88.06
357.761	96.06
357.988	82.06
358.215	81.06
358.441	99.06
358.668	90.06
358.895	90.06
359.122	87.06
359.349	85.06
359.576	90.06
359.802	99.06
360.029	102.06
360.256	106.06
360.483	99.06
360.709	87.06
360.936	70.06
361.163	95.06
361.39	93.06
361.616	92.06
361.843	97.06
362.07	106.06
362.296	87.06
362.523	92.06
362.749	90.06
362.976	86.06
363.203	103.06
363.429	89.06
363.656	88.06
363.882	104.06
364.109	102.06
364.335	85.06
364.562	96.06
364.788	89.06
365.015	90.06
365.241	104.06
365.468	106.06
365.694	102.06
365.92	101.06
366.147	82.06
366.373	90.06
366.599	94.06
366.826	84.06
367.052	78.06
367.278	95.06
367.505	104.06
367.731	89.06
367.957	86.06
368.184	85.06
368.41	79.06
368.636	100.06
368.862	115.06
369.089	111.06
369.315	88.06
369.541	99.06
369.767	89.06
369.993	90.06
370.219	79.06
370.445	94.06
370.672	99.06
370.898	86.06
371.124	85.06
371.35	86.06
371.576	85.06
371.802	80.06
372.028	86.06
372.254	86.06
372.48	92.06
372.706	95.06
372.932	93.06
373.158	87.06
373.384	92.06
373.61	99.06
373.835	78.06
374.061	87.06
374.287	76.06
374.513	100.06
374.739	75.06
374.965	95.06
375.191	93.06
375.416	92.06
375.642	95.06
375.868	84.06
376.094	95.06
376.319	86.06
376.545	74.06
376.771	94.06
376.997	85.06
377.222	86.06
377.448	95.06
377.674	99.06
377.899	89.06
378.125	102.06
378.35	96.06
378.576	82.06
378.802	83.06
379.027	94.06
379.253	92.06
379.478	72.06
379.704	84.06
379.929	85.06
380.155	100.06
380.38	83.06
380.606	83.06
380.831	80.06
381.057	107.06
381.282	74.06
381.507	95.06
381.733	92.06
381.958	91.06
382.184	97.06
382.409	104.06
382.634	97.06
382.86	94.06
383.085	99.06
383.31	86.06
383.535	101.06
383.761	99.06
383.986	80.06
384.211	103.06
384.436	100.06
384.662	93.06
384.887	98.06
385.112	96.06
385.337	106.06
385.562	92.06
385.787	96.06
386.013	111.06
386.238	102.06
386.463	104.06
386.688	103.06
386.913	89.06
387.138	104.06
387.363	100.06
387.588	99.06
387.813	88.06
388.038	102.06
388.263	110.06
388.488	91.06
388.713	82.06
388.938	78.06
389.163	100.06
389.387	88.06
389.612	85.06
389.837	83.06
390.062	95.06
390.287	81.06
390.512	110.06
390.736	69.06
390.961	92.06
391.186	74.06
391.411	99.06
391.636	90.06
391.86	92.06
392.085	90.06
392.31	80.06
392.534	81.06
392.759	87.06
392.984	83.06
393.208	101.06
393.433	95.06
393.658	87.06
393.882	93.06
394.107	88.06
394.331	82.06
394.556	90.06
394.78	85.06
395.005	94.06
395.229	72.06
395.454	74.06
395.678	84.06
395.903	90.06
396.127	91.06
396.352	81.06
396.576	83.06
396.801	84.06
397.025	77.06
397.249	95.06
397.474	92.06
397.698	100.06
397.922	76.06
398.147	100.06
398.371	87.06
398.595	82.06
398.82	90.06
399.044	88.06
399.268	76.06
399.492	87.06
399.717	70.06
399.941	81.06
400.165	93.06
400.389	87.06
400.613	83.06
400.837	75.06
401.062	87.06
401.286	93.06
401.51	84.06
401.734	94.06
401.958	98.06
402.182	135.06
402.406	161.06
402.63	102.06
402.854	101.06
403.078	92.06
403.302	75.06
403.526	83.06
403.75	86.06
403.974	83.06
404.198	76.06
404.422	78.06
404.645	91.06
404.869	96.06
405.093	94.06
405.317	96.06
405.541	106.06
405.765	98.06
405.988	106.06
406.212	176.06
406.436	249.06
406.66	148.06
406.883	113.06
407.107	93.06
407.331	102.06
407.555	112.06
407.778	114.06
408.002	72.06
408.226	82.06
408.449	74.06
408.673	76.06
408.896	93.06
409.12	102.06
409.344	89.06
409.567	99.06
409.791	90.06
410.014	82.06
410.238	86.06
410.461	78.06
410.685	93.06
410.908	99.06
411.132	102.06
411.355	97.06
411.578	99.06
411.802	94.06
412.025	81.06
412.249	93.06
412.472	95.06
412.695	111.06
412.919	103.06
413.142	86.06
413.365	80.06
413.589	94.06
413.812	88.06
414.035	87.06
414.258	84.06
414.482	105.06
414.705	86.06
414.928	84.06
415.151	90.06
415.374	93.06
415.597	93.06
415.821	88.06
416.044	93.06
416.267	83.06
416.49	92.06
416.713	93.06
416.936	88.06
417.159	88.06
417.382	83.06
417.605	79.06
417.828	89.06
418.051	83.06
418.274	81.06
418.497	85.06
418.72	79.06
418.943	83.06
419.166	89.06
419.389	87.06
419.611	87.06
419.834	70.06
420.057	93.06
420.28	85.06
420.503	106.06
420.726	102.06
420.948	92.06
421.171	88.06
421.394	100.06
421.617	95.06
421.839	82.06
422.062	85.06
422.285	84.06
422.507	90.06
422.73	109.06
422.953	87.06
423.175	92.06
423.398	93.06
423.621	99.06
423.843	84.06
424.066	66.06
424.288	98.06
424.511	85.06
424.733	87.06
424.956	108.06
425.178	103.06
425.401	86.06
425.623	103.06
425.846	92.06
426.068	93.06
426.291	95.06
426.513	102.06
426.735	79.06
426.958	86.06
427.18	125.06
427.402	159.06
427.625	186.06
427.847	147.06
428.069	124.06
428.292	90.06
428.514	83.06
428.736	77.06
428.958	84.06
429.181	83.06
429.403	81.06
429.625	87.06
429.847	93.06
430.069	107.06
430.292	88.06
430.514	91.06
430.736	75.06
430.958	91.06
431.18	79.06
431.402	96.06
431.624	77.06
431.846	79.06
432.068	89.06
432.29	92.06
432.512	98.06
432.734	83.06
432.956	78.06
433.178	99.06
433.4	120.06
433.622	100.06
433.844	104.06
434.066	84.06
434.287	84.06
434.509	87.06
434.731	91.06
434.953	86.06
435.175	88.06
435.397	101.06
435.618	100.06
435.84	115.06
436.062	126.06
436.284	115.06
436.505	107.06
436.727	102.06
436.949	90.06
437.17	88.06
437.392	84.06
437.614	95.06
437.835	99.06
438.057	127.06
438.278	123.06
438.5	112.06
438.721	133.06
438.943	100.06
439.165	90.06
439.386	91.06
439.608	88.06
439.829	102.06
440.05	142.06
440.272	158.06
440.493	102.06
440.715	87.06
440.936	68.06
441.158	98.06
441.379	90.06
441.6	95.06
441.822	92.06
442.043	103.06
442.264	111.06
442.486	110.06
442.707	95.06
442.928	103.06
443.149	145.06
443.371	142.06
443.592	117.06
443.813	121.06
444.034	126.06
444.255	101.06
444.476	90.06
444.698	88.06
444.919	85.06
445.14	130.06
445.361	127.06
445.582	130.06
445.803	158.06
446.024	164.06
446.245	163.06
446.466	117.06
446.687	101.06
446.908	87.06
447.129	71.06
447.35	84.06
447.571	91.06
447.792	82.06
448.013	102.06
448.234	129.06
448.455	101.06
448.675	112.06
448.896	137.06
449.117	101.06
449.338	99.06
449.559	135.06
449.779	146.06
450	102.06
450.221	99.06
450.442	90.06
450.662	98.06
450.883	101.06
451.104	122.06
451.324	94.06
451.545	84.06
451.766	86.06
451.986	86.06
452.207	86.06
452.428	86.06
452.648	107.06
452.869	111.06
453.089	111.06
453.31	118.06
453.53	90.06
453.751	87.06
453.971	107.06
454.192	119.06
454.412	88.06
454.633	78.06
454.853	80.06
455.073	89.06
455.294	82.06
455.514	103.06
455.734	94.06
455.955	80.06
456.175	86.06
456.395	76.06
456.616	86.06
456.836	77.06
457.056	85.06
457.276	81.06
457.497	82.06
457.717	88.06
457.937	84.06
458.157	86.06
458.377	90.06
458.598	103.06
458.818	142.06
459.038	171.06
459.258	125.06
459.478	100.06
459.698	90.06
459.918	79.06
460.138	86.06
460.358	74.06
460.578	79.06
460.798	71.06
461.018	78.06
461.238	81.06
461.458	89.06
461.678	84.06
461.898	96.06
462.118	84.06
462.338	94.06
462.558	82.06
462.777	95.06
462.997	80.06
463.217	65.06
463.437	80.06
463.657	90.06
463.876	92.06
464.096	82.06
464.316	89.06
464.536	96.06
464.755	96.06
464.975	104.06
465.195	188.06
465.414	176.06
465.634	99.06
465.854	86.06
466.073	90.06
466.293	91.06
466.512	85.06
466.732	86.06
466.951	90.06
467.171	77.06
467.391	95.06
467.61	90.06
467.829	93.06
468.049	106.06
468.268	107.06
468.488	99.06
468.707	86.06
468.927	76.06
469.146	84.06
469.365	84.06
469.585	85.06
469.804	93.06
470.023	108.06
470.243	93.06
470.462	92.06
470.681	114.06
470.901	91.06
471.12	80.06
471.339	91.06
471.558	103.06
471.777	86.06
471.997	93.06
472.216	126.06
472.435	178.06
472.654	117.06
472.873	84.06
473.092	75.06
473.311	84.06
473.53	85.06
473.749	80.06
473.968	101.06
474.187	112.06
474.406	94.06
474.625	94.06
474.844	112.06
475.063	88.06
475.282	98.06
475.501	85.06
475.72	90.06
475.939	91.06
476.158	92.06
476.377	91.06
476.596	96.06
476.814	107.06
477.033	89.06
477.252	99.06
477.471	88.06
477.69	96.06
477.908	81.06
478.127	80.06
478.346	88.06
478.564	86.06
478.783	103.06
479.002	94.06
479.22	93.06
479.439	108.06
479.658	101.06
479.876	96.06
480.095	75.06
480.313	84.06
480.532	87.06
480.751	93.06
480.969	111.06
481.188	255.06
481.406	195.06
481.624	96.06
481.843	88.06
482.061	89.06
482.28	83.06
482.498	86.06
482.717	85.06
482.935	68.06
483.153	90.06
483.372	84.06
483.59	93.06
483.808	96.06
484.027	79.06
484.245	86.06
484.463	96.06
484.681	108.06
484.9	97.06
485.118	86.06
485.336	82.06
485.554	83.06
485.772	111.06
485.99	111.06
486.209	102.06
486.427	90.06
486.645	111.06
486.863	104.06
487.081	105.06
487.299	90.06
487.517	83.06
487.735	83.06
487.953	81.06
488.171	94.06
488.389	108.06
488.607	94.06
488.825	94.06
489.043	96.06
489.261	97.06
489.479	92.06
489.696	78.06
489.914	98.06
490.132	77.06
490.35	85.06
490.568	95.06
490.786	78.06
491.003	70.06
491.221	84.06
491.439	93.06
491.657	94.06
491.874	88.06
492.092	99.06
492.31	98.06
492.527	100.06
492.745	91.06
492.963	76.06
493.18	88.06
493.398	104.06
493.615	85.06
493.833	85.06
494.05	106.06
494.268	92.06
494.485	90.06
494.703	88.06
494.92	80.06
495.138	71.06
495.355	77.06
495.573	90.06
495.79	71.06
496.008	93.06
496.225	88.06
496.442	83.06
496.66	92.06
496.877	101.06
497.094	82.06
497.312	90.06
497.529	92.06
497.746	78.06
497.963	79.06
498.181	86.06
498.398	90.06
498.615	118.06
498.832	97.06
499.049	88.06
499.267	84.06
499.484	90.06
499.701	85.06
499.918	96.06
500.135	85.06
500.352	86.06
500.569	80.06
500.786	90.06
501.003	94.06
501.22	95.06
501.437	79.06
501.654	92.06
501.871	112.06
502.088	76.06
502.305	101.06
502.522	84.06
502.739	80.06
502.956	94.06
503.172	99.06
503.389	106.06
503.606	100.06
503.823	88.06
504.04	90.06
504.256	90.06
504.473	86.06
504.69	83.06
504.907	92.06
505.123	87.06
505.34	91.06
505.557	99.06
505.773	79.06
505.99	97.06
506.207	91.06
506.423	86.06
506.64	88.06
506.856	79.06
507.073	109.06
507.289	82.06
507.506	97.06
507.722	121.06
507.939	111.06
508.155	69.06
508.372	89.06
508.588	95.06
508.805	91.06
509.021	93.06
509.238	101.06
509.454	102.06
509.67	103.06
509.887	123.06
510.103	125.06
510.319	223.06
510.536	830.06
510.752	2602.06
510.968	697.06
511.184	164.06
511.401	126.06
511.617	114.06
511.833	107.06
512.049	89.06
512.265	86.06
512.481	101.06
512.698	97.06
512.914	95.06
513.13	92.06
513.346	83.06
513.562	104.06
513.778	98.06
513.994	100.06
514.21	97.06
514.426	110.06
514.642	151.06
514.858	142.06
515.074	186.06
515.29	516.06
515.506	1712.06
