Data from Uncirc_1988_H10_HRD10591_00015.txt Node
Date: Wed Jan 03 12:04:07 EST 2024
User: Yrep
Spectrometer: HR+D1059
Trigger mode: 1
Integration Time (sec): 1.000000E-1
Scans to average: 1
Electric dark correction enabled: true
Nonlinearity correction enabled: false
Boxcar width: 0
XAxis mode: Wavelengths
Number of Pixels in Spectrum: 2048
>>>>>Begin Spectral Data<<<<<
223.165	-17.88
223.4	-17.88
223.635	-17.88
223.869	-11.88
224.104	-18.88
224.338	-17.88
224.573	-27.88
224.808	-18.88
225.042	-14.88
225.277	-13.88
225.511	1.12
225.746	-2.88
225.98	18.12
226.215	17.12
226.449	27.12
226.683	21.12
226.918	27.12
227.152	33.12
227.387	40.12
227.621	34.12
227.856	43.12
228.09	55.12
228.324	56.12
228.559	47.12
228.793	60.12
229.027	60.12
229.262	77.12
229.496	73.12
229.73	75.12
229.964	88.12
230.199	77.12
230.433	65.12
230.667	78.12
230.901	77.12
231.136	71.12
231.37	90.12
231.604	75.12
231.838	85.12
232.072	77.12
232.306	93.12
232.541	72.12
232.775	77.12
233.009	88.12
233.243	84.12
233.477	93.12
233.711	82.12
233.945	71.12
234.179	73.12
234.413	84.12
234.647	91.12
234.881	80.12
235.115	88.12
235.349	67.12
235.583	77.12
235.817	71.12
236.051	85.12
236.285	72.12
236.519	68.12
236.753	69.12
236.987	63.12
237.221	83.12
237.455	77.12
237.689	73.12
237.922	76.12
238.156	55.12
238.39	79.12
238.624	76.12
238.858	83.12
239.091	85.12
239.325	87.12
239.559	81.12
239.793	58.12
240.027	87.12
240.26	70.12
240.494	75.12
240.728	69.12
240.961	82.12
241.195	73.12
241.429	62.12
241.662	81.12
241.896	82.12
242.13	72.12
242.363	86.12
242.597	97.12
242.83	64.12
243.064	79.12
243.298	84.12
243.531	70.12
243.765	70.12
243.998	64.12
244.232	75.12
244.465	71.12
244.699	61.12
244.932	70.12
245.166	92.12
245.399	63.12
245.633	81.12
245.866	72.12
246.099	71.12
246.333	93.12
246.566	71.12
246.8	55.12
247.033	81.12
247.266	75.12
247.5	86.12
247.733	91.12
247.966	82.12
248.2	68.12
248.433	91.12
248.666	68.12
248.899	88.12
249.133	86.12
249.366	87.12
249.599	96.12
249.832	69.12
250.066	71.12
250.299	85.12
250.532	77.12
250.765	91.12
250.998	73.12
251.231	77.12
251.465	71.12
251.698	70.12
251.931	78.12
252.164	86.12
252.397	75.12
252.63	81.12
252.863	80.12
253.096	78.12
253.329	79.12
253.562	77.12
253.795	93.12
254.028	88.12
254.261	74.12
254.494	71.12
254.727	83.12
254.96	71.12
255.193	79.12
255.426	68.12
255.659	74.12
255.892	79.12
256.124	94.12
256.357	84.12
256.59	69.12
256.823	79.12
257.056	67.12
257.289	86.12
257.521	74.12
257.754	81.12
257.987	84.12
258.22	71.12
258.452	81.12
258.685	82.12
258.918	65.12
259.151	87.12
259.383	88.12
259.616	70.12
259.849	83.12
260.081	74.12
260.314	86.12
260.547	81.12
260.779	81.12
261.012	93.12
261.244	78.12
261.477	87.12
261.71	87.12
261.942	101.12
262.175	105.12
262.407	85.12
262.64	87.12
262.872	79.12
263.105	73.12
263.337	88.12
263.57	67.12
263.802	82.12
264.035	78.12
264.267	94.12
264.499	81.12
264.732	97.12
264.964	83.12
265.197	84.12
265.429	88.12
265.661	82.12
265.894	88.12
266.126	79.12
266.358	89.12
266.591	82.12
266.823	83.12
267.055	73.12
267.287	79.12
267.52	77.12
267.752	81.12
267.984	91.12
268.216	82.12
268.448	89.12
268.681	95.12
268.913	86.12
269.145	71.12
269.377	85.12
269.609	86.12
269.841	87.12
270.073	83.12
270.306	95.12
270.538	83.12
270.77	83.12
271.002	81.12
271.234	86.12
271.466	84.12
271.698	80.12
271.93	104.12
272.162	65.12
272.394	82.12
272.626	83.12
272.858	84.12
273.09	91.12
273.322	83.12
273.553	72.12
273.785	68.12
274.017	68.12
274.249	80.12
274.481	82.12
274.713	81.12
274.945	88.12
275.176	98.12
275.408	95.12
275.64	82.12
275.872	83.12
276.104	82.12
276.335	74.12
276.567	85.12
276.799	93.12
277.031	87.12
277.262	97.12
277.494	96.12
277.726	86.12
277.957	81.12
278.189	90.12
278.421	88.12
278.652	86.12
278.884	87.12
279.115	83.12
279.347	89.12
279.579	78.12
279.81	87.12
280.042	69.12
280.273	91.12
280.505	70.12
280.736	88.12
280.968	86.12
281.199	85.12
281.431	70.12
281.662	79.12
281.894	75.12
282.125	92.12
282.356	106.12
282.588	108.12
282.819	114.12
283.051	80.12
283.282	82.12
283.513	71.12
283.745	87.12
283.976	82.12
284.207	89.12
284.439	82.12
284.67	87.12
284.901	79.12
285.132	83.12
285.364	80.12
285.595	93.12
285.826	77.12
286.057	97.12
286.288	71.12
286.52	92.12
286.751	87.12
286.982	91.12
287.213	90.12
287.444	87.12
287.675	92.12
287.906	81.12
288.138	94.12
288.369	88.12
288.6	79.12
288.831	91.12
289.062	88.12
289.293	83.12
289.524	88.12
289.755	84.12
289.986	81.12
290.217	88.12
290.448	81.12
290.679	89.12
290.91	89.12
291.141	86.12
291.371	77.12
291.602	90.12
291.833	88.12
292.064	76.12
292.295	93.12
292.526	96.12
292.757	101.12
292.987	81.12
293.218	87.12
293.449	88.12
293.68	95.12
293.91	84.12
294.141	87.12
294.372	105.12
294.603	88.12
294.833	95.12
295.064	85.12
295.295	93.12
295.525	83.12
295.756	100.12
295.987	92.12
296.217	118.12
296.448	111.12
296.679	79.12
296.909	91.12
297.14	83.12
297.37	86.12
297.601	81.12
297.831	83.12
298.062	79.12
298.292	72.12
298.523	91.12
298.753	85.12
298.984	88.12
299.214	93.12
299.445	86.12
299.675	88.12
299.905	91.12
300.136	72.12
300.366	91.12
300.597	84.12
300.827	90.12
301.057	93.12
301.288	105.12
301.518	95.12
301.748	77.12
301.979	99.12
302.209	93.12
302.439	80.12
302.669	98.12
302.9	78.12
303.13	86.12
303.36	87.12
303.59	89.12
303.82	93.12
304.051	108.12
304.281	89.12
304.511	83.12
304.741	80.12
304.971	77.12
305.201	80.12
305.431	104.12
305.661	81.12
305.891	80.12
306.121	84.12
306.352	100.12
306.582	106.12
306.812	89.12
307.042	92.12
307.272	81.12
307.502	87.12
307.731	97.12
307.961	79.12
308.191	89.12
308.421	81.12
308.651	89.12
308.881	108.12
309.111	88.12
309.341	97.12
309.571	95.12
309.8	88.12
310.03	96.12
310.26	85.12
310.49	93.12
310.72	100.12
310.949	89.12
311.179	112.12
311.409	88.12
311.639	87.12
311.868	85.12
312.098	91.12
312.328	97.12
312.557	101.12
312.787	89.12
313.017	105.12
313.246	83.12
313.476	82.12
313.706	84.12
313.935	92.12
314.165	86.12
314.394	97.12
314.624	85.12
314.853	96.12
315.083	81.12
315.312	81.12
315.542	92.12
315.771	94.12
316.001	92.12
316.23	79.12
316.46	85.12
316.689	95.12
316.919	80.12
317.148	85.12
317.377	94.12
317.607	101.12
317.836	92.12
318.065	83.12
318.295	95.12
318.524	91.12
318.753	94.12
318.983	99.12
319.212	105.12
319.441	97.12
319.67	95.12
319.9	96.12
320.129	93.12
320.358	87.12
320.587	100.12
320.816	78.12
321.046	86.12
321.275	94.12
321.504	106.12
321.733	109.12
321.962	101.12
322.191	99.12
322.42	100.12
322.649	100.12
322.878	92.12
323.108	119.12
323.337	120.12
323.566	114.12
323.795	150.12
324.024	175.12
324.253	341.12
324.482	671.12
324.71	1415.12
324.939	1849.12
325.168	682.12
325.397	220.12
325.626	140.12
325.855	109.12
326.084	134.12
326.313	119.12
326.542	141.12
326.77	193.12
326.999	405.12
327.228	832.12
327.457	1473.12
327.686	1160.12
327.914	304.12
328.143	155.12
328.372	145.12
328.6	103.12
328.829	106.12
329.058	124.12
329.287	125.12
329.515	96.12
329.744	83.12
329.972	98.12
330.201	96.12
330.43	105.12
330.658	105.12
330.887	110.12
331.115	116.12
331.344	95.12
331.572	111.12
331.801	101.12
332.03	103.12
332.258	89.12
332.486	94.12
332.715	83.12
332.943	89.12
333.172	100.12
333.4	86.12
333.629	94.12
333.857	101.12
334.085	107.12
334.314	97.12
334.542	100.12
334.771	86.12
334.999	93.12
335.227	93.12
335.455	108.12
335.684	95.12
335.912	99.12
336.14	86.12
336.369	78.12
336.597	104.12
336.825	99.12
337.053	90.12
337.281	85.12
337.51	94.12
337.738	81.12
337.966	85.12
338.194	92.12
338.422	89.12
338.65	87.12
338.878	83.12
339.106	82.12
339.334	94.12
339.562	97.12
339.79	83.12
340.018	103.12
340.246	100.12
340.474	83.12
340.702	85.12
340.93	92.12
341.158	93.12
341.386	96.12
341.614	94.12
341.842	88.12
342.07	100.12
342.298	84.12
342.526	97.12
342.754	78.12
342.981	100.12
343.209	102.12
343.437	88.12
343.665	80.12
343.893	99.12
344.12	89.12
344.348	103.12
344.576	93.12
344.804	84.12
345.031	96.12
345.259	108.12
345.487	92.12
345.714	86.12
345.942	109.12
346.17	89.12
346.397	92.12
346.625	92.12
346.853	86.12
347.08	94.12
347.308	88.12
347.535	99.12
347.763	84.12
347.99	94.12
348.218	98.12
348.445	98.12
348.673	94.12
348.9	100.12
349.128	105.12
349.355	75.12
349.583	98.12
349.81	87.12
350.037	91.12
350.265	86.12
350.492	94.12
350.72	94.12
350.947	93.12
351.174	100.12
351.402	102.12
351.629	100.12
351.856	91.12
352.083	94.12
352.311	102.12
352.538	97.12
352.765	69.12
352.992	101.12
353.22	104.12
353.447	106.12
353.674	110.12
353.901	109.12
354.128	88.12
354.355	76.12
354.583	87.12
354.81	94.12
355.037	86.12
355.264	96.12
355.491	84.12
355.718	79.12
355.945	94.12
356.172	70.12
356.399	96.12
356.626	95.12
356.853	88.12
357.08	91.12
357.307	88.12
357.534	91.12
357.761	96.12
357.988	101.12
358.215	97.12
358.441	88.12
358.668	78.12
358.895	91.12
359.122	102.12
359.349	84.12
359.576	93.12
359.802	88.12
360.029	107.12
360.256	105.12
360.483	100.12
360.709	83.12
360.936	91.12
361.163	100.12
361.39	89.12
361.616	84.12
361.843	88.12
362.07	94.12
362.296	85.12
362.523	84.12
362.749	86.12
362.976	88.12
363.203	84.12
363.429	99.12
363.656	88.12
363.882	93.12
364.109	87.12
364.335	99.12
364.562	90.12
364.788	94.12
365.015	86.12
365.241	103.12
365.468	91.12
365.694	88.12
365.92	100.12
366.147	91.12
366.373	90.12
366.599	89.12
366.826	96.12
367.052	94.12
367.278	91.12
367.505	81.12
367.731	93.12
367.957	83.12
368.184	87.12
368.41	91.12
368.636	101.12
368.862	103.12
369.089	104.12
369.315	93.12
369.541	88.12
369.767	80.12
369.993	93.12
370.219	88.12
370.445	82.12
370.672	90.12
370.898	94.12
371.124	84.12
371.35	87.12
371.576	87.12
371.802	85.12
372.028	82.12
372.254	81.12
372.48	84.12
372.706	68.12
372.932	89.12
373.158	100.12
373.384	96.12
373.61	73.12
373.835	76.12
374.061	86.12
374.287	91.12
374.513	95.12
374.739	96.12
374.965	87.12
375.191	94.12
375.416	88.12
375.642	96.12
375.868	96.12
376.094	79.12
376.319	85.12
376.545	94.12
376.771	93.12
376.997	82.12
377.222	93.12
377.448	107.12
377.674	82.12
377.899	93.12
378.125	97.12
378.35	82.12
378.576	88.12
378.802	96.12
379.027	80.12
379.253	97.12
379.478	88.12
379.704	100.12
379.929	98.12
380.155	96.12
380.38	90.12
380.606	91.12
380.831	96.12
381.057	104.12
381.282	97.12
381.507	98.12
381.733	89.12
381.958	96.12
382.184	82.12
382.409	81.12
382.634	99.12
382.86	98.12
383.085	82.12
383.31	101.12
383.535	95.12
383.761	93.12
383.986	100.12
384.211	98.12
384.436	97.12
384.662	101.12
384.887	109.12
385.112	99.12
385.337	101.12
385.562	112.12
385.787	99.12
386.013	101.12
386.238	110.12
386.463	92.12
386.688	111.12
386.913	100.12
387.138	100.12
387.363	109.12
387.588	96.12
387.813	92.12
388.038	104.12
388.263	119.12
388.488	95.12
388.713	91.12
388.938	99.12
389.163	102.12
389.387	100.12
389.612	95.12
389.837	88.12
390.062	68.12
390.287	88.12
390.512	89.12
390.736	94.12
390.961	83.12
391.186	71.12
391.411	110.12
391.636	91.12
391.86	88.12
392.085	96.12
392.31	82.12
392.534	100.12
392.759	97.12
392.984	94.12
393.208	89.12
393.433	94.12
393.658	89.12
393.882	87.12
394.107	75.12
394.331	83.12
394.556	84.12
394.78	93.12
395.005	95.12
395.229	91.12
395.454	89.12
395.678	87.12
395.903	85.12
396.127	85.12
396.352	99.12
396.576	94.12
396.801	103.12
397.025	101.12
397.249	89.12
397.474	93.12
397.698	93.12
397.922	102.12
398.147	93.12
398.371	81.12
398.595	84.12
398.82	92.12
399.044	93.12
399.268	107.12
399.492	81.12
399.717	80.12
399.941	91.12
400.165	99.12
400.389	106.12
400.613	93.12
400.837	82.12
401.062	79.12
401.286	88.12
401.51	87.12
401.734	77.12
401.958	100.12
402.182	109.12
402.406	141.12
402.63	105.12
402.854	94.12
403.078	82.12
403.302	83.12
403.526	93.12
403.75	87.12
403.974	80.12
404.198	94.12
404.422	87.12
404.645	80.12
404.869	94.12
405.093	73.12
405.317	101.12
405.541	90.12
405.765	89.12
405.988	104.12
406.212	166.12
406.436	189.12
406.66	118.12
406.883	93.12
407.107	93.12
407.331	105.12
407.555	105.12
407.778	89.12
408.002	101.12
408.226	77.12
408.449	82.12
408.673	97.12
408.896	97.12
409.12	78.12
409.344	93.12
409.567	73.12
409.791	103.12
410.014	102.12
410.238	94.12
410.461	108.12
410.685	96.12
410.908	96.12
411.132	105.12
411.355	93.12
411.578	99.12
411.802	82.12
412.025	97.12
412.249	82.12
412.472	99.12
412.695	86.12
412.919	89.12
413.142	88.12
413.365	96.12
413.589	97.12
413.812	100.12
414.035	88.12
414.258	81.12
414.482	93.12
414.705	88.12
414.928	94.12
415.151	87.12
415.374	88.12
415.597	90.12
415.821	90.12
416.044	89.12
416.267	86.12
416.49	99.12
416.713	95.12
416.936	96.12
417.159	90.12
417.382	86.12
417.605	99.12
417.828	97.12
418.051	86.12
418.274	86.12
418.497	98.12
418.72	81.12
418.943	90.12
419.166	76.12
419.389	104.12
419.611	95.12
419.834	88.12
420.057	87.12
420.28	90.12
420.503	88.12
420.726	89.12
420.948	91.12
421.171	104.12
421.394	92.12
421.617	77.12
421.839	88.12
422.062	75.12
422.285	93.12
422.507	91.12
422.73	89.12
422.953	96.12
423.175	102.12
423.398	88.12
423.621	93.12
423.843	83.12
424.066	88.12
424.288	96.12
424.511	87.12
424.733	100.12
424.956	98.12
425.178	99.12
425.401	108.12
425.623	90.12
425.846	93.12
426.068	102.12
426.291	84.12
426.513	85.12
426.735	87.12
426.958	87.12
427.18	110.12
427.402	123.12
427.625	167.12
427.847	113.12
428.069	84.12
428.292	80.12
428.514	79.12
428.736	91.12
428.958	75.12
429.181	88.12
429.403	75.12
429.625	92.12
429.847	98.12
430.069	91.12
430.292	92.12
430.514	87.12
430.736	76.12
430.958	72.12
431.18	82.12
431.402	77.12
431.624	81.12
431.846	69.12
432.068	81.12
432.29	82.12
432.512	87.12
432.734	90.12
432.956	71.12
433.178	96.12
433.4	94.12
433.622	80.12
433.844	85.12
434.066	82.12
434.287	87.12
434.509	84.12
434.731	81.12
434.953	70.12
435.175	82.12
435.397	89.12
435.618	117.12
435.84	105.12
436.062	115.12
436.284	115.12
436.505	92.12
436.727	99.12
436.949	87.12
437.17	91.12
437.392	81.12
437.614	77.12
437.835	94.12
438.057	100.12
438.278	108.12
438.5	105.12
438.721	114.12
438.943	89.12
439.165	87.12
439.386	96.12
439.608	85.12
439.829	90.12
440.05	115.12
440.272	130.12
440.493	102.12
440.715	94.12
440.936	86.12
441.158	87.12
441.379	88.12
441.6	99.12
441.822	97.12
442.043	96.12
442.264	104.12
442.486	94.12
442.707	88.12
442.928	93.12
443.149	100.12
443.371	114.12
443.592	92.12
443.813	97.12
444.034	101.12
444.255	81.12
444.476	100.12
444.698	93.12
444.919	88.12
445.14	131.12
445.361	128.12
445.582	97.12
445.803	122.12
446.024	131.12
446.245	116.12
446.466	102.12
446.687	80.12
446.908	73.12
447.129	87.12
447.35	84.12
447.571	93.12
447.792	76.12
448.013	89.12
448.234	99.12
448.455	100.12
448.675	104.12
448.896	105.12
449.117	73.12
449.338	107.12
449.559	119.12
449.779	130.12
450	79.12
450.221	81.12
450.442	73.12
450.662	98.12
450.883	110.12
451.104	97.12
451.324	97.12
451.545	89.12
451.766	85.12
451.986	85.12
452.207	82.12
452.428	93.12
452.648	100.12
452.869	100.12
453.089	106.12
453.31	115.12
453.53	84.12
453.751	93.12
453.971	85.12
454.192	83.12
454.412	82.12
454.633	71.12
454.853	90.12
455.073	89.12
455.294	102.12
455.514	85.12
455.734	85.12
455.955	84.12
456.175	79.12
456.395	79.12
456.616	86.12
456.836	82.12
457.056	87.12
457.276	79.12
457.497	69.12
457.717	63.12
457.937	75.12
458.157	84.12
458.377	96.12
458.598	113.12
458.818	123.12
459.038	144.12
459.258	127.12
459.478	106.12
459.698	82.12
459.918	95.12
460.138	85.12
460.358	75.12
460.578	80.12
460.798	84.12
461.018	88.12
461.238	92.12
461.458	87.12
461.678	83.12
461.898	81.12
462.118	102.12
462.338	93.12
462.558	80.12
462.777	71.12
462.997	96.12
463.217	86.12
463.437	99.12
463.657	82.12
463.876	81.12
464.096	93.12
464.316	77.12
464.536	77.12
464.755	83.12
464.975	89.12
465.195	140.12
465.414	120.12
465.634	84.12
465.854	70.12
466.073	103.12
466.293	92.12
466.512	92.12
466.732	87.12
466.951	89.12
467.171	81.12
467.391	87.12
467.61	86.12
467.829	85.12
468.049	78.12
468.268	79.12
468.488	76.12
468.707	75.12
468.927	99.12
469.146	81.12
469.365	70.12
469.585	75.12
469.804	96.12
470.023	86.12
470.243	99.12
470.462	101.12
470.681	100.12
470.901	80.12
471.12	90.12
471.339	84.12
471.558	91.12
471.777	86.12
471.997	101.12
472.216	91.12
472.435	84.12
472.654	79.12
472.873	87.12
473.092	95.12
473.311	93.12
473.53	92.12
473.749	78.12
473.968	98.12
474.187	100.12
474.406	93.12
474.625	88.12
474.844	99.12
475.063	82.12
475.282	85.12
475.501	91.12
475.72	90.12
475.939	98.12
476.158	77.12
476.377	78.12
476.596	91.12
476.814	86.12
477.033	92.12
477.252	100.12
477.471	84.12
477.69	88.12
477.908	67.12
478.127	87.12
478.346	80.12
478.564	78.12
478.783	92.12
479.002	103.12
479.22	96.12
479.439	103.12
479.658	99.12
479.876	87.12
480.095	80.12
480.313	93.12
480.532	89.12
480.751	87.12
480.969	86.12
481.188	116.12
481.406	96.12
481.624	95.12
481.843	101.12
482.061	97.12
482.28	90.12
482.498	99.12
482.717	86.12
482.935	87.12
483.153	77.12
483.372	86.12
483.59	96.12
483.808	99.12
484.027	75.12
484.245	75.12
484.463	83.12
484.681	104.12
484.9	99.12
485.118	88.12
485.336	96.12
485.554	98.12
485.772	99.12
485.99	96.12
486.209	116.12
486.427	106.12
486.645	104.12
486.863	112.12
487.081	109.12
487.299	103.12
487.517	93.12
487.735	98.12
487.953	102.12
488.171	94.12
488.389	85.12
488.607	101.12
488.825	84.12
489.043	99.12
489.261	96.12
489.479	72.12
489.696	70.12
489.914	90.12
490.132	99.12
490.35	100.12
490.568	98.12
490.786	88.12
491.003	98.12
491.221	96.12
491.439	98.12
491.657	99.12
491.874	92.12
492.092	85.12
492.31	86.12
492.527	81.12
492.745	97.12
492.963	99.12
493.18	89.12
493.398	89.12
493.615	94.12
493.833	91.12
494.05	95.12
494.268	79.12
494.485	102.12
494.703	89.12
494.92	81.12
495.138	98.12
495.355	91.12
495.573	80.12
495.79	81.12
496.008	84.12
496.225	90.12
496.442	82.12
496.66	104.12
496.877	93.12
497.094	98.12
497.312	99.12
497.529	92.12
497.746	92.12
497.963	89.12
498.181	87.12
498.398	99.12
498.615	98.12
498.832	98.12
499.049	74.12
499.267	87.12
499.484	85.12
499.701	96.12
499.918	83.12
500.135	95.12
500.352	97.12
500.569	81.12
500.786	78.12
501.003	98.12
501.22	96.12
501.437	92.12
501.654	101.12
501.871	104.12
502.088	95.12
502.305	89.12
502.522	95.12
502.739	85.12
502.956	94.12
503.172	75.12
503.389	103.12
503.606	104.12
503.823	89.12
504.04	88.12
504.256	100.12
504.473	88.12
504.69	102.12
504.907	97.12
505.123	93.12
505.34	97.12
505.557	97.12
505.773	97.12
505.99	79.12
506.207	87.12
506.423	87.12
506.64	77.12
506.856	87.12
507.073	86.12
507.289	79.12
507.506	79.12
507.722	106.12
507.939	104.12
508.155	92.12
508.372	103.12
508.588	91.12
508.805	93.12
509.021	81.12
509.238	97.12
509.454	97.12
509.67	112.12
509.887	95.12
510.103	124.12
510.319	164.12
510.536	640.12
510.752	1802.12
510.968	531.12
511.184	129.12
511.401	91.12
511.617	93.12
511.833	104.12
512.049	84.12
512.265	90.12
512.481	95.12
512.698	101.12
512.914	104.12
513.13	99.12
513.346	84.12
513.562	91.12
513.778	99.12
513.994	102.12
514.21	109.12
514.426	109.12
514.642	119.12
514.858	117.12
515.074	147.12
515.29	375.12
515.506	1119.12
515.721	391.12
515.937	142.12
516.153	105.12
516.369	87.12
