Data from Uncirc_1988_H10_HRD10591_00006.txt Node
Date: Wed Jan 03 12:04:05 EST 2024
User: Yrep
Spectrometer: HR+D1059
Trigger mode: 1
Integration Time (sec): 1.000000E-1
Scans to average: 1
Electric dark correction enabled: true
Nonlinearity correction enabled: false
Boxcar width: 0
XAxis mode: Wavelengths
Number of Pixels in Spectrum: 2048
>>>>>Begin Spectral Data<<<<<
223.165	-20.56
223.4	-20.56
223.635	-20.56
223.869	-24.56
224.104	-22.56
224.338	-11.56
224.573	-14.56
224.808	-4.56
225.042	-20.56
225.277	-9.56
225.511	-0.56
225.746	1.44
225.98	14.44
226.215	9.44
226.449	9.44
226.683	15.44
226.918	43.44
227.152	35.44
227.387	28.44
227.621	39.44
227.856	40.44
228.09	37.44
228.324	37.44
228.559	47.44
228.793	62.44
229.027	55.44
229.262	69.44
229.496	74.44
229.73	84.44
229.964	70.44
230.199	82.44
230.433	74.44
230.667	81.44
230.901	85.44
231.136	79.44
231.37	70.44
231.604	95.44
231.838	80.44
232.072	81.44
232.306	72.44
232.541	83.44
232.775	76.44
233.009	82.44
233.243	77.44
233.477	71.44
233.711	77.44
233.945	82.44
234.179	80.44
234.413	75.44
234.647	72.44
234.881	82.44
235.115	85.44
235.349	88.44
235.583	74.44
235.817	83.44
236.051	72.44
236.285	86.44
236.519	74.44
236.753	86.44
236.987	70.44
237.221	89.44
237.455	82.44
237.689	80.44
237.922	78.44
238.156	69.44
238.39	73.44
238.624	83.44
238.858	85.44
239.091	89.44
239.325	74.44
239.559	78.44
239.793	73.44
240.027	79.44
240.26	92.44
240.494	74.44
240.728	75.44
240.961	94.44
241.195	75.44
241.429	81.44
241.662	65.44
241.896	68.44
242.13	81.44
242.363	84.44
242.597	80.44
242.83	82.44
243.064	78.44
243.298	77.44
243.531	73.44
243.765	77.44
243.998	71.44
244.232	89.44
244.465	86.44
244.699	85.44
244.932	84.44
245.166	85.44
245.399	83.44
245.633	80.44
245.866	86.44
246.099	79.44
246.333	76.44
246.566	78.44
246.8	77.44
247.033	70.44
247.266	81.44
247.5	74.44
247.733	66.44
247.966	85.44
248.2	79.44
248.433	86.44
248.666	81.44
248.899	91.44
249.133	79.44
249.366	102.44
249.599	95.44
249.832	85.44
250.066	97.44
250.299	97.44
250.532	78.44
250.765	78.44
250.998	85.44
251.231	85.44
251.465	82.44
251.698	88.44
251.931	75.44
252.164	81.44
252.397	77.44
252.63	72.44
252.863	87.44
253.096	68.44
253.329	87.44
253.562	75.44
253.795	84.44
254.028	83.44
254.261	84.44
254.494	88.44
254.727	68.44
254.96	79.44
255.193	99.44
255.426	80.44
255.659	90.44
255.892	71.44
256.124	77.44
256.357	92.44
256.59	101.44
256.823	74.44
257.056	81.44
257.289	85.44
257.521	98.44
257.754	74.44
257.987	82.44
258.22	90.44
258.452	77.44
258.685	74.44
258.918	87.44
259.151	83.44
259.383	109.44
259.616	86.44
259.849	96.44
260.081	89.44
260.314	86.44
260.547	72.44
260.779	87.44
261.012	78.44
261.244	86.44
261.477	80.44
261.71	95.44
261.942	106.44
262.175	111.44
262.407	91.44
262.64	93.44
262.872	74.44
263.105	73.44
263.337	93.44
263.57	75.44
263.802	79.44
264.035	95.44
264.267	92.44
264.499	82.44
264.732	80.44
264.964	88.44
265.197	90.44
265.429	95.44
265.661	78.44
265.894	88.44
266.126	93.44
266.358	88.44
266.591	85.44
266.823	90.44
267.055	93.44
267.287	99.44
267.52	82.44
267.752	72.44
267.984	91.44
268.216	99.44
268.448	84.44
268.681	82.44
268.913	83.44
269.145	87.44
269.377	98.44
269.609	90.44
269.841	106.44
270.073	93.44
270.306	87.44
270.538	99.44
270.77	100.44
271.002	86.44
271.234	85.44
271.466	80.44
271.698	95.44
271.93	70.44
272.162	97.44
272.394	83.44
272.626	84.44
272.858	96.44
273.09	89.44
273.322	83.44
273.553	81.44
273.785	89.44
274.017	91.44
274.249	92.44
274.481	82.44
274.713	67.44
274.945	88.44
275.176	80.44
275.408	81.44
275.64	81.44
275.872	94.44
276.104	82.44
276.335	74.44
276.567	96.44
276.799	91.44
277.031	77.44
277.262	88.44
277.494	83.44
277.726	103.44
277.957	87.44
278.189	94.44
278.421	90.44
278.652	77.44
278.884	81.44
279.115	91.44
279.347	90.44
279.579	86.44
279.81	99.44
280.042	87.44
280.273	83.44
280.505	85.44
280.736	82.44
280.968	78.44
281.199	71.44
281.431	79.44
281.662	77.44
281.894	89.44
282.125	97.44
282.356	118.44
282.588	129.44
282.819	96.44
283.051	78.44
283.282	86.44
283.513	89.44
283.745	85.44
283.976	85.44
284.207	86.44
284.439	83.44
284.67	80.44
284.901	83.44
285.132	89.44
285.364	80.44
285.595	88.44
285.826	78.44
286.057	90.44
286.288	79.44
286.52	99.44
286.751	84.44
286.982	93.44
287.213	96.44
287.444	90.44
287.675	95.44
287.906	88.44
288.138	97.44
288.369	96.44
288.6	90.44
288.831	91.44
289.062	84.44
289.293	73.44
289.524	87.44
289.755	91.44
289.986	100.44
290.217	74.44
290.448	87.44
290.679	103.44
290.91	83.44
291.141	82.44
291.371	83.44
291.602	98.44
291.833	94.44
292.064	84.44
292.295	82.44
292.526	89.44
292.757	78.44
292.987	87.44
293.218	89.44
293.449	83.44
293.68	93.44
293.91	88.44
294.141	99.44
294.372	78.44
294.603	83.44
294.833	73.44
295.064	83.44
295.295	96.44
295.525	90.44
295.756	94.44
295.987	131.44
296.217	127.44
296.448	114.44
296.679	95.44
296.909	86.44
297.14	102.44
297.37	99.44
297.601	95.44
297.831	107.44
298.062	80.44
298.292	97.44
298.523	86.44
298.753	89.44
298.984	102.44
299.214	103.44
299.445	106.44
299.675	90.44
299.905	99.44
300.136	100.44
300.366	86.44
300.597	84.44
300.827	101.44
301.057	93.44
301.288	82.44
301.518	80.44
301.748	93.44
301.979	98.44
302.209	93.44
302.439	97.44
302.669	85.44
302.9	93.44
303.13	88.44
303.36	86.44
303.59	90.44
303.82	110.44
304.051	95.44
304.281	89.44
304.511	85.44
304.741	84.44
304.971	76.44
305.201	90.44
305.431	95.44
305.661	84.44
305.891	79.44
306.121	108.44
306.352	95.44
306.582	102.44
306.812	99.44
307.042	83.44
307.272	88.44
307.502	73.44
307.731	101.44
307.961	85.44
308.191	98.44
308.421	92.44
308.651	84.44
308.881	81.44
309.111	92.44
309.341	95.44
309.571	99.44
309.8	96.44
310.03	114.44
310.26	113.44
310.49	98.44
310.72	110.44
310.949	100.44
311.179	89.44
311.409	97.44
311.639	83.44
311.868	89.44
312.098	105.44
312.328	92.44
312.557	97.44
312.787	102.44
313.017	102.44
313.246	105.44
313.476	87.44
313.706	96.44
313.935	88.44
314.165	94.44
314.394	102.44
314.624	98.44
314.853	91.44
315.083	91.44
315.312	95.44
315.542	83.44
315.771	93.44
316.001	89.44
316.23	93.44
316.46	94.44
316.689	93.44
316.919	87.44
317.148	94.44
317.377	100.44
317.607	91.44
317.836	97.44
318.065	97.44
318.295	104.44
318.524	88.44
318.753	93.44
318.983	101.44
319.212	89.44
319.441	89.44
319.67	100.44
319.9	104.44
320.129	111.44
320.358	115.44
320.587	85.44
320.816	96.44
321.046	106.44
321.275	107.44
321.504	87.44
321.733	110.44
321.962	100.44
322.191	100.44
322.42	95.44
322.649	106.44
322.878	105.44
323.108	113.44
323.337	123.44
323.566	129.44
323.795	147.44
324.024	202.44
324.253	327.44
324.482	714.44
324.71	1431.44
324.939	1855.44
325.168	656.44
325.397	203.44
325.626	149.44
325.855	126.44
326.084	111.44
326.313	127.44
326.542	146.44
326.77	213.44
326.999	431.44
327.228	840.44
327.457	1517.44
327.686	1144.44
327.914	329.44
328.143	151.44
328.372	119.44
328.6	119.44
328.829	114.44
329.058	107.44
329.287	118.44
329.515	106.44
329.744	107.44
329.972	85.44
330.201	106.44
330.43	96.44
330.658	119.44
330.887	127.44
331.115	109.44
331.344	98.44
331.572	86.44
331.801	89.44
332.03	97.44
332.258	101.44
332.486	111.44
332.715	98.44
332.943	104.44
333.172	110.44
333.4	88.44
333.629	98.44
333.857	95.44
334.085	101.44
334.314	108.44
334.542	94.44
334.771	106.44
334.999	95.44
335.227	95.44
335.455	103.44
335.684	95.44
335.912	88.44
336.14	87.44
336.369	100.44
336.597	107.44
336.825	106.44
337.053	90.44
337.281	94.44
337.51	83.44
337.738	90.44
337.966	100.44
338.194	101.44
338.422	90.44
338.65	96.44
338.878	118.44
339.106	106.44
339.334	100.44
339.562	83.44
339.79	97.44
340.018	90.44
340.246	95.44
340.474	94.44
340.702	103.44
340.93	95.44
341.158	102.44
341.386	100.44
341.614	99.44
341.842	83.44
342.07	91.44
342.298	93.44
342.526	95.44
342.754	101.44
342.981	89.44
343.209	91.44
343.437	97.44
343.665	104.44
343.893	90.44
344.12	95.44
344.348	92.44
344.576	86.44
344.804	93.44
345.031	81.44
345.259	107.44
345.487	87.44
345.714	90.44
345.942	93.44
346.17	92.44
346.397	91.44
346.625	77.44
346.853	90.44
347.08	99.44
347.308	94.44
347.535	88.44
347.763	85.44
347.99	102.44
348.218	95.44
348.445	91.44
348.673	100.44
348.9	102.44
349.128	91.44
349.355	99.44
349.583	89.44
349.81	95.44
350.037	93.44
350.265	102.44
350.492	94.44
350.72	94.44
350.947	94.44
351.174	98.44
351.402	101.44
351.629	85.44
351.856	88.44
352.083	101.44
352.311	108.44
352.538	97.44
352.765	92.44
352.992	112.44
353.22	111.44
353.447	98.44
353.674	98.44
353.901	106.44
354.128	100.44
354.355	110.44
354.583	87.44
354.81	103.44
355.037	98.44
355.264	92.44
355.491	87.44
355.718	91.44
355.945	97.44
356.172	102.44
356.399	104.44
356.626	102.44
356.853	107.44
357.08	86.44
357.307	91.44
357.534	89.44
357.761	96.44
357.988	103.44
358.215	101.44
358.441	97.44
358.668	94.44
358.895	93.44
359.122	97.44
359.349	79.44
359.576	88.44
359.802	84.44
360.029	90.44
360.256	99.44
360.483	106.44
360.709	95.44
360.936	99.44
361.163	99.44
361.39	91.44
361.616	94.44
361.843	98.44
362.07	90.44
362.296	96.44
362.523	99.44
362.749	101.44
362.976	97.44
363.203	79.44
363.429	98.44
363.656	88.44
363.882	96.44
364.109	109.44
364.335	97.44
364.562	86.44
364.788	93.44
365.015	94.44
365.241	91.44
365.468	98.44
365.694	100.44
365.92	94.44
366.147	95.44
366.373	99.44
366.599	94.44
366.826	101.44
367.052	84.44
367.278	98.44
367.505	95.44
367.731	96.44
367.957	94.44
368.184	103.44
368.41	99.44
368.636	116.44
368.862	101.44
369.089	101.44
369.315	71.44
369.541	74.44
369.767	96.44
369.993	100.44
370.219	87.44
370.445	110.44
370.672	88.44
370.898	71.44
371.124	90.44
371.35	96.44
371.576	90.44
371.802	102.44
372.028	74.44
372.254	100.44
372.48	87.44
372.706	83.44
372.932	88.44
373.158	96.44
373.384	71.44
373.61	90.44
373.835	96.44
374.061	80.44
374.287	101.44
374.513	93.44
374.739	90.44
374.965	83.44
375.191	81.44
375.416	90.44
375.642	80.44
375.868	87.44
376.094	91.44
376.319	95.44
376.545	94.44
376.771	98.44
376.997	91.44
377.222	100.44
377.448	82.44
377.674	91.44
377.899	96.44
378.125	89.44
378.35	94.44
378.576	94.44
378.802	84.44
379.027	102.44
379.253	93.44
379.478	104.44
379.704	86.44
379.929	102.44
380.155	97.44
380.38	93.44
380.606	99.44
380.831	85.44
381.057	97.44
381.282	97.44
381.507	100.44
381.733	106.44
381.958	109.44
382.184	117.44
382.409	104.44
382.634	115.44
382.86	102.44
383.085	103.44
383.31	104.44
383.535	90.44
383.761	103.44
383.986	96.44
384.211	101.44
384.436	105.44
384.662	100.44
384.887	94.44
385.112	93.44
385.337	106.44
385.562	95.44
385.787	97.44
386.013	101.44
386.238	107.44
386.463	104.44
386.688	113.44
386.913	104.44
387.138	103.44
387.363	100.44
387.588	106.44
387.813	103.44
388.038	103.44
388.263	105.44
388.488	119.44
388.713	108.44
388.938	94.44
389.163	105.44
389.387	111.44
389.612	94.44
389.837	91.44
390.062	74.44
390.287	90.44
390.512	101.44
390.736	98.44
390.961	99.44
391.186	95.44
391.411	101.44
391.636	90.44
391.86	86.44
392.085	104.44
392.31	87.44
392.534	83.44
392.759	88.44
392.984	89.44
393.208	98.44
393.433	104.44
393.658	102.44
393.882	75.44
394.107	86.44
394.331	92.44
394.556	87.44
394.78	82.44
395.005	108.44
395.229	82.44
395.454	90.44
395.678	89.44
395.903	86.44
396.127	99.44
396.352	94.44
396.576	94.44
396.801	99.44
397.025	102.44
397.249	89.44
397.474	80.44
397.698	85.44
397.922	94.44
398.147	91.44
398.371	95.44
398.595	96.44
398.82	95.44
399.044	102.44
399.268	85.44
399.492	88.44
399.717	83.44
399.941	83.44
400.165	95.44
400.389	99.44
400.613	94.44
400.837	87.44
401.062	87.44
401.286	91.44
401.51	87.44
401.734	87.44
401.958	86.44
402.182	105.44
402.406	120.44
402.63	106.44
402.854	94.44
403.078	96.44
403.302	82.44
403.526	91.44
403.75	90.44
403.974	85.44
404.198	93.44
404.422	89.44
404.645	87.44
404.869	104.44
405.093	84.44
405.317	99.44
405.541	95.44
405.765	98.44
405.988	103.44
406.212	129.44
406.436	184.44
406.66	133.44
406.883	88.44
407.107	97.44
407.331	101.44
407.555	97.44
407.778	97.44
408.002	88.44
408.226	102.44
408.449	99.44
408.673	79.44
408.896	94.44
409.12	105.44
409.344	100.44
409.567	90.44
409.791	104.44
410.014	97.44
410.238	90.44
410.461	107.44
410.685	100.44
410.908	90.44
411.132	102.44
411.355	97.44
411.578	84.44
411.802	86.44
412.025	97.44
412.249	90.44
412.472	99.44
412.695	79.44
412.919	74.44
413.142	93.44
413.365	89.44
413.589	89.44
413.812	103.44
414.035	87.44
414.258	89.44
414.482	102.44
414.705	101.44
414.928	91.44
415.151	89.44
415.374	103.44
415.597	92.44
415.821	92.44
416.044	83.44
416.267	83.44
416.49	90.44
416.713	103.44
416.936	86.44
417.159	102.44
417.382	93.44
417.605	100.44
417.828	95.44
418.051	90.44
418.274	68.44
418.497	93.44
418.72	88.44
418.943	99.44
419.166	79.44
419.389	105.44
419.611	97.44
419.834	92.44
420.057	95.44
420.28	86.44
420.503	95.44
420.726	84.44
420.948	101.44
421.171	83.44
421.394	88.44
421.617	95.44
421.839	96.44
422.062	106.44
422.285	96.44
422.507	96.44
422.73	100.44
422.953	91.44
423.175	96.44
423.398	92.44
423.621	96.44
423.843	94.44
424.066	86.44
424.288	101.44
424.511	90.44
424.733	95.44
424.956	107.44
425.178	93.44
425.401	110.44
425.623	99.44
425.846	99.44
426.068	94.44
426.291	94.44
426.513	90.44
426.735	86.44
426.958	95.44
427.18	107.44
427.402	128.44
427.625	137.44
427.847	107.44
428.069	87.44
428.292	83.44
428.514	107.44
428.736	90.44
428.958	86.44
429.181	90.44
429.403	77.44
429.625	95.44
429.847	96.44
430.069	105.44
430.292	97.44
430.514	81.44
430.736	91.44
430.958	94.44
431.18	85.44
431.402	95.44
431.624	96.44
431.846	79.44
432.068	97.44
432.29	90.44
432.512	97.44
432.734	93.44
432.956	94.44
433.178	90.44
433.4	96.44
433.622	95.44
433.844	83.44
434.066	92.44
434.287	97.44
434.509	89.44
434.731	88.44
434.953	83.44
435.175	87.44
435.397	92.44
435.618	105.44
435.84	110.44
436.062	131.44
436.284	108.44
436.505	101.44
436.727	91.44
436.949	86.44
437.17	94.44
437.392	91.44
437.614	89.44
437.835	96.44
438.057	107.44
438.278	111.44
438.5	99.44
438.721	136.44
438.943	107.44
439.165	92.44
439.386	101.44
439.608	83.44
439.829	89.44
440.05	99.44
440.272	121.44
440.493	112.44
440.715	94.44
440.936	94.44
441.158	101.44
441.379	91.44
441.6	88.44
441.822	100.44
442.043	106.44
442.264	106.44
442.486	105.44
442.707	91.44
442.928	114.44
443.149	113.44
443.371	118.44
443.592	106.44
443.813	104.44
444.034	97.44
444.255	104.44
444.476	96.44
444.698	90.44
444.919	96.44
445.14	143.44
445.361	118.44
445.582	107.44
445.803	144.44
446.024	142.44
446.245	126.44
446.466	94.44
446.687	85.44
446.908	91.44
447.129	82.44
447.35	91.44
447.571	88.44
447.792	100.44
448.013	83.44
448.234	88.44
448.455	98.44
448.675	124.44
448.896	122.44
449.117	105.44
449.338	100.44
449.559	125.44
449.779	133.44
450	85.44
450.221	89.44
450.442	93.44
450.662	88.44
450.883	92.44
451.104	106.44
451.324	91.44
451.545	94.44
451.766	81.44
451.986	98.44
452.207	85.44
452.428	87.44
452.648	105.44
452.869	96.44
453.089	101.44
453.31	94.44
453.53	84.44
453.751	88.44
453.971	92.44
454.192	105.44
454.412	101.44
454.633	77.44
454.853	85.44
455.073	101.44
455.294	101.44
455.514	106.44
455.734	94.44
455.955	91.44
456.175	96.44
456.395	86.44
456.616	90.44
456.836	85.44
457.056	101.44
457.276	87.44
457.497	93.44
457.717	80.44
457.937	81.44
458.157	78.44
458.377	96.44
458.598	103.44
458.818	133.44
459.038	146.44
459.258	104.44
459.478	93.44
459.698	85.44
459.918	86.44
460.138	88.44
460.358	96.44
460.578	94.44
460.798	78.44
461.018	89.44
461.238	83.44
461.458	93.44
461.678	87.44
461.898	89.44
462.118	85.44
462.338	84.44
462.558	93.44
462.777	92.44
462.997	85.44
463.217	91.44
463.437	85.44
463.657	81.44
463.876	92.44
464.096	88.44
464.316	75.44
464.536	114.44
464.755	90.44
464.975	106.44
465.195	146.44
465.414	134.44
465.634	104.44
465.854	91.44
466.073	89.44
466.293	98.44
466.512	93.44
466.732	84.44
466.951	88.44
467.171	101.44
467.391	97.44
467.61	86.44
467.829	100.44
468.049	101.44
468.268	93.44
468.488	71.44
468.707	90.44
468.927	84.44
469.146	83.44
469.365	79.44
469.585	86.44
469.804	94.44
470.023	89.44
470.243	93.44
470.462	100.44
470.681	104.44
470.901	104.44
471.12	89.44
471.339	75.44
471.558	90.44
471.777	98.44
471.997	103.44
472.216	86.44
472.435	103.44
472.654	82.44
472.873	83.44
473.092	80.44
473.311	94.44
473.53	94.44
473.749	91.44
473.968	110.44
474.187	111.44
474.406	113.44
474.625	102.44
474.844	81.44
475.063	84.44
475.282	90.44
475.501	88.44
475.72	87.44
475.939	76.44
476.158	89.44
476.377	82.44
476.596	111.44
476.814	102.44
477.033	93.44
477.252	90.44
477.471	107.44
477.69	88.44
477.908	95.44
478.127	81.44
478.346	91.44
478.564	95.44
478.783	109.44
479.002	80.44
479.22	92.44
479.439	97.44
479.658	90.44
479.876	97.44
480.095	89.44
480.313	101.44
480.532	89.44
480.751	94.44
480.969	93.44
481.188	77.44
481.406	98.44
481.624	102.44
481.843	94.44
482.061	84.44
482.28	87.44
482.498	91.44
482.717	87.44
482.935	91.44
483.153	89.44
483.372	90.44
483.59	83.44
483.808	88.44
484.027	75.44
484.245	93.44
484.463	89.44
484.681	102.44
484.9	96.44
485.118	105.44
485.336	94.44
485.554	109.44
485.772	97.44
485.99	102.44
486.209	118.44
486.427	104.44
486.645	97.44
486.863	121.44
487.081	102.44
487.299	99.44
487.517	90.44
487.735	112.44
487.953	92.44
488.171	97.44
488.389	96.44
488.607	105.44
488.825	96.44
489.043	90.44
489.261	94.44
489.479	86.44
489.696	93.44
489.914	89.44
490.132	103.44
490.35	90.44
490.568	89.44
490.786	90.44
491.003	104.44
491.221	88.44
491.439	98.44
491.657	110.44
491.874	96.44
492.092	83.44
492.31	88.44
492.527	91.44
492.745	115.44
492.963	95.44
493.18	97.44
493.398	92.44
493.615	109.44
493.833	93.44
494.05	99.44
494.268	86.44
494.485	83.44
494.703	98.44
494.92	87.44
495.138	69.44
495.355	102.44
495.573	92.44
495.79	106.44
496.008	81.44
496.225	85.44
496.442	94.44
496.66	98.44
496.877	95.44
497.094	90.44
497.312	104.44
497.529	97.44
497.746	85.44
497.963	93.44
498.181	89.44
498.398	93.44
498.615	113.44
498.832	107.44
499.049	83.44
499.267	87.44
499.484	93.44
499.701	93.44
499.918	86.44
500.135	87.44
500.352	91.44
500.569	88.44
500.786	98.44
501.003	96.44
501.22	85.44
501.437	108.44
501.654	103.44
501.871	102.44
502.088	95.44
502.305	102.44
502.522	95.44
502.739	82.44
502.956	87.44
503.172	94.44
503.389	91.44
503.606	110.44
503.823	90.44
504.04	86.44
504.256	101.44
504.473	113.44
504.69	104.44
504.907	92.44
505.123	93.44
505.34	104.44
505.557	90.44
505.773	86.44
505.99	87.44
506.207	95.44
506.423	101.44
506.64	93.44
506.856	104.44
507.073	104.44
507.289	106.44
507.506	95.44
507.722	107.44
507.939	104.44
508.155	110.44
508.372	88.44
508.588	102.44
508.805	91.44
509.021	103.44
509.238	94.44
509.454	105.44
509.67	107.44
509.887	105.44
510.103	123.44
510.319	175.44
510.536	559.44
510.752	1561.44
510.968	468.44
511.184	131.44
511.401	107.44
511.617	105.44
511.833	107.44
512.049	92.44
512.265	85.44
512.481	89.44
512.698	93.44
512.914	94.44
513.13	106.44
513.346	96.44
513.562	79.44
513.778	109.44
513.994	106.44
514.21	105.44
514.426	114.44
514.642	129.44
514.858	117.44
515.074	164.44
