Data from Uncirc_1988_H10_HRD10591_00089.txt Node
Date: Wed Jan 03 12:04:22 EST 2024
User: Yrep
Spectrometer: HR+D1059
Trigger mode: 1
Integration Time (sec): 1.000000E-1
Scans to average: 1
Electric dark correction enabled: true
Nonlinearity correction enabled: false
Boxcar width: 0
XAxis mode: Wavelengths
Number of Pixels in Spectrum: 2048
>>>>>Begin Spectral Data<<<<<
223.165	-19.5
223.4	-19.5
223.635	-19.5
223.869	-27.5
224.104	-22.5
224.338	-12.5
224.573	-33.5
224.808	-6.5
225.042	1.5
225.277	-1.5
225.511	-9.5
225.746	8.5
225.98	4.5
226.215	20.5
226.449	21.5
226.683	27.5
226.918	30.5
227.152	18.5
227.387	51.5
227.621	51.5
227.856	38.5
228.09	60.5
228.324	50.5
228.559	67.5
228.793	72.5
229.027	79.5
229.262	66.5
229.496	65.5
229.73	85.5
229.964	86.5
230.199	73.5
230.433	82.5
230.667	80.5
230.901	67.5
231.136	94.5
231.37	67.5
231.604	79.5
231.838	87.5
232.072	83.5
232.306	97.5
232.541	86.5
232.775	82.5
233.009	85.5
233.243	71.5
233.477	84.5
233.711	78.5
233.945	70.5
234.179	98.5
234.413	91.5
234.647	74.5
234.881	81.5
235.115	83.5
235.349	76.5
235.583	82.5
235.817	88.5
236.051	89.5
236.285	72.5
236.519	88.5
236.753	82.5
236.987	83.5
237.221	81.5
237.455	84.5
237.689	73.5
237.922	64.5
238.156	71.5
238.39	76.5
238.624	82.5
238.858	90.5
239.091	68.5
239.325	65.5
239.559	91.5
239.793	72.5
240.027	65.5
240.26	84.5
240.494	89.5
240.728	71.5
240.961	80.5
241.195	80.5
241.429	69.5
241.662	68.5
241.896	64.5
242.13	73.5
242.363	71.5
242.597	75.5
242.83	68.5
243.064	68.5
243.298	65.5
243.531	75.5
243.765	75.5
243.998	79.5
244.232	90.5
244.465	79.5
244.699	92.5
244.932	94.5
245.166	89.5
245.399	68.5
245.633	87.5
245.866	81.5
246.099	80.5
246.333	74.5
246.566	74.5
246.8	85.5
247.033	72.5
247.266	82.5
247.5	77.5
247.733	82.5
247.966	80.5
248.2	78.5
248.433	59.5
248.666	85.5
248.899	85.5
249.133	78.5
249.366	88.5
249.599	99.5
249.832	85.5
250.066	94.5
250.299	89.5
250.532	90.5
250.765	79.5
250.998	80.5
251.231	88.5
251.465	85.5
251.698	86.5
251.931	80.5
252.164	86.5
252.397	95.5
252.63	86.5
252.863	81.5
253.096	81.5
253.329	91.5
253.562	84.5
253.795	87.5
254.028	82.5
254.261	89.5
254.494	76.5
254.727	91.5
254.96	92.5
255.193	88.5
255.426	83.5
255.659	76.5
255.892	88.5
256.124	85.5
256.357	81.5
256.59	79.5
256.823	88.5
257.056	78.5
257.289	83.5
257.521	91.5
257.754	88.5
257.987	81.5
258.22	74.5
258.452	78.5
258.685	74.5
258.918	82.5
259.151	82.5
259.383	99.5
259.616	74.5
259.849	70.5
260.081	95.5
260.314	79.5
260.547	89.5
260.779	92.5
261.012	85.5
261.244	82.5
261.477	76.5
261.71	92.5
261.942	119.5
262.175	110.5
262.407	92.5
262.64	88.5
262.872	72.5
263.105	80.5
263.337	83.5
263.57	84.5
263.802	77.5
264.035	89.5
264.267	81.5
264.499	74.5
264.732	87.5
264.964	90.5
265.197	79.5
265.429	76.5
265.661	85.5
265.894	82.5
266.126	83.5
266.358	78.5
266.591	90.5
266.823	94.5
267.055	94.5
267.287	91.5
267.52	92.5
267.752	90.5
267.984	87.5
268.216	83.5
268.448	86.5
268.681	70.5
268.913	83.5
269.145	82.5
269.377	95.5
269.609	89.5
269.841	69.5
270.073	73.5
270.306	79.5
270.538	86.5
270.77	86.5
271.002	88.5
271.234	82.5
271.466	75.5
271.698	89.5
271.93	94.5
272.162	93.5
272.394	80.5
272.626	88.5
272.858	87.5
273.09	86.5
273.322	98.5
273.553	91.5
273.785	88.5
274.017	90.5
274.249	88.5
274.481	82.5
274.713	85.5
274.945	83.5
275.176	83.5
275.408	105.5
275.64	89.5
275.872	86.5
276.104	87.5
276.335	96.5
276.567	95.5
276.799	107.5
277.031	101.5
277.262	97.5
277.494	98.5
277.726	88.5
277.957	93.5
278.189	80.5
278.421	100.5
278.652	96.5
278.884	98.5
279.115	86.5
279.347	89.5
279.579	85.5
279.81	86.5
280.042	84.5
280.273	92.5
280.505	92.5
280.736	75.5
280.968	93.5
281.199	74.5
281.431	85.5
281.662	91.5
281.894	96.5
282.125	103.5
282.356	115.5
282.588	156.5
282.819	127.5
283.051	102.5
283.282	90.5
283.513	88.5
283.745	88.5
283.976	94.5
284.207	94.5
284.439	96.5
284.67	88.5
284.901	122.5
285.132	74.5
285.364	75.5
285.595	75.5
285.826	84.5
286.057	99.5
286.288	106.5
286.52	96.5
286.751	92.5
286.982	88.5
287.213	78.5
287.444	82.5
287.675	89.5
287.906	97.5
288.138	89.5
288.369	86.5
288.6	95.5
288.831	85.5
289.062	89.5
289.293	90.5
289.524	91.5
289.755	86.5
289.986	93.5
290.217	104.5
290.448	102.5
290.679	90.5
290.91	91.5
291.141	76.5
291.371	78.5
291.602	81.5
291.833	83.5
292.064	73.5
292.295	88.5
292.526	82.5
292.757	99.5
292.987	84.5
293.218	91.5
293.449	87.5
293.68	83.5
293.91	85.5
294.141	72.5
294.372	81.5
294.603	86.5
294.833	82.5
295.064	96.5
295.295	102.5
295.525	87.5
295.756	89.5
295.987	109.5
296.217	137.5
296.448	130.5
296.679	111.5
296.909	108.5
297.14	103.5
297.37	98.5
297.601	90.5
297.831	96.5
298.062	92.5
298.292	85.5
298.523	100.5
298.753	82.5
298.984	91.5
299.214	82.5
299.445	96.5
299.675	97.5
299.905	109.5
300.136	105.5
300.366	82.5
300.597	101.5
300.827	84.5
301.057	114.5
301.288	118.5
301.518	89.5
301.748	78.5
301.979	105.5
302.209	106.5
302.439	97.5
302.669	104.5
302.9	102.5
303.13	76.5
303.36	88.5
303.59	110.5
303.82	116.5
304.051	95.5
304.281	111.5
304.511	103.5
304.741	96.5
304.971	86.5
305.201	84.5
305.431	96.5
305.661	82.5
305.891	96.5
306.121	98.5
306.352	103.5
306.582	119.5
306.812	100.5
307.042	98.5
307.272	81.5
307.502	100.5
307.731	104.5
307.961	100.5
308.191	105.5
308.421	89.5
308.651	92.5
308.881	73.5
309.111	90.5
309.341	102.5
309.571	107.5
309.8	99.5
310.03	105.5
310.26	99.5
310.49	105.5
310.72	90.5
310.949	109.5
311.179	114.5
311.409	99.5
311.639	103.5
311.868	103.5
312.098	90.5
312.328	107.5
312.557	113.5
312.787	106.5
313.017	103.5
313.246	96.5
313.476	92.5
313.706	94.5
313.935	98.5
314.165	101.5
314.394	103.5
314.624	105.5
314.853	96.5
315.083	100.5
315.312	88.5
315.542	88.5
315.771	99.5
316.001	90.5
316.23	112.5
316.46	87.5
316.689	102.5
316.919	87.5
317.148	87.5
317.377	102.5
317.607	102.5
317.836	97.5
318.065	93.5
318.295	92.5
318.524	96.5
318.753	84.5
318.983	86.5
319.212	100.5
319.441	106.5
319.67	114.5
319.9	93.5
320.129	97.5
320.358	90.5
320.587	108.5
320.816	108.5
321.046	98.5
321.275	86.5
321.504	108.5
321.733	103.5
321.962	102.5
322.191	113.5
322.42	106.5
322.649	114.5
322.878	113.5
323.108	115.5
323.337	126.5
323.566	157.5
323.795	143.5
324.024	209.5
324.253	411.5
324.482	898.5
324.71	1844.5
324.939	2501.5
325.168	919.5
325.397	271.5
325.626	160.5
325.855	144.5
326.084	127.5
326.313	135.5
326.542	151.5
326.77	253.5
326.999	472.5
327.228	991.5
327.457	1923.5
327.686	1507.5
327.914	415.5
328.143	199.5
328.372	176.5
328.6	127.5
328.829	119.5
329.058	131.5
329.287	137.5
329.515	114.5
329.744	107.5
329.972	108.5
330.201	138.5
330.43	159.5
330.658	140.5
330.887	162.5
331.115	133.5
331.344	105.5
331.572	100.5
331.801	100.5
332.03	121.5
332.258	111.5
332.486	99.5
332.715	101.5
332.943	96.5
333.172	97.5
333.4	100.5
333.629	108.5
333.857	110.5
334.085	114.5
334.314	116.5
334.542	178.5
334.771	159.5
334.999	117.5
335.227	113.5
335.455	111.5
335.684	106.5
335.912	102.5
336.14	101.5
336.369	101.5
336.597	105.5
336.825	102.5
337.053	103.5
337.281	96.5
337.51	91.5
337.738	99.5
337.966	92.5
338.194	89.5
338.422	88.5
338.65	86.5
338.878	79.5
339.106	96.5
339.334	98.5
339.562	99.5
339.79	87.5
340.018	102.5
340.246	106.5
340.474	97.5
340.702	97.5
340.93	92.5
341.158	85.5
341.386	91.5
341.614	100.5
341.842	101.5
342.07	88.5
342.298	83.5
342.526	94.5
342.754	98.5
342.981	96.5
343.209	92.5
343.437	87.5
343.665	88.5
343.893	100.5
344.12	94.5
344.348	100.5
344.576	93.5
344.804	91.5
345.031	84.5
345.259	86.5
345.487	98.5
345.714	75.5
345.942	86.5
346.17	94.5
346.397	94.5
346.625	99.5
346.853	99.5
347.08	90.5
347.308	98.5
347.535	102.5
347.763	97.5
347.99	105.5
348.218	103.5
348.445	116.5
348.673	108.5
348.9	100.5
349.128	100.5
349.355	103.5
349.583	89.5
349.81	92.5
350.037	97.5
350.265	102.5
350.492	90.5
350.72	96.5
350.947	92.5
351.174	113.5
351.402	94.5
351.629	105.5
351.856	124.5
352.083	101.5
352.311	112.5
352.538	106.5
352.765	104.5
352.992	130.5
353.22	105.5
353.447	114.5
353.674	111.5
353.901	93.5
354.128	96.5
354.355	102.5
354.583	97.5
354.81	90.5
355.037	104.5
355.264	71.5
355.491	106.5
355.718	106.5
355.945	103.5
356.172	98.5
356.399	92.5
356.626	105.5
356.853	91.5
357.08	94.5
357.307	113.5
357.534	101.5
357.761	80.5
357.988	88.5
358.215	89.5
358.441	89.5
358.668	94.5
358.895	84.5
359.122	97.5
359.349	95.5
359.576	100.5
359.802	106.5
360.029	113.5
360.256	112.5
360.483	109.5
360.709	96.5
360.936	103.5
361.163	94.5
361.39	103.5
361.616	93.5
361.843	97.5
362.07	108.5
362.296	105.5
362.523	104.5
362.749	99.5
362.976	84.5
363.203	102.5
363.429	104.5
363.656	104.5
363.882	98.5
364.109	95.5
364.335	90.5
364.562	105.5
364.788	96.5
365.015	91.5
365.241	95.5
365.468	125.5
365.694	111.5
365.92	94.5
366.147	91.5
366.373	104.5
366.599	94.5
366.826	104.5
367.052	92.5
367.278	94.5
367.505	100.5
367.731	94.5
367.957	82.5
368.184	101.5
368.41	112.5
368.636	102.5
368.862	132.5
369.089	107.5
369.315	104.5
369.541	97.5
369.767	86.5
369.993	98.5
370.219	97.5
370.445	81.5
370.672	100.5
370.898	90.5
371.124	82.5
371.35	82.5
371.576	103.5
371.802	85.5
372.028	95.5
372.254	86.5
372.48	87.5
372.706	80.5
372.932	85.5
373.158	97.5
373.384	100.5
373.61	80.5
373.835	88.5
374.061	91.5
374.287	99.5
374.513	80.5
374.739	91.5
374.965	90.5
375.191	92.5
375.416	84.5
375.642	88.5
375.868	98.5
376.094	97.5
376.319	92.5
376.545	96.5
376.771	92.5
376.997	95.5
377.222	91.5
377.448	91.5
377.674	86.5
377.899	95.5
378.125	100.5
378.35	96.5
378.576	91.5
378.802	94.5
379.027	86.5
379.253	84.5
379.478	88.5
379.704	100.5
379.929	95.5
380.155	94.5
380.38	92.5
380.606	99.5
380.831	80.5
381.057	107.5
381.282	100.5
381.507	96.5
381.733	104.5
381.958	105.5
382.184	94.5
382.409	110.5
382.634	95.5
382.86	94.5
383.085	112.5
383.31	98.5
383.535	84.5
383.761	101.5
383.986	98.5
384.211	96.5
384.436	93.5
384.662	95.5
384.887	90.5
385.112	108.5
385.337	112.5
385.562	93.5
385.787	103.5
386.013	104.5
386.238	114.5
386.463	96.5
386.688	106.5
386.913	99.5
387.138	102.5
387.363	95.5
387.588	95.5
387.813	95.5
388.038	110.5
388.263	96.5
388.488	90.5
388.713	98.5
388.938	102.5
389.163	93.5
389.387	91.5
389.612	93.5
389.837	96.5
390.062	106.5
390.287	108.5
390.512	98.5
390.736	96.5
390.961	90.5
391.186	97.5
391.411	97.5
391.636	94.5
391.86	101.5
392.085	97.5
392.31	81.5
392.534	92.5
392.759	95.5
392.984	97.5
393.208	94.5
393.433	83.5
393.658	94.5
393.882	92.5
394.107	86.5
394.331	72.5
394.556	71.5
394.78	93.5
395.005	74.5
395.229	78.5
395.454	109.5
395.678	80.5
395.903	107.5
396.127	86.5
396.352	78.5
396.576	74.5
396.801	80.5
397.025	78.5
397.249	89.5
397.474	92.5
397.698	92.5
397.922	98.5
398.147	108.5
398.371	85.5
398.595	83.5
398.82	83.5
399.044	87.5
399.268	94.5
399.492	84.5
399.717	91.5
399.941	83.5
400.165	89.5
400.389	98.5
400.613	86.5
400.837	90.5
401.062	90.5
401.286	92.5
401.51	99.5
401.734	89.5
401.958	112.5
402.182	130.5
402.406	174.5
402.63	102.5
402.854	83.5
403.078	101.5
403.302	91.5
403.526	91.5
403.75	86.5
403.974	89.5
404.198	96.5
404.422	94.5
404.645	84.5
404.869	98.5
405.093	107.5
405.317	115.5
405.541	106.5
405.765	109.5
405.988	118.5
406.212	195.5
406.436	249.5
406.66	160.5
406.883	103.5
407.107	97.5
407.331	101.5
407.555	106.5
407.778	95.5
408.002	88.5
408.226	81.5
408.449	98.5
408.673	93.5
408.896	91.5
409.12	109.5
409.344	102.5
409.567	94.5
409.791	106.5
410.014	107.5
410.238	93.5
410.461	82.5
410.685	91.5
410.908	96.5
411.132	102.5
411.355	106.5
411.578	108.5
411.802	103.5
412.025	95.5
412.249	90.5
412.472	87.5
412.695	103.5
412.919	95.5
413.142	100.5
413.365	82.5
413.589	77.5
413.812	84.5
414.035	112.5
414.258	96.5
414.482	87.5
414.705	89.5
414.928	98.5
415.151	103.5
415.374	91.5
415.597	89.5
415.821	85.5
416.044	86.5
416.267	95.5
416.49	88.5
416.713	95.5
416.936	98.5
417.159	106.5
417.382	85.5
417.605	89.5
417.828	96.5
418.051	107.5
418.274	94.5
418.497	92.5
418.72	82.5
418.943	102.5
419.166	93.5
419.389	90.5
419.611	73.5
419.834	91.5
420.057	86.5
420.28	95.5
420.503	73.5
420.726	81.5
420.948	84.5
421.171	95.5
421.394	106.5
421.617	96.5
421.839	86.5
422.062	92.5
422.285	99.5
422.507	107.5
422.73	115.5
422.953	100.5
423.175	104.5
423.398	93.5
423.621	108.5
423.843	92.5
424.066	87.5
424.288	87.5
424.511	94.5
424.733	89.5
424.956	128.5
425.178	109.5
425.401	101.5
425.623	115.5
425.846	98.5
426.068	93.5
426.291	100.5
426.513	93.5
426.735	114.5
426.958	91.5
427.18	114.5
427.402	143.5
427.625	184.5
427.847	156.5
428.069	112.5
428.292	103.5
428.514	87.5
428.736	81.5
428.958	88.5
429.181	89.5
429.403	97.5
429.625	92.5
429.847	93.5
430.069	114.5
430.292	93.5
430.514	98.5
430.736	83.5
430.958	99.5
431.18	90.5
431.402	94.5
431.624	89.5
431.846	83.5
432.068	80.5
432.29	72.5
432.512	95.5
432.734	75.5
432.956	102.5
433.178	111.5
433.4	102.5
433.622	85.5
433.844	83.5
434.066	91.5
434.287	103.5
434.509	99.5
434.731	107.5
434.953	93.5
435.175	83.5
435.397	96.5
435.618	101.5
435.84	106.5
436.062	133.5
436.284	117.5
436.505	116.5
436.727	129.5
436.949	94.5
437.17	91.5
437.392	95.5
437.614	85.5
437.835	114.5
438.057	125.5
438.278	125.5
438.5	108.5
438.721	148.5
438.943	106.5
439.165	96.5
439.386	88.5
439.608	99.5
439.829	103.5
440.05	131.5
440.272	162.5
440.493	106.5
440.715	88.5
440.936	86.5
441.158	97.5
441.379	94.5
441.6	94.5
441.822	99.5
442.043	104.5
442.264	117.5
442.486	102.5
442.707	92.5
442.928	103.5
443.149	148.5
443.371	135.5
443.592	113.5
443.813	110.5
444.034	114.5
444.255	102.5
444.476	87.5
444.698	81.5
444.919	78.5
445.14	115.5
445.361	115.5
445.582	127.5
445.803	143.5
446.024	163.5
446.245	162.5
446.466	115.5
446.687	96.5
446.908	99.5
447.129	88.5
447.35	96.5
447.571	104.5
447.792	105.5
448.013	109.5
448.234	114.5
448.455	95.5
448.675	122.5
448.896	128.5
449.117	105.5
449.338	94.5
449.559	138.5
449.779	137.5
450	107.5
450.221	99.5
450.442	98.5
450.662	105.5
450.883	116.5
451.104	120.5
451.324	98.5
451.545	91.5
451.766	88.5
451.986	83.5
452.207	91.5
452.428	91.5
452.648	108.5
452.869	121.5
453.089	108.5
453.31	123.5
453.53	102.5
453.751	88.5
453.971	109.5
454.192	120.5
454.412	104.5
454.633	88.5
454.853	80.5
455.073	102.5
455.294	80.5
455.514	110.5
455.734	102.5
455.955	94.5
456.175	82.5
456.395	96.5
456.616	86.5
456.836	94.5
457.056	92.5
457.276	86.5
457.497	83.5
457.717	93.5
457.937	96.5
458.157	97.5
458.377	101.5
458.598	121.5
458.818	166.5
459.038	182.5
459.258	126.5
459.478	83.5
459.698	75.5
459.918	81.5
460.138	91.5
460.358	92.5
460.578	92.5
460.798	107.5
461.018	93.5
461.238	94.5
461.458	87.5
461.678	86.5
461.898	82.5
462.118	82.5
462.338	100.5
462.558	84.5
462.777	89.5
462.997	96.5
463.217	80.5
463.437	79.5
463.657	89.5
463.876	104.5
464.096	90.5
464.316	103.5
464.536	94.5
464.755	121.5
464.975	106.5
465.195	170.5
465.414	190.5
465.634	104.5
465.854	103.5
466.073	101.5
466.293	94.5
466.512	98.5
466.732	102.5
466.951	87.5
467.171	97.5
467.391	110.5
467.61	101.5
467.829	108.5
468.049	120.5
468.268	108.5
468.488	94.5
468.707	81.5
468.927	99.5
469.146	97.5
469.365	100.5
469.585	91.5
469.804	92.5
470.023	84.5
470.243	105.5
470.462	98.5
470.681	120.5
470.901	87.5
471.12	100.5
471.339	85.5
471.558	103.5
471.777	101.5
471.997	104.5
472.216	143.5
472.435	182.5
472.654	122.5
472.873	94.5
473.092	87.5
473.311	93.5
473.53	92.5
473.749	78.5
473.968	97.5
474.187	103.5
474.406	94.5
474.625	82.5
474.844	91.5
475.063	87.5
475.282	90.5
475.501	99.5
475.72	88.5
475.939	88.5
476.158	95.5
476.377	108.5
476.596	82.5
476.814	98.5
477.033	95.5
477.252	98.5
477.471	94.5
477.69	113.5
477.908	97.5
478.127	84.5
478.346	99.5
478.564	90.5
478.783	100.5
479.002	104.5
479.22	109.5
479.439	108.5
479.658	109.5
479.876	96.5
480.095	92.5
480.313	98.5
480.532	94.5
480.751	91.5
480.969	127.5
481.188	272.5
481.406	198.5
481.624	86.5
481.843	93.5
482.061	87.5
482.28	94.5
482.498	98.5
482.717	87.5
482.935	84.5
483.153	87.5
483.372	98.5
483.59	86.5
483.808	101.5
484.027	82.5
484.245	80.5
484.463	88.5
484.681	93.5
484.9	94.5
485.118	99.5
485.336	101.5
485.554	83.5
485.772	90.5
485.99	99.5
486.209	114.5
486.427	90.5
486.645	118.5
486.863	104.5
487.081	101.5
487.299	86.5
487.517	101.5
487.735	80.5
487.953	91.5
488.171	88.5
488.389	79.5
488.607	107.5
488.825	101.5
489.043	99.5
489.261	98.5
489.479	94.5
489.696	92.5
489.914	86.5
490.132	96.5
490.35	101.5
490.568	98.5
490.786	82.5
491.003	88.5
491.221	96.5
491.439	83.5
491.657	97.5
491.874	103.5
492.092	84.5
492.31	86.5
492.527	92.5
492.745	106.5
492.963	93.5
493.18	105.5
493.398	95.5
493.615	111.5
493.833	103.5
494.05	89.5
494.268	98.5
494.485	94.5
494.703	82.5
494.92	87.5
495.138	106.5
495.355	84.5
495.573	82.5
495.79	84.5
496.008	92.5
496.225	108.5
496.442	98.5
496.66	82.5
496.877	97.5
497.094	103.5
497.312	92.5
497.529	85.5
497.746	90.5
497.963	85.5
498.181	87.5
498.398	87.5
498.615	113.5
498.832	104.5
499.049	105.5
499.267	95.5
499.484	85.5
499.701	91.5
499.918	97.5
500.135	95.5
500.352	97.5
500.569	88.5
500.786	84.5
501.003	97.5
501.22	94.5
501.437	94.5
501.654	104.5
501.871	98.5
502.088	80.5
502.305	80.5
502.522	91.5
502.739	87.5
502.956	89.5
503.172	101.5
503.389	97.5
503.606	104.5
503.823	92.5
504.04	96.5
504.256	93.5
504.473	83.5
504.69	90.5
504.907	95.5
505.123	85.5
505.34	101.5
505.557	100.5
505.773	88.5
505.99	91.5
506.207	74.5
506.423	91.5
506.64	80.5
506.856	93.5
507.073	80.5
507.289	92.5
507.506	80.5
507.722	96.5
507.939	112.5
508.155	95.5
508.372	98.5
508.588	94.5
508.805	91.5
509.021	95.5
509.238	113.5
509.454	98.5
509.67	109.5
509.887	120.5
510.103	145.5
510.319	225.5
510.536	789.5
510.752	2502.5
510.968	682.5
511.184	172.5
511.401	123.5
511.617	104.5
511.833	109.5
512.049	94.5
512.265	99.5
512.481	97.5
512.698	98.5
512.914	99.5
513.13	90.5
513.346	98.5
513.562	91.5
513.778	87.5
513.994	100.5
514.21	108.5
514.426	136.5
514.642	148.5
514.858	123.5
515.074	159.5
515.29	487.5
515.506	1720.5
515.721	617.5
515.937	172.5
516.153	115.5
516.369	98.5
516.585	89.5
516.801	100.5
517.016	97.5
517.232	106.5
517.448	113.5
517.664	91.5
517.879	100.5
518.095	99.5
518.311	94.5
518.527	89.5
518.742	94.5
518.958	91.5
519.173	95.5
519.389	100.5
519.605	99.5
519.82	106.5
520.036	100.5
520.251	138.5
520.467	112.5
520.682	94.5
520.898	107.5
521.113	115.5
521.329	149.5
521.544	224.5
521.76	640.5
521.975	2862.5
522.19	1674.5
522.406	362.5
522.621	119.5
522.836	109.5
523.052	87.5
523.267	104.5
523.482	97.5
523.698	108.5
523.913	129.5
524.128	115.5
524.343	94.5
524.559	88.5
524.774	78.5
524.989	99.5
525.204	110.5
525.419	98.5
525.634	94.5
525.849	100.5
526.064	90.5
526.28	106.5
526.495	92.5
526.71	94.5
526.925	94.5
527.14	102.5
527.355	103.5
527.57	96.5
527.785	108.5
527.999	89.5
528.214	80.5
528.429	106.5
528.644	99.5
528.859	90.5
529.074	105.5
529.289	134.5
529.503	195.5
529.718	110.5
529.933	92.5
530.148	101.5
530.363	91.5
530.577	92.5
530.792	100.5
531.007	83.5
531.221	88.5
531.436	83.5
531.651	102.5
531.865	101.5
532.08	96.5
532.295	100.5
532.509	80.5
532.724	99.5
532.938	94.5
533.153	92.5
533.367	108.5
