Data from Uncirc_1988_H10_HRD10591_00058.txt Node
Date: Wed Jan 03 12:04:16 EST 2024
User: Yrep
Spectrometer: HR+D1059
Trigger mode: 1
Integration Time (sec): 1.000000E-1
Scans to average: 1
Electric dark correction enabled: true
Nonlinearity correction enabled: false
Boxcar width: 0
XAxis mode: Wavelengths
Number of Pixels in Spectrum: 2048
>>>>>Begin Spectral Data<<<<<
223.165	-9
223.4	-9
223.635	-9
223.869	-28
224.104	-21
224.338	-6
224.573	-21
224.808	-18
225.042	-8
225.277	-2
225.511	-8
225.746	-4
225.98	5
226.215	17
226.449	18
226.683	22
226.918	19
227.152	44
227.387	26
227.621	46
227.856	59
228.09	65
228.324	68
228.559	52
228.793	47
229.027	79
229.262	57
229.496	65
229.73	79
229.964	91
230.199	83
230.433	90
230.667	90
230.901	88
231.136	73
231.37	92
231.604	72
231.838	80
232.072	83
232.306	82
232.541	74
232.775	71
233.009	90
233.243	80
233.477	78
233.711	81
233.945	80
234.179	90
234.413	83
234.647	78
234.881	81
235.115	84
235.349	87
235.583	78
235.817	92
236.051	90
236.285	80
236.519	86
236.753	84
236.987	88
237.221	87
237.455	83
237.689	84
237.922	82
238.156	82
238.39	66
238.624	70
238.858	64
239.091	78
239.325	75
239.559	80
239.793	92
240.027	79
240.26	95
240.494	70
240.728	83
240.961	75
241.195	86
241.429	79
241.662	84
241.896	78
242.13	79
242.363	83
242.597	79
242.83	86
243.064	91
243.298	82
243.531	82
243.765	80
243.998	82
244.232	78
244.465	72
244.699	82
244.932	73
245.166	72
245.399	87
245.633	92
245.866	67
246.099	64
246.333	85
246.566	79
246.8	72
247.033	84
247.266	79
247.5	63
247.733	82
247.966	82
248.2	79
248.433	99
248.666	92
248.899	96
249.133	89
249.366	105
249.599	103
249.832	99
250.066	82
250.299	83
250.532	98
250.765	84
250.998	79
251.231	86
251.465	74
251.698	73
251.931	75
252.164	81
252.397	84
252.63	86
252.863	78
253.096	101
253.329	94
253.562	79
253.795	92
254.028	85
254.261	80
254.494	80
254.727	102
254.96	93
255.193	80
255.426	82
255.659	80
255.892	99
256.124	87
256.357	93
256.59	80
256.823	81
257.056	85
257.289	97
257.521	79
257.754	75
257.987	89
258.22	94
258.452	91
258.685	78
258.918	75
259.151	92
259.383	102
259.616	92
259.849	102
260.081	90
260.314	72
260.547	89
260.779	91
261.012	95
261.244	90
261.477	90
261.71	96
261.942	109
262.175	114
262.407	89
262.64	83
262.872	67
263.105	94
263.337	90
263.57	82
263.802	90
264.035	82
264.267	74
264.499	96
264.732	85
264.964	79
265.197	85
265.429	96
265.661	97
265.894	90
266.126	75
266.358	78
266.591	81
266.823	92
267.055	91
267.287	82
267.52	80
267.752	93
267.984	80
268.216	85
268.448	95
268.681	80
268.913	95
269.145	98
269.377	92
269.609	77
269.841	78
270.073	69
270.306	83
270.538	87
270.77	95
271.002	90
271.234	89
271.466	102
271.698	89
271.93	97
272.162	97
272.394	92
272.626	81
272.858	99
273.09	93
273.322	91
273.553	89
273.785	82
274.017	76
274.249	89
274.481	82
274.713	89
274.945	89
275.176	89
275.408	75
275.64	96
275.872	77
276.104	94
276.335	103
276.567	99
276.799	110
277.031	98
277.262	82
277.494	74
277.726	84
277.957	85
278.189	98
278.421	86
278.652	88
278.884	80
279.115	91
279.347	79
279.579	89
279.81	76
280.042	95
280.273	90
280.505	98
280.736	98
280.968	103
281.199	84
281.431	90
281.662	82
281.894	86
282.125	104
282.356	139
282.588	147
282.819	114
283.051	98
283.282	87
283.513	96
283.745	83
283.976	88
284.207	88
284.439	83
284.67	91
284.901	98
285.132	96
285.364	97
285.595	82
285.826	73
286.057	76
286.288	104
286.52	90
286.751	92
286.982	89
287.213	90
287.444	86
287.675	97
287.906	106
288.138	84
288.369	82
288.6	88
288.831	89
289.062	87
289.293	98
289.524	86
289.755	71
289.986	94
290.217	82
290.448	84
290.679	94
290.91	98
291.141	89
291.371	91
291.602	95
291.833	99
292.064	100
292.295	101
292.526	89
292.757	103
292.987	86
293.218	94
293.449	85
293.68	88
293.91	89
294.141	98
294.372	97
294.603	89
294.833	93
295.064	81
295.295	83
295.525	105
295.756	99
295.987	115
296.217	147
296.448	131
296.679	92
296.909	88
297.14	86
297.37	84
297.601	99
297.831	91
298.062	91
298.292	82
298.523	100
298.753	89
298.984	90
299.214	91
299.445	88
299.675	104
299.905	108
300.136	92
300.366	94
300.597	98
300.827	83
301.057	89
301.288	101
301.518	92
301.748	95
301.979	108
302.209	111
302.439	68
302.669	99
302.9	95
303.13	87
303.36	101
303.59	108
303.82	103
304.051	103
304.281	96
304.511	91
304.741	79
304.971	86
305.201	90
305.431	91
305.661	92
305.891	95
306.121	85
306.352	106
306.582	97
306.812	96
307.042	94
307.272	98
307.502	97
307.731	107
307.961	92
308.191	88
308.421	114
308.651	112
308.881	98
309.111	100
309.341	105
309.571	96
309.8	104
310.03	108
310.26	103
310.49	96
310.72	100
310.949	99
311.179	97
311.409	91
311.639	105
311.868	101
312.098	75
312.328	104
312.557	111
312.787	85
313.017	107
313.246	114
313.476	90
313.706	93
313.935	102
314.165	111
314.394	108
314.624	110
314.853	97
315.083	102
315.312	105
315.542	105
315.771	96
316.001	90
316.23	85
316.46	94
316.689	92
316.919	105
317.148	106
317.377	82
317.607	99
317.836	87
318.065	106
318.295	90
318.524	106
318.753	97
318.983	102
319.212	100
319.441	115
319.67	103
319.9	87
320.129	98
320.358	102
320.587	103
320.816	111
321.046	114
321.275	109
321.504	103
321.733	95
321.962	97
322.191	98
322.42	113
322.649	121
322.878	132
323.108	117
323.337	130
323.566	143
323.795	174
324.024	238
324.253	474
324.482	1026
324.71	2180
324.939	2974
325.168	1063
325.397	296
325.626	172
325.855	136
326.084	124
326.313	145
326.542	164
326.77	263
326.999	553
327.228	1222
327.457	2275
327.686	1792
327.914	463
328.143	222
328.372	175
328.6	136
328.829	131
329.058	152
329.287	149
329.515	127
329.744	108
329.972	107
330.201	119
330.43	147
330.658	140
330.887	166
331.115	145
331.344	118
331.572	115
331.801	119
332.03	113
332.258	98
332.486	75
332.715	87
332.943	102
333.172	99
333.4	117
333.629	110
333.857	106
334.085	119
334.314	106
334.542	138
334.771	136
334.999	122
335.227	120
335.455	98
335.684	116
335.912	93
336.14	102
336.369	100
336.597	97
336.825	107
337.053	104
337.281	83
337.51	93
337.738	100
337.966	96
338.194	99
338.422	94
338.65	104
338.878	95
339.106	108
339.334	92
339.562	101
339.79	96
340.018	98
340.246	88
340.474	97
340.702	98
340.93	99
341.158	106
341.386	97
341.614	108
341.842	100
342.07	115
342.298	107
342.526	94
342.754	91
342.981	96
343.209	99
343.437	107
343.665	101
343.893	82
344.12	95
344.348	83
344.576	98
344.804	91
345.031	106
345.259	101
345.487	106
345.714	103
345.942	94
346.17	96
346.397	105
346.625	99
346.853	100
347.08	103
347.308	115
347.535	88
347.763	103
347.99	104
348.218	112
348.445	132
348.673	118
348.9	100
349.128	104
349.355	93
349.583	98
349.81	95
350.037	88
350.265	96
350.492	105
350.72	103
350.947	112
351.174	110
351.402	118
351.629	100
351.856	104
352.083	97
352.311	119
352.538	114
352.765	111
352.992	111
353.22	119
353.447	107
353.674	110
353.901	78
354.128	91
354.355	106
354.583	92
354.81	91
355.037	106
355.264	84
355.491	102
355.718	81
355.945	91
356.172	104
356.399	99
356.626	81
356.853	94
357.08	99
357.307	99
357.534	103
357.761	90
357.988	91
358.215	106
358.441	108
358.668	91
358.895	103
359.122	89
359.349	95
359.576	112
359.802	106
360.029	128
360.256	115
360.483	102
360.709	91
360.936	112
361.163	100
361.39	105
361.616	112
361.843	96
362.07	86
362.296	99
362.523	90
362.749	106
362.976	96
363.203	106
363.429	96
363.656	84
363.882	92
364.109	107
364.335	119
364.562	87
364.788	92
365.015	102
365.241	111
365.468	112
365.694	109
365.92	103
366.147	99
366.373	101
366.599	97
366.826	116
367.052	112
367.278	108
367.505	89
367.731	97
367.957	83
368.184	84
368.41	114
368.636	123
368.862	121
369.089	119
369.315	100
369.541	115
369.767	89
369.993	97
370.219	91
370.445	91
370.672	85
370.898	100
371.124	84
371.35	98
371.576	85
371.802	99
372.028	94
372.254	90
372.48	95
372.706	94
372.932	90
373.158	82
373.384	90
373.61	112
373.835	83
374.061	94
374.287	100
374.513	103
374.739	95
374.965	96
375.191	94
375.416	92
375.642	97
375.868	103
376.094	89
376.319	84
376.545	90
376.771	74
376.997	88
377.222	80
377.448	95
377.674	87
377.899	86
378.125	94
378.35	96
378.576	90
378.802	86
379.027	90
379.253	95
379.478	91
379.704	87
379.929	82
380.155	88
380.38	99
380.606	94
380.831	95
381.057	97
381.282	95
381.507	97
381.733	102
381.958	94
382.184	83
382.409	88
382.634	98
382.86	96
383.085	102
383.31	114
383.535	92
383.761	93
383.986	93
384.211	104
384.436	108
384.662	85
384.887	104
385.112	95
385.337	107
385.562	97
385.787	100
386.013	109
386.238	95
386.463	116
386.688	100
386.913	92
387.138	92
387.363	90
387.588	114
387.813	94
388.038	115
388.263	110
388.488	103
388.713	105
388.938	91
389.163	96
389.387	100
389.612	99
389.837	71
390.062	83
390.287	108
390.512	102
390.736	104
390.961	99
391.186	89
391.411	92
391.636	90
391.86	97
392.085	88
392.31	92
392.534	86
392.759	105
392.984	101
393.208	80
393.433	87
393.658	86
393.882	76
394.107	79
394.331	84
394.556	97
394.78	98
395.005	80
395.229	94
395.454	84
395.678	80
395.903	96
396.127	95
396.352	90
396.576	90
396.801	89
397.025	100
397.249	95
397.474	97
397.698	71
397.922	98
398.147	85
398.371	88
398.595	92
398.82	99
399.044	89
399.268	92
399.492	86
399.717	79
399.941	83
400.165	89
400.389	102
400.613	94
400.837	78
401.062	84
401.286	98
401.51	94
401.734	92
401.958	101
402.182	150
402.406	178
402.63	130
402.854	94
403.078	89
403.302	96
403.526	106
403.75	74
403.974	99
404.198	96
404.422	97
404.645	90
404.869	95
405.093	100
405.317	111
405.541	106
405.765	123
405.988	114
406.212	192
406.436	255
406.66	165
406.883	108
407.107	110
407.331	103
407.555	96
407.778	122
408.002	106
408.226	94
408.449	92
408.673	82
408.896	107
409.12	97
409.344	93
409.567	106
409.791	94
410.014	84
410.238	93
410.461	90
410.685	104
410.908	102
411.132	115
411.355	119
411.578	97
411.802	87
412.025	94
412.249	84
412.472	100
412.695	90
412.919	103
413.142	94
413.365	96
413.589	96
413.812	79
414.035	94
414.258	90
414.482	100
414.705	96
414.928	96
415.151	95
415.374	82
415.597	101
415.821	82
416.044	92
416.267	100
416.49	97
416.713	86
416.936	95
417.159	91
417.382	82
417.605	87
417.828	105
418.051	91
418.274	98
418.497	97
418.72	83
418.943	90
419.166	74
419.389	91
419.611	84
419.834	93
420.057	90
420.28	75
420.503	97
420.726	102
420.948	87
421.171	100
421.394	104
421.617	97
421.839	94
422.062	92
422.285	98
422.507	113
422.73	115
422.953	83
423.175	103
423.398	84
423.621	88
423.843	84
424.066	68
424.288	83
424.511	98
424.733	105
424.956	125
425.178	118
425.401	113
425.623	111
425.846	97
426.068	96
426.291	95
426.513	87
426.735	90
426.958	89
427.18	130
427.402	161
427.625	212
427.847	167
428.069	131
428.292	106
428.514	88
428.736	96
428.958	98
429.181	85
429.403	85
429.625	92
429.847	98
430.069	121
430.292	102
430.514	103
430.736	91
430.958	86
431.18	82
431.402	93
431.624	79
431.846	99
432.068	79
432.29	85
432.512	94
432.734	82
432.956	88
433.178	109
433.4	111
433.622	104
433.844	94
434.066	97
434.287	94
434.509	89
434.731	100
434.953	100
435.175	90
435.397	78
435.618	84
435.84	118
436.062	147
436.284	140
436.505	114
436.727	106
436.949	87
437.17	94
437.392	96
437.614	98
437.835	127
438.057	118
438.278	121
438.5	124
438.721	154
438.943	126
439.165	84
439.386	100
439.608	87
439.829	113
440.05	156
440.272	166
440.493	100
440.715	99
440.936	95
441.158	95
441.379	89
441.6	104
441.822	94
442.043	105
442.264	119
442.486	115
442.707	106
442.928	120
443.149	160
443.371	146
443.592	112
443.813	123
444.034	124
444.255	107
444.476	110
444.698	92
444.919	86
445.14	129
445.361	125
445.582	136
445.803	178
446.024	174
446.245	149
446.466	126
446.687	107
446.908	77
447.129	88
447.35	96
447.571	99
447.792	82
448.013	93
448.234	118
448.455	115
448.675	120
448.896	131
449.117	110
449.338	114
449.559	158
449.779	158
450	107
450.221	97
450.442	83
450.662	88
450.883	115
451.104	128
451.324	105
451.545	97
451.766	89
451.986	113
452.207	104
452.428	90
452.648	104
452.869	113
453.089	119
453.31	114
453.53	102
453.751	99
453.971	120
454.192	121
454.412	93
454.633	97
454.853	91
455.073	87
455.294	97
455.514	113
455.734	104
455.955	78
456.175	81
456.395	74
456.616	88
456.836	91
457.056	89
457.276	89
457.497	98
457.717	96
457.937	76
458.157	106
458.377	106
458.598	121
458.818	179
459.038	194
459.258	140
459.478	99
459.698	84
459.918	81
460.138	87
460.358	100
460.578	105
460.798	104
461.018	96
461.238	95
461.458	88
461.678	92
461.898	107
462.118	112
462.338	105
462.558	86
462.777	75
462.997	78
463.217	77
463.437	83
463.657	86
463.876	71
464.096	98
464.316	98
464.536	100
464.755	91
464.975	108
465.195	201
465.414	194
465.634	104
465.854	86
466.073	85
466.293	89
466.512	91
466.732	96
466.951	83
467.171	100
467.391	102
467.61	100
467.829	104
468.049	103
468.268	100
468.488	83
468.707	75
468.927	105
469.146	86
469.365	86
469.585	78
469.804	104
470.023	105
470.243	104
470.462	104
470.681	114
470.901	103
471.12	90
471.339	83
471.558	73
471.777	103
471.997	84
472.216	115
472.435	130
472.654	98
472.873	94
473.092	101
473.311	87
473.53	92
473.749	101
473.968	104
474.187	112
474.406	98
474.625	94
474.844	90
475.063	89
475.282	85
475.501	91
475.72	75
475.939	74
476.158	86
476.377	81
476.596	89
476.814	98
477.033	94
477.252	83
477.471	89
477.69	83
477.908	85
478.127	95
478.346	94
478.564	94
478.783	100
479.002	90
479.22	105
479.439	106
479.658	104
479.876	94
480.095	96
480.313	98
480.532	101
480.751	92
480.969	106
481.188	194
481.406	159
481.624	103
481.843	97
482.061	89
482.28	91
482.498	91
482.717	90
482.935	91
483.153	92
483.372	84
483.59	94
483.808	92
484.027	104
484.245	83
484.463	105
484.681	100
484.9	93
485.118	106
485.336	100
485.554	95
485.772	108
485.99	107
486.209	103
486.427	84
486.645	105
486.863	112
487.081	107
487.299	91
487.517	89
487.735	105
487.953	94
488.171	96
488.389	114
488.607	118
488.825	82
489.043	78
489.261	72
489.479	97
489.696	102
489.914	92
490.132	91
490.35	85
490.568	89
490.786	87
491.003	84
491.221	92
491.439	98
491.657	108
491.874	91
492.092	100
492.31	101
492.527	94
492.745	108
492.963	92
493.18	100
493.398	82
493.615	98
493.833	110
494.05	99
494.268	92
494.485	94
494.703	81
494.92	96
495.138	94
495.355	96
495.573	88
495.79	81
496.008	86
496.225	99
496.442	97
496.66	100
496.877	105
497.094	103
497.312	80
497.529	101
497.746	90
497.963	91
498.181	82
498.398	87
498.615	120
498.832	106
499.049	87
499.267	102
499.484	84
499.701	89
499.918	99
500.135	98
500.352	98
500.569	92
500.786	98
501.003	72
501.22	96
501.437	92
501.654	90
501.871	114
502.088	85
502.305	102
502.522	94
502.739	96
502.956	93
503.172	85
503.389	94
503.606	122
503.823	104
504.04	87
504.256	97
504.473	106
504.69	87
504.907	99
505.123	105
505.34	91
505.557	86
505.773	86
505.99	90
506.207	88
506.423	89
506.64	84
506.856	75
507.073	106
507.289	98
507.506	99
507.722	125
507.939	99
508.155	101
508.372	95
508.588	92
508.805	102
509.021	106
509.238	96
509.454	89
509.67	93
509.887	130
510.103	128
510.319	247
510.536	863
510.752	2843
510.968	721
511.184	166
511.401	116
511.617	100
511.833	94
512.049	90
512.265	97
512.481	99
512.698	112
512.914	85
513.13	85
513.346	99
513.562	99
513.778	107
513.994	98
514.21	102
514.426	125
514.642	154
514.858	130
515.074	192
515.29	560
515.506	1919
515.721	678
515.937	152
516.153	117
516.369	98
516.585	98
516.801	99
517.016	95
517.232	98
517.448	91
517.664	97
517.879	94
518.095	98
518.311	96
518.527	85
518.742	115
518.958	98
519.173	97
519.389	104
519.605	92
519.82	93
520.036	115
520.251	146
520.467	138
520.682	101
520.898	120
521.113	126
521.329	147
521.544	263
521.76	732
521.975	3269
522.19	1882
522.406	371
522.621	132
522.836	110
523.052	99
523.267	99
523.482	88
523.698	110
523.913	142
524.128	126
524.343	93
524.559	104
524.774	98
524.989	100
525.204	102
525.419	116
525.634	83
525.849	92
526.064	105
526.28	98
526.495	97
526.71	92
526.925	86
527.14	82
527.355	86
527.57	97
527.785	95
527.999	99
528.214	95
528.429	94
528.644	98
528.859	92
529.074	108
529.289	127
529.503	216
529.718	107
529.933	86
530.148	84
530.363	104
530.577	100
530.792	105
531.007	90
531.221	94
531.436	87
531.651	93
531.865	81
532.08	98
532.295	91
532.509	102
532.724	87
532.938	85
533.153	88
533.367	105
533.582	90
533.796	102
534.011	103
534.225	80
534.44	79
534.654	81
534.868	80
535.083	92
535.297	115
535.511	122
535.726	105
535.94	108
536.154	94
536.369	86
536.583	95
536.797	92
537.011	90
537.225	114
537.44	107
537.654	97
537.868	81
538.082	81
538.296	90
538.51	83
538.724	84
538.938	101
539.153	99
539.367	114
539.581	92
539.795	91
540.009	112
540.222	98
540.436	88
540.65	74
540.864	96
541.078	95
541.292	109
541.506	98
541.72	89
541.934	96
542.147	85
542.361	97
542.575	92
542.789	86
543.002	88
543.216	103
543.43	89
543.644	108
543.857	97
544.071	94
544.285	99
544.498	88
544.712	88
544.925	95
545.139	98
545.352	84
545.566	102
545.779	76
545.993	91
546.206	98
546.42	88
546.633	95
546.847	104
547.06	99
547.274	92
547.487	89
547.7	96
547.914	72
548.127	94
548.34	86
548.554	88
548.767	86
548.98	93
549.193	96
549.407	88
549.62	90
549.833	84
550.046	86
550.259	92
550.473	94
550.686	71
550.899	96
551.112	94
551.325	95
551.538	99
551.751	91
551.964	85
552.177	87
552.39	96
552.603	93
552.816	83
553.029	93
553.242	98
553.455	115
553.667	116
553.88	106
554.093	99
554.306	95
554.519	100
554.732	92
554.944	104
555.157	97
555.37	82
555.583	93
555.795	89
556.008	84
556.221	81
556.433	82
556.646	84
556.859	99
557.071	108
557.284	94
557.496	98
557.709	98
557.921	95
558.134	87
558.346	90
558.559	91
558.771	94
558.984	90
559.196	98
559.409	85
559.621	89
559.833	89
560.046	107
560.258	87
560.47	100
560.683	88
560.895	83
561.107	106
561.32	83
561.532	97
561.744	79
561.956	90
562.168	89
562.381	97
562.593	98
562.805	99
563.017	102
563.229	89
563.441	86
563.653	89
563.865	96
564.077	95
564.289	95
564.501	90
564.713	87
564.925	80
565.137	100
565.349	92
565.561	101
565.773	92
565.985	99
566.197	91
566.408	102
566.62	101
566.832	98
567.044	80
567.255	88
567.467	90
567.679	88
567.891	91
568.102	72
568.314	89
568.526	74
568.737	99
568.949	103
569.161	89
569.372	87
569.584	86
569.795	88
570.007	111
570.218	261
570.43	130
570.641	98
570.853	103
571.064	114
571.276	87
571.487	92
571.698	81
571.91	99
572.121	96
572.333	94
572.544	97
572.755	90
572.966	91
573.178	105
573.389	104
573.6	104
573.811	93
574.023	110
574.234	95
574.445	78
574.656	92
574.867	93
575.078	86
575.289	83
575.501	87
575.712	83
575.923	102
576.134	78
576.345	88
576.556	102
576.767	102
576.978	102
577.188	104
577.399	102
577.61	94
577.821	89
578.032	104
578.243	295
578.454	868
578.665	231
578.875	124
579.086	103
579.297	87
579.508	94
579.718	89
579.929	82
580.14	75
580.35	89
580.561	82
580.772	91
580.982	96
581.193	97
