Data from Uncirc_1988_H10_HRD10591_00056.txt Node
Date: Wed Jan 03 12:04:15 EST 2024
User: Yrep
Spectrometer: HR+D1059
Trigger mode: 1
Integration Time (sec): 1.000000E-1
Scans to average: 1
Electric dark correction enabled: true
Nonlinearity correction enabled: false
Boxcar width: 0
XAxis mode: Wavelengths
Number of Pixels in Spectrum: 2048
>>>>>Begin Spectral Data<<<<<
223.165	-9.62
223.4	-9.62
223.635	-9.62
223.869	-19.62
224.104	-18.62
224.338	-8.62
224.573	-22.62
224.808	-9.62
225.042	-6.62
225.277	-12.62
225.511	-7.62
225.746	5.38
225.98	11.38
226.215	17.38
226.449	6.38
226.683	12.38
226.918	30.38
227.152	32.38
227.387	40.38
227.621	39.38
227.856	50.38
228.09	52.38
228.324	49.38
228.559	61.38
228.793	62.38
229.027	66.38
229.262	60.38
229.496	80.38
229.73	84.38
229.964	88.38
230.199	83.38
230.433	76.38
230.667	74.38
230.901	90.38
231.136	82.38
231.37	81.38
231.604	80.38
231.838	90.38
232.072	92.38
232.306	87.38
232.541	88.38
232.775	81.38
233.009	78.38
233.243	70.38
233.477	83.38
233.711	94.38
233.945	69.38
234.179	82.38
234.413	90.38
234.647	93.38
234.881	97.38
235.115	75.38
235.349	83.38
235.583	79.38
235.817	92.38
236.051	83.38
236.285	74.38
236.519	75.38
236.753	83.38
236.987	82.38
237.221	77.38
237.455	88.38
237.689	81.38
237.922	79.38
238.156	78.38
238.39	76.38
238.624	73.38
238.858	73.38
239.091	84.38
239.325	91.38
239.559	78.38
239.793	71.38
240.027	78.38
240.26	104.38
240.494	84.38
240.728	65.38
240.961	73.38
241.195	74.38
241.429	65.38
241.662	80.38
241.896	84.38
242.13	80.38
242.363	65.38
242.597	72.38
242.83	66.38
243.064	67.38
243.298	66.38
243.531	81.38
243.765	76.38
243.998	74.38
244.232	84.38
244.465	101.38
244.699	68.38
244.932	63.38
245.166	81.38
245.399	83.38
245.633	66.38
245.866	91.38
246.099	87.38
246.333	85.38
246.566	84.38
246.8	94.38
247.033	86.38
247.266	97.38
247.5	82.38
247.733	73.38
247.966	78.38
248.2	86.38
248.433	70.38
248.666	74.38
248.899	90.38
249.133	82.38
249.366	107.38
249.599	105.38
249.832	87.38
250.066	79.38
250.299	71.38
250.532	77.38
250.765	79.38
250.998	89.38
251.231	84.38
251.465	85.38
251.698	71.38
251.931	86.38
252.164	89.38
252.397	82.38
252.63	69.38
252.863	81.38
253.096	89.38
253.329	74.38
253.562	82.38
253.795	87.38
254.028	83.38
254.261	85.38
254.494	95.38
254.727	86.38
254.96	81.38
255.193	86.38
255.426	81.38
255.659	78.38
255.892	72.38
256.124	90.38
256.357	89.38
256.59	82.38
256.823	71.38
257.056	90.38
257.289	83.38
257.521	65.38
257.754	66.38
257.987	76.38
258.22	79.38
258.452	72.38
258.685	80.38
258.918	85.38
259.151	86.38
259.383	90.38
259.616	83.38
259.849	83.38
260.081	87.38
260.314	86.38
260.547	96.38
260.779	74.38
261.012	75.38
261.244	76.38
261.477	90.38
261.71	99.38
261.942	102.38
262.175	117.38
262.407	97.38
262.64	79.38
262.872	83.38
263.105	90.38
263.337	96.38
263.57	83.38
263.802	89.38
264.035	71.38
264.267	90.38
264.499	74.38
264.732	97.38
264.964	82.38
265.197	86.38
265.429	87.38
265.661	87.38
265.894	74.38
266.126	97.38
266.358	93.38
266.591	84.38
266.823	74.38
267.055	81.38
267.287	103.38
267.52	80.38
267.752	71.38
267.984	94.38
268.216	82.38
268.448	92.38
268.681	82.38
268.913	73.38
269.145	79.38
269.377	73.38
269.609	81.38
269.841	82.38
270.073	84.38
270.306	87.38
270.538	103.38
270.77	75.38
271.002	80.38
271.234	81.38
271.466	85.38
271.698	84.38
271.93	90.38
272.162	80.38
272.394	101.38
272.626	78.38
272.858	89.38
273.09	82.38
273.322	97.38
273.553	82.38
273.785	63.38
274.017	76.38
274.249	92.38
274.481	79.38
274.713	83.38
274.945	78.38
275.176	95.38
275.408	93.38
275.64	87.38
275.872	97.38
276.104	95.38
276.335	98.38
276.567	92.38
276.799	92.38
277.031	115.38
277.262	101.38
277.494	87.38
277.726	87.38
277.957	84.38
278.189	84.38
278.421	73.38
278.652	96.38
278.884	98.38
279.115	94.38
279.347	88.38
279.579	90.38
279.81	75.38
280.042	80.38
280.273	98.38
280.505	95.38
280.736	83.38
280.968	90.38
281.199	81.38
281.431	91.38
281.662	81.38
281.894	94.38
282.125	103.38
282.356	124.38
282.588	120.38
282.819	107.38
283.051	94.38
283.282	102.38
283.513	100.38
283.745	95.38
283.976	88.38
284.207	83.38
284.439	94.38
284.67	94.38
284.901	89.38
285.132	87.38
285.364	92.38
285.595	91.38
285.826	98.38
286.057	83.38
286.288	76.38
286.52	92.38
286.751	74.38
286.982	94.38
287.213	86.38
287.444	102.38
287.675	76.38
287.906	71.38
288.138	92.38
288.369	94.38
288.6	107.38
288.831	87.38
289.062	91.38
289.293	94.38
289.524	85.38
289.755	94.38
289.986	86.38
290.217	92.38
290.448	107.38
290.679	94.38
290.91	87.38
291.141	94.38
291.371	85.38
291.602	102.38
291.833	95.38
292.064	94.38
292.295	81.38
292.526	98.38
292.757	84.38
292.987	74.38
293.218	81.38
293.449	75.38
293.68	88.38
293.91	87.38
294.141	95.38
294.372	99.38
294.603	70.38
294.833	98.38
295.064	81.38
295.295	89.38
295.525	99.38
295.756	96.38
295.987	120.38
296.217	134.38
296.448	120.38
296.679	97.38
296.909	82.38
297.14	79.38
297.37	89.38
297.601	98.38
297.831	89.38
298.062	101.38
298.292	91.38
298.523	102.38
298.753	78.38
298.984	89.38
299.214	87.38
299.445	108.38
299.675	93.38
299.905	95.38
300.136	86.38
300.366	85.38
300.597	85.38
300.827	96.38
301.057	114.38
301.288	115.38
301.518	96.38
301.748	90.38
301.979	90.38
302.209	87.38
302.439	86.38
302.669	98.38
302.9	87.38
303.13	95.38
303.36	91.38
303.59	109.38
303.82	104.38
304.051	91.38
304.281	97.38
304.511	80.38
304.741	89.38
304.971	89.38
305.201	91.38
305.431	92.38
305.661	89.38
305.891	87.38
306.121	75.38
306.352	116.38
306.582	103.38
306.812	108.38
307.042	102.38
307.272	105.38
307.502	97.38
307.731	98.38
307.961	93.38
308.191	85.38
308.421	100.38
308.651	108.38
308.881	100.38
309.111	91.38
309.341	81.38
309.571	96.38
309.8	105.38
310.03	90.38
310.26	103.38
310.49	99.38
310.72	96.38
310.949	97.38
311.179	98.38
311.409	94.38
311.639	94.38
311.868	100.38
312.098	101.38
312.328	88.38
312.557	94.38
312.787	131.38
313.017	110.38
313.246	99.38
313.476	98.38
313.706	94.38
313.935	97.38
314.165	110.38
314.394	95.38
314.624	102.38
314.853	102.38
315.083	92.38
315.312	96.38
315.542	105.38
315.771	99.38
316.001	102.38
316.23	92.38
316.46	76.38
316.689	96.38
316.919	90.38
317.148	97.38
317.377	96.38
317.607	107.38
317.836	84.38
318.065	93.38
318.295	103.38
318.524	99.38
318.753	88.38
318.983	101.38
319.212	106.38
319.441	103.38
319.67	115.38
319.9	101.38
320.129	99.38
320.358	97.38
320.587	101.38
320.816	102.38
321.046	107.38
321.275	118.38
321.504	94.38
321.733	106.38
321.962	104.38
322.191	100.38
322.42	110.38
322.649	105.38
322.878	111.38
323.108	118.38
323.337	132.38
323.566	136.38
323.795	153.38
324.024	226.38
324.253	426.38
324.482	923.38
324.71	1935.38
324.939	2563.38
325.168	904.38
325.397	255.38
325.626	165.38
325.855	134.38
326.084	122.38
326.313	135.38
326.542	161.38
326.77	222.38
326.999	516.38
327.228	1076.38
327.457	2043.38
327.686	1580.38
327.914	393.38
328.143	200.38
328.372	166.38
328.6	137.38
328.829	130.38
329.058	121.38
329.287	126.38
329.515	108.38
329.744	104.38
329.972	106.38
330.201	117.38
330.43	127.38
330.658	122.38
330.887	143.38
331.115	133.38
331.344	102.38
331.572	99.38
331.801	112.38
332.03	112.38
332.258	98.38
332.486	102.38
332.715	85.38
332.943	103.38
333.172	104.38
333.4	115.38
333.629	115.38
333.857	107.38
334.085	113.38
334.314	109.38
334.542	116.38
334.771	127.38
334.999	113.38
335.227	109.38
335.455	98.38
335.684	100.38
335.912	91.38
336.14	113.38
336.369	105.38
336.597	93.38
336.825	97.38
337.053	93.38
337.281	107.38
337.51	98.38
337.738	90.38
337.966	100.38
338.194	105.38
338.422	98.38
338.65	91.38
338.878	89.38
339.106	83.38
339.334	106.38
339.562	97.38
339.79	90.38
340.018	82.38
340.246	82.38
340.474	90.38
340.702	92.38
340.93	91.38
341.158	90.38
341.386	98.38
341.614	91.38
341.842	100.38
342.07	109.38
342.298	74.38
342.526	88.38
342.754	94.38
342.981	85.38
343.209	92.38
343.437	90.38
343.665	95.38
343.893	102.38
344.12	102.38
344.348	88.38
344.576	89.38
344.804	90.38
345.031	82.38
345.259	91.38
345.487	103.38
345.714	97.38
345.942	101.38
346.17	95.38
346.397	100.38
346.625	97.38
346.853	96.38
347.08	95.38
347.308	99.38
347.535	89.38
347.763	97.38
347.99	99.38
348.218	115.38
348.445	123.38
348.673	103.38
348.9	101.38
349.128	99.38
349.355	108.38
349.583	99.38
349.81	99.38
350.037	99.38
350.265	99.38
350.492	90.38
350.72	101.38
350.947	91.38
351.174	101.38
351.402	110.38
351.629	112.38
351.856	107.38
352.083	101.38
352.311	109.38
352.538	102.38
352.765	113.38
352.992	116.38
353.22	114.38
353.447	94.38
353.674	103.38
353.901	103.38
354.128	98.38
354.355	111.38
354.583	101.38
354.81	101.38
355.037	90.38
355.264	100.38
355.491	100.38
355.718	107.38
355.945	90.38
356.172	82.38
356.399	100.38
356.626	100.38
356.853	100.38
357.08	94.38
357.307	96.38
357.534	92.38
357.761	112.38
357.988	100.38
358.215	98.38
358.441	88.38
358.668	97.38
358.895	90.38
359.122	99.38
359.349	95.38
359.576	95.38
359.802	116.38
360.029	108.38
360.256	103.38
360.483	89.38
360.709	102.38
360.936	96.38
361.163	100.38
361.39	94.38
361.616	87.38
361.843	90.38
362.07	86.38
362.296	81.38
362.523	92.38
362.749	90.38
362.976	90.38
363.203	94.38
363.429	87.38
363.656	102.38
363.882	96.38
364.109	94.38
364.335	95.38
364.562	92.38
364.788	101.38
365.015	112.38
365.241	103.38
365.468	113.38
365.694	106.38
365.92	102.38
366.147	106.38
366.373	103.38
366.599	85.38
366.826	99.38
367.052	90.38
367.278	89.38
367.505	88.38
367.731	96.38
367.957	98.38
368.184	88.38
368.41	103.38
368.636	107.38
368.862	129.38
369.089	106.38
369.315	92.38
369.541	87.38
369.767	93.38
369.993	95.38
370.219	88.38
370.445	92.38
370.672	91.38
370.898	104.38
371.124	88.38
371.35	86.38
371.576	83.38
371.802	86.38
372.028	87.38
372.254	100.38
372.48	107.38
372.706	89.38
372.932	80.38
373.158	98.38
373.384	94.38
373.61	101.38
373.835	90.38
374.061	84.38
374.287	100.38
374.513	83.38
374.739	97.38
374.965	101.38
375.191	90.38
375.416	82.38
375.642	94.38
375.868	91.38
376.094	91.38
376.319	87.38
376.545	62.38
376.771	85.38
376.997	96.38
377.222	95.38
377.448	105.38
377.674	96.38
377.899	101.38
378.125	84.38
378.35	106.38
378.576	102.38
378.802	94.38
379.027	95.38
379.253	107.38
379.478	98.38
379.704	89.38
379.929	98.38
380.155	89.38
380.38	82.38
380.606	90.38
380.831	93.38
381.057	110.38
381.282	97.38
381.507	104.38
381.733	89.38
381.958	98.38
382.184	82.38
382.409	105.38
382.634	106.38
382.86	90.38
383.085	86.38
383.31	94.38
383.535	103.38
383.761	98.38
383.986	107.38
384.211	108.38
384.436	96.38
384.662	101.38
384.887	94.38
385.112	82.38
385.337	116.38
385.562	98.38
385.787	87.38
386.013	98.38
386.238	108.38
386.463	104.38
386.688	112.38
386.913	90.38
387.138	111.38
387.363	104.38
387.588	105.38
387.813	101.38
388.038	110.38
388.263	112.38
388.488	89.38
388.713	90.38
388.938	92.38
389.163	98.38
389.387	100.38
389.612	97.38
389.837	102.38
390.062	96.38
390.287	84.38
390.512	96.38
390.736	82.38
390.961	95.38
391.186	98.38
391.411	104.38
391.636	80.38
391.86	89.38
392.085	94.38
392.31	78.38
392.534	94.38
392.759	95.38
392.984	99.38
393.208	86.38
393.433	87.38
393.658	83.38
393.882	99.38
394.107	81.38
394.331	82.38
394.556	79.38
394.78	110.38
395.005	84.38
395.229	82.38
395.454	81.38
395.678	70.38
395.903	85.38
396.127	80.38
396.352	81.38
396.576	82.38
396.801	91.38
397.025	94.38
397.249	89.38
397.474	87.38
397.698	83.38
397.922	88.38
398.147	80.38
398.371	97.38
398.595	88.38
398.82	100.38
399.044	80.38
399.268	96.38
399.492	71.38
399.717	108.38
399.941	72.38
400.165	97.38
400.389	91.38
400.613	75.38
400.837	89.38
401.062	87.38
401.286	97.38
401.51	105.38
401.734	85.38
401.958	94.38
402.182	146.38
402.406	165.38
402.63	116.38
402.854	82.38
403.078	110.38
403.302	95.38
403.526	104.38
403.75	91.38
403.974	90.38
404.198	93.38
404.422	90.38
404.645	91.38
404.869	102.38
405.093	99.38
405.317	110.38
405.541	120.38
405.765	105.38
405.988	109.38
406.212	177.38
406.436	222.38
406.66	129.38
406.883	96.38
407.107	99.38
407.331	100.38
407.555	94.38
407.778	98.38
408.002	83.38
408.226	87.38
408.449	103.38
408.673	102.38
408.896	95.38
409.12	94.38
409.344	102.38
409.567	77.38
409.791	99.38
410.014	85.38
410.238	91.38
410.461	98.38
410.685	111.38
410.908	90.38
411.132	107.38
411.355	101.38
411.578	87.38
411.802	87.38
412.025	72.38
412.249	99.38
412.472	92.38
412.695	90.38
412.919	97.38
413.142	64.38
413.365	86.38
413.589	80.38
413.812	87.38
414.035	95.38
414.258	91.38
414.482	87.38
414.705	82.38
414.928	93.38
415.151	102.38
415.374	93.38
415.597	101.38
415.821	90.38
416.044	96.38
416.267	96.38
416.49	98.38
416.713	100.38
416.936	94.38
417.159	86.38
417.382	83.38
417.605	89.38
417.828	100.38
418.051	90.38
418.274	103.38
418.497	97.38
418.72	81.38
418.943	88.38
419.166	83.38
419.389	94.38
419.611	87.38
419.834	92.38
420.057	86.38
420.28	82.38
420.503	85.38
420.726	102.38
420.948	84.38
421.171	101.38
421.394	91.38
421.617	87.38
421.839	96.38
422.062	79.38
422.285	94.38
422.507	105.38
422.73	99.38
422.953	88.38
423.175	88.38
423.398	90.38
423.621	67.38
423.843	103.38
424.066	92.38
424.288	90.38
424.511	84.38
424.733	98.38
424.956	111.38
425.178	106.38
425.401	97.38
425.623	91.38
425.846	91.38
426.068	107.38
426.291	108.38
426.513	97.38
426.735	98.38
426.958	95.38
427.18	97.38
427.402	146.38
427.625	180.38
427.847	139.38
428.069	118.38
428.292	94.38
428.514	96.38
428.736	98.38
428.958	90.38
429.181	85.38
429.403	84.38
429.625	98.38
429.847	95.38
430.069	104.38
430.292	103.38
430.514	95.38
430.736	93.38
430.958	87.38
431.18	90.38
431.402	80.38
431.624	75.38
431.846	95.38
432.068	85.38
432.29	86.38
432.512	100.38
432.734	89.38
432.956	91.38
433.178	100.38
433.4	90.38
433.622	106.38
433.844	80.38
434.066	101.38
434.287	86.38
434.509	91.38
434.731	77.38
434.953	91.38
435.175	72.38
435.397	81.38
435.618	90.38
435.84	90.38
436.062	138.38
436.284	121.38
436.505	86.38
436.727	110.38
436.949	88.38
437.17	86.38
437.392	94.38
437.614	91.38
437.835	96.38
438.057	116.38
438.278	123.38
438.5	108.38
438.721	121.38
438.943	109.38
439.165	90.38
439.386	89.38
439.608	85.38
439.829	110.38
440.05	120.38
440.272	154.38
440.493	102.38
440.715	88.38
440.936	84.38
441.158	84.38
441.379	101.38
441.6	95.38
441.822	95.38
442.043	83.38
442.264	121.38
442.486	98.38
442.707	101.38
442.928	112.38
443.149	129.38
443.371	131.38
443.592	115.38
443.813	97.38
444.034	120.38
444.255	106.38
444.476	89.38
444.698	88.38
444.919	92.38
445.14	119.38
445.361	126.38
445.582	117.38
445.803	142.38
446.024	159.38
446.245	139.38
446.466	104.38
446.687	99.38
446.908	96.38
447.129	101.38
447.35	100.38
447.571	109.38
447.792	100.38
448.013	98.38
448.234	113.38
448.455	106.38
448.675	119.38
448.896	119.38
449.117	85.38
449.338	99.38
449.559	139.38
449.779	144.38
450	92.38
450.221	99.38
450.442	81.38
450.662	94.38
450.883	104.38
451.104	108.38
451.324	110.38
451.545	88.38
451.766	84.38
451.986	73.38
452.207	85.38
452.428	82.38
452.648	97.38
452.869	106.38
453.089	99.38
453.31	130.38
453.53	93.38
453.751	88.38
453.971	108.38
454.192	111.38
454.412	89.38
454.633	87.38
454.853	96.38
455.073	95.38
455.294	86.38
455.514	105.38
455.734	89.38
455.955	88.38
456.175	87.38
456.395	100.38
456.616	68.38
456.836	86.38
457.056	88.38
457.276	99.38
457.497	76.38
457.717	88.38
457.937	110.38
458.157	102.38
458.377	102.38
458.598	107.38
458.818	165.38
459.038	146.38
459.258	120.38
459.478	89.38
459.698	75.38
459.918	94.38
460.138	94.38
460.358	103.38
460.578	96.38
460.798	108.38
461.018	99.38
461.238	92.38
461.458	88.38
461.678	98.38
461.898	84.38
462.118	74.38
462.338	81.38
462.558	87.38
462.777	98.38
462.997	78.38
463.217	83.38
463.437	85.38
463.657	83.38
463.876	94.38
464.096	86.38
464.316	97.38
464.536	98.38
464.755	96.38
464.975	111.38
465.195	147.38
465.414	163.38
465.634	100.38
465.854	82.38
466.073	90.38
466.293	90.38
466.512	78.38
466.732	75.38
466.951	98.38
467.171	96.38
467.391	101.38
467.61	100.38
467.829	108.38
468.049	99.38
468.268	83.38
468.488	85.38
468.707	98.38
468.927	94.38
469.146	93.38
469.365	102.38
469.585	106.38
469.804	99.38
470.023	103.38
470.243	92.38
470.462	92.38
470.681	109.38
470.901	92.38
471.12	92.38
471.339	75.38
471.558	112.38
471.777	83.38
471.997	89.38
472.216	111.38
472.435	110.38
472.654	93.38
472.873	99.38
473.092	80.38
473.311	96.38
473.53	88.38
473.749	91.38
473.968	85.38
474.187	108.38
474.406	106.38
474.625	102.38
474.844	80.38
475.063	76.38
475.282	94.38
475.501	77.38
475.72	89.38
475.939	83.38
476.158	99.38
476.377	94.38
476.596	94.38
476.814	88.38
477.033	93.38
477.252	99.38
477.471	86.38
477.69	92.38
477.908	78.38
478.127	95.38
478.346	92.38
478.564	89.38
478.783	99.38
479.002	102.38
479.22	100.38
479.439	99.38
479.658	108.38
479.876	94.38
480.095	89.38
480.313	94.38
480.532	97.38
480.751	100.38
480.969	107.38
481.188	164.38
481.406	119.38
481.624	82.38
481.843	88.38
482.061	79.38
482.28	86.38
482.498	87.38
482.717	85.38
482.935	103.38
483.153	104.38
483.372	79.38
483.59	93.38
483.808	89.38
484.027	88.38
484.245	101.38
484.463	87.38
484.681	97.38
484.9	107.38
485.118	95.38
485.336	86.38
485.554	104.38
485.772	113.38
485.99	112.38
486.209	102.38
486.427	108.38
486.645	114.38
486.863	93.38
487.081	94.38
487.299	102.38
487.517	96.38
487.735	97.38
487.953	100.38
488.171	104.38
488.389	105.38
488.607	94.38
488.825	94.38
489.043	97.38
489.261	101.38
489.479	96.38
489.696	86.38
489.914	83.38
490.132	103.38
490.35	84.38
490.568	80.38
490.786	99.38
491.003	97.38
491.221	94.38
491.439	95.38
491.657	100.38
491.874	94.38
492.092	103.38
492.31	86.38
492.527	85.38
492.745	83.38
492.963	103.38
493.18	100.38
493.398	101.38
493.615	108.38
493.833	104.38
494.05	86.38
494.268	90.38
494.485	86.38
494.703	86.38
494.92	93.38
495.138	86.38
495.355	83.38
495.573	91.38
495.79	95.38
496.008	90.38
496.225	92.38
496.442	79.38
496.66	78.38
496.877	85.38
497.094	75.38
497.312	91.38
497.529	92.38
497.746	99.38
497.963	90.38
498.181	86.38
498.398	102.38
498.615	91.38
498.832	91.38
499.049	90.38
499.267	92.38
499.484	83.38
499.701	96.38
499.918	97.38
500.135	96.38
500.352	97.38
500.569	101.38
500.786	101.38
501.003	84.38
501.22	86.38
501.437	109.38
501.654	97.38
501.871	88.38
502.088	88.38
502.305	95.38
502.522	90.38
502.739	85.38
502.956	99.38
503.172	103.38
503.389	112.38
503.606	107.38
503.823	104.38
504.04	96.38
504.256	98.38
504.473	97.38
504.69	95.38
504.907	97.38
505.123	81.38
505.34	94.38
505.557	93.38
505.773	93.38
505.99	116.38
506.207	106.38
506.423	95.38
506.64	91.38
506.856	104.38
507.073	93.38
507.289	97.38
507.506	96.38
507.722	115.38
507.939	107.38
508.155	92.38
508.372	77.38
508.588	93.38
508.805	95.38
509.021	104.38
509.238	110.38
509.454	91.38
509.67	93.38
509.887	97.38
510.103	152.38
510.319	231.38
510.536	784.38
510.752	2342.38
510.968	624.38
511.184	150.38
511.401	124.38
511.617	108.38
511.833	97.38
512.049	79.38
512.265	93.38
512.481	88.38
512.698	98.38
512.914	80.38
513.13	102.38
513.346	98.38
513.562	93.38
513.778	104.38
513.994	98.38
514.21	97.38
514.426	117.38
514.642	130.38
