Data from Uncirc_1988_H10_HRD10591_00068.txt Node
Date: Wed Jan 03 12:04:18 EST 2024
User: Yrep
Spectrometer: HR+D1059
Trigger mode: 1
Integration Time (sec): 1.000000E-1
Scans to average: 1
Electric dark correction enabled: true
Nonlinearity correction enabled: false
Boxcar width: 0
XAxis mode: Wavelengths
Number of Pixels in Spectrum: 2048
>>>>>Begin Spectral Data<<<<<
223.165	-22.81
223.4	-22.81
223.635	-22.81
223.869	-13.81
224.104	-18.81
224.338	6.19
224.573	-22.81
224.808	-10.81
225.042	-2.81
225.277	-6.81
225.511	0.19
225.746	-1.81
225.98	7.19
226.215	3.19
226.449	14.19
226.683	19.19
226.918	26.19
227.152	24.19
227.387	48.19
227.621	43.19
227.856	48.19
228.09	42.19
228.324	58.19
228.559	68.19
228.793	67.19
229.027	67.19
229.262	73.19
229.496	89.19
229.73	89.19
229.964	84.19
230.199	77.19
230.433	70.19
230.667	74.19
230.901	87.19
231.136	82.19
231.37	96.19
231.604	92.19
231.838	99.19
232.072	82.19
232.306	76.19
232.541	94.19
232.775	70.19
233.009	70.19
233.243	79.19
233.477	84.19
233.711	83.19
233.945	83.19
234.179	86.19
234.413	72.19
234.647	75.19
234.881	80.19
235.115	84.19
235.349	84.19
235.583	82.19
235.817	85.19
236.051	82.19
236.285	70.19
236.519	88.19
236.753	74.19
236.987	90.19
237.221	79.19
237.455	84.19
237.689	75.19
237.922	80.19
238.156	75.19
238.39	80.19
238.624	80.19
238.858	72.19
239.091	83.19
239.325	71.19
239.559	73.19
239.793	83.19
240.027	84.19
240.26	78.19
240.494	74.19
240.728	83.19
240.961	80.19
241.195	70.19
241.429	70.19
241.662	88.19
241.896	82.19
242.13	83.19
242.363	85.19
242.597	80.19
242.83	82.19
243.064	68.19
243.298	73.19
243.531	78.19
243.765	78.19
243.998	92.19
244.232	87.19
244.465	83.19
244.699	95.19
244.932	87.19
245.166	85.19
245.399	92.19
245.633	73.19
245.866	90.19
246.099	85.19
246.333	86.19
246.566	78.19
246.8	67.19
247.033	82.19
247.266	78.19
247.5	91.19
247.733	78.19
247.966	82.19
248.2	90.19
248.433	85.19
248.666	81.19
248.899	79.19
249.133	91.19
249.366	96.19
249.599	91.19
249.832	96.19
250.066	99.19
250.299	86.19
250.532	96.19
250.765	63.19
250.998	94.19
251.231	71.19
251.465	85.19
251.698	72.19
251.931	87.19
252.164	81.19
252.397	78.19
252.63	80.19
252.863	94.19
253.096	77.19
253.329	102.19
253.562	73.19
253.795	73.19
254.028	95.19
254.261	87.19
254.494	83.19
254.727	70.19
254.96	84.19
255.193	80.19
255.426	95.19
255.659	80.19
255.892	74.19
256.124	92.19
256.357	84.19
256.59	82.19
256.823	87.19
257.056	68.19
257.289	71.19
257.521	94.19
257.754	93.19
257.987	75.19
258.22	87.19
258.452	76.19
258.685	71.19
258.918	82.19
259.151	77.19
259.383	86.19
259.616	84.19
259.849	76.19
260.081	81.19
260.314	96.19
260.547	80.19
260.779	91.19
261.012	78.19
261.244	89.19
261.477	83.19
261.71	90.19
261.942	111.19
262.175	116.19
262.407	99.19
262.64	80.19
262.872	80.19
263.105	73.19
263.337	93.19
263.57	93.19
263.802	89.19
264.035	87.19
264.267	83.19
264.499	82.19
264.732	79.19
264.964	102.19
265.197	103.19
265.429	88.19
265.661	74.19
265.894	84.19
266.126	93.19
266.358	90.19
266.591	86.19
266.823	85.19
267.055	97.19
267.287	91.19
267.52	71.19
267.752	70.19
267.984	84.19
268.216	81.19
268.448	106.19
268.681	74.19
268.913	77.19
269.145	85.19
269.377	85.19
269.609	92.19
269.841	78.19
270.073	86.19
270.306	98.19
270.538	90.19
270.77	86.19
271.002	91.19
271.234	88.19
271.466	75.19
271.698	94.19
271.93	91.19
272.162	81.19
272.394	92.19
272.626	101.19
272.858	77.19
273.09	87.19
273.322	99.19
273.553	94.19
273.785	84.19
274.017	80.19
274.249	92.19
274.481	95.19
274.713	89.19
274.945	81.19
275.176	73.19
275.408	83.19
275.64	76.19
275.872	87.19
276.104	78.19
276.335	90.19
276.567	111.19
276.799	114.19
277.031	98.19
277.262	95.19
277.494	87.19
277.726	92.19
277.957	80.19
278.189	62.19
278.421	96.19
278.652	86.19
278.884	88.19
279.115	71.19
279.347	76.19
279.579	90.19
279.81	91.19
280.042	89.19
280.273	86.19
280.505	91.19
280.736	96.19
280.968	84.19
281.199	79.19
281.431	75.19
281.662	92.19
281.894	99.19
282.125	94.19
282.356	126.19
282.588	155.19
282.819	110.19
283.051	94.19
283.282	94.19
283.513	82.19
283.745	89.19
283.976	85.19
284.207	81.19
284.439	85.19
284.67	86.19
284.901	89.19
285.132	107.19
285.364	96.19
285.595	72.19
285.826	100.19
286.057	86.19
286.288	78.19
286.52	92.19
286.751	90.19
286.982	89.19
287.213	85.19
287.444	84.19
287.675	78.19
287.906	87.19
288.138	79.19
288.369	101.19
288.6	104.19
288.831	82.19
289.062	90.19
289.293	99.19
289.524	97.19
289.755	84.19
289.986	83.19
290.217	84.19
290.448	94.19
290.679	87.19
290.91	101.19
291.141	94.19
291.371	71.19
291.602	91.19
291.833	80.19
292.064	89.19
292.295	96.19
292.526	98.19
292.757	101.19
292.987	84.19
293.218	89.19
293.449	89.19
293.68	97.19
293.91	87.19
294.141	91.19
294.372	96.19
294.603	91.19
294.833	95.19
295.064	89.19
295.295	84.19
295.525	99.19
295.756	106.19
295.987	114.19
296.217	129.19
296.448	127.19
296.679	85.19
296.909	92.19
297.14	92.19
297.37	99.19
297.601	90.19
297.831	86.19
298.062	113.19
298.292	91.19
298.523	103.19
298.753	97.19
298.984	92.19
299.214	93.19
299.445	100.19
299.675	100.19
299.905	90.19
300.136	87.19
300.366	89.19
300.597	93.19
300.827	83.19
301.057	91.19
301.288	103.19
301.518	95.19
301.748	86.19
301.979	105.19
302.209	92.19
302.439	92.19
302.669	94.19
302.9	90.19
303.13	74.19
303.36	91.19
303.59	107.19
303.82	91.19
304.051	67.19
304.281	84.19
304.511	95.19
304.741	91.19
304.971	89.19
305.201	92.19
305.431	100.19
305.661	87.19
305.891	90.19
306.121	101.19
306.352	106.19
306.582	90.19
306.812	100.19
307.042	98.19
307.272	95.19
307.502	107.19
307.731	94.19
307.961	86.19
308.191	92.19
308.421	95.19
308.651	94.19
308.881	80.19
309.111	92.19
309.341	112.19
309.571	106.19
309.8	85.19
310.03	96.19
310.26	92.19
310.49	104.19
310.72	91.19
310.949	124.19
311.179	105.19
311.409	102.19
311.639	94.19
311.868	93.19
312.098	111.19
312.328	102.19
312.557	106.19
312.787	99.19
313.017	106.19
313.246	93.19
313.476	106.19
313.706	90.19
313.935	101.19
314.165	106.19
314.394	98.19
314.624	102.19
314.853	95.19
315.083	115.19
315.312	97.19
315.542	89.19
315.771	104.19
316.001	105.19
316.23	88.19
316.46	92.19
316.689	87.19
316.919	96.19
317.148	92.19
317.377	96.19
317.607	97.19
317.836	89.19
318.065	82.19
318.295	86.19
318.524	86.19
318.753	104.19
318.983	99.19
319.212	103.19
319.441	100.19
319.67	119.19
319.9	112.19
320.129	88.19
320.358	92.19
320.587	87.19
320.816	99.19
321.046	86.19
321.275	115.19
321.504	98.19
321.733	106.19
321.962	90.19
322.191	98.19
322.42	99.19
322.649	111.19
322.878	123.19
323.108	120.19
323.337	121.19
323.566	143.19
323.795	152.19
324.024	211.19
324.253	394.19
324.482	825.19
324.71	1707.19
324.939	2212.19
325.168	820.19
325.397	241.19
325.626	146.19
325.855	121.19
326.084	136.19
326.313	142.19
326.542	169.19
326.77	220.19
326.999	462.19
327.228	944.19
327.457	1744.19
327.686	1383.19
327.914	366.19
328.143	202.19
328.372	162.19
328.6	134.19
328.829	123.19
329.058	132.19
329.287	134.19
329.515	103.19
329.744	88.19
329.972	106.19
330.201	114.19
330.43	125.19
330.658	140.19
330.887	128.19
331.115	119.19
331.344	103.19
331.572	98.19
331.801	107.19
332.03	108.19
332.258	96.19
332.486	93.19
332.715	94.19
332.943	105.19
333.172	104.19
333.4	104.19
333.629	102.19
333.857	119.19
334.085	114.19
334.314	94.19
334.542	119.19
334.771	114.19
334.999	102.19
335.227	98.19
335.455	103.19
335.684	104.19
335.912	102.19
336.14	102.19
336.369	79.19
336.597	105.19
336.825	95.19
337.053	105.19
337.281	102.19
337.51	103.19
337.738	89.19
337.966	102.19
338.194	91.19
338.422	103.19
338.65	89.19
338.878	87.19
339.106	100.19
339.334	90.19
339.562	97.19
339.79	101.19
340.018	98.19
340.246	82.19
340.474	97.19
340.702	91.19
340.93	90.19
341.158	96.19
341.386	96.19
341.614	92.19
341.842	104.19
342.07	101.19
342.298	99.19
342.526	92.19
342.754	104.19
342.981	87.19
343.209	87.19
343.437	102.19
343.665	97.19
343.893	89.19
344.12	90.19
344.348	95.19
344.576	83.19
344.804	99.19
345.031	111.19
345.259	100.19
345.487	100.19
345.714	104.19
345.942	107.19
346.17	81.19
346.397	107.19
346.625	85.19
346.853	87.19
347.08	94.19
347.308	97.19
347.535	98.19
347.763	92.19
347.99	97.19
348.218	112.19
348.445	94.19
348.673	103.19
348.9	101.19
349.128	94.19
349.355	96.19
349.583	105.19
349.81	101.19
350.037	92.19
350.265	100.19
350.492	76.19
350.72	102.19
350.947	106.19
351.174	97.19
351.402	114.19
351.629	97.19
351.856	103.19
352.083	106.19
352.311	101.19
352.538	109.19
352.765	116.19
352.992	131.19
353.22	114.19
353.447	115.19
353.674	100.19
353.901	114.19
354.128	117.19
354.355	99.19
354.583	106.19
354.81	108.19
355.037	94.19
355.264	87.19
355.491	93.19
355.718	96.19
355.945	97.19
356.172	110.19
356.399	95.19
356.626	95.19
356.853	105.19
357.08	95.19
357.307	92.19
357.534	87.19
357.761	93.19
357.988	89.19
358.215	87.19
358.441	87.19
358.668	92.19
358.895	94.19
359.122	81.19
359.349	92.19
359.576	96.19
359.802	99.19
360.029	117.19
360.256	118.19
360.483	90.19
360.709	95.19
360.936	83.19
361.163	105.19
361.39	104.19
361.616	92.19
361.843	89.19
362.07	82.19
362.296	104.19
362.523	91.19
362.749	94.19
362.976	98.19
363.203	91.19
363.429	100.19
363.656	92.19
363.882	94.19
364.109	93.19
364.335	100.19
364.562	92.19
364.788	103.19
365.015	85.19
365.241	86.19
365.468	101.19
365.694	113.19
365.92	98.19
366.147	95.19
366.373	90.19
366.599	93.19
366.826	97.19
367.052	94.19
367.278	106.19
367.505	91.19
367.731	109.19
367.957	106.19
368.184	99.19
368.41	103.19
368.636	120.19
368.862	125.19
369.089	121.19
369.315	107.19
369.541	100.19
369.767	99.19
369.993	95.19
370.219	86.19
370.445	89.19
370.672	97.19
370.898	95.19
371.124	82.19
371.35	82.19
371.576	83.19
371.802	94.19
372.028	89.19
372.254	78.19
372.48	100.19
372.706	84.19
372.932	97.19
373.158	91.19
373.384	92.19
373.61	94.19
373.835	91.19
374.061	100.19
374.287	98.19
374.513	81.19
374.739	83.19
374.965	89.19
375.191	98.19
375.416	82.19
375.642	94.19
375.868	101.19
376.094	96.19
376.319	83.19
376.545	89.19
376.771	95.19
376.997	89.19
377.222	103.19
377.448	91.19
377.674	93.19
377.899	95.19
378.125	85.19
378.35	104.19
378.576	74.19
378.802	86.19
379.027	91.19
379.253	96.19
379.478	95.19
379.704	96.19
379.929	90.19
380.155	89.19
380.38	96.19
380.606	88.19
380.831	110.19
381.057	93.19
381.282	95.19
381.507	94.19
381.733	102.19
381.958	97.19
382.184	97.19
382.409	97.19
382.634	92.19
382.86	102.19
383.085	113.19
383.31	113.19
383.535	108.19
383.761	95.19
383.986	98.19
384.211	95.19
384.436	92.19
384.662	91.19
384.887	108.19
385.112	112.19
385.337	114.19
385.562	103.19
385.787	105.19
386.013	119.19
386.238	104.19
386.463	109.19
386.688	120.19
386.913	126.19
387.138	94.19
387.363	103.19
387.588	110.19
387.813	103.19
388.038	99.19
388.263	82.19
388.488	100.19
388.713	99.19
388.938	97.19
389.163	87.19
389.387	102.19
389.612	96.19
389.837	91.19
390.062	88.19
390.287	99.19
390.512	95.19
390.736	107.19
390.961	105.19
391.186	87.19
391.411	106.19
391.636	94.19
391.86	97.19
392.085	74.19
392.31	78.19
392.534	78.19
392.759	93.19
392.984	92.19
393.208	80.19
393.433	88.19
393.658	89.19
393.882	88.19
394.107	97.19
394.331	82.19
394.556	93.19
394.78	83.19
395.005	87.19
395.229	90.19
395.454	91.19
395.678	84.19
395.903	91.19
396.127	101.19
396.352	89.19
396.576	88.19
396.801	96.19
397.025	87.19
397.249	78.19
397.474	84.19
397.698	87.19
397.922	87.19
398.147	95.19
398.371	91.19
398.595	100.19
398.82	88.19
399.044	99.19
399.268	103.19
399.492	91.19
399.717	76.19
399.941	101.19
400.165	92.19
400.389	92.19
400.613	91.19
400.837	94.19
401.062	96.19
401.286	104.19
401.51	95.19
401.734	88.19
401.958	86.19
402.182	122.19
402.406	167.19
402.63	126.19
402.854	97.19
403.078	91.19
403.302	99.19
403.526	91.19
403.75	82.19
403.974	92.19
404.198	101.19
404.422	96.19
404.645	105.19
404.869	82.19
405.093	103.19
405.317	109.19
405.541	98.19
405.765	97.19
405.988	122.19
406.212	171.19
406.436	232.19
406.66	135.19
406.883	99.19
407.107	87.19
407.331	95.19
407.555	99.19
407.778	100.19
408.002	105.19
408.226	87.19
408.449	80.19
408.673	98.19
408.896	105.19
409.12	101.19
409.344	101.19
409.567	89.19
409.791	98.19
410.014	98.19
410.238	89.19
410.461	95.19
410.685	104.19
410.908	105.19
411.132	108.19
411.355	99.19
411.578	86.19
411.802	96.19
412.025	99.19
412.249	98.19
412.472	76.19
412.695	102.19
412.919	89.19
413.142	86.19
413.365	100.19
413.589	80.19
413.812	87.19
414.035	100.19
414.258	86.19
414.482	92.19
414.705	94.19
414.928	107.19
415.151	100.19
415.374	92.19
415.597	80.19
415.821	88.19
416.044	84.19
416.267	87.19
416.49	84.19
416.713	86.19
416.936	106.19
417.159	82.19
417.382	74.19
417.605	101.19
417.828	87.19
418.051	100.19
418.274	83.19
418.497	89.19
418.72	95.19
418.943	96.19
419.166	89.19
419.389	85.19
419.611	86.19
419.834	94.19
420.057	99.19
420.28	90.19
420.503	82.19
420.726	89.19
420.948	92.19
421.171	95.19
421.394	99.19
421.617	84.19
421.839	99.19
422.062	85.19
422.285	85.19
422.507	88.19
422.73	123.19
422.953	105.19
423.175	102.19
423.398	103.19
423.621	96.19
423.843	86.19
424.066	83.19
424.288	113.19
424.511	106.19
424.733	91.19
424.956	116.19
425.178	105.19
425.401	101.19
425.623	94.19
425.846	91.19
426.068	99.19
426.291	101.19
426.513	106.19
426.735	91.19
426.958	101.19
427.18	125.19
427.402	152.19
427.625	167.19
427.847	132.19
428.069	121.19
428.292	97.19
428.514	99.19
428.736	93.19
428.958	88.19
429.181	87.19
429.403	78.19
429.625	97.19
429.847	96.19
430.069	105.19
430.292	89.19
430.514	89.19
430.736	90.19
430.958	96.19
431.18	90.19
431.402	86.19
431.624	97.19
431.846	95.19
432.068	83.19
432.29	87.19
432.512	88.19
432.734	84.19
432.956	87.19
433.178	107.19
433.4	98.19
433.622	89.19
433.844	107.19
434.066	90.19
434.287	94.19
434.509	95.19
434.731	91.19
434.953	85.19
435.175	89.19
435.397	99.19
435.618	94.19
435.84	108.19
436.062	118.19
436.284	130.19
436.505	107.19
436.727	102.19
436.949	109.19
437.17	104.19
437.392	82.19
437.614	87.19
437.835	126.19
438.057	121.19
438.278	110.19
438.5	115.19
438.721	124.19
438.943	103.19
439.165	98.19
439.386	68.19
439.608	99.19
439.829	116.19
440.05	122.19
440.272	130.19
440.493	105.19
440.715	81.19
440.936	87.19
441.158	79.19
441.379	83.19
441.6	100.19
441.822	108.19
442.043	104.19
442.264	108.19
442.486	114.19
442.707	101.19
442.928	113.19
443.149	142.19
443.371	136.19
443.592	108.19
443.813	117.19
444.034	110.19
444.255	102.19
444.476	95.19
444.698	97.19
444.919	73.19
445.14	135.19
445.361	120.19
445.582	127.19
445.803	137.19
446.024	129.19
446.245	141.19
446.466	108.19
446.687	106.19
446.908	97.19
447.129	92.19
447.35	103.19
447.571	98.19
447.792	85.19
448.013	100.19
448.234	113.19
448.455	115.19
448.675	115.19
448.896	111.19
449.117	119.19
449.338	124.19
449.559	132.19
449.779	126.19
450	104.19
450.221	101.19
450.442	93.19
450.662	90.19
450.883	105.19
451.104	124.19
451.324	99.19
451.545	94.19
451.766	84.19
451.986	82.19
452.207	104.19
452.428	106.19
452.648	103.19
452.869	122.19
453.089	104.19
453.31	115.19
453.53	112.19
453.751	102.19
453.971	105.19
454.192	110.19
454.412	91.19
454.633	99.19
454.853	89.19
455.073	94.19
455.294	76.19
455.514	112.19
455.734	90.19
455.955	82.19
456.175	88.19
456.395	105.19
456.616	102.19
456.836	95.19
457.056	96.19
457.276	91.19
457.497	99.19
457.717	92.19
457.937	99.19
458.157	87.19
458.377	87.19
458.598	101.19
458.818	143.19
459.038	152.19
459.258	118.19
459.478	94.19
459.698	90.19
459.918	99.19
460.138	96.19
460.358	85.19
460.578	96.19
460.798	108.19
461.018	101.19
461.238	81.19
461.458	100.19
461.678	94.19
461.898	92.19
462.118	94.19
462.338	87.19
462.558	93.19
462.777	80.19
462.997	88.19
463.217	109.19
463.437	88.19
463.657	90.19
463.876	87.19
464.096	95.19
464.316	94.19
464.536	104.19
464.755	93.19
464.975	99.19
465.195	176.19
465.414	158.19
465.634	103.19
465.854	104.19
466.073	98.19
466.293	87.19
466.512	87.19
466.732	83.19
466.951	93.19
467.171	101.19
467.391	105.19
467.61	113.19
467.829	86.19
468.049	90.19
468.268	105.19
468.488	98.19
468.707	80.19
468.927	91.19
469.146	78.19
469.365	89.19
469.585	93.19
469.804	104.19
470.023	100.19
470.243	88.19
470.462	105.19
470.681	116.19
470.901	94.19
471.12	84.19
471.339	91.19
471.558	100.19
471.777	94.19
471.997	98.19
472.216	109.19
472.435	127.19
472.654	90.19
472.873	100.19
473.092	83.19
473.311	90.19
473.53	94.19
473.749	83.19
473.968	98.19
474.187	112.19
474.406	105.19
474.625	96.19
474.844	95.19
475.063	98.19
475.282	79.19
475.501	88.19
475.72	89.19
475.939	85.19
476.158	100.19
476.377	92.19
476.596	86.19
476.814	93.19
477.033	90.19
477.252	81.19
477.471	103.19
477.69	97.19
477.908	91.19
478.127	95.19
478.346	103.19
478.564	77.19
478.783	100.19
479.002	106.19
479.22	89.19
479.439	111.19
479.658	108.19
479.876	107.19
480.095	109.19
480.313	98.19
480.532	104.19
480.751	87.19
480.969	119.19
481.188	170.19
481.406	131.19
481.624	101.19
481.843	82.19
482.061	98.19
482.28	80.19
482.498	87.19
482.717	94.19
482.935	92.19
483.153	93.19
483.372	101.19
483.59	90.19
483.808	89.19
484.027	99.19
484.245	100.19
484.463	95.19
484.681	115.19
484.9	91.19
485.118	100.19
485.336	98.19
485.554	99.19
485.772	99.19
485.99	121.19
486.209	110.19
486.427	114.19
486.645	109.19
486.863	114.19
487.081	95.19
487.299	109.19
487.517	89.19
487.735	88.19
487.953	88.19
488.171	83.19
488.389	104.19
488.607	95.19
488.825	88.19
489.043	98.19
489.261	92.19
489.479	92.19
489.696	88.19
489.914	85.19
490.132	81.19
490.35	102.19
490.568	87.19
490.786	95.19
491.003	105.19
491.221	96.19
491.439	80.19
491.657	95.19
491.874	104.19
492.092	106.19
492.31	93.19
492.527	99.19
492.745	87.19
492.963	85.19
493.18	93.19
493.398	90.19
493.615	103.19
493.833	103.19
494.05	90.19
494.268	82.19
494.485	99.19
494.703	99.19
494.92	94.19
495.138	103.19
495.355	98.19
495.573	82.19
495.79	100.19
496.008	94.19
496.225	89.19
496.442	89.19
496.66	104.19
496.877	96.19
497.094	99.19
497.312	107.19
497.529	108.19
497.746	89.19
497.963	97.19
498.181	101.19
498.398	106.19
498.615	117.19
498.832	102.19
499.049	87.19
499.267	92.19
499.484	94.19
499.701	95.19
499.918	82.19
500.135	103.19
500.352	96.19
500.569	86.19
500.786	90.19
501.003	106.19
501.22	99.19
501.437	100.19
501.654	94.19
501.871	114.19
502.088	91.19
502.305	105.19
502.522	97.19
502.739	101.19
502.956	91.19
503.172	96.19
503.389	96.19
503.606	95.19
503.823	101.19
504.04	80.19
504.256	90.19
504.473	88.19
504.69	99.19
504.907	112.19
505.123	87.19
505.34	93.19
505.557	94.19
505.773	87.19
505.99	81.19
506.207	99.19
506.423	97.19
506.64	99.19
506.856	111.19
507.073	96.19
507.289	91.19
507.506	99.19
507.722	106.19
507.939	111.19
508.155	104.19
508.372	91.19
508.588	100.19
508.805	92.19
509.021	93.19
509.238	119.19
509.454	107.19
509.67	105.19
509.887	102.19
510.103	145.19
510.319	230.19
510.536	767.19
510.752	2426.19
510.968	656.19
511.184	164.19
511.401	114.19
511.617	100.19
511.833	104.19
512.049	96.19
512.265	88.19
512.481	90.19
512.698	106.19
512.914	90.19
513.13	80.19
513.346	112.19
513.562	101.19
513.778	90.19
513.994	95.19
514.21	102.19
