Data from Uncirc_1988_H10_HRD10591_00048.txt Node
Date: Wed Jan 03 12:04:14 EST 2024
User: Yrep
Spectrometer: HR+D1059
Trigger mode: 1
Integration Time (sec): 1.000000E-1
Scans to average: 1
Electric dark correction enabled: true
Nonlinearity correction enabled: false
Boxcar width: 0
XAxis mode: Wavelengths
Number of Pixels in Spectrum: 2048
>>>>>Begin Spectral Data<<<<<
223.165	-17.5
223.4	-17.5
223.635	-17.5
223.869	-15.5
224.104	-18.5
224.338	-13.5
224.573	-15.5
224.808	-18.5
225.042	-14.5
225.277	-12.5
225.511	-0.5
225.746	8.5
225.98	-2.5
226.215	13.5
226.449	29.5
226.683	15.5
226.918	25.5
227.152	36.5
227.387	28.5
227.621	39.5
227.856	42.5
228.09	40.5
228.324	63.5
228.559	58.5
228.793	66.5
229.027	63.5
229.262	78.5
229.496	72.5
229.73	72.5
229.964	81.5
230.199	78.5
230.433	69.5
230.667	70.5
230.901	77.5
231.136	69.5
231.37	70.5
231.604	84.5
231.838	80.5
232.072	83.5
232.306	83.5
232.541	83.5
232.775	75.5
233.009	79.5
233.243	76.5
233.477	74.5
233.711	68.5
233.945	94.5
234.179	69.5
234.413	86.5
234.647	79.5
234.881	78.5
235.115	70.5
235.349	83.5
235.583	69.5
235.817	76.5
236.051	73.5
236.285	82.5
236.519	62.5
236.753	75.5
236.987	67.5
237.221	75.5
237.455	82.5
237.689	69.5
237.922	65.5
238.156	80.5
238.39	70.5
238.624	74.5
238.858	67.5
239.091	80.5
239.325	70.5
239.559	65.5
239.793	55.5
240.027	69.5
240.26	62.5
240.494	90.5
240.728	78.5
240.961	84.5
241.195	74.5
241.429	72.5
241.662	80.5
241.896	76.5
242.13	87.5
242.363	67.5
242.597	72.5
242.83	76.5
243.064	81.5
243.298	80.5
243.531	72.5
243.765	91.5
243.998	71.5
244.232	86.5
244.465	82.5
244.699	66.5
244.932	85.5
245.166	78.5
245.399	79.5
245.633	79.5
245.866	68.5
246.099	71.5
246.333	78.5
246.566	76.5
246.8	80.5
247.033	73.5
247.266	77.5
247.5	84.5
247.733	75.5
247.966	82.5
248.2	71.5
248.433	78.5
248.666	86.5
248.899	78.5
249.133	69.5
249.366	82.5
249.599	70.5
249.832	89.5
250.066	78.5
250.299	86.5
250.532	77.5
250.765	69.5
250.998	63.5
251.231	90.5
251.465	74.5
251.698	62.5
251.931	64.5
252.164	69.5
252.397	73.5
252.63	76.5
252.863	76.5
253.096	81.5
253.329	79.5
253.562	91.5
253.795	90.5
254.028	87.5
254.261	87.5
254.494	62.5
254.727	84.5
254.96	91.5
255.193	81.5
255.426	58.5
255.659	75.5
255.892	80.5
256.124	74.5
256.357	68.5
256.59	75.5
256.823	63.5
257.056	75.5
257.289	87.5
257.521	82.5
257.754	78.5
257.987	59.5
258.22	94.5
258.452	82.5
258.685	74.5
258.918	79.5
259.151	72.5
259.383	78.5
259.616	79.5
259.849	87.5
260.081	81.5
260.314	99.5
260.547	88.5
260.779	74.5
261.012	85.5
261.244	92.5
261.477	87.5
261.71	95.5
261.942	102.5
262.175	108.5
262.407	91.5
262.64	87.5
262.872	75.5
263.105	80.5
263.337	89.5
263.57	70.5
263.802	70.5
264.035	91.5
264.267	92.5
264.499	83.5
264.732	92.5
264.964	74.5
265.197	72.5
265.429	78.5
265.661	70.5
265.894	71.5
266.126	75.5
266.358	74.5
266.591	76.5
266.823	84.5
267.055	71.5
267.287	84.5
267.52	67.5
267.752	84.5
267.984	103.5
268.216	90.5
268.448	80.5
268.681	67.5
268.913	83.5
269.145	92.5
269.377	88.5
269.609	80.5
269.841	83.5
270.073	82.5
270.306	88.5
270.538	72.5
270.77	75.5
271.002	83.5
271.234	83.5
271.466	81.5
271.698	91.5
271.93	83.5
272.162	91.5
272.394	76.5
272.626	83.5
272.858	86.5
273.09	78.5
273.322	90.5
273.553	79.5
273.785	77.5
274.017	84.5
274.249	82.5
274.481	94.5
274.713	68.5
274.945	79.5
275.176	78.5
275.408	82.5
275.64	76.5
275.872	86.5
276.104	85.5
276.335	79.5
276.567	87.5
276.799	110.5
277.031	100.5
277.262	92.5
277.494	85.5
277.726	86.5
277.957	71.5
278.189	89.5
278.421	76.5
278.652	85.5
278.884	94.5
279.115	91.5
279.347	78.5
279.579	84.5
279.81	87.5
280.042	85.5
280.273	97.5
280.505	86.5
280.736	77.5
280.968	78.5
281.199	97.5
281.431	80.5
281.662	74.5
281.894	90.5
282.125	86.5
282.356	116.5
282.588	116.5
282.819	105.5
283.051	74.5
283.282	88.5
283.513	69.5
283.745	80.5
283.976	70.5
284.207	88.5
284.439	85.5
284.67	85.5
284.901	77.5
285.132	82.5
285.364	78.5
285.595	87.5
285.826	86.5
286.057	90.5
286.288	81.5
286.52	93.5
286.751	96.5
286.982	99.5
287.213	88.5
287.444	77.5
287.675	89.5
287.906	92.5
288.138	78.5
288.369	94.5
288.6	106.5
288.831	88.5
289.062	72.5
289.293	86.5
289.524	88.5
289.755	81.5
289.986	87.5
290.217	91.5
290.448	75.5
290.679	74.5
290.91	92.5
291.141	89.5
291.371	83.5
291.602	90.5
291.833	92.5
292.064	84.5
292.295	81.5
292.526	78.5
292.757	92.5
292.987	93.5
293.218	90.5
293.449	85.5
293.68	92.5
293.91	87.5
294.141	87.5
294.372	82.5
294.603	80.5
294.833	74.5
295.064	81.5
295.295	80.5
295.525	88.5
295.756	84.5
295.987	96.5
296.217	108.5
296.448	118.5
296.679	84.5
296.909	101.5
297.14	79.5
297.37	75.5
297.601	100.5
297.831	96.5
298.062	79.5
298.292	94.5
298.523	85.5
298.753	74.5
298.984	78.5
299.214	77.5
299.445	79.5
299.675	77.5
299.905	93.5
300.136	89.5
300.366	68.5
300.597	91.5
300.827	88.5
301.057	95.5
301.288	92.5
301.518	103.5
301.748	83.5
301.979	95.5
302.209	80.5
302.439	95.5
302.669	95.5
302.9	67.5
303.13	81.5
303.36	98.5
303.59	98.5
303.82	99.5
304.051	90.5
304.281	82.5
304.511	83.5
304.741	80.5
304.971	84.5
305.201	85.5
305.431	83.5
305.661	92.5
305.891	96.5
306.121	98.5
306.352	95.5
306.582	93.5
306.812	80.5
307.042	80.5
307.272	74.5
307.502	82.5
307.731	95.5
307.961	89.5
308.191	99.5
308.421	95.5
308.651	91.5
308.881	91.5
309.111	98.5
309.341	90.5
309.571	94.5
309.8	107.5
310.03	114.5
310.26	91.5
310.49	96.5
310.72	92.5
310.949	103.5
311.179	90.5
311.409	94.5
311.639	99.5
311.868	104.5
312.098	87.5
312.328	88.5
312.557	82.5
312.787	95.5
313.017	88.5
313.246	79.5
313.476	84.5
313.706	82.5
313.935	102.5
314.165	90.5
314.394	91.5
314.624	94.5
314.853	92.5
315.083	93.5
315.312	92.5
315.542	91.5
315.771	87.5
316.001	76.5
316.23	82.5
316.46	85.5
316.689	104.5
316.919	102.5
317.148	87.5
317.377	111.5
317.607	97.5
317.836	94.5
318.065	92.5
318.295	81.5
318.524	85.5
318.753	91.5
318.983	85.5
319.212	92.5
319.441	104.5
319.67	86.5
319.9	87.5
320.129	85.5
320.358	95.5
320.587	94.5
320.816	96.5
321.046	99.5
321.275	97.5
321.504	99.5
321.733	90.5
321.962	92.5
322.191	107.5
322.42	108.5
322.649	111.5
322.878	107.5
323.108	114.5
323.337	109.5
323.566	122.5
323.795	125.5
324.024	196.5
324.253	372.5
324.482	790.5
324.71	1647.5
324.939	2160.5
325.168	792.5
325.397	235.5
325.626	154.5
325.855	129.5
326.084	124.5
326.313	118.5
326.542	142.5
326.77	217.5
326.999	435.5
327.228	891.5
327.457	1675.5
327.686	1308.5
327.914	348.5
328.143	170.5
328.372	138.5
328.6	112.5
328.829	119.5
329.058	108.5
329.287	116.5
329.515	103.5
329.744	99.5
329.972	88.5
330.201	90.5
330.43	113.5
330.658	117.5
330.887	126.5
331.115	90.5
331.344	104.5
331.572	103.5
331.801	95.5
332.03	104.5
332.258	87.5
332.486	96.5
332.715	94.5
332.943	100.5
333.172	82.5
333.4	86.5
333.629	113.5
333.857	102.5
334.085	108.5
334.314	99.5
334.542	102.5
334.771	115.5
334.999	104.5
335.227	87.5
335.455	87.5
335.684	95.5
335.912	97.5
336.14	100.5
336.369	87.5
336.597	93.5
336.825	89.5
337.053	94.5
337.281	82.5
337.51	89.5
337.738	90.5
337.966	84.5
338.194	106.5
338.422	98.5
338.65	98.5
338.878	91.5
339.106	92.5
339.334	82.5
339.562	85.5
339.79	92.5
340.018	98.5
340.246	89.5
340.474	94.5
340.702	87.5
340.93	84.5
341.158	92.5
341.386	96.5
341.614	91.5
341.842	82.5
342.07	82.5
342.298	85.5
342.526	86.5
342.754	86.5
342.981	86.5
343.209	83.5
343.437	109.5
343.665	81.5
343.893	91.5
344.12	91.5
344.348	99.5
344.576	94.5
344.804	87.5
345.031	88.5
345.259	93.5
345.487	92.5
345.714	82.5
345.942	92.5
346.17	93.5
346.397	83.5
346.625	88.5
346.853	95.5
347.08	91.5
347.308	102.5
347.535	83.5
347.763	87.5
347.99	97.5
348.218	103.5
348.445	86.5
348.673	110.5
348.9	98.5
349.128	95.5
349.355	93.5
349.583	79.5
349.81	100.5
350.037	87.5
350.265	99.5
350.492	59.5
350.72	104.5
350.947	103.5
351.174	109.5
351.402	99.5
351.629	95.5
351.856	90.5
352.083	96.5
352.311	116.5
352.538	102.5
352.765	102.5
352.992	110.5
353.22	95.5
353.447	114.5
353.674	112.5
353.901	98.5
354.128	112.5
354.355	103.5
354.583	102.5
354.81	107.5
355.037	86.5
355.264	97.5
355.491	80.5
355.718	100.5
355.945	90.5
356.172	102.5
356.399	100.5
356.626	99.5
356.853	86.5
357.08	92.5
357.307	83.5
357.534	87.5
357.761	98.5
357.988	95.5
358.215	92.5
358.441	96.5
358.668	87.5
358.895	88.5
359.122	97.5
359.349	85.5
359.576	82.5
359.802	86.5
360.029	108.5
360.256	95.5
360.483	79.5
360.709	93.5
360.936	92.5
361.163	95.5
361.39	83.5
361.616	97.5
361.843	90.5
362.07	98.5
362.296	92.5
362.523	91.5
362.749	98.5
362.976	96.5
363.203	92.5
363.429	92.5
363.656	90.5
363.882	88.5
364.109	80.5
364.335	85.5
364.562	84.5
364.788	76.5
365.015	105.5
365.241	97.5
365.468	86.5
365.694	97.5
365.92	89.5
366.147	85.5
366.373	91.5
366.599	80.5
366.826	85.5
367.052	84.5
367.278	85.5
367.505	83.5
367.731	89.5
367.957	100.5
368.184	106.5
368.41	99.5
368.636	97.5
368.862	108.5
369.089	102.5
369.315	82.5
369.541	90.5
369.767	79.5
369.993	88.5
370.219	104.5
370.445	91.5
370.672	90.5
370.898	83.5
371.124	75.5
371.35	96.5
371.576	84.5
371.802	86.5
372.028	87.5
372.254	82.5
372.48	84.5
372.706	79.5
372.932	76.5
373.158	95.5
373.384	76.5
373.61	96.5
373.835	89.5
374.061	76.5
374.287	87.5
374.513	85.5
374.739	80.5
374.965	88.5
375.191	80.5
375.416	84.5
375.642	89.5
375.868	101.5
376.094	87.5
376.319	101.5
376.545	67.5
376.771	78.5
376.997	70.5
377.222	86.5
377.448	75.5
377.674	85.5
377.899	82.5
378.125	89.5
378.35	85.5
378.576	89.5
378.802	86.5
379.027	95.5
379.253	97.5
379.478	91.5
379.704	96.5
379.929	88.5
380.155	82.5
380.38	91.5
380.606	103.5
380.831	101.5
381.057	86.5
381.282	92.5
381.507	74.5
381.733	78.5
381.958	94.5
382.184	94.5
382.409	95.5
382.634	93.5
382.86	93.5
383.085	89.5
383.31	102.5
383.535	82.5
383.761	93.5
383.986	101.5
384.211	101.5
384.436	98.5
384.662	102.5
384.887	83.5
385.112	95.5
385.337	82.5
385.562	87.5
385.787	107.5
386.013	110.5
386.238	88.5
386.463	102.5
386.688	108.5
386.913	95.5
387.138	104.5
387.363	102.5
387.588	103.5
387.813	102.5
388.038	108.5
388.263	104.5
388.488	120.5
388.713	89.5
388.938	93.5
389.163	92.5
389.387	77.5
389.612	88.5
389.837	99.5
390.062	83.5
390.287	88.5
390.512	96.5
390.736	80.5
390.961	83.5
391.186	102.5
391.411	98.5
391.636	86.5
391.86	86.5
392.085	101.5
392.31	91.5
392.534	71.5
392.759	79.5
392.984	91.5
393.208	83.5
393.433	97.5
393.658	91.5
393.882	88.5
394.107	81.5
394.331	95.5
394.556	74.5
394.78	90.5
395.005	90.5
395.229	104.5
395.454	76.5
395.678	88.5
395.903	84.5
396.127	94.5
396.352	80.5
396.576	89.5
396.801	76.5
397.025	69.5
397.249	79.5
397.474	81.5
397.698	84.5
397.922	81.5
398.147	85.5
398.371	83.5
398.595	79.5
398.82	83.5
399.044	77.5
399.268	79.5
399.492	76.5
399.717	92.5
399.941	90.5
400.165	99.5
400.389	95.5
400.613	91.5
400.837	86.5
401.062	81.5
401.286	81.5
401.51	78.5
401.734	87.5
401.958	90.5
402.182	123.5
402.406	143.5
402.63	102.5
402.854	106.5
403.078	92.5
403.302	94.5
403.526	94.5
403.75	97.5
403.974	85.5
404.198	83.5
404.422	88.5
404.645	96.5
404.869	89.5
405.093	64.5
405.317	91.5
405.541	90.5
405.765	92.5
405.988	108.5
406.212	160.5
406.436	199.5
406.66	126.5
406.883	103.5
407.107	85.5
407.331	99.5
407.555	88.5
407.778	93.5
408.002	82.5
408.226	90.5
408.449	103.5
408.673	80.5
408.896	90.5
409.12	96.5
409.344	101.5
409.567	95.5
409.791	92.5
410.014	87.5
410.238	82.5
410.461	95.5
410.685	84.5
410.908	90.5
411.132	97.5
411.355	95.5
411.578	97.5
411.802	97.5
412.025	95.5
412.249	80.5
412.472	94.5
412.695	92.5
412.919	86.5
413.142	96.5
413.365	88.5
413.589	96.5
413.812	88.5
414.035	85.5
414.258	100.5
414.482	83.5
414.705	95.5
414.928	102.5
415.151	77.5
415.374	88.5
415.597	87.5
415.821	79.5
416.044	82.5
416.267	94.5
416.49	82.5
416.713	78.5
416.936	81.5
417.159	88.5
417.382	85.5
417.605	87.5
417.828	85.5
418.051	85.5
418.274	84.5
418.497	83.5
418.72	79.5
418.943	88.5
419.166	78.5
419.389	77.5
419.611	91.5
419.834	88.5
420.057	67.5
420.28	75.5
420.503	94.5
420.726	96.5
420.948	78.5
421.171	90.5
421.394	81.5
421.617	69.5
421.839	89.5
422.062	94.5
422.285	86.5
422.507	95.5
422.73	90.5
422.953	78.5
423.175	88.5
423.398	97.5
423.621	88.5
423.843	96.5
424.066	93.5
424.288	87.5
424.511	95.5
424.733	104.5
424.956	103.5
425.178	90.5
425.401	87.5
425.623	94.5
425.846	94.5
426.068	98.5
426.291	93.5
426.513	90.5
426.735	81.5
426.958	74.5
427.18	94.5
427.402	135.5
427.625	152.5
427.847	129.5
428.069	103.5
428.292	90.5
428.514	98.5
428.736	83.5
428.958	83.5
429.181	92.5
429.403	93.5
429.625	68.5
429.847	94.5
430.069	103.5
430.292	92.5
430.514	82.5
430.736	84.5
430.958	93.5
431.18	88.5
431.402	95.5
431.624	83.5
431.846	78.5
432.068	89.5
432.29	72.5
432.512	91.5
432.734	85.5
432.956	97.5
433.178	88.5
433.4	101.5
433.622	87.5
433.844	88.5
434.066	96.5
434.287	101.5
434.509	89.5
434.731	93.5
434.953	87.5
435.175	87.5
435.397	84.5
435.618	97.5
435.84	113.5
436.062	103.5
436.284	125.5
436.505	105.5
436.727	107.5
436.949	93.5
437.17	76.5
437.392	80.5
437.614	85.5
437.835	99.5
438.057	118.5
438.278	99.5
438.5	89.5
438.721	112.5
438.943	99.5
439.165	73.5
439.386	97.5
439.608	96.5
439.829	102.5
440.05	111.5
440.272	127.5
440.493	87.5
440.715	98.5
440.936	100.5
441.158	80.5
441.379	79.5
441.6	84.5
441.822	92.5
442.043	100.5
442.264	87.5
442.486	104.5
442.707	99.5
442.928	101.5
443.149	114.5
443.371	123.5
443.592	106.5
443.813	103.5
444.034	90.5
444.255	96.5
444.476	82.5
444.698	81.5
444.919	98.5
445.14	141.5
445.361	130.5
445.582	111.5
445.803	138.5
446.024	127.5
446.245	125.5
446.466	117.5
446.687	92.5
446.908	92.5
447.129	92.5
447.35	106.5
447.571	88.5
447.792	88.5
448.013	82.5
448.234	93.5
448.455	88.5
448.675	117.5
448.896	108.5
449.117	111.5
449.338	99.5
449.559	113.5
449.779	117.5
450	93.5
450.221	102.5
450.442	91.5
450.662	90.5
450.883	107.5
451.104	102.5
451.324	99.5
451.545	94.5
451.766	78.5
451.986	93.5
452.207	89.5
452.428	75.5
452.648	83.5
452.869	96.5
453.089	106.5
453.31	108.5
453.53	82.5
453.751	91.5
453.971	108.5
454.192	101.5
454.412	96.5
454.633	91.5
454.853	80.5
455.073	84.5
455.294	80.5
455.514	110.5
455.734	72.5
455.955	79.5
456.175	86.5
456.395	83.5
456.616	77.5
456.836	86.5
457.056	83.5
457.276	87.5
457.497	84.5
457.717	86.5
457.937	87.5
458.157	82.5
458.377	87.5
458.598	115.5
458.818	130.5
459.038	132.5
459.258	104.5
459.478	106.5
459.698	79.5
459.918	94.5
460.138	93.5
460.358	84.5
460.578	81.5
460.798	101.5
461.018	82.5
461.238	78.5
461.458	82.5
461.678	93.5
461.898	86.5
462.118	81.5
462.338	68.5
462.558	86.5
462.777	93.5
462.997	74.5
463.217	85.5
463.437	77.5
463.657	79.5
463.876	92.5
464.096	70.5
464.316	83.5
464.536	99.5
464.755	95.5
464.975	111.5
465.195	148.5
465.414	145.5
465.634	112.5
465.854	81.5
466.073	94.5
466.293	80.5
466.512	91.5
466.732	92.5
466.951	79.5
467.171	98.5
467.391	92.5
467.61	96.5
467.829	78.5
468.049	95.5
468.268	95.5
468.488	83.5
468.707	74.5
468.927	82.5
469.146	90.5
469.365	108.5
469.585	99.5
469.804	84.5
470.023	96.5
470.243	96.5
470.462	83.5
470.681	98.5
470.901	87.5
471.12	84.5
471.339	93.5
471.558	83.5
471.777	90.5
471.997	90.5
472.216	108.5
472.435	98.5
472.654	99.5
472.873	95.5
473.092	89.5
473.311	82.5
473.53	73.5
473.749	100.5
473.968	84.5
474.187	90.5
474.406	92.5
474.625	78.5
474.844	101.5
475.063	80.5
475.282	82.5
475.501	85.5
475.72	95.5
475.939	93.5
476.158	80.5
476.377	80.5
476.596	73.5
476.814	81.5
477.033	105.5
477.252	88.5
477.471	77.5
477.69	89.5
477.908	93.5
478.127	86.5
478.346	84.5
478.564	107.5
478.783	104.5
479.002	87.5
479.22	83.5
479.439	86.5
479.658	90.5
479.876	93.5
480.095	80.5
480.313	86.5
480.532	76.5
480.751	90.5
480.969	94.5
481.188	138.5
481.406	107.5
481.624	83.5
481.843	77.5
482.061	104.5
482.28	87.5
482.498	79.5
482.717	91.5
482.935	82.5
483.153	96.5
483.372	105.5
483.59	79.5
483.808	90.5
484.027	94.5
484.245	86.5
484.463	85.5
484.681	93.5
484.9	86.5
485.118	70.5
485.336	93.5
485.554	92.5
485.772	104.5
485.99	108.5
486.209	87.5
486.427	94.5
486.645	126.5
486.863	108.5
487.081	104.5
487.299	99.5
487.517	100.5
487.735	84.5
487.953	77.5
488.171	97.5
488.389	87.5
488.607	101.5
488.825	94.5
489.043	88.5
489.261	80.5
489.479	82.5
489.696	89.5
489.914	92.5
490.132	94.5
490.35	92.5
490.568	82.5
490.786	97.5
491.003	88.5
491.221	80.5
491.439	101.5
491.657	100.5
491.874	97.5
492.092	71.5
492.31	93.5
492.527	90.5
492.745	83.5
492.963	94.5
493.18	82.5
493.398	83.5
493.615	91.5
493.833	79.5
494.05	80.5
494.268	93.5
494.485	103.5
494.703	79.5
494.92	84.5
495.138	94.5
495.355	84.5
495.573	83.5
495.79	95.5
496.008	101.5
496.225	80.5
496.442	104.5
496.66	77.5
496.877	85.5
497.094	91.5
497.312	92.5
497.529	92.5
497.746	79.5
497.963	83.5
498.181	87.5
498.398	84.5
498.615	97.5
498.832	102.5
499.049	87.5
499.267	101.5
499.484	83.5
499.701	84.5
499.918	102.5
500.135	94.5
500.352	78.5
500.569	92.5
500.786	94.5
501.003	94.5
501.22	79.5
501.437	75.5
501.654	90.5
501.871	83.5
502.088	73.5
502.305	83.5
502.522	85.5
502.739	89.5
502.956	99.5
503.172	80.5
503.389	89.5
503.606	94.5
503.823	92.5
504.04	79.5
504.256	87.5
504.473	89.5
504.69	91.5
504.907	106.5
505.123	90.5
505.34	101.5
505.557	71.5
505.773	90.5
505.99	78.5
506.207	96.5
506.423	82.5
506.64	96.5
506.856	101.5
507.073	95.5
507.289	103.5
507.506	95.5
507.722	104.5
507.939	107.5
508.155	86.5
508.372	86.5
508.588	97.5
508.805	80.5
509.021	90.5
509.238	93.5
509.454	91.5
509.67	92.5
509.887	98.5
510.103	132.5
510.319	198.5
510.536	694.5
510.752	2012.5
510.968	570.5
511.184	143.5
511.401	97.5
511.617	100.5
511.833	80.5
512.049	100.5
512.265	82.5
512.481	100.5
512.698	93.5
512.914	94.5
513.13	88.5
513.346	86.5
513.562	99.5
513.778	97.5
513.994	82.5
514.21	93.5
514.426	106.5
514.642	124.5
514.858	128.5
515.074	162.5
515.29	408.5
515.506	1292.5
515.721	471.5
515.937	130.5
516.153	93.5
516.369	100.5
516.585	96.5
516.801	78.5
517.016	88.5
517.232	87.5
517.448	90.5
517.664	98.5
517.879	95.5
518.095	92.5
518.311	101.5
518.527	88.5
518.742	76.5
518.958	95.5
519.173	101.5
519.389	90.5
519.605	84.5
519.82	79.5
520.036	87.5
520.251	119.5
520.467	95.5
520.682	94.5
520.898	95.5
521.113	124.5
521.329	144.5
521.544	174.5
521.76	494.5
521.975	2076.5
522.19	1221.5
522.406	275.5
522.621	102.5
522.836	108.5
523.052	96.5
523.267	102.5
523.482	96.5
523.698	82.5
523.913	124.5
524.128	94.5
524.343	82.5
524.559	100.5
524.774	79.5
524.989	99.5
525.204	96.5
525.419	102.5
525.634	84.5
525.849	88.5
526.064	91.5
526.28	82.5
526.495	80.5
526.71	84.5
526.925	88.5
527.14	84.5
527.355	93.5
527.57	101.5
527.785	80.5
527.999	87.5
528.214	94.5
528.429	86.5
528.644	82.5
528.859	106.5
529.074	96.5
529.289	121.5
529.503	164.5
529.718	100.5
529.933	96.5
530.148	87.5
530.363	82.5
530.577	84.5
530.792	82.5
531.007	90.5
531.221	88.5
531.436	88.5
531.651	82.5
531.865	91.5
532.08	86.5
532.295	78.5
532.509	101.5
532.724	82.5
532.938	92.5
533.153	90.5
533.367	100.5
533.582	83.5
533.796	82.5
534.011	86.5
534.225	93.5
534.44	82.5
534.654	91.5
534.868	98.5
535.083	93.5
535.297	95.5
535.511	96.5
535.726	90.5
535.94	84.5
536.154	90.5
536.369	95.5
