Data from Uncirc_1988_H10_HRD10591_00014.txt Node
Date: Wed Jan 03 12:04:07 EST 2024
User: Yrep
Spectrometer: HR+D1059
Trigger mode: 1
Integration Time (sec): 1.000000E-1
Scans to average: 1
Electric dark correction enabled: true
Nonlinearity correction enabled: false
Boxcar width: 0
XAxis mode: Wavelengths
Number of Pixels in Spectrum: 2048
>>>>>Begin Spectral Data<<<<<
223.165	-26.31
223.4	-26.31
223.635	-26.31
223.869	-14.31
224.104	-26.31
224.338	-17.31
224.573	-13.31
224.808	-14.31
225.042	-9.31
225.277	-7.31
225.511	-3.31
225.746	13.69
225.98	15.69
226.215	20.69
226.449	25.69
226.683	6.69
226.918	27.69
227.152	21.69
227.387	33.69
227.621	37.69
227.856	50.69
228.09	31.69
228.324	51.69
228.559	53.69
228.793	58.69
229.027	66.69
229.262	79.69
229.496	66.69
229.73	83.69
229.964	79.69
230.199	66.69
230.433	83.69
230.667	67.69
230.901	80.69
231.136	66.69
231.37	79.69
231.604	72.69
231.838	91.69
232.072	78.69
232.306	74.69
232.541	77.69
232.775	73.69
233.009	89.69
233.243	83.69
233.477	95.69
233.711	83.69
233.945	81.69
234.179	76.69
234.413	78.69
234.647	79.69
234.881	78.69
235.115	71.69
235.349	66.69
235.583	93.69
235.817	75.69
236.051	83.69
236.285	79.69
236.519	83.69
236.753	90.69
236.987	80.69
237.221	78.69
237.455	87.69
237.689	78.69
237.922	67.69
238.156	65.69
238.39	97.69
238.624	60.69
238.858	58.69
239.091	81.69
239.325	79.69
239.559	64.69
239.793	73.69
240.027	73.69
240.26	69.69
240.494	83.69
240.728	77.69
240.961	63.69
241.195	76.69
241.429	64.69
241.662	80.69
241.896	79.69
242.13	76.69
242.363	74.69
242.597	64.69
242.83	81.69
243.064	68.69
243.298	67.69
243.531	75.69
243.765	79.69
243.998	73.69
244.232	70.69
244.465	74.69
244.699	74.69
244.932	75.69
245.166	86.69
245.399	67.69
245.633	73.69
245.866	76.69
246.099	81.69
246.333	90.69
246.566	74.69
246.8	59.69
247.033	76.69
247.266	81.69
247.5	89.69
247.733	77.69
247.966	75.69
248.2	85.69
248.433	72.69
248.666	81.69
248.899	88.69
249.133	87.69
249.366	97.69
249.599	99.69
249.832	84.69
250.066	86.69
250.299	69.69
250.532	70.69
250.765	81.69
250.998	81.69
251.231	80.69
251.465	77.69
251.698	85.69
251.931	81.69
252.164	77.69
252.397	67.69
252.63	83.69
252.863	91.69
253.096	69.69
253.329	84.69
253.562	90.69
253.795	90.69
254.028	70.69
254.261	90.69
254.494	89.69
254.727	71.69
254.96	82.69
255.193	67.69
255.426	83.69
255.659	80.69
255.892	85.69
256.124	77.69
256.357	70.69
256.59	78.69
256.823	69.69
257.056	71.69
257.289	71.69
257.521	71.69
257.754	83.69
257.987	73.69
258.22	78.69
258.452	73.69
258.685	85.69
258.918	64.69
259.151	80.69
259.383	72.69
259.616	61.69
259.849	73.69
260.081	76.69
260.314	75.69
260.547	82.69
260.779	68.69
261.012	84.69
261.244	86.69
261.477	74.69
261.71	90.69
261.942	97.69
262.175	106.69
262.407	96.69
262.64	98.69
262.872	83.69
263.105	85.69
263.337	89.69
263.57	83.69
263.802	86.69
264.035	69.69
264.267	80.69
264.499	61.69
264.732	75.69
264.964	67.69
265.197	85.69
265.429	90.69
265.661	70.69
265.894	82.69
266.126	87.69
266.358	80.69
266.591	71.69
266.823	75.69
267.055	79.69
267.287	66.69
267.52	81.69
267.752	81.69
267.984	91.69
268.216	79.69
268.448	76.69
268.681	89.69
268.913	85.69
269.145	66.69
269.377	82.69
269.609	76.69
269.841	85.69
270.073	64.69
270.306	83.69
270.538	83.69
270.77	77.69
271.002	84.69
271.234	81.69
271.466	70.69
271.698	81.69
271.93	80.69
272.162	80.69
272.394	93.69
272.626	90.69
272.858	84.69
273.09	83.69
273.322	93.69
273.553	77.69
273.785	81.69
274.017	69.69
274.249	93.69
274.481	74.69
274.713	86.69
274.945	85.69
275.176	88.69
275.408	85.69
275.64	85.69
275.872	84.69
276.104	93.69
276.335	97.69
276.567	90.69
276.799	96.69
277.031	99.69
277.262	73.69
277.494	76.69
277.726	67.69
277.957	80.69
278.189	99.69
278.421	81.69
278.652	82.69
278.884	93.69
279.115	71.69
279.347	77.69
279.579	87.69
279.81	86.69
280.042	100.69
280.273	88.69
280.505	83.69
280.736	78.69
280.968	88.69
281.199	87.69
281.431	81.69
281.662	99.69
281.894	74.69
282.125	87.69
282.356	99.69
282.588	124.69
282.819	95.69
283.051	91.69
283.282	96.69
283.513	76.69
283.745	100.69
283.976	83.69
284.207	91.69
284.439	91.69
284.67	89.69
284.901	81.69
285.132	86.69
285.364	82.69
285.595	85.69
285.826	85.69
286.057	87.69
286.288	87.69
286.52	81.69
286.751	92.69
286.982	90.69
287.213	82.69
287.444	68.69
287.675	85.69
287.906	89.69
288.138	77.69
288.369	90.69
288.6	80.69
288.831	69.69
289.062	86.69
289.293	90.69
289.524	75.69
289.755	84.69
289.986	81.69
290.217	97.69
290.448	94.69
290.679	84.69
290.91	85.69
291.141	88.69
291.371	83.69
291.602	88.69
291.833	91.69
292.064	95.69
292.295	87.69
292.526	87.69
292.757	89.69
292.987	91.69
293.218	91.69
293.449	89.69
293.68	88.69
293.91	92.69
294.141	87.69
294.372	89.69
294.603	90.69
294.833	75.69
295.064	85.69
295.295	91.69
295.525	87.69
295.756	92.69
295.987	99.69
296.217	115.69
296.448	122.69
296.679	88.69
296.909	87.69
297.14	84.69
297.37	73.69
297.601	75.69
297.831	81.69
298.062	90.69
298.292	73.69
298.523	80.69
298.753	91.69
298.984	86.69
299.214	88.69
299.445	92.69
299.675	90.69
299.905	82.69
300.136	79.69
300.366	88.69
300.597	85.69
300.827	83.69
301.057	91.69
301.288	90.69
301.518	81.69
301.748	79.69
301.979	81.69
302.209	85.69
302.439	90.69
302.669	82.69
302.9	81.69
303.13	75.69
303.36	79.69
303.59	102.69
303.82	92.69
304.051	85.69
304.281	78.69
304.511	91.69
304.741	87.69
304.971	73.69
305.201	85.69
305.431	93.69
305.661	83.69
305.891	86.69
306.121	84.69
306.352	80.69
306.582	99.69
306.812	90.69
307.042	92.69
307.272	75.69
307.502	90.69
307.731	96.69
307.961	77.69
308.191	95.69
308.421	85.69
308.651	86.69
308.881	82.69
309.111	89.69
309.341	92.69
309.571	100.69
309.8	70.69
310.03	79.69
310.26	93.69
310.49	91.69
310.72	80.69
310.949	99.69
311.179	97.69
311.409	88.69
311.639	85.69
311.868	112.69
312.098	91.69
312.328	93.69
312.557	98.69
312.787	87.69
313.017	97.69
313.246	101.69
313.476	81.69
313.706	93.69
313.935	85.69
314.165	79.69
314.394	100.69
314.624	82.69
314.853	99.69
315.083	89.69
315.312	91.69
315.542	94.69
315.771	85.69
316.001	88.69
316.23	87.69
316.46	75.69
316.689	84.69
316.919	87.69
317.148	81.69
317.377	91.69
317.607	85.69
317.836	89.69
318.065	89.69
318.295	83.69
318.524	106.69
318.753	93.69
318.983	99.69
319.212	93.69
319.441	87.69
319.67	103.69
319.9	81.69
320.129	90.69
320.358	100.69
320.587	99.69
320.816	94.69
321.046	95.69
321.275	98.69
321.504	97.69
321.733	84.69
321.962	94.69
322.191	96.69
322.42	103.69
322.649	115.69
322.878	122.69
323.108	117.69
323.337	132.69
323.566	125.69
323.795	136.69
324.024	189.69
324.253	371.69
324.482	808.69
324.71	1682.69
324.939	2174.69
325.168	793.69
325.397	223.69
325.626	140.69
325.855	125.69
326.084	106.69
326.313	127.69
326.542	140.69
326.77	243.69
326.999	445.69
327.228	946.69
327.457	1681.69
327.686	1366.69
327.914	351.69
328.143	161.69
328.372	133.69
328.6	124.69
328.829	97.69
329.058	107.69
329.287	120.69
329.515	93.69
329.744	98.69
329.972	84.69
330.201	104.69
330.43	106.69
330.658	119.69
330.887	125.69
331.115	121.69
331.344	94.69
331.572	77.69
331.801	99.69
332.03	101.69
332.258	78.69
332.486	91.69
332.715	94.69
332.943	86.69
333.172	97.69
333.4	102.69
333.629	92.69
333.857	88.69
334.085	82.69
334.314	98.69
334.542	94.69
334.771	112.69
334.999	91.69
335.227	87.69
335.455	98.69
335.684	88.69
335.912	88.69
336.14	84.69
336.369	99.69
336.597	100.69
336.825	93.69
337.053	93.69
337.281	84.69
337.51	87.69
337.738	100.69
337.966	91.69
338.194	85.69
338.422	77.69
338.65	95.69
338.878	88.69
339.106	68.69
339.334	101.69
339.562	87.69
339.79	87.69
340.018	93.69
340.246	85.69
340.474	87.69
340.702	97.69
340.93	69.69
341.158	87.69
341.386	93.69
341.614	85.69
341.842	87.69
342.07	87.69
342.298	86.69
342.526	78.69
342.754	96.69
342.981	86.69
343.209	95.69
343.437	107.69
343.665	98.69
343.893	91.69
344.12	97.69
344.348	87.69
344.576	89.69
344.804	95.69
345.031	106.69
345.259	91.69
345.487	78.69
345.714	83.69
345.942	90.69
346.17	86.69
346.397	96.69
346.625	81.69
346.853	89.69
347.08	82.69
347.308	94.69
347.535	94.69
347.763	94.69
347.99	90.69
348.218	94.69
348.445	77.69
348.673	98.69
348.9	97.69
349.128	81.69
349.355	97.69
349.583	86.69
349.81	86.69
350.037	98.69
350.265	79.69
350.492	92.69
350.72	83.69
350.947	97.69
351.174	108.69
351.402	117.69
351.629	95.69
351.856	109.69
352.083	104.69
352.311	97.69
352.538	105.69
352.765	106.69
352.992	98.69
353.22	102.69
353.447	99.69
353.674	97.69
353.901	87.69
354.128	87.69
354.355	94.69
354.583	92.69
354.81	86.69
355.037	100.69
355.264	95.69
355.491	92.69
355.718	84.69
355.945	97.69
356.172	93.69
356.399	102.69
356.626	91.69
356.853	100.69
357.08	102.69
357.307	91.69
357.534	83.69
357.761	86.69
357.988	92.69
358.215	100.69
358.441	100.69
358.668	89.69
358.895	94.69
359.122	90.69
359.349	81.69
359.576	98.69
359.802	91.69
360.029	91.69
360.256	105.69
360.483	92.69
360.709	87.69
360.936	99.69
361.163	83.69
361.39	86.69
361.616	100.69
361.843	89.69
362.07	92.69
362.296	94.69
362.523	102.69
362.749	109.69
362.976	89.69
363.203	79.69
363.429	101.69
363.656	89.69
363.882	89.69
364.109	84.69
364.335	94.69
364.562	79.69
364.788	92.69
365.015	85.69
365.241	112.69
365.468	105.69
365.694	99.69
365.92	84.69
366.147	78.69
366.373	81.69
366.599	86.69
366.826	91.69
367.052	88.69
367.278	86.69
367.505	99.69
367.731	91.69
367.957	98.69
368.184	87.69
368.41	94.69
368.636	107.69
368.862	110.69
369.089	101.69
369.315	87.69
369.541	94.69
369.767	101.69
369.993	81.69
370.219	88.69
370.445	97.69
370.672	85.69
370.898	79.69
371.124	82.69
371.35	79.69
371.576	82.69
371.802	88.69
372.028	74.69
372.254	79.69
372.48	89.69
372.706	90.69
372.932	85.69
373.158	91.69
373.384	87.69
373.61	82.69
373.835	91.69
374.061	82.69
374.287	85.69
374.513	85.69
374.739	81.69
374.965	83.69
375.191	79.69
375.416	90.69
375.642	87.69
375.868	86.69
376.094	92.69
376.319	78.69
376.545	95.69
376.771	91.69
376.997	95.69
377.222	83.69
377.448	77.69
377.674	97.69
377.899	93.69
378.125	87.69
378.35	78.69
378.576	76.69
378.802	85.69
379.027	87.69
379.253	90.69
379.478	81.69
379.704	103.69
379.929	79.69
380.155	90.69
380.38	95.69
380.606	86.69
380.831	75.69
381.057	104.69
381.282	97.69
381.507	89.69
381.733	95.69
381.958	75.69
382.184	93.69
382.409	95.69
382.634	105.69
382.86	96.69
383.085	84.69
383.31	90.69
383.535	117.69
383.761	102.69
383.986	97.69
384.211	100.69
384.436	82.69
384.662	111.69
384.887	107.69
385.112	108.69
385.337	104.69
385.562	109.69
385.787	100.69
386.013	102.69
386.238	100.69
386.463	99.69
386.688	108.69
386.913	89.69
387.138	90.69
387.363	100.69
387.588	104.69
387.813	91.69
388.038	96.69
388.263	97.69
388.488	100.69
388.713	89.69
388.938	82.69
389.163	93.69
389.387	100.69
389.612	94.69
389.837	74.69
390.062	78.69
390.287	86.69
390.512	98.69
390.736	85.69
390.961	95.69
391.186	79.69
391.411	83.69
391.636	92.69
391.86	93.69
392.085	76.69
392.31	81.69
392.534	86.69
392.759	71.69
392.984	80.69
393.208	95.69
393.433	102.69
393.658	103.69
393.882	75.69
394.107	81.69
394.331	76.69
394.556	81.69
394.78	66.69
395.005	90.69
395.229	85.69
395.454	95.69
395.678	99.69
395.903	79.69
396.127	93.69
396.352	81.69
396.576	67.69
396.801	85.69
397.025	90.69
397.249	84.69
397.474	91.69
397.698	70.69
397.922	94.69
398.147	97.69
398.371	79.69
398.595	86.69
398.82	87.69
399.044	86.69
399.268	89.69
399.492	94.69
399.717	86.69
399.941	80.69
400.165	95.69
400.389	81.69
400.613	89.69
400.837	87.69
401.062	87.69
401.286	83.69
401.51	99.69
401.734	87.69
401.958	95.69
402.182	121.69
402.406	140.69
402.63	99.69
402.854	77.69
403.078	93.69
403.302	79.69
403.526	78.69
403.75	78.69
403.974	89.69
404.198	67.69
404.422	91.69
404.645	88.69
404.869	82.69
405.093	82.69
405.317	96.69
405.541	97.69
405.765	100.69
405.988	109.69
406.212	147.69
406.436	187.69
406.66	128.69
406.883	92.69
407.107	77.69
407.331	89.69
407.555	92.69
407.778	82.69
408.002	89.69
408.226	91.69
408.449	89.69
408.673	77.69
408.896	83.69
409.12	93.69
409.344	90.69
409.567	91.69
409.791	90.69
410.014	106.69
410.238	98.69
410.461	89.69
410.685	81.69
410.908	89.69
411.132	99.69
411.355	91.69
411.578	88.69
411.802	90.69
412.025	91.69
412.249	90.69
412.472	92.69
412.695	93.69
412.919	96.69
413.142	89.69
413.365	82.69
413.589	92.69
413.812	73.69
414.035	84.69
414.258	82.69
414.482	94.69
414.705	98.69
414.928	107.69
415.151	86.69
415.374	90.69
415.597	83.69
415.821	99.69
416.044	85.69
416.267	82.69
416.49	91.69
416.713	91.69
416.936	92.69
417.159	89.69
417.382	103.69
417.605	93.69
417.828	86.69
418.051	97.69
418.274	88.69
418.497	87.69
418.72	93.69
418.943	85.69
419.166	86.69
419.389	90.69
419.611	87.69
419.834	97.69
420.057	98.69
420.28	77.69
420.503	89.69
420.726	89.69
420.948	87.69
421.171	84.69
421.394	91.69
421.617	93.69
421.839	89.69
422.062	93.69
422.285	87.69
422.507	78.69
422.73	87.69
422.953	96.69
423.175	79.69
423.398	85.69
423.621	83.69
423.843	87.69
424.066	82.69
424.288	86.69
424.511	97.69
424.733	98.69
424.956	83.69
425.178	89.69
425.401	99.69
425.623	93.69
425.846	87.69
426.068	97.69
426.291	92.69
426.513	85.69
426.735	77.69
426.958	89.69
427.18	100.69
427.402	117.69
427.625	152.69
427.847	126.69
428.069	95.69
428.292	70.69
428.514	90.69
428.736	91.69
428.958	78.69
429.181	90.69
429.403	76.69
429.625	74.69
429.847	94.69
430.069	87.69
430.292	86.69
430.514	99.69
430.736	82.69
430.958	77.69
431.18	82.69
431.402	84.69
431.624	83.69
431.846	82.69
432.068	92.69
432.29	75.69
432.512	68.69
432.734	77.69
432.956	89.69
433.178	84.69
433.4	90.69
433.622	84.69
433.844	79.69
434.066	89.69
434.287	84.69
434.509	86.69
434.731	93.69
434.953	90.69
435.175	96.69
435.397	81.69
435.618	89.69
435.84	95.69
436.062	116.69
436.284	115.69
436.505	102.69
436.727	94.69
436.949	87.69
437.17	92.69
437.392	92.69
437.614	89.69
437.835	99.69
438.057	118.69
438.278	109.69
438.5	110.69
438.721	103.69
438.943	105.69
439.165	100.69
439.386	75.69
439.608	64.69
439.829	94.69
440.05	98.69
440.272	129.69
440.493	95.69
440.715	90.69
440.936	81.69
441.158	101.69
441.379	81.69
441.6	93.69
441.822	80.69
442.043	92.69
442.264	86.69
442.486	97.69
442.707	81.69
442.928	85.69
443.149	115.69
443.371	124.69
443.592	109.69
443.813	101.69
444.034	111.69
444.255	96.69
444.476	101.69
444.698	86.69
444.919	87.69
445.14	140.69
445.361	119.69
445.582	116.69
445.803	125.69
446.024	128.69
446.245	131.69
446.466	106.69
446.687	94.69
446.908	84.69
447.129	86.69
447.35	92.69
447.571	68.69
447.792	87.69
448.013	89.69
448.234	100.69
448.455	98.69
448.675	117.69
448.896	117.69
449.117	91.69
449.338	113.69
449.559	150.69
449.779	124.69
450	89.69
450.221	79.69
450.442	94.69
450.662	95.69
450.883	90.69
451.104	107.69
451.324	76.69
451.545	87.69
451.766	85.69
451.986	94.69
452.207	86.69
452.428	87.69
452.648	103.69
452.869	102.69
453.089	95.69
453.31	97.69
453.53	74.69
453.751	81.69
453.971	98.69
454.192	98.69
454.412	81.69
454.633	79.69
454.853	84.69
455.073	83.69
455.294	94.69
455.514	102.69
455.734	92.69
455.955	89.69
456.175	86.69
456.395	73.69
456.616	84.69
456.836	85.69
457.056	85.69
457.276	81.69
457.497	86.69
457.717	79.69
457.937	81.69
458.157	89.69
458.377	89.69
458.598	100.69
458.818	127.69
459.038	129.69
459.258	100.69
459.478	93.69
459.698	74.69
459.918	70.69
460.138	100.69
460.358	62.69
460.578	80.69
460.798	87.69
461.018	78.69
461.238	77.69
461.458	79.69
461.678	92.69
461.898	94.69
462.118	82.69
462.338	74.69
462.558	79.69
462.777	106.69
462.997	68.69
463.217	93.69
463.437	82.69
463.657	73.69
463.876	86.69
464.096	83.69
464.316	86.69
464.536	85.69
464.755	91.69
464.975	83.69
465.195	142.69
465.414	139.69
465.634	92.69
465.854	76.69
466.073	85.69
466.293	89.69
466.512	83.69
466.732	71.69
466.951	86.69
467.171	93.69
467.391	96.69
467.61	101.69
467.829	114.69
468.049	67.69
468.268	83.69
468.488	85.69
468.707	89.69
468.927	92.69
469.146	84.69
469.365	97.69
469.585	90.69
469.804	95.69
470.023	103.69
470.243	95.69
470.462	108.69
470.681	108.69
470.901	101.69
471.12	77.69
471.339	91.69
471.558	83.69
471.777	80.69
471.997	84.69
472.216	76.69
472.435	85.69
472.654	84.69
472.873	71.69
473.092	90.69
473.311	84.69
473.53	81.69
473.749	90.69
473.968	94.69
474.187	110.69
474.406	88.69
474.625	83.69
474.844	77.69
475.063	86.69
475.282	98.69
475.501	87.69
475.72	86.69
475.939	77.69
476.158	88.69
476.377	97.69
476.596	85.69
476.814	95.69
477.033	95.69
477.252	95.69
477.471	88.69
477.69	74.69
477.908	76.69
478.127	85.69
478.346	95.69
478.564	87.69
478.783	108.69
479.002	77.69
479.22	87.69
479.439	105.69
479.658	87.69
479.876	83.69
480.095	87.69
480.313	90.69
480.532	81.69
480.751	81.69
480.969	84.69
481.188	96.69
481.406	109.69
481.624	79.69
481.843	80.69
482.061	102.69
482.28	90.69
482.498	91.69
482.717	98.69
482.935	86.69
483.153	81.69
483.372	109.69
483.59	87.69
483.808	91.69
484.027	96.69
484.245	102.69
484.463	83.69
484.681	100.69
484.9	96.69
485.118	95.69
485.336	83.69
485.554	82.69
485.772	103.69
485.99	95.69
486.209	108.69
486.427	111.69
486.645	100.69
486.863	106.69
487.081	91.69
487.299	97.69
487.517	90.69
487.735	93.69
487.953	96.69
488.171	94.69
488.389	95.69
488.607	85.69
488.825	84.69
489.043	93.69
489.261	84.69
489.479	84.69
489.696	101.69
489.914	84.69
490.132	99.69
490.35	87.69
490.568	74.69
490.786	81.69
491.003	85.69
491.221	84.69
491.439	91.69
491.657	107.69
491.874	94.69
492.092	89.69
492.31	85.69
492.527	89.69
492.745	95.69
492.963	88.69
493.18	94.69
493.398	88.69
493.615	107.69
493.833	91.69
494.05	94.69
494.268	93.69
494.485	90.69
494.703	96.69
494.92	71.69
495.138	83.69
495.355	101.69
495.573	96.69
495.79	86.69
496.008	81.69
496.225	89.69
496.442	86.69
496.66	84.69
496.877	82.69
497.094	94.69
497.312	88.69
497.529	86.69
497.746	97.69
497.963	87.69
498.181	83.69
498.398	82.69
498.615	106.69
498.832	97.69
499.049	87.69
499.267	96.69
499.484	102.69
499.701	76.69
499.918	91.69
500.135	87.69
500.352	85.69
500.569	87.69
500.786	92.69
501.003	90.69
501.22	83.69
501.437	86.69
501.654	79.69
501.871	119.69
502.088	83.69
502.305	87.69
502.522	96.69
502.739	73.69
502.956	79.69
503.172	87.69
503.389	89.69
503.606	111.69
503.823	92.69
504.04	93.69
504.256	82.69
504.473	82.69
504.69	76.69
504.907	79.69
505.123	94.69
505.34	85.69
505.557	80.69
505.773	89.69
505.99	88.69
506.207	84.69
506.423	95.69
506.64	80.69
506.856	94.69
507.073	102.69
507.289	98.69
507.506	106.69
507.722	103.69
507.939	93.69
508.155	97.69
508.372	80.69
508.588	95.69
508.805	87.69
509.021	85.69
509.238	93.69
509.454	83.69
509.67	91.69
509.887	104.69
510.103	118.69
510.319	180.69
510.536	638.69
510.752	1889.69
510.968	539.69
511.184	143.69
511.401	97.69
511.617	99.69
511.833	90.69
512.049	91.69
512.265	93.69
512.481	87.69
512.698	85.69
512.914	99.69
513.13	90.69
513.346	97.69
513.562	101.69
513.778	90.69
513.994	86.69
514.21	110.69
514.426	115.69
514.642	120.69
514.858	125.69
515.074	156.69
515.29	387.69
515.506	1198.69
515.721	445.69
515.937	141.69
516.153	107.69
516.369	95.69
516.585	88.69
516.801	91.69
517.016	105.69
