Data from Uncirc_1988_H10_HRD10591_00018.txt Node
Date: Wed Jan 03 12:04:08 EST 2024
User: Yrep
Spectrometer: HR+D1059
Trigger mode: 1
Integration Time (sec): 1.000000E-1
Scans to average: 1
Electric dark correction enabled: true
Nonlinearity correction enabled: false
Boxcar width: 0
XAxis mode: Wavelengths
Number of Pixels in Spectrum: 2048
>>>>>Begin Spectral Data<<<<<
223.165	-14.06
223.4	-14.06
223.635	-14.06
223.869	-17.06
224.104	-22.06
224.338	-26.06
224.573	-19.06
224.808	-20.06
225.042	-3.06
225.277	-11.06
225.511	-3.06
225.746	6.94
225.98	1.94
226.215	13.94
226.449	12.94
226.683	23.94
226.918	33.94
227.152	41.94
227.387	38.94
227.621	36.94
227.856	51.94
228.09	51.94
228.324	57.94
228.559	53.94
228.793	55.94
229.027	49.94
229.262	68.94
229.496	83.94
229.73	95.94
229.964	71.94
230.199	79.94
230.433	71.94
230.667	76.94
230.901	83.94
231.136	77.94
231.37	83.94
231.604	82.94
231.838	86.94
232.072	90.94
232.306	95.94
232.541	89.94
232.775	86.94
233.009	77.94
233.243	87.94
233.477	84.94
233.711	89.94
233.945	83.94
234.179	75.94
234.413	74.94
234.647	87.94
234.881	89.94
235.115	74.94
235.349	76.94
235.583	66.94
235.817	96.94
236.051	71.94
236.285	79.94
236.519	65.94
236.753	57.94
236.987	79.94
237.221	80.94
237.455	93.94
237.689	74.94
237.922	86.94
238.156	77.94
238.39	72.94
238.624	64.94
238.858	65.94
239.091	82.94
239.325	84.94
239.559	95.94
239.793	83.94
240.027	86.94
240.26	75.94
240.494	83.94
240.728	95.94
240.961	65.94
241.195	83.94
241.429	72.94
241.662	72.94
241.896	85.94
242.13	68.94
242.363	88.94
242.597	83.94
242.83	80.94
243.064	72.94
243.298	71.94
243.531	80.94
243.765	87.94
243.998	92.94
244.232	77.94
244.465	85.94
244.699	89.94
244.932	91.94
245.166	96.94
245.399	83.94
245.633	81.94
245.866	71.94
246.099	65.94
246.333	73.94
246.566	72.94
246.8	98.94
247.033	77.94
247.266	77.94
247.5	84.94
247.733	83.94
247.966	93.94
248.2	100.94
248.433	75.94
248.666	67.94
248.899	75.94
249.133	70.94
249.366	94.94
249.599	76.94
249.832	79.94
250.066	78.94
250.299	82.94
250.532	88.94
250.765	81.94
250.998	85.94
251.231	95.94
251.465	80.94
251.698	87.94
251.931	85.94
252.164	88.94
252.397	78.94
252.63	79.94
252.863	81.94
253.096	74.94
253.329	97.94
253.562	74.94
253.795	83.94
254.028	84.94
254.261	81.94
254.494	74.94
254.727	95.94
254.96	81.94
255.193	73.94
255.426	82.94
255.659	90.94
255.892	83.94
256.124	79.94
256.357	78.94
256.59	96.94
256.823	80.94
257.056	80.94
257.289	86.94
257.521	93.94
257.754	78.94
257.987	84.94
258.22	87.94
258.452	99.94
258.685	84.94
258.918	83.94
259.151	88.94
259.383	77.94
259.616	81.94
259.849	74.94
260.081	90.94
260.314	84.94
260.547	93.94
260.779	80.94
261.012	82.94
261.244	79.94
261.477	83.94
261.71	89.94
261.942	112.94
262.175	100.94
262.407	103.94
262.64	84.94
262.872	81.94
263.105	79.94
263.337	98.94
263.57	83.94
263.802	78.94
264.035	93.94
264.267	87.94
264.499	86.94
264.732	84.94
264.964	81.94
265.197	77.94
265.429	99.94
265.661	96.94
265.894	81.94
266.126	88.94
266.358	72.94
266.591	83.94
266.823	89.94
267.055	84.94
267.287	76.94
267.52	91.94
267.752	90.94
267.984	86.94
268.216	89.94
268.448	83.94
268.681	79.94
268.913	84.94
269.145	96.94
269.377	89.94
269.609	83.94
269.841	84.94
270.073	78.94
270.306	81.94
270.538	87.94
270.77	90.94
271.002	93.94
271.234	81.94
271.466	74.94
271.698	97.94
271.93	80.94
272.162	90.94
272.394	77.94
272.626	92.94
272.858	86.94
273.09	82.94
273.322	88.94
273.553	81.94
273.785	83.94
274.017	81.94
274.249	101.94
274.481	86.94
274.713	90.94
274.945	84.94
275.176	92.94
275.408	98.94
275.64	95.94
275.872	84.94
276.104	90.94
276.335	83.94
276.567	88.94
276.799	100.94
277.031	78.94
277.262	95.94
277.494	93.94
277.726	82.94
277.957	98.94
278.189	86.94
278.421	77.94
278.652	94.94
278.884	79.94
279.115	98.94
279.347	86.94
279.579	83.94
279.81	96.94
280.042	92.94
280.273	83.94
280.505	92.94
280.736	93.94
280.968	101.94
281.199	85.94
281.431	86.94
281.662	105.94
281.894	91.94
282.125	95.94
282.356	115.94
282.588	128.94
282.819	108.94
283.051	91.94
283.282	93.94
283.513	94.94
283.745	99.94
283.976	98.94
284.207	86.94
284.439	86.94
284.67	92.94
284.901	88.94
285.132	92.94
285.364	75.94
285.595	93.94
285.826	90.94
286.057	79.94
286.288	87.94
286.52	96.94
286.751	91.94
286.982	98.94
287.213	88.94
287.444	85.94
287.675	94.94
287.906	100.94
288.138	96.94
288.369	82.94
288.6	97.94
288.831	87.94
289.062	94.94
289.293	97.94
289.524	90.94
289.755	101.94
289.986	84.94
290.217	100.94
290.448	90.94
290.679	85.94
290.91	91.94
291.141	85.94
291.371	99.94
291.602	79.94
291.833	87.94
292.064	84.94
292.295	93.94
292.526	91.94
292.757	92.94
292.987	90.94
293.218	85.94
293.449	95.94
293.68	86.94
293.91	81.94
294.141	79.94
294.372	96.94
294.603	89.94
294.833	85.94
295.064	77.94
295.295	96.94
295.525	86.94
295.756	109.94
295.987	102.94
296.217	123.94
296.448	110.94
296.679	99.94
296.909	105.94
297.14	102.94
297.37	87.94
297.601	81.94
297.831	84.94
298.062	84.94
298.292	100.94
298.523	89.94
298.753	113.94
298.984	102.94
299.214	88.94
299.445	86.94
299.675	97.94
299.905	106.94
300.136	89.94
300.366	97.94
300.597	106.94
300.827	118.94
301.057	97.94
301.288	97.94
301.518	96.94
301.748	83.94
301.979	101.94
302.209	81.94
302.439	91.94
302.669	94.94
302.9	90.94
303.13	80.94
303.36	114.94
303.59	103.94
303.82	94.94
304.051	90.94
304.281	96.94
304.511	87.94
304.741	93.94
304.971	88.94
305.201	86.94
305.431	101.94
305.661	82.94
305.891	87.94
306.121	87.94
306.352	108.94
306.582	107.94
306.812	114.94
307.042	95.94
307.272	111.94
307.502	96.94
307.731	94.94
307.961	96.94
308.191	93.94
308.421	95.94
308.651	100.94
308.881	82.94
309.111	93.94
309.341	80.94
309.571	77.94
309.8	96.94
310.03	78.94
310.26	93.94
310.49	96.94
310.72	107.94
310.949	105.94
311.179	94.94
311.409	89.94
311.639	93.94
311.868	100.94
312.098	94.94
312.328	90.94
312.557	94.94
312.787	106.94
313.017	98.94
313.246	88.94
313.476	99.94
313.706	95.94
313.935	83.94
314.165	91.94
314.394	89.94
314.624	99.94
314.853	97.94
315.083	96.94
315.312	102.94
315.542	77.94
315.771	87.94
316.001	89.94
316.23	98.94
316.46	91.94
316.689	89.94
316.919	86.94
317.148	84.94
317.377	94.94
317.607	98.94
317.836	80.94
318.065	89.94
318.295	95.94
318.524	98.94
318.753	99.94
318.983	94.94
319.212	94.94
319.441	113.94
319.67	110.94
319.9	93.94
320.129	105.94
320.358	89.94
320.587	90.94
320.816	99.94
321.046	96.94
321.275	106.94
321.504	94.94
321.733	97.94
321.962	101.94
322.191	109.94
322.42	100.94
322.649	109.94
322.878	111.94
323.108	115.94
323.337	121.94
323.566	117.94
323.795	142.94
324.024	189.94
324.253	388.94
324.482	811.94
324.71	1655.94
324.939	2145.94
325.168	773.94
325.397	240.94
325.626	134.94
325.855	139.94
326.084	123.94
326.313	120.94
326.542	148.94
326.77	224.94
326.999	441.94
327.228	923.94
327.457	1685.94
327.686	1343.94
327.914	361.94
328.143	185.94
328.372	140.94
328.6	107.94
328.829	104.94
329.058	135.94
329.287	112.94
329.515	108.94
329.744	101.94
329.972	94.94
330.201	82.94
330.43	106.94
330.658	126.94
330.887	119.94
331.115	122.94
331.344	88.94
331.572	106.94
331.801	110.94
332.03	100.94
332.258	79.94
332.486	91.94
332.715	89.94
332.943	90.94
333.172	92.94
333.4	87.94
333.629	103.94
333.857	112.94
334.085	106.94
334.314	87.94
334.542	105.94
334.771	102.94
334.999	100.94
335.227	98.94
335.455	104.94
335.684	114.94
335.912	104.94
336.14	98.94
336.369	116.94
336.597	102.94
336.825	88.94
337.053	88.94
337.281	82.94
337.51	97.94
337.738	91.94
337.966	93.94
338.194	94.94
338.422	81.94
338.65	89.94
338.878	95.94
339.106	89.94
339.334	103.94
339.562	95.94
339.79	90.94
340.018	91.94
340.246	90.94
340.474	74.94
340.702	89.94
340.93	95.94
341.158	83.94
341.386	92.94
341.614	91.94
341.842	90.94
342.07	92.94
342.298	107.94
342.526	86.94
342.754	96.94
342.981	97.94
343.209	93.94
343.437	95.94
343.665	90.94
343.893	99.94
344.12	94.94
344.348	85.94
344.576	90.94
344.804	91.94
345.031	101.94
345.259	103.94
345.487	79.94
345.714	98.94
345.942	91.94
346.17	86.94
346.397	89.94
346.625	91.94
346.853	85.94
347.08	103.94
347.308	100.94
347.535	102.94
347.763	95.94
347.99	100.94
348.218	104.94
348.445	109.94
348.673	93.94
348.9	89.94
349.128	98.94
349.355	108.94
349.583	93.94
349.81	90.94
350.037	104.94
350.265	89.94
350.492	89.94
350.72	105.94
350.947	97.94
351.174	107.94
351.402	122.94
351.629	107.94
351.856	107.94
352.083	111.94
352.311	97.94
352.538	93.94
352.765	106.94
352.992	110.94
353.22	116.94
353.447	96.94
353.674	90.94
353.901	102.94
354.128	100.94
354.355	91.94
354.583	99.94
354.81	97.94
355.037	102.94
355.264	98.94
355.491	105.94
355.718	94.94
355.945	102.94
356.172	97.94
356.399	99.94
356.626	83.94
356.853	89.94
357.08	102.94
357.307	106.94
357.534	107.94
357.761	89.94
357.988	88.94
358.215	108.94
358.441	96.94
358.668	104.94
358.895	89.94
359.122	88.94
359.349	94.94
359.576	77.94
359.802	101.94
360.029	96.94
360.256	103.94
360.483	90.94
360.709	84.94
360.936	92.94
361.163	103.94
361.39	91.94
361.616	91.94
361.843	83.94
362.07	98.94
362.296	103.94
362.523	97.94
362.749	97.94
362.976	93.94
363.203	102.94
363.429	98.94
363.656	83.94
363.882	94.94
364.109	96.94
364.335	93.94
364.562	97.94
364.788	83.94
365.015	94.94
365.241	89.94
365.468	94.94
365.694	101.94
365.92	88.94
366.147	95.94
366.373	81.94
366.599	100.94
366.826	87.94
367.052	85.94
367.278	85.94
367.505	83.94
367.731	105.94
367.957	93.94
368.184	93.94
368.41	89.94
368.636	103.94
368.862	108.94
369.089	107.94
369.315	90.94
369.541	97.94
369.767	98.94
369.993	91.94
370.219	83.94
370.445	89.94
370.672	74.94
370.898	93.94
371.124	103.94
371.35	95.94
371.576	97.94
371.802	89.94
372.028	93.94
372.254	87.94
372.48	108.94
372.706	89.94
372.932	93.94
373.158	94.94
373.384	101.94
373.61	92.94
373.835	95.94
374.061	97.94
374.287	96.94
374.513	86.94
374.739	91.94
374.965	81.94
375.191	89.94
375.416	97.94
375.642	80.94
375.868	102.94
376.094	97.94
376.319	89.94
376.545	89.94
376.771	95.94
376.997	93.94
377.222	98.94
377.448	77.94
377.674	86.94
377.899	80.94
378.125	88.94
378.35	104.94
378.576	93.94
378.802	81.94
379.027	98.94
379.253	97.94
379.478	97.94
379.704	102.94
379.929	98.94
380.155	101.94
380.38	83.94
380.606	83.94
380.831	100.94
381.057	101.94
381.282	98.94
381.507	96.94
381.733	99.94
381.958	104.94
382.184	105.94
382.409	101.94
382.634	98.94
382.86	105.94
383.085	97.94
383.31	102.94
383.535	104.94
383.761	108.94
383.986	95.94
384.211	97.94
384.436	95.94
384.662	89.94
384.887	98.94
385.112	95.94
385.337	98.94
385.562	104.94
385.787	101.94
386.013	95.94
386.238	122.94
386.463	110.94
386.688	109.94
386.913	99.94
387.138	111.94
387.363	104.94
387.588	101.94
387.813	107.94
388.038	103.94
388.263	100.94
388.488	128.94
388.713	106.94
388.938	93.94
389.163	103.94
389.387	97.94
389.612	111.94
389.837	97.94
390.062	96.94
390.287	110.94
390.512	90.94
390.736	99.94
390.961	86.94
391.186	83.94
391.411	97.94
391.636	103.94
391.86	91.94
392.085	88.94
392.31	91.94
392.534	98.94
392.759	93.94
392.984	99.94
393.208	78.94
393.433	102.94
393.658	95.94
393.882	101.94
394.107	85.94
394.331	87.94
394.556	100.94
394.78	87.94
395.005	87.94
395.229	92.94
395.454	96.94
395.678	70.94
395.903	88.94
396.127	93.94
396.352	87.94
396.576	94.94
396.801	106.94
397.025	83.94
397.249	95.94
397.474	81.94
397.698	97.94
397.922	101.94
398.147	81.94
398.371	93.94
398.595	82.94
398.82	86.94
399.044	90.94
399.268	89.94
399.492	94.94
399.717	96.94
399.941	94.94
400.165	96.94
400.389	102.94
400.613	89.94
400.837	90.94
401.062	81.94
401.286	98.94
401.51	91.94
401.734	99.94
401.958	97.94
402.182	119.94
402.406	137.94
402.63	106.94
402.854	85.94
403.078	91.94
403.302	92.94
403.526	87.94
403.75	79.94
403.974	99.94
404.198	96.94
404.422	91.94
404.645	93.94
404.869	81.94
405.093	89.94
405.317	87.94
405.541	110.94
405.765	84.94
405.988	105.94
406.212	155.94
406.436	186.94
406.66	115.94
406.883	98.94
407.107	86.94
407.331	93.94
407.555	100.94
407.778	95.94
408.002	84.94
408.226	85.94
408.449	103.94
408.673	99.94
408.896	88.94
409.12	103.94
409.344	102.94
409.567	85.94
409.791	94.94
410.014	89.94
410.238	92.94
410.461	97.94
410.685	95.94
410.908	90.94
411.132	94.94
411.355	102.94
411.578	100.94
411.802	89.94
412.025	89.94
412.249	87.94
412.472	91.94
412.695	78.94
412.919	82.94
413.142	93.94
413.365	93.94
413.589	94.94
413.812	80.94
414.035	93.94
414.258	93.94
414.482	90.94
414.705	84.94
414.928	80.94
415.151	99.94
415.374	82.94
415.597	89.94
415.821	99.94
416.044	84.94
416.267	97.94
416.49	96.94
416.713	100.94
416.936	92.94
417.159	99.94
417.382	87.94
417.605	89.94
417.828	80.94
418.051	87.94
418.274	80.94
418.497	75.94
418.72	98.94
418.943	95.94
419.166	85.94
419.389	95.94
419.611	111.94
419.834	87.94
420.057	79.94
420.28	95.94
420.503	75.94
420.726	83.94
420.948	91.94
421.171	91.94
421.394	83.94
421.617	93.94
421.839	81.94
422.062	86.94
422.285	89.94
422.507	111.94
422.73	100.94
422.953	81.94
423.175	75.94
423.398	88.94
423.621	90.94
423.843	93.94
424.066	84.94
424.288	91.94
424.511	87.94
424.733	91.94
424.956	96.94
425.178	97.94
425.401	81.94
425.623	111.94
425.846	89.94
426.068	104.94
426.291	87.94
426.513	96.94
426.735	87.94
426.958	82.94
427.18	97.94
427.402	126.94
427.625	162.94
427.847	102.94
428.069	105.94
428.292	102.94
428.514	99.94
428.736	90.94
428.958	88.94
429.181	94.94
429.403	89.94
429.625	78.94
429.847	91.94
430.069	106.94
430.292	87.94
430.514	80.94
430.736	97.94
430.958	92.94
431.18	96.94
431.402	94.94
431.624	80.94
431.846	72.94
432.068	74.94
432.29	77.94
432.512	104.94
432.734	87.94
432.956	80.94
433.178	91.94
433.4	93.94
433.622	83.94
433.844	94.94
434.066	90.94
434.287	83.94
434.509	89.94
434.731	102.94
434.953	86.94
435.175	103.94
435.397	89.94
435.618	107.94
435.84	98.94
436.062	136.94
436.284	119.94
436.505	106.94
436.727	105.94
436.949	93.94
437.17	83.94
437.392	89.94
437.614	91.94
437.835	112.94
438.057	115.94
438.278	107.94
438.5	109.94
438.721	129.94
438.943	90.94
439.165	97.94
439.386	82.94
439.608	96.94
439.829	110.94
440.05	129.94
440.272	133.94
440.493	113.94
440.715	86.94
440.936	105.94
441.158	93.94
441.379	89.94
441.6	84.94
441.822	86.94
442.043	74.94
442.264	97.94
442.486	98.94
442.707	94.94
442.928	102.94
443.149	138.94
443.371	128.94
443.592	119.94
443.813	119.94
444.034	111.94
444.255	89.94
444.476	89.94
444.698	85.94
444.919	81.94
445.14	128.94
445.361	121.94
445.582	109.94
445.803	136.94
446.024	128.94
446.245	134.94
446.466	114.94
446.687	83.94
446.908	90.94
447.129	104.94
447.35	87.94
447.571	93.94
447.792	95.94
448.013	96.94
448.234	108.94
448.455	92.94
448.675	111.94
448.896	114.94
449.117	99.94
449.338	90.94
449.559	134.94
449.779	130.94
450	103.94
450.221	95.94
450.442	102.94
450.662	95.94
450.883	89.94
451.104	102.94
451.324	92.94
451.545	102.94
451.766	94.94
451.986	93.94
452.207	86.94
452.428	89.94
452.648	104.94
452.869	103.94
453.089	121.94
453.31	112.94
453.53	94.94
453.751	98.94
453.971	105.94
454.192	90.94
454.412	81.94
454.633	84.94
454.853	75.94
455.073	81.94
455.294	89.94
455.514	88.94
455.734	98.94
455.955	87.94
456.175	88.94
456.395	88.94
456.616	82.94
456.836	89.94
457.056	86.94
457.276	84.94
457.497	88.94
457.717	91.94
457.937	84.94
458.157	89.94
458.377	85.94
458.598	99.94
458.818	130.94
459.038	138.94
459.258	105.94
459.478	93.94
459.698	85.94
459.918	88.94
460.138	83.94
460.358	86.94
460.578	96.94
460.798	93.94
461.018	80.94
461.238	87.94
461.458	96.94
461.678	85.94
461.898	82.94
462.118	93.94
462.338	73.94
462.558	90.94
462.777	85.94
462.997	89.94
463.217	96.94
463.437	92.94
463.657	74.94
463.876	96.94
464.096	97.94
464.316	93.94
464.536	105.94
464.755	101.94
464.975	105.94
465.195	142.94
465.414	133.94
465.634	86.94
465.854	80.94
466.073	84.94
466.293	96.94
466.512	91.94
466.732	83.94
466.951	97.94
467.171	86.94
467.391	96.94
467.61	107.94
467.829	96.94
468.049	98.94
468.268	97.94
468.488	86.94
468.707	96.94
468.927	86.94
469.146	91.94
469.365	92.94
469.585	94.94
469.804	86.94
470.023	92.94
470.243	99.94
470.462	85.94
470.681	101.94
470.901	80.94
471.12	85.94
471.339	93.94
471.558	78.94
471.777	90.94
471.997	88.94
472.216	83.94
472.435	83.94
472.654	86.94
472.873	89.94
473.092	91.94
473.311	104.94
473.53	82.94
473.749	85.94
473.968	100.94
474.187	101.94
474.406	98.94
474.625	99.94
474.844	105.94
475.063	97.94
475.282	86.94
475.501	88.94
475.72	88.94
475.939	80.94
476.158	81.94
476.377	85.94
476.596	86.94
476.814	103.94
477.033	99.94
477.252	93.94
477.471	87.94
477.69	85.94
477.908	93.94
478.127	97.94
478.346	91.94
478.564	101.94
478.783	94.94
479.002	88.94
479.22	81.94
479.439	102.94
479.658	97.94
479.876	96.94
480.095	93.94
480.313	97.94
480.532	96.94
480.751	101.94
480.969	79.94
481.188	108.94
481.406	93.94
481.624	81.94
481.843	91.94
482.061	74.94
482.28	114.94
482.498	87.94
482.717	88.94
482.935	97.94
483.153	94.94
483.372	88.94
483.59	92.94
483.808	87.94
484.027	93.94
484.245	90.94
484.463	91.94
484.681	96.94
484.9	85.94
485.118	106.94
485.336	95.94
485.554	106.94
485.772	103.94
485.99	103.94
486.209	100.94
486.427	116.94
486.645	105.94
486.863	108.94
487.081	100.94
487.299	101.94
487.517	105.94
487.735	92.94
487.953	87.94
488.171	78.94
488.389	95.94
488.607	90.94
488.825	93.94
489.043	71.94
489.261	109.94
489.479	77.94
489.696	94.94
489.914	91.94
490.132	95.94
490.35	98.94
490.568	87.94
490.786	81.94
491.003	92.94
491.221	83.94
491.439	91.94
491.657	96.94
491.874	100.94
492.092	85.94
492.31	83.94
492.527	85.94
492.745	87.94
492.963	87.94
493.18	74.94
493.398	92.94
493.615	87.94
493.833	107.94
494.05	85.94
494.268	84.94
494.485	88.94
494.703	91.94
494.92	85.94
495.138	81.94
495.355	91.94
495.573	93.94
495.79	85.94
496.008	78.94
496.225	105.94
496.442	97.94
496.66	82.94
496.877	81.94
497.094	87.94
497.312	100.94
497.529	94.94
497.746	106.94
497.963	96.94
498.181	83.94
498.398	93.94
498.615	105.94
498.832	92.94
499.049	100.94
499.267	94.94
499.484	81.94
499.701	96.94
499.918	82.94
500.135	93.94
500.352	96.94
500.569	99.94
500.786	98.94
501.003	97.94
501.22	102.94
501.437	100.94
501.654	104.94
501.871	107.94
502.088	86.94
502.305	90.94
502.522	104.94
502.739	82.94
502.956	89.94
503.172	89.94
503.389	89.94
503.606	101.94
503.823	97.94
504.04	101.94
504.256	88.94
504.473	80.94
504.69	89.94
504.907	89.94
505.123	84.94
505.34	90.94
505.557	87.94
505.773	103.94
505.99	94.94
506.207	98.94
506.423	106.94
506.64	75.94
506.856	82.94
507.073	79.94
507.289	88.94
507.506	85.94
507.722	109.94
507.939	118.94
508.155	97.94
508.372	91.94
508.588	91.94
508.805	78.94
509.021	91.94
509.238	89.94
509.454	97.94
509.67	107.94
509.887	123.94
510.103	137.94
510.319	203.94
510.536	712.94
510.752	2033.94
510.968	584.94
511.184	150.94
511.401	103.94
511.617	107.94
511.833	93.94
512.049	95.94
512.265	76.94
512.481	90.94
512.698	91.94
512.914	100.94
513.13	105.94
513.346	97.94
513.562	87.94
513.778	99.94
513.994	81.94
514.21	97.94
514.426	119.94
514.642	125.94
514.858	111.94
515.074	175.94
515.29	380.94
515.506	1256.94
