Data from Uncirc_1988_H10_HRD10591_00072.txt Node
Date: Wed Jan 03 12:04:18 EST 2024
User: Yrep
Spectrometer: HR+D1059
Trigger mode: 1
Integration Time (sec): 1.000000E-1
Scans to average: 1
Electric dark correction enabled: true
Nonlinearity correction enabled: false
Boxcar width: 0
XAxis mode: Wavelengths
Number of Pixels in Spectrum: 2048
>>>>>Begin Spectral Data<<<<<
223.165	-20.44
223.4	-20.44
223.635	-20.44
223.869	-7.44
224.104	-10.44
224.338	-13.44
224.573	-6.44
224.808	-16.44
225.042	-1.44
225.277	-11.44
225.511	-1.44
225.746	1.56
225.98	7.56
226.215	-0.44
226.449	15.56
226.683	22.56
226.918	16.56
227.152	25.56
227.387	41.56
227.621	40.56
227.856	40.56
228.09	37.56
228.324	61.56
228.559	58.56
228.793	51.56
229.027	60.56
229.262	65.56
229.496	78.56
229.73	82.56
229.964	77.56
230.199	80.56
230.433	67.56
230.667	79.56
230.901	75.56
231.136	61.56
231.37	86.56
231.604	84.56
231.838	93.56
232.072	74.56
232.306	77.56
232.541	70.56
232.775	74.56
233.009	81.56
233.243	76.56
233.477	82.56
233.711	85.56
233.945	95.56
234.179	81.56
234.413	85.56
234.647	73.56
234.881	74.56
235.115	69.56
235.349	73.56
235.583	77.56
235.817	71.56
236.051	72.56
236.285	69.56
236.519	80.56
236.753	72.56
236.987	81.56
237.221	95.56
237.455	85.56
237.689	89.56
237.922	86.56
238.156	68.56
238.39	71.56
238.624	73.56
238.858	86.56
239.091	81.56
239.325	65.56
239.559	87.56
239.793	75.56
240.027	67.56
240.26	81.56
240.494	77.56
240.728	74.56
240.961	79.56
241.195	84.56
241.429	71.56
241.662	74.56
241.896	79.56
242.13	89.56
242.363	72.56
242.597	83.56
242.83	81.56
243.064	81.56
243.298	72.56
243.531	72.56
243.765	85.56
243.998	88.56
244.232	77.56
244.465	87.56
244.699	82.56
244.932	74.56
245.166	83.56
245.399	85.56
245.633	94.56
245.866	70.56
246.099	79.56
246.333	77.56
246.566	80.56
246.8	88.56
247.033	85.56
247.266	63.56
247.5	83.56
247.733	83.56
247.966	88.56
248.2	75.56
248.433	82.56
248.666	82.56
248.899	67.56
249.133	97.56
249.366	92.56
249.599	91.56
249.832	70.56
250.066	78.56
250.299	78.56
250.532	70.56
250.765	95.56
250.998	65.56
251.231	89.56
251.465	66.56
251.698	77.56
251.931	81.56
252.164	85.56
252.397	69.56
252.63	77.56
252.863	83.56
253.096	85.56
253.329	73.56
253.562	82.56
253.795	88.56
254.028	64.56
254.261	73.56
254.494	78.56
254.727	88.56
254.96	86.56
255.193	78.56
255.426	85.56
255.659	93.56
255.892	78.56
256.124	82.56
256.357	85.56
256.59	81.56
256.823	94.56
257.056	78.56
257.289	85.56
257.521	66.56
257.754	81.56
257.987	83.56
258.22	75.56
258.452	73.56
258.685	90.56
258.918	67.56
259.151	97.56
259.383	85.56
259.616	80.56
259.849	73.56
260.081	81.56
260.314	86.56
260.547	77.56
260.779	91.56
261.012	85.56
261.244	89.56
261.477	83.56
261.71	86.56
261.942	91.56
262.175	115.56
262.407	90.56
262.64	77.56
262.872	77.56
263.105	80.56
263.337	90.56
263.57	83.56
263.802	96.56
264.035	89.56
264.267	92.56
264.499	73.56
264.732	83.56
264.964	82.56
265.197	74.56
265.429	89.56
265.661	97.56
265.894	89.56
266.126	83.56
266.358	80.56
266.591	88.56
266.823	84.56
267.055	87.56
267.287	93.56
267.52	90.56
267.752	82.56
267.984	82.56
268.216	95.56
268.448	100.56
268.681	89.56
268.913	85.56
269.145	84.56
269.377	81.56
269.609	71.56
269.841	93.56
270.073	84.56
270.306	80.56
270.538	89.56
270.77	83.56
271.002	93.56
271.234	85.56
271.466	91.56
271.698	91.56
271.93	82.56
272.162	85.56
272.394	84.56
272.626	78.56
272.858	91.56
273.09	78.56
273.322	93.56
273.553	89.56
273.785	88.56
274.017	90.56
274.249	84.56
274.481	89.56
274.713	100.56
274.945	87.56
275.176	75.56
275.408	98.56
275.64	83.56
275.872	69.56
276.104	83.56
276.335	97.56
276.567	86.56
276.799	102.56
277.031	94.56
277.262	78.56
277.494	89.56
277.726	90.56
277.957	89.56
278.189	83.56
278.421	89.56
278.652	88.56
278.884	85.56
279.115	99.56
279.347	84.56
279.579	83.56
279.81	89.56
280.042	90.56
280.273	96.56
280.505	92.56
280.736	87.56
280.968	92.56
281.199	75.56
281.431	95.56
281.662	94.56
281.894	92.56
282.125	93.56
282.356	110.56
282.588	146.56
282.819	112.56
283.051	94.56
283.282	99.56
283.513	94.56
283.745	90.56
283.976	81.56
284.207	84.56
284.439	96.56
284.67	91.56
284.901	94.56
285.132	90.56
285.364	93.56
285.595	75.56
285.826	93.56
286.057	83.56
286.288	85.56
286.52	95.56
286.751	94.56
286.982	103.56
287.213	94.56
287.444	98.56
287.675	104.56
287.906	85.56
288.138	89.56
288.369	97.56
288.6	80.56
288.831	105.56
289.062	102.56
289.293	88.56
289.524	98.56
289.755	94.56
289.986	97.56
290.217	79.56
290.448	92.56
290.679	83.56
290.91	89.56
291.141	95.56
291.371	83.56
291.602	87.56
291.833	94.56
292.064	85.56
292.295	87.56
292.526	85.56
292.757	83.56
292.987	96.56
293.218	88.56
293.449	80.56
293.68	95.56
293.91	81.56
294.141	81.56
294.372	93.56
294.603	86.56
294.833	83.56
295.064	99.56
295.295	98.56
295.525	90.56
295.756	115.56
295.987	130.56
296.217	138.56
296.448	119.56
296.679	107.56
296.909	103.56
297.14	93.56
297.37	87.56
297.601	85.56
297.831	93.56
298.062	98.56
298.292	89.56
298.523	90.56
298.753	90.56
298.984	96.56
299.214	102.56
299.445	98.56
299.675	85.56
299.905	91.56
300.136	102.56
300.366	91.56
300.597	99.56
300.827	88.56
301.057	100.56
301.288	98.56
301.518	96.56
301.748	97.56
301.979	110.56
302.209	93.56
302.439	82.56
302.669	91.56
302.9	81.56
303.13	96.56
303.36	87.56
303.59	112.56
303.82	104.56
304.051	84.56
304.281	100.56
304.511	91.56
304.741	91.56
304.971	89.56
305.201	88.56
305.431	89.56
305.661	86.56
305.891	88.56
306.121	103.56
306.352	98.56
306.582	104.56
306.812	89.56
307.042	90.56
307.272	99.56
307.502	97.56
307.731	88.56
307.961	97.56
308.191	98.56
308.421	98.56
308.651	87.56
308.881	96.56
309.111	97.56
309.341	96.56
309.571	110.56
309.8	90.56
310.03	103.56
310.26	89.56
310.49	96.56
310.72	112.56
310.949	102.56
311.179	111.56
311.409	99.56
311.639	95.56
311.868	93.56
312.098	90.56
312.328	86.56
312.557	98.56
312.787	107.56
313.017	88.56
313.246	88.56
313.476	98.56
313.706	91.56
313.935	103.56
314.165	112.56
314.394	89.56
314.624	83.56
314.853	100.56
315.083	78.56
315.312	98.56
315.542	100.56
315.771	98.56
316.001	99.56
316.23	78.56
316.46	95.56
316.689	94.56
316.919	102.56
317.148	103.56
317.377	101.56
317.607	99.56
317.836	101.56
318.065	95.56
318.295	85.56
318.524	95.56
318.753	94.56
318.983	95.56
319.212	75.56
319.441	97.56
319.67	99.56
319.9	89.56
320.129	90.56
320.358	105.56
320.587	105.56
320.816	103.56
321.046	102.56
321.275	104.56
321.504	93.56
321.733	100.56
321.962	121.56
322.191	96.56
322.42	107.56
322.649	115.56
322.878	101.56
323.108	126.56
323.337	131.56
323.566	136.56
323.795	160.56
324.024	210.56
324.253	413.56
324.482	906.56
324.71	1847.56
324.939	2493.56
325.168	894.56
325.397	281.56
325.626	144.56
325.855	132.56
326.084	125.56
326.313	136.56
326.542	171.56
326.77	239.56
326.999	514.56
327.228	1045.56
327.457	1916.56
327.686	1489.56
327.914	406.56
328.143	202.56
328.372	153.56
328.6	133.56
328.829	117.56
329.058	131.56
329.287	134.56
329.515	120.56
329.744	93.56
329.972	105.56
330.201	117.56
330.43	126.56
330.658	146.56
330.887	134.56
331.115	119.56
331.344	112.56
331.572	108.56
331.801	114.56
332.03	110.56
332.258	94.56
332.486	93.56
332.715	89.56
332.943	89.56
333.172	87.56
333.4	108.56
333.629	102.56
333.857	107.56
334.085	114.56
334.314	105.56
334.542	121.56
334.771	117.56
334.999	114.56
335.227	111.56
335.455	107.56
335.684	101.56
335.912	94.56
336.14	107.56
336.369	96.56
336.597	105.56
336.825	99.56
337.053	99.56
337.281	93.56
337.51	92.56
337.738	100.56
337.966	90.56
338.194	102.56
338.422	101.56
338.65	94.56
338.878	99.56
339.106	89.56
339.334	97.56
339.562	90.56
339.79	90.56
340.018	92.56
340.246	97.56
340.474	91.56
340.702	95.56
340.93	91.56
341.158	93.56
341.386	94.56
341.614	113.56
341.842	83.56
342.07	74.56
342.298	93.56
342.526	99.56
342.754	90.56
342.981	93.56
343.209	85.56
343.437	116.56
343.665	93.56
343.893	99.56
344.12	112.56
344.348	95.56
344.576	83.56
344.804	84.56
345.031	93.56
345.259	94.56
345.487	95.56
345.714	95.56
345.942	90.56
346.17	95.56
346.397	98.56
346.625	99.56
346.853	99.56
347.08	93.56
347.308	98.56
347.535	113.56
347.763	103.56
347.99	99.56
348.218	111.56
348.445	117.56
348.673	116.56
348.9	92.56
349.128	85.56
349.355	92.56
349.583	112.56
349.81	81.56
350.037	101.56
350.265	94.56
350.492	102.56
350.72	93.56
350.947	108.56
351.174	107.56
351.402	117.56
351.629	103.56
351.856	118.56
352.083	112.56
352.311	111.56
352.538	108.56
352.765	114.56
352.992	115.56
353.22	107.56
353.447	108.56
353.674	115.56
353.901	107.56
354.128	89.56
354.355	111.56
354.583	103.56
354.81	114.56
355.037	92.56
355.264	94.56
355.491	98.56
355.718	94.56
355.945	85.56
356.172	98.56
356.399	109.56
356.626	82.56
356.853	82.56
357.08	92.56
357.307	93.56
357.534	102.56
357.761	95.56
357.988	90.56
358.215	97.56
358.441	93.56
358.668	84.56
358.895	105.56
359.122	83.56
359.349	82.56
359.576	103.56
359.802	113.56
360.029	107.56
360.256	111.56
360.483	107.56
360.709	77.56
360.936	91.56
361.163	91.56
361.39	87.56
361.616	101.56
361.843	94.56
362.07	93.56
362.296	103.56
362.523	85.56
362.749	86.56
362.976	88.56
363.203	96.56
363.429	104.56
363.656	89.56
363.882	90.56
364.109	94.56
364.335	93.56
364.562	102.56
364.788	85.56
365.015	102.56
365.241	88.56
365.468	106.56
365.694	98.56
365.92	102.56
366.147	100.56
366.373	72.56
366.599	76.56
366.826	81.56
367.052	106.56
367.278	93.56
367.505	101.56
367.731	82.56
367.957	95.56
368.184	79.56
368.41	100.56
368.636	105.56
368.862	114.56
369.089	103.56
369.315	106.56
369.541	97.56
369.767	96.56
369.993	104.56
370.219	95.56
370.445	72.56
370.672	92.56
370.898	81.56
371.124	74.56
371.35	106.56
371.576	83.56
371.802	93.56
372.028	86.56
372.254	83.56
372.48	88.56
372.706	86.56
372.932	90.56
373.158	86.56
373.384	96.56
373.61	91.56
373.835	92.56
374.061	96.56
374.287	89.56
374.513	79.56
374.739	90.56
374.965	89.56
375.191	87.56
375.416	102.56
375.642	92.56
375.868	102.56
376.094	83.56
376.319	92.56
376.545	83.56
376.771	84.56
376.997	99.56
377.222	93.56
377.448	97.56
377.674	107.56
377.899	94.56
378.125	102.56
378.35	101.56
378.576	86.56
378.802	101.56
379.027	96.56
379.253	96.56
379.478	99.56
379.704	83.56
379.929	86.56
380.155	98.56
380.38	87.56
380.606	98.56
380.831	99.56
381.057	92.56
381.282	101.56
381.507	103.56
381.733	95.56
381.958	94.56
382.184	93.56
382.409	107.56
382.634	107.56
382.86	101.56
383.085	90.56
383.31	95.56
383.535	93.56
383.761	100.56
383.986	103.56
384.211	105.56
384.436	102.56
384.662	90.56
384.887	93.56
385.112	85.56
385.337	101.56
385.562	104.56
385.787	107.56
386.013	97.56
386.238	106.56
386.463	102.56
386.688	120.56
386.913	102.56
387.138	112.56
387.363	103.56
387.588	105.56
387.813	112.56
388.038	115.56
388.263	93.56
388.488	110.56
388.713	85.56
388.938	102.56
389.163	94.56
389.387	103.56
389.612	101.56
389.837	99.56
390.062	94.56
390.287	88.56
390.512	101.56
390.736	96.56
390.961	97.56
391.186	87.56
391.411	100.56
391.636	93.56
391.86	77.56
392.085	87.56
392.31	69.56
392.534	91.56
392.759	85.56
392.984	91.56
393.208	98.56
393.433	91.56
393.658	79.56
393.882	79.56
394.107	107.56
394.331	88.56
394.556	98.56
394.78	91.56
395.005	87.56
395.229	88.56
395.454	90.56
395.678	89.56
395.903	96.56
396.127	84.56
396.352	79.56
396.576	89.56
396.801	86.56
397.025	89.56
397.249	91.56
397.474	95.56
397.698	98.56
397.922	86.56
398.147	83.56
398.371	92.56
398.595	81.56
398.82	80.56
399.044	72.56
399.268	95.56
399.492	91.56
399.717	91.56
399.941	101.56
400.165	85.56
400.389	89.56
400.613	86.56
400.837	84.56
401.062	90.56
401.286	93.56
401.51	89.56
401.734	100.56
401.958	80.56
402.182	115.56
402.406	161.56
402.63	121.56
402.854	101.56
403.078	87.56
403.302	84.56
403.526	92.56
403.75	77.56
403.974	97.56
404.198	78.56
404.422	97.56
404.645	96.56
404.869	93.56
405.093	106.56
405.317	113.56
405.541	103.56
405.765	104.56
405.988	117.56
406.212	178.56
406.436	221.56
406.66	136.56
406.883	101.56
407.107	96.56
407.331	105.56
407.555	95.56
407.778	87.56
408.002	89.56
408.226	102.56
408.449	83.56
408.673	87.56
408.896	100.56
409.12	108.56
409.344	86.56
409.567	93.56
409.791	88.56
410.014	77.56
410.238	79.56
410.461	96.56
410.685	99.56
410.908	101.56
411.132	110.56
411.355	98.56
411.578	96.56
411.802	85.56
412.025	84.56
412.249	103.56
412.472	98.56
412.695	92.56
412.919	85.56
413.142	91.56
413.365	89.56
413.589	81.56
413.812	85.56
414.035	87.56
414.258	93.56
414.482	96.56
414.705	87.56
414.928	97.56
415.151	86.56
415.374	93.56
415.597	98.56
415.821	81.56
416.044	93.56
416.267	93.56
416.49	96.56
416.713	79.56
416.936	85.56
417.159	92.56
417.382	80.56
417.605	79.56
417.828	106.56
418.051	98.56
418.274	89.56
418.497	91.56
418.72	74.56
418.943	97.56
419.166	98.56
419.389	89.56
419.611	90.56
419.834	97.56
420.057	107.56
420.28	86.56
420.503	81.56
420.726	77.56
420.948	94.56
421.171	98.56
421.394	89.56
421.617	100.56
421.839	91.56
422.062	91.56
422.285	94.56
422.507	89.56
422.73	97.56
422.953	103.56
423.175	96.56
423.398	91.56
423.621	88.56
423.843	82.56
424.066	85.56
424.288	77.56
424.511	88.56
424.733	88.56
424.956	104.56
425.178	102.56
425.401	114.56
425.623	102.56
425.846	105.56
426.068	85.56
426.291	90.56
426.513	95.56
426.735	105.56
426.958	97.56
427.18	115.56
427.402	142.56
427.625	169.56
427.847	134.56
428.069	104.56
428.292	87.56
428.514	84.56
428.736	77.56
428.958	83.56
429.181	104.56
429.403	83.56
429.625	96.56
429.847	87.56
430.069	95.56
430.292	99.56
430.514	99.56
430.736	92.56
430.958	79.56
431.18	77.56
431.402	86.56
431.624	81.56
431.846	88.56
432.068	85.56
432.29	88.56
432.512	103.56
432.734	107.56
432.956	82.56
433.178	98.56
433.4	86.56
433.622	96.56
433.844	84.56
434.066	96.56
434.287	83.56
434.509	104.56
434.731	94.56
434.953	101.56
435.175	90.56
435.397	89.56
435.618	90.56
435.84	101.56
436.062	130.56
436.284	121.56
436.505	101.56
436.727	105.56
436.949	101.56
437.17	93.56
437.392	84.56
437.614	87.56
437.835	117.56
438.057	109.56
438.278	117.56
438.5	115.56
438.721	118.56
438.943	102.56
439.165	94.56
439.386	90.56
439.608	81.56
439.829	98.56
440.05	123.56
440.272	146.56
440.493	107.56
440.715	95.56
440.936	81.56
441.158	88.56
441.379	94.56
441.6	98.56
441.822	102.56
442.043	101.56
442.264	98.56
442.486	98.56
442.707	94.56
442.928	105.56
443.149	116.56
443.371	131.56
443.592	114.56
443.813	110.56
444.034	115.56
444.255	100.56
444.476	91.56
444.698	76.56
444.919	88.56
445.14	117.56
445.361	121.56
445.582	122.56
445.803	151.56
446.024	150.56
446.245	135.56
446.466	109.56
446.687	102.56
446.908	94.56
447.129	85.56
447.35	89.56
447.571	91.56
447.792	104.56
448.013	105.56
448.234	102.56
448.455	110.56
448.675	100.56
448.896	105.56
449.117	94.56
449.338	93.56
449.559	134.56
449.779	129.56
450	97.56
450.221	85.56
450.442	91.56
450.662	90.56
450.883	103.56
451.104	103.56
451.324	89.56
451.545	93.56
451.766	84.56
451.986	82.56
452.207	81.56
452.428	99.56
452.648	98.56
452.869	121.56
453.089	109.56
453.31	120.56
453.53	81.56
453.751	79.56
453.971	113.56
454.192	117.56
454.412	90.56
454.633	94.56
454.853	91.56
455.073	99.56
455.294	97.56
455.514	114.56
455.734	88.56
455.955	85.56
456.175	89.56
456.395	85.56
456.616	81.56
456.836	88.56
457.056	84.56
457.276	80.56
457.497	88.56
457.717	82.56
457.937	84.56
458.157	86.56
458.377	88.56
458.598	99.56
458.818	155.56
459.038	168.56
459.258	135.56
459.478	81.56
459.698	81.56
459.918	90.56
460.138	81.56
460.358	88.56
460.578	93.56
460.798	90.56
461.018	90.56
461.238	93.56
461.458	80.56
461.678	85.56
461.898	73.56
462.118	95.56
462.338	83.56
462.558	89.56
462.777	82.56
462.997	71.56
463.217	95.56
463.437	92.56
463.657	86.56
463.876	85.56
464.096	105.56
464.316	107.56
464.536	84.56
464.755	88.56
464.975	112.56
465.195	186.56
465.414	157.56
465.634	102.56
465.854	90.56
466.073	95.56
466.293	91.56
466.512	91.56
466.732	81.56
466.951	87.56
467.171	89.56
467.391	102.56
467.61	112.56
467.829	105.56
468.049	97.56
468.268	106.56
468.488	88.56
468.707	84.56
468.927	99.56
469.146	90.56
469.365	90.56
469.585	100.56
469.804	96.56
470.023	92.56
470.243	83.56
470.462	93.56
470.681	114.56
470.901	89.56
471.12	87.56
471.339	102.56
471.558	99.56
471.777	94.56
471.997	91.56
472.216	127.56
472.435	145.56
472.654	88.56
472.873	91.56
473.092	91.56
473.311	86.56
473.53	88.56
473.749	79.56
473.968	98.56
474.187	106.56
474.406	89.56
474.625	91.56
474.844	95.56
475.063	93.56
475.282	95.56
475.501	97.56
475.72	81.56
475.939	93.56
476.158	81.56
476.377	95.56
476.596	94.56
476.814	97.56
477.033	86.56
477.252	87.56
477.471	88.56
477.69	85.56
477.908	87.56
478.127	86.56
478.346	96.56
478.564	88.56
478.783	101.56
479.002	89.56
479.22	100.56
479.439	102.56
479.658	107.56
479.876	91.56
480.095	84.56
480.313	89.56
480.532	87.56
480.751	90.56
480.969	103.56
481.188	175.56
481.406	155.56
481.624	84.56
481.843	88.56
482.061	88.56
482.28	101.56
482.498	79.56
482.717	90.56
482.935	96.56
483.153	87.56
483.372	102.56
483.59	93.56
483.808	80.56
484.027	80.56
484.245	79.56
484.463	75.56
484.681	99.56
484.9	90.56
485.118	97.56
485.336	99.56
485.554	96.56
485.772	97.56
485.99	100.56
486.209	101.56
486.427	104.56
486.645	109.56
486.863	104.56
487.081	91.56
487.299	98.56
487.517	93.56
487.735	84.56
487.953	90.56
488.171	86.56
488.389	100.56
488.607	94.56
488.825	78.56
489.043	93.56
489.261	86.56
489.479	93.56
489.696	101.56
489.914	100.56
490.132	97.56
490.35	94.56
490.568	84.56
490.786	101.56
491.003	108.56
491.221	88.56
491.439	91.56
491.657	87.56
491.874	101.56
492.092	101.56
492.31	87.56
492.527	97.56
492.745	79.56
492.963	82.56
493.18	94.56
493.398	98.56
493.615	89.56
493.833	92.56
494.05	89.56
494.268	101.56
494.485	98.56
494.703	97.56
494.92	93.56
495.138	91.56
495.355	90.56
495.573	88.56
495.79	83.56
496.008	82.56
496.225	93.56
496.442	97.56
496.66	96.56
496.877	95.56
497.094	100.56
497.312	83.56
497.529	89.56
497.746	93.56
497.963	95.56
498.181	100.56
498.398	93.56
498.615	105.56
498.832	104.56
499.049	106.56
499.267	93.56
499.484	85.56
499.701	89.56
499.918	86.56
500.135	89.56
500.352	115.56
500.569	90.56
500.786	79.56
501.003	84.56
501.22	96.56
501.437	90.56
501.654	96.56
501.871	115.56
502.088	82.56
502.305	81.56
502.522	103.56
502.739	94.56
502.956	99.56
503.172	84.56
503.389	106.56
503.606	126.56
503.823	97.56
504.04	93.56
504.256	98.56
504.473	99.56
504.69	82.56
504.907	93.56
505.123	92.56
505.34	73.56
505.557	85.56
505.773	85.56
505.99	91.56
506.207	88.56
506.423	90.56
506.64	93.56
506.856	89.56
507.073	87.56
507.289	101.56
507.506	93.56
507.722	119.56
507.939	104.56
508.155	96.56
508.372	92.56
508.588	87.56
508.805	103.56
509.021	100.56
509.238	98.56
509.454	97.56
509.67	104.56
509.887	105.56
510.103	141.56
510.319	221.56
510.536	801.56
510.752	2532.56
510.968	667.56
511.184	166.56
511.401	124.56
511.617	105.56
511.833	102.56
512.049	94.56
512.265	107.56
512.481	93.56
512.698	67.56
512.914	95.56
513.13	104.56
513.346	87.56
513.562	102.56
513.778	93.56
513.994	106.56
514.21	114.56
514.426	112.56
514.642	147.56
514.858	144.56
