Data from Uncirc_1988_H10_HRD10591_00082.txt Node
Date: Wed Jan 03 12:04:20 EST 2024
User: Yrep
Spectrometer: HR+D1059
Trigger mode: 1
Integration Time (sec): 1.000000E-1
Scans to average: 1
Electric dark correction enabled: true
Nonlinearity correction enabled: false
Boxcar width: 0
XAxis mode: Wavelengths
Number of Pixels in Spectrum: 2048
>>>>>Begin Spectral Data<<<<<
223.165	-12.94
223.4	-12.94
223.635	-12.94
223.869	-21.94
224.104	-15.94
224.338	-15.94
224.573	-20.94
224.808	-18.94
225.042	14.06
225.277	-1.94
225.511	-6.94
225.746	11.06
225.98	7.06
226.215	5.06
226.449	22.06
226.683	10.06
226.918	32.06
227.152	14.06
227.387	25.06
227.621	39.06
227.856	46.06
228.09	50.06
228.324	46.06
228.559	58.06
228.793	48.06
229.027	63.06
229.262	69.06
229.496	73.06
229.73	85.06
229.964	84.06
230.199	77.06
230.433	71.06
230.667	78.06
230.901	67.06
231.136	75.06
231.37	79.06
231.604	89.06
231.838	82.06
232.072	87.06
232.306	68.06
232.541	81.06
232.775	73.06
233.009	101.06
233.243	78.06
233.477	80.06
233.711	73.06
233.945	101.06
234.179	69.06
234.413	82.06
234.647	82.06
234.881	86.06
235.115	98.06
235.349	99.06
235.583	71.06
235.817	82.06
236.051	82.06
236.285	78.06
236.519	82.06
236.753	89.06
236.987	90.06
237.221	77.06
237.455	89.06
237.689	79.06
237.922	72.06
238.156	71.06
238.39	80.06
238.624	61.06
238.858	82.06
239.091	84.06
239.325	82.06
239.559	82.06
239.793	87.06
240.027	88.06
240.26	81.06
240.494	83.06
240.728	68.06
240.961	82.06
241.195	78.06
241.429	93.06
241.662	81.06
241.896	76.06
242.13	75.06
242.363	80.06
242.597	75.06
242.83	65.06
243.064	80.06
243.298	76.06
243.531	71.06
243.765	85.06
243.998	93.06
244.232	79.06
244.465	99.06
244.699	94.06
244.932	90.06
245.166	82.06
245.399	85.06
245.633	81.06
245.866	82.06
246.099	70.06
246.333	70.06
246.566	79.06
246.8	72.06
247.033	75.06
247.266	82.06
247.5	86.06
247.733	79.06
247.966	81.06
248.2	80.06
248.433	81.06
248.666	76.06
248.899	83.06
249.133	86.06
249.366	100.06
249.599	109.06
249.832	87.06
250.066	87.06
250.299	70.06
250.532	68.06
250.765	88.06
250.998	72.06
251.231	98.06
251.465	100.06
251.698	76.06
251.931	87.06
252.164	73.06
252.397	76.06
252.63	90.06
252.863	82.06
253.096	81.06
253.329	99.06
253.562	83.06
253.795	76.06
254.028	87.06
254.261	86.06
254.494	78.06
254.727	76.06
254.96	82.06
255.193	93.06
255.426	74.06
255.659	83.06
255.892	96.06
256.124	75.06
256.357	94.06
256.59	81.06
256.823	74.06
257.056	91.06
257.289	72.06
257.521	81.06
257.754	74.06
257.987	94.06
258.22	88.06
258.452	79.06
258.685	75.06
258.918	85.06
259.151	86.06
259.383	96.06
259.616	79.06
259.849	97.06
260.081	81.06
260.314	84.06
260.547	84.06
260.779	81.06
261.012	82.06
261.244	80.06
261.477	93.06
261.71	99.06
261.942	131.06
262.175	116.06
262.407	82.06
262.64	86.06
262.872	83.06
263.105	85.06
263.337	76.06
263.57	75.06
263.802	82.06
264.035	85.06
264.267	95.06
264.499	85.06
264.732	80.06
264.964	96.06
265.197	90.06
265.429	83.06
265.661	86.06
265.894	88.06
266.126	78.06
266.358	85.06
266.591	87.06
266.823	83.06
267.055	84.06
267.287	89.06
267.52	98.06
267.752	91.06
267.984	92.06
268.216	84.06
268.448	86.06
268.681	82.06
268.913	83.06
269.145	91.06
269.377	92.06
269.609	89.06
269.841	81.06
270.073	89.06
270.306	85.06
270.538	87.06
270.77	88.06
271.002	86.06
271.234	88.06
271.466	89.06
271.698	91.06
271.93	76.06
272.162	96.06
272.394	96.06
272.626	90.06
272.858	80.06
273.09	79.06
273.322	78.06
273.553	81.06
273.785	86.06
274.017	85.06
274.249	98.06
274.481	84.06
274.713	97.06
274.945	89.06
275.176	79.06
275.408	90.06
275.64	84.06
275.872	83.06
276.104	87.06
276.335	95.06
276.567	99.06
276.799	108.06
277.031	111.06
277.262	102.06
277.494	101.06
277.726	95.06
277.957	88.06
278.189	92.06
278.421	90.06
278.652	103.06
278.884	76.06
279.115	86.06
279.347	87.06
279.579	75.06
279.81	88.06
280.042	92.06
280.273	95.06
280.505	90.06
280.736	91.06
280.968	102.06
281.199	93.06
281.431	76.06
281.662	101.06
281.894	98.06
282.125	111.06
282.356	117.06
282.588	143.06
282.819	122.06
283.051	90.06
283.282	85.06
283.513	88.06
283.745	91.06
283.976	80.06
284.207	89.06
284.439	82.06
284.67	111.06
284.901	96.06
285.132	91.06
285.364	90.06
285.595	87.06
285.826	89.06
286.057	104.06
286.288	88.06
286.52	75.06
286.751	96.06
286.982	90.06
287.213	88.06
287.444	97.06
287.675	94.06
287.906	93.06
288.138	86.06
288.369	95.06
288.6	96.06
288.831	87.06
289.062	80.06
289.293	86.06
289.524	94.06
289.755	89.06
289.986	93.06
290.217	100.06
290.448	89.06
290.679	97.06
290.91	102.06
291.141	92.06
291.371	93.06
291.602	89.06
291.833	103.06
292.064	78.06
292.295	86.06
292.526	93.06
292.757	82.06
292.987	94.06
293.218	87.06
293.449	68.06
293.68	92.06
293.91	80.06
294.141	94.06
294.372	102.06
294.603	80.06
294.833	88.06
295.064	84.06
295.295	82.06
295.525	103.06
295.756	110.06
295.987	115.06
296.217	138.06
296.448	122.06
296.679	111.06
296.909	90.06
297.14	94.06
297.37	87.06
297.601	73.06
297.831	90.06
298.062	92.06
298.292	100.06
298.523	89.06
298.753	100.06
298.984	75.06
299.214	85.06
299.445	96.06
299.675	101.06
299.905	87.06
300.136	93.06
300.366	90.06
300.597	95.06
300.827	108.06
301.057	102.06
301.288	103.06
301.518	91.06
301.748	98.06
301.979	106.06
302.209	95.06
302.439	98.06
302.669	93.06
302.9	90.06
303.13	98.06
303.36	95.06
303.59	115.06
303.82	107.06
304.051	101.06
304.281	96.06
304.511	83.06
304.741	77.06
304.971	88.06
305.201	95.06
305.431	87.06
305.661	92.06
305.891	101.06
306.121	112.06
306.352	103.06
306.582	103.06
306.812	98.06
307.042	90.06
307.272	102.06
307.502	87.06
307.731	98.06
307.961	91.06
308.191	101.06
308.421	106.06
308.651	107.06
308.881	75.06
309.111	106.06
309.341	86.06
309.571	107.06
309.8	101.06
310.03	94.06
310.26	108.06
310.49	107.06
310.72	96.06
310.949	106.06
311.179	95.06
311.409	90.06
311.639	104.06
311.868	99.06
312.098	86.06
312.328	107.06
312.557	103.06
312.787	117.06
313.017	105.06
313.246	105.06
313.476	92.06
313.706	89.06
313.935	99.06
314.165	109.06
314.394	104.06
314.624	88.06
314.853	105.06
315.083	82.06
315.312	99.06
315.542	86.06
315.771	91.06
316.001	81.06
316.23	102.06
316.46	89.06
316.689	88.06
316.919	109.06
317.148	104.06
317.377	101.06
317.607	105.06
317.836	98.06
318.065	100.06
318.295	90.06
318.524	96.06
318.753	94.06
318.983	104.06
319.212	103.06
319.441	117.06
319.67	109.06
319.9	104.06
320.129	115.06
320.358	102.06
320.587	92.06
320.816	102.06
321.046	101.06
321.275	102.06
321.504	108.06
321.733	105.06
321.962	102.06
322.191	119.06
322.42	112.06
322.649	101.06
322.878	113.06
323.108	125.06
323.337	125.06
323.566	147.06
323.795	168.06
324.024	233.06
324.253	445.06
324.482	971.06
324.71	2008.06
324.939	2659.06
325.168	956.06
325.397	270.06
325.626	163.06
325.855	148.06
326.084	135.06
326.313	144.06
326.542	167.06
326.77	267.06
326.999	515.06
327.228	1108.06
327.457	2064.06
327.686	1600.06
327.914	428.06
328.143	230.06
328.372	166.06
328.6	146.06
328.829	118.06
329.058	148.06
329.287	137.06
329.515	108.06
329.744	94.06
329.972	97.06
330.201	125.06
330.43	135.06
330.658	145.06
330.887	156.06
331.115	123.06
331.344	103.06
331.572	109.06
331.801	114.06
332.03	102.06
332.258	102.06
332.486	88.06
332.715	88.06
332.943	96.06
333.172	95.06
333.4	102.06
333.629	113.06
333.857	104.06
334.085	111.06
334.314	110.06
334.542	144.06
334.771	142.06
334.999	107.06
335.227	98.06
335.455	94.06
335.684	111.06
335.912	89.06
336.14	95.06
336.369	107.06
336.597	99.06
336.825	91.06
337.053	75.06
337.281	97.06
337.51	94.06
337.738	94.06
337.966	91.06
338.194	90.06
338.422	94.06
338.65	108.06
338.878	96.06
339.106	97.06
339.334	98.06
339.562	106.06
339.79	98.06
340.018	97.06
340.246	84.06
340.474	99.06
340.702	98.06
340.93	75.06
341.158	103.06
341.386	99.06
341.614	91.06
341.842	97.06
342.07	94.06
342.298	83.06
342.526	97.06
342.754	88.06
342.981	81.06
343.209	88.06
343.437	101.06
343.665	74.06
343.893	96.06
344.12	117.06
344.348	102.06
344.576	92.06
344.804	90.06
345.031	94.06
345.259	105.06
345.487	92.06
345.714	91.06
345.942	101.06
346.17	92.06
346.397	87.06
346.625	94.06
346.853	94.06
347.08	94.06
347.308	90.06
347.535	92.06
347.763	98.06
347.99	82.06
348.218	100.06
348.445	109.06
348.673	106.06
348.9	95.06
349.128	96.06
349.355	84.06
349.583	98.06
349.81	100.06
350.037	107.06
350.265	106.06
350.492	96.06
350.72	112.06
350.947	101.06
351.174	112.06
351.402	104.06
351.629	107.06
351.856	108.06
352.083	110.06
352.311	103.06
352.538	125.06
352.765	114.06
352.992	114.06
353.22	126.06
353.447	98.06
353.674	98.06
353.901	112.06
354.128	97.06
354.355	86.06
354.583	110.06
354.81	91.06
355.037	102.06
355.264	94.06
355.491	95.06
355.718	109.06
355.945	98.06
356.172	86.06
356.399	88.06
356.626	93.06
356.853	103.06
357.08	90.06
357.307	87.06
357.534	97.06
357.761	96.06
357.988	101.06
358.215	80.06
358.441	86.06
358.668	88.06
358.895	104.06
359.122	94.06
359.349	84.06
359.576	95.06
359.802	104.06
360.029	115.06
360.256	125.06
360.483	107.06
360.709	97.06
360.936	105.06
361.163	98.06
361.39	115.06
361.616	99.06
361.843	101.06
362.07	102.06
362.296	95.06
362.523	98.06
362.749	103.06
362.976	97.06
363.203	92.06
363.429	94.06
363.656	104.06
363.882	85.06
364.109	92.06
364.335	93.06
364.562	88.06
364.788	103.06
365.015	89.06
365.241	73.06
365.468	117.06
365.694	95.06
365.92	86.06
366.147	84.06
366.373	106.06
366.599	96.06
366.826	93.06
367.052	82.06
367.278	91.06
367.505	93.06
367.731	108.06
367.957	95.06
368.184	99.06
368.41	100.06
368.636	113.06
368.862	112.06
369.089	118.06
369.315	112.06
369.541	95.06
369.767	96.06
369.993	91.06
370.219	100.06
370.445	101.06
370.672	93.06
370.898	99.06
371.124	94.06
371.35	108.06
371.576	87.06
371.802	85.06
372.028	101.06
372.254	92.06
372.48	84.06
372.706	87.06
372.932	99.06
373.158	97.06
373.384	91.06
373.61	102.06
373.835	99.06
374.061	90.06
374.287	99.06
374.513	90.06
374.739	99.06
374.965	90.06
375.191	100.06
375.416	102.06
375.642	86.06
375.868	97.06
376.094	102.06
376.319	97.06
376.545	95.06
376.771	99.06
376.997	85.06
377.222	91.06
377.448	91.06
377.674	95.06
377.899	83.06
378.125	82.06
378.35	87.06
378.576	92.06
378.802	91.06
379.027	98.06
379.253	88.06
379.478	90.06
379.704	106.06
379.929	89.06
380.155	111.06
380.38	110.06
380.606	98.06
380.831	100.06
381.057	96.06
381.282	97.06
381.507	99.06
381.733	93.06
381.958	105.06
382.184	99.06
382.409	100.06
382.634	108.06
382.86	93.06
383.085	99.06
383.31	95.06
383.535	97.06
383.761	110.06
383.986	104.06
384.211	99.06
384.436	94.06
384.662	97.06
384.887	95.06
385.112	99.06
385.337	97.06
385.562	96.06
385.787	88.06
386.013	95.06
386.238	117.06
386.463	114.06
386.688	111.06
386.913	82.06
387.138	98.06
387.363	97.06
387.588	92.06
387.813	104.06
388.038	100.06
388.263	118.06
388.488	98.06
388.713	91.06
388.938	102.06
389.163	113.06
389.387	99.06
389.612	83.06
389.837	105.06
390.062	94.06
390.287	91.06
390.512	91.06
390.736	87.06
390.961	88.06
391.186	97.06
391.411	98.06
391.636	96.06
391.86	79.06
392.085	80.06
392.31	99.06
392.534	86.06
392.759	88.06
392.984	94.06
393.208	88.06
393.433	88.06
393.658	89.06
393.882	84.06
394.107	89.06
394.331	98.06
394.556	92.06
394.78	87.06
395.005	96.06
395.229	88.06
395.454	95.06
395.678	74.06
395.903	88.06
396.127	95.06
396.352	102.06
396.576	88.06
396.801	81.06
397.025	98.06
397.249	95.06
397.474	90.06
397.698	91.06
397.922	80.06
398.147	95.06
398.371	82.06
398.595	81.06
398.82	74.06
399.044	81.06
399.268	91.06
399.492	91.06
399.717	89.06
399.941	82.06
400.165	89.06
400.389	81.06
400.613	90.06
400.837	79.06
401.062	88.06
401.286	89.06
401.51	90.06
401.734	107.06
401.958	98.06
402.182	131.06
402.406	183.06
402.63	105.06
402.854	91.06
403.078	89.06
403.302	103.06
403.526	92.06
403.75	83.06
403.974	78.06
404.198	97.06
404.422	91.06
404.645	82.06
404.869	102.06
405.093	105.06
405.317	113.06
405.541	103.06
405.765	109.06
405.988	115.06
406.212	181.06
406.436	250.06
406.66	147.06
406.883	105.06
407.107	96.06
407.331	87.06
407.555	82.06
407.778	98.06
408.002	89.06
408.226	82.06
408.449	86.06
408.673	87.06
408.896	91.06
409.12	95.06
409.344	95.06
409.567	91.06
409.791	85.06
410.014	98.06
410.238	98.06
410.461	93.06
410.685	89.06
410.908	111.06
411.132	110.06
411.355	111.06
411.578	91.06
411.802	96.06
412.025	95.06
412.249	94.06
412.472	101.06
412.695	92.06
412.919	88.06
413.142	94.06
413.365	96.06
413.589	94.06
413.812	80.06
414.035	91.06
414.258	103.06
414.482	90.06
414.705	103.06
414.928	98.06
415.151	80.06
415.374	99.06
415.597	96.06
415.821	95.06
416.044	101.06
416.267	97.06
416.49	91.06
416.713	88.06
416.936	87.06
417.159	90.06
417.382	84.06
417.605	103.06
417.828	94.06
418.051	98.06
418.274	87.06
418.497	88.06
418.72	83.06
418.943	78.06
419.166	97.06
419.389	97.06
419.611	91.06
419.834	89.06
420.057	99.06
420.28	84.06
420.503	81.06
420.726	82.06
420.948	92.06
421.171	76.06
421.394	114.06
421.617	82.06
421.839	87.06
422.062	100.06
422.285	98.06
422.507	91.06
422.73	111.06
422.953	105.06
423.175	80.06
423.398	90.06
423.621	79.06
423.843	87.06
424.066	87.06
424.288	82.06
424.511	97.06
424.733	92.06
424.956	107.06
425.178	92.06
425.401	111.06
425.623	100.06
425.846	90.06
426.068	79.06
426.291	95.06
426.513	91.06
426.735	102.06
426.958	88.06
427.18	99.06
427.402	150.06
427.625	194.06
427.847	129.06
428.069	112.06
428.292	90.06
428.514	87.06
428.736	95.06
428.958	88.06
429.181	86.06
429.403	82.06
429.625	86.06
429.847	103.06
430.069	102.06
430.292	82.06
430.514	96.06
430.736	91.06
430.958	92.06
431.18	87.06
431.402	91.06
431.624	95.06
431.846	73.06
432.068	98.06
432.29	84.06
432.512	88.06
432.734	87.06
432.956	103.06
433.178	106.06
433.4	108.06
433.622	91.06
433.844	82.06
434.066	99.06
434.287	92.06
434.509	96.06
434.731	101.06
434.953	89.06
435.175	85.06
435.397	80.06
435.618	101.06
435.84	96.06
436.062	151.06
436.284	128.06
436.505	106.06
436.727	103.06
436.949	90.06
437.17	98.06
437.392	95.06
437.614	107.06
437.835	112.06
438.057	130.06
438.278	116.06
438.5	113.06
438.721	131.06
438.943	116.06
439.165	91.06
439.386	105.06
439.608	112.06
439.829	106.06
440.05	116.06
440.272	155.06
440.493	103.06
440.715	104.06
440.936	81.06
441.158	70.06
441.379	90.06
441.6	94.06
441.822	92.06
442.043	112.06
442.264	100.06
442.486	109.06
442.707	98.06
442.928	117.06
443.149	137.06
443.371	150.06
443.592	110.06
443.813	100.06
444.034	118.06
444.255	94.06
444.476	106.06
444.698	96.06
444.919	98.06
445.14	137.06
445.361	133.06
445.582	120.06
445.803	139.06
446.024	133.06
446.245	147.06
446.466	128.06
446.687	104.06
446.908	106.06
447.129	95.06
447.35	98.06
447.571	95.06
447.792	88.06
448.013	114.06
448.234	116.06
448.455	108.06
448.675	124.06
448.896	130.06
449.117	110.06
449.338	116.06
449.559	150.06
449.779	131.06
450	113.06
450.221	80.06
450.442	102.06
450.662	98.06
450.883	107.06
451.104	108.06
451.324	96.06
451.545	94.06
451.766	74.06
451.986	98.06
452.207	91.06
452.428	98.06
452.648	100.06
452.869	102.06
453.089	128.06
453.31	115.06
453.53	95.06
453.751	96.06
453.971	119.06
454.192	128.06
454.412	82.06
454.633	104.06
454.853	70.06
455.073	86.06
455.294	70.06
455.514	105.06
455.734	74.06
455.955	89.06
456.175	86.06
456.395	83.06
456.616	94.06
456.836	84.06
457.056	89.06
457.276	82.06
457.497	108.06
457.717	87.06
457.937	84.06
458.157	92.06
458.377	98.06
458.598	109.06
458.818	159.06
459.038	185.06
459.258	123.06
459.478	103.06
459.698	93.06
459.918	91.06
460.138	90.06
460.358	87.06
460.578	89.06
460.798	101.06
461.018	93.06
461.238	93.06
461.458	90.06
461.678	102.06
461.898	91.06
462.118	94.06
462.338	96.06
462.558	89.06
462.777	90.06
462.997	96.06
463.217	84.06
463.437	92.06
463.657	88.06
463.876	86.06
464.096	82.06
464.316	96.06
464.536	90.06
464.755	108.06
464.975	112.06
465.195	167.06
465.414	172.06
465.634	99.06
465.854	90.06
466.073	80.06
466.293	85.06
466.512	99.06
466.732	103.06
466.951	87.06
467.171	90.06
467.391	84.06
467.61	96.06
467.829	106.06
468.049	97.06
468.268	99.06
468.488	90.06
468.707	92.06
468.927	81.06
469.146	91.06
469.365	79.06
469.585	93.06
469.804	99.06
470.023	99.06
470.243	100.06
470.462	97.06
470.681	117.06
470.901	101.06
471.12	85.06
471.339	94.06
471.558	99.06
471.777	94.06
471.997	86.06
472.216	89.06
472.435	135.06
472.654	111.06
472.873	82.06
473.092	91.06
473.311	86.06
473.53	94.06
473.749	99.06
473.968	107.06
474.187	122.06
474.406	110.06
474.625	94.06
474.844	84.06
475.063	87.06
475.282	71.06
475.501	85.06
475.72	78.06
475.939	85.06
476.158	102.06
476.377	92.06
476.596	87.06
476.814	88.06
477.033	82.06
477.252	89.06
477.471	94.06
477.69	91.06
477.908	84.06
478.127	92.06
478.346	97.06
478.564	107.06
478.783	89.06
479.002	104.06
479.22	98.06
479.439	105.06
479.658	108.06
479.876	99.06
480.095	83.06
480.313	95.06
480.532	77.06
480.751	99.06
480.969	120.06
481.188	184.06
481.406	150.06
481.624	104.06
481.843	89.06
482.061	102.06
482.28	95.06
482.498	73.06
482.717	91.06
482.935	95.06
483.153	84.06
483.372	79.06
483.59	90.06
483.808	98.06
484.027	82.06
484.245	109.06
484.463	92.06
484.681	113.06
484.9	85.06
485.118	96.06
485.336	107.06
485.554	105.06
485.772	97.06
485.99	94.06
486.209	100.06
486.427	103.06
486.645	115.06
486.863	96.06
487.081	95.06
487.299	97.06
487.517	93.06
487.735	88.06
487.953	92.06
488.171	94.06
488.389	84.06
488.607	93.06
488.825	105.06
489.043	88.06
489.261	104.06
489.479	87.06
489.696	86.06
489.914	84.06
490.132	102.06
490.35	107.06
490.568	89.06
490.786	89.06
491.003	90.06
491.221	92.06
491.439	96.06
491.657	87.06
491.874	95.06
492.092	100.06
492.31	101.06
492.527	83.06
492.745	91.06
492.963	96.06
493.18	98.06
493.398	86.06
493.615	86.06
493.833	86.06
494.05	91.06
494.268	78.06
494.485	97.06
494.703	104.06
494.92	89.06
495.138	88.06
495.355	97.06
495.573	112.06
495.79	84.06
496.008	98.06
496.225	91.06
496.442	98.06
496.66	87.06
496.877	103.06
497.094	96.06
497.312	107.06
497.529	94.06
497.746	76.06
497.963	98.06
498.181	100.06
498.398	101.06
498.615	117.06
498.832	113.06
499.049	95.06
499.267	83.06
499.484	94.06
499.701	100.06
499.918	94.06
500.135	83.06
500.352	90.06
500.569	84.06
500.786	94.06
501.003	90.06
501.22	97.06
501.437	96.06
501.654	108.06
501.871	97.06
502.088	100.06
502.305	95.06
502.522	90.06
502.739	100.06
502.956	73.06
503.172	96.06
503.389	89.06
503.606	115.06
503.823	103.06
504.04	88.06
504.256	88.06
504.473	80.06
504.69	88.06
504.907	83.06
505.123	84.06
505.34	93.06
505.557	95.06
505.773	84.06
505.99	100.06
506.207	79.06
506.423	87.06
506.64	90.06
506.856	94.06
507.073	94.06
507.289	106.06
507.506	107.06
507.722	136.06
507.939	113.06
508.155	98.06
508.372	87.06
508.588	105.06
508.805	85.06
509.021	100.06
509.238	93.06
509.454	104.06
509.67	120.06
509.887	114.06
510.103	137.06
510.319	230.06
510.536	844.06
510.752	2728.06
510.968	714.06
511.184	182.06
511.401	116.06
511.617	106.06
511.833	111.06
512.049	92.06
512.265	99.06
512.481	91.06
512.698	96.06
512.914	96.06
513.13	92.06
513.346	100.06
513.562	99.06
513.778	104.06
513.994	102.06
514.21	106.06
514.426	139.06
