Data from Uncirc_1988_H10_HRD10591_00059.txt Node
Date: Wed Jan 03 12:04:16 EST 2024
User: Yrep
Spectrometer: HR+D1059
Trigger mode: 1
Integration Time (sec): 1.000000E-1
Scans to average: 1
Electric dark correction enabled: true
Nonlinearity correction enabled: false
Boxcar width: 0
XAxis mode: Wavelengths
Number of Pixels in Spectrum: 2048
>>>>>Begin Spectral Data<<<<<
223.165	-29.5
223.4	-29.5
223.635	-29.5
223.869	-20.5
224.104	-24.5
224.338	-15.5
224.573	-19.5
224.808	-2.5
225.042	10.5
225.277	-4.5
225.511	-12.5
225.746	-7.5
225.98	17.5
226.215	9.5
226.449	17.5
226.683	12.5
226.918	37.5
227.152	31.5
227.387	28.5
227.621	41.5
227.856	36.5
228.09	45.5
228.324	43.5
228.559	60.5
228.793	50.5
229.027	57.5
229.262	50.5
229.496	73.5
229.73	84.5
229.964	85.5
230.199	72.5
230.433	69.5
230.667	74.5
230.901	82.5
231.136	53.5
231.37	83.5
231.604	68.5
231.838	60.5
232.072	82.5
232.306	92.5
232.541	77.5
232.775	71.5
233.009	74.5
233.243	61.5
233.477	77.5
233.711	83.5
233.945	68.5
234.179	79.5
234.413	86.5
234.647	74.5
234.881	68.5
235.115	86.5
235.349	74.5
235.583	74.5
235.817	81.5
236.051	73.5
236.285	73.5
236.519	74.5
236.753	72.5
236.987	75.5
237.221	79.5
237.455	84.5
237.689	73.5
237.922	55.5
238.156	67.5
238.39	74.5
238.624	65.5
238.858	77.5
239.091	67.5
239.325	71.5
239.559	82.5
239.793	83.5
240.027	91.5
240.26	67.5
240.494	65.5
240.728	72.5
240.961	71.5
241.195	75.5
241.429	70.5
241.662	75.5
241.896	72.5
242.13	63.5
242.363	63.5
242.597	74.5
242.83	75.5
243.064	79.5
243.298	65.5
243.531	67.5
243.765	69.5
243.998	75.5
244.232	77.5
244.465	82.5
244.699	55.5
244.932	68.5
245.166	78.5
245.399	85.5
245.633	80.5
245.866	68.5
246.099	67.5
246.333	79.5
246.566	58.5
246.8	83.5
247.033	71.5
247.266	74.5
247.5	82.5
247.733	68.5
247.966	73.5
248.2	65.5
248.433	72.5
248.666	87.5
248.899	64.5
249.133	72.5
249.366	99.5
249.599	92.5
249.832	83.5
250.066	80.5
250.299	69.5
250.532	81.5
250.765	74.5
250.998	70.5
251.231	66.5
251.465	77.5
251.698	68.5
251.931	65.5
252.164	89.5
252.397	85.5
252.63	61.5
252.863	83.5
253.096	88.5
253.329	71.5
253.562	75.5
253.795	76.5
254.028	72.5
254.261	75.5
254.494	71.5
254.727	66.5
254.96	79.5
255.193	82.5
255.426	75.5
255.659	83.5
255.892	76.5
256.124	82.5
256.357	83.5
256.59	82.5
256.823	66.5
257.056	90.5
257.289	81.5
257.521	82.5
257.754	81.5
257.987	86.5
258.22	83.5
258.452	73.5
258.685	73.5
258.918	61.5
259.151	71.5
259.383	83.5
259.616	82.5
259.849	79.5
260.081	76.5
260.314	76.5
260.547	63.5
260.779	71.5
261.012	76.5
261.244	78.5
261.477	84.5
261.71	86.5
261.942	98.5
262.175	107.5
262.407	78.5
262.64	80.5
262.872	80.5
263.105	71.5
263.337	91.5
263.57	75.5
263.802	87.5
264.035	86.5
264.267	63.5
264.499	61.5
264.732	86.5
264.964	73.5
265.197	59.5
265.429	75.5
265.661	72.5
265.894	65.5
266.126	65.5
266.358	78.5
266.591	77.5
266.823	80.5
267.055	60.5
267.287	77.5
267.52	69.5
267.752	77.5
267.984	89.5
268.216	76.5
268.448	98.5
268.681	81.5
268.913	79.5
269.145	68.5
269.377	87.5
269.609	84.5
269.841	71.5
270.073	77.5
270.306	69.5
270.538	76.5
270.77	77.5
271.002	82.5
271.234	81.5
271.466	92.5
271.698	81.5
271.93	77.5
272.162	63.5
272.394	75.5
272.626	78.5
272.858	92.5
273.09	68.5
273.322	83.5
273.553	69.5
273.785	72.5
274.017	87.5
274.249	82.5
274.481	72.5
274.713	82.5
274.945	87.5
275.176	80.5
275.408	93.5
275.64	90.5
275.872	85.5
276.104	94.5
276.335	86.5
276.567	87.5
276.799	108.5
277.031	95.5
277.262	81.5
277.494	81.5
277.726	63.5
277.957	81.5
278.189	90.5
278.421	69.5
278.652	75.5
278.884	75.5
279.115	72.5
279.347	71.5
279.579	80.5
279.81	85.5
280.042	76.5
280.273	91.5
280.505	93.5
280.736	58.5
280.968	80.5
281.199	75.5
281.431	75.5
281.662	84.5
281.894	87.5
282.125	96.5
282.356	103.5
282.588	139.5
282.819	109.5
283.051	106.5
283.282	95.5
283.513	76.5
283.745	85.5
283.976	85.5
284.207	67.5
284.439	87.5
284.67	89.5
284.901	63.5
285.132	83.5
285.364	80.5
285.595	84.5
285.826	88.5
286.057	85.5
286.288	74.5
286.52	79.5
286.751	80.5
286.982	96.5
287.213	72.5
287.444	76.5
287.675	81.5
287.906	99.5
288.138	91.5
288.369	100.5
288.6	86.5
288.831	84.5
289.062	71.5
289.293	81.5
289.524	79.5
289.755	89.5
289.986	73.5
290.217	79.5
290.448	81.5
290.679	72.5
290.91	91.5
291.141	75.5
291.371	84.5
291.602	68.5
291.833	69.5
292.064	82.5
292.295	82.5
292.526	71.5
292.757	87.5
292.987	83.5
293.218	85.5
293.449	80.5
293.68	83.5
293.91	69.5
294.141	73.5
294.372	87.5
294.603	80.5
294.833	85.5
295.064	88.5
295.295	84.5
295.525	81.5
295.756	90.5
295.987	99.5
296.217	140.5
296.448	141.5
296.679	86.5
296.909	89.5
297.14	72.5
297.37	84.5
297.601	78.5
297.831	76.5
298.062	72.5
298.292	77.5
298.523	96.5
298.753	79.5
298.984	87.5
299.214	80.5
299.445	96.5
299.675	82.5
299.905	99.5
300.136	91.5
300.366	88.5
300.597	82.5
300.827	87.5
301.057	84.5
301.288	95.5
301.518	80.5
301.748	96.5
301.979	85.5
302.209	84.5
302.439	83.5
302.669	82.5
302.9	93.5
303.13	98.5
303.36	104.5
303.59	101.5
303.82	98.5
304.051	101.5
304.281	109.5
304.511	84.5
304.741	82.5
304.971	80.5
305.201	87.5
305.431	77.5
305.661	81.5
305.891	94.5
306.121	85.5
306.352	104.5
306.582	102.5
306.812	112.5
307.042	95.5
307.272	86.5
307.502	103.5
307.731	91.5
307.961	94.5
308.191	84.5
308.421	77.5
308.651	82.5
308.881	73.5
309.111	85.5
309.341	89.5
309.571	90.5
309.8	89.5
310.03	97.5
310.26	104.5
310.49	101.5
310.72	107.5
310.949	94.5
311.179	80.5
311.409	95.5
311.639	91.5
311.868	84.5
312.098	74.5
312.328	99.5
312.557	94.5
312.787	106.5
313.017	91.5
313.246	94.5
313.476	95.5
313.706	66.5
313.935	96.5
314.165	88.5
314.394	89.5
314.624	92.5
314.853	103.5
315.083	96.5
315.312	89.5
315.542	89.5
315.771	75.5
316.001	94.5
316.23	98.5
316.46	64.5
316.689	80.5
316.919	96.5
317.148	83.5
317.377	95.5
317.607	84.5
317.836	100.5
318.065	86.5
318.295	76.5
318.524	89.5
318.753	91.5
318.983	84.5
319.212	99.5
319.441	98.5
319.67	108.5
319.9	85.5
320.129	92.5
320.358	107.5
320.587	96.5
320.816	96.5
321.046	106.5
321.275	81.5
321.504	83.5
321.733	91.5
321.962	78.5
322.191	95.5
322.42	110.5
322.649	113.5
322.878	113.5
323.108	85.5
323.337	117.5
323.566	139.5
323.795	158.5
324.024	214.5
324.253	466.5
324.482	1043.5
324.71	2130.5
324.939	2889.5
325.168	1011.5
325.397	275.5
325.626	159.5
325.855	141.5
326.084	126.5
326.313	143.5
326.542	162.5
326.77	260.5
326.999	529.5
327.228	1154.5
327.457	2213.5
327.686	1759.5
327.914	435.5
328.143	209.5
328.372	162.5
328.6	130.5
328.829	128.5
329.058	149.5
329.287	130.5
329.515	108.5
329.744	101.5
329.972	103.5
330.201	116.5
330.43	132.5
330.658	119.5
330.887	151.5
331.115	138.5
331.344	96.5
331.572	107.5
331.801	98.5
332.03	84.5
332.258	81.5
332.486	92.5
332.715	85.5
332.943	81.5
333.172	89.5
333.4	94.5
333.629	103.5
333.857	111.5
334.085	113.5
334.314	103.5
334.542	121.5
334.771	107.5
334.999	96.5
335.227	84.5
335.455	89.5
335.684	84.5
335.912	92.5
336.14	84.5
336.369	98.5
336.597	103.5
336.825	106.5
337.053	92.5
337.281	87.5
337.51	79.5
337.738	102.5
337.966	80.5
338.194	99.5
338.422	81.5
338.65	90.5
338.878	94.5
339.106	87.5
339.334	93.5
339.562	88.5
339.79	82.5
340.018	88.5
340.246	96.5
340.474	80.5
340.702	98.5
340.93	89.5
341.158	92.5
341.386	103.5
341.614	101.5
341.842	103.5
342.07	87.5
342.298	93.5
342.526	93.5
342.754	94.5
342.981	95.5
343.209	95.5
343.437	95.5
343.665	91.5
343.893	82.5
344.12	93.5
344.348	87.5
344.576	87.5
344.804	83.5
345.031	100.5
345.259	93.5
345.487	93.5
345.714	92.5
345.942	84.5
346.17	73.5
346.397	90.5
346.625	75.5
346.853	76.5
347.08	86.5
347.308	96.5
347.535	83.5
347.763	98.5
347.99	97.5
348.218	95.5
348.445	92.5
348.673	100.5
348.9	92.5
349.128	96.5
349.355	94.5
349.583	95.5
349.81	81.5
350.037	101.5
350.265	103.5
350.492	88.5
350.72	92.5
350.947	82.5
351.174	107.5
351.402	97.5
351.629	86.5
351.856	92.5
352.083	86.5
352.311	101.5
352.538	104.5
352.765	111.5
352.992	113.5
353.22	114.5
353.447	108.5
353.674	101.5
353.901	92.5
354.128	94.5
354.355	93.5
354.583	92.5
354.81	91.5
355.037	87.5
355.264	86.5
355.491	93.5
355.718	98.5
355.945	78.5
356.172	92.5
356.399	87.5
356.626	87.5
356.853	111.5
357.08	111.5
357.307	80.5
357.534	74.5
357.761	100.5
357.988	83.5
358.215	94.5
358.441	90.5
358.668	90.5
358.895	92.5
359.122	75.5
359.349	90.5
359.576	78.5
359.802	101.5
360.029	106.5
360.256	105.5
360.483	101.5
360.709	81.5
360.936	89.5
361.163	97.5
361.39	87.5
361.616	97.5
361.843	96.5
362.07	87.5
362.296	83.5
362.523	97.5
362.749	96.5
362.976	112.5
363.203	95.5
363.429	86.5
363.656	75.5
363.882	80.5
364.109	89.5
364.335	75.5
364.562	94.5
364.788	89.5
365.015	88.5
365.241	105.5
365.468	108.5
365.694	105.5
365.92	97.5
366.147	73.5
366.373	80.5
366.599	91.5
366.826	84.5
367.052	86.5
367.278	88.5
367.505	95.5
367.731	85.5
367.957	75.5
368.184	91.5
368.41	90.5
368.636	107.5
368.862	114.5
369.089	103.5
369.315	76.5
369.541	84.5
369.767	90.5
369.993	89.5
370.219	78.5
370.445	78.5
370.672	77.5
370.898	94.5
371.124	88.5
371.35	80.5
371.576	78.5
371.802	91.5
372.028	77.5
372.254	86.5
372.48	84.5
372.706	73.5
372.932	83.5
373.158	81.5
373.384	84.5
373.61	74.5
373.835	86.5
374.061	83.5
374.287	96.5
374.513	79.5
374.739	85.5
374.965	92.5
375.191	88.5
375.416	79.5
375.642	79.5
375.868	77.5
376.094	83.5
376.319	74.5
376.545	77.5
376.771	98.5
376.997	93.5
377.222	82.5
377.448	86.5
377.674	94.5
377.899	78.5
378.125	93.5
378.35	87.5
378.576	86.5
378.802	83.5
379.027	82.5
379.253	91.5
379.478	84.5
379.704	94.5
379.929	77.5
380.155	83.5
380.38	85.5
380.606	85.5
380.831	85.5
381.057	101.5
381.282	75.5
381.507	86.5
381.733	92.5
381.958	82.5
382.184	112.5
382.409	80.5
382.634	109.5
382.86	99.5
383.085	96.5
383.31	94.5
383.535	78.5
383.761	75.5
383.986	87.5
384.211	83.5
384.436	83.5
384.662	92.5
384.887	98.5
385.112	90.5
385.337	83.5
385.562	110.5
385.787	101.5
386.013	93.5
386.238	108.5
386.463	80.5
386.688	105.5
386.913	89.5
387.138	95.5
387.363	92.5
387.588	89.5
387.813	100.5
388.038	94.5
388.263	97.5
388.488	92.5
388.713	102.5
388.938	80.5
389.163	92.5
389.387	89.5
389.612	83.5
389.837	91.5
390.062	97.5
390.287	98.5
390.512	81.5
390.736	88.5
390.961	87.5
391.186	90.5
391.411	77.5
391.636	73.5
391.86	90.5
392.085	94.5
392.31	78.5
392.534	94.5
392.759	99.5
392.984	99.5
393.208	87.5
393.433	81.5
393.658	85.5
393.882	76.5
394.107	63.5
394.331	93.5
394.556	84.5
394.78	96.5
395.005	84.5
395.229	82.5
395.454	85.5
395.678	78.5
395.903	78.5
396.127	84.5
396.352	77.5
396.576	78.5
396.801	91.5
397.025	83.5
397.249	81.5
397.474	72.5
397.698	78.5
397.922	76.5
398.147	96.5
398.371	84.5
398.595	74.5
398.82	59.5
399.044	68.5
399.268	80.5
399.492	81.5
399.717	85.5
399.941	89.5
400.165	90.5
400.389	84.5
400.613	85.5
400.837	77.5
401.062	93.5
401.286	91.5
401.51	98.5
401.734	84.5
401.958	113.5
402.182	138.5
402.406	157.5
402.63	98.5
402.854	100.5
403.078	86.5
403.302	70.5
403.526	83.5
403.75	75.5
403.974	87.5
404.198	71.5
404.422	79.5
404.645	80.5
404.869	90.5
405.093	89.5
405.317	83.5
405.541	97.5
405.765	90.5
405.988	102.5
406.212	184.5
406.436	238.5
406.66	145.5
406.883	92.5
407.107	80.5
407.331	91.5
407.555	99.5
407.778	92.5
408.002	86.5
408.226	94.5
408.449	76.5
408.673	77.5
408.896	82.5
409.12	99.5
409.344	87.5
409.567	81.5
409.791	81.5
410.014	98.5
410.238	93.5
410.461	80.5
410.685	86.5
410.908	95.5
411.132	99.5
411.355	85.5
411.578	99.5
411.802	82.5
412.025	84.5
412.249	100.5
412.472	96.5
412.695	87.5
412.919	92.5
413.142	77.5
413.365	87.5
413.589	97.5
413.812	73.5
414.035	75.5
414.258	91.5
414.482	88.5
414.705	95.5
414.928	86.5
415.151	81.5
415.374	82.5
415.597	85.5
415.821	86.5
416.044	78.5
416.267	84.5
416.49	78.5
416.713	88.5
416.936	71.5
417.159	81.5
417.382	75.5
417.605	63.5
417.828	80.5
418.051	84.5
418.274	69.5
418.497	76.5
418.72	83.5
418.943	86.5
419.166	83.5
419.389	80.5
419.611	101.5
419.834	98.5
420.057	79.5
420.28	83.5
420.503	74.5
420.726	83.5
420.948	80.5
421.171	91.5
421.394	78.5
421.617	96.5
421.839	89.5
422.062	79.5
422.285	87.5
422.507	99.5
422.73	98.5
422.953	92.5
423.175	89.5
423.398	79.5
423.621	73.5
423.843	88.5
424.066	77.5
424.288	100.5
424.511	98.5
424.733	89.5
424.956	108.5
425.178	95.5
425.401	79.5
425.623	94.5
425.846	85.5
426.068	95.5
426.291	91.5
426.513	84.5
426.735	88.5
426.958	81.5
427.18	97.5
427.402	141.5
427.625	166.5
427.847	141.5
428.069	122.5
428.292	91.5
428.514	79.5
428.736	82.5
428.958	85.5
429.181	82.5
429.403	75.5
429.625	79.5
429.847	82.5
430.069	81.5
430.292	72.5
430.514	83.5
430.736	61.5
430.958	74.5
431.18	90.5
431.402	88.5
431.624	72.5
431.846	92.5
432.068	87.5
432.29	80.5
432.512	89.5
432.734	89.5
432.956	93.5
433.178	108.5
433.4	109.5
433.622	86.5
433.844	77.5
434.066	72.5
434.287	89.5
434.509	79.5
434.731	79.5
434.953	83.5
435.175	82.5
435.397	85.5
435.618	88.5
435.84	105.5
436.062	132.5
436.284	127.5
436.505	112.5
436.727	105.5
436.949	92.5
437.17	69.5
437.392	94.5
437.614	94.5
437.835	106.5
438.057	108.5
438.278	119.5
438.5	90.5
438.721	120.5
438.943	103.5
439.165	87.5
439.386	87.5
439.608	95.5
439.829	94.5
440.05	124.5
440.272	145.5
440.493	103.5
440.715	92.5
440.936	95.5
441.158	80.5
441.379	69.5
441.6	83.5
441.822	93.5
442.043	90.5
442.264	99.5
442.486	90.5
442.707	90.5
442.928	88.5
443.149	131.5
443.371	147.5
443.592	117.5
443.813	115.5
444.034	109.5
444.255	83.5
444.476	84.5
444.698	95.5
444.919	92.5
445.14	124.5
445.361	119.5
445.582	120.5
445.803	157.5
446.024	137.5
446.245	142.5
446.466	104.5
446.687	79.5
446.908	87.5
447.129	82.5
447.35	79.5
447.571	95.5
447.792	82.5
448.013	102.5
448.234	108.5
448.455	93.5
448.675	105.5
448.896	127.5
449.117	97.5
449.338	96.5
449.559	139.5
449.779	141.5
450	99.5
450.221	68.5
450.442	73.5
450.662	77.5
450.883	87.5
451.104	99.5
451.324	100.5
451.545	80.5
451.766	86.5
451.986	88.5
452.207	87.5
452.428	84.5
452.648	98.5
452.869	113.5
453.089	123.5
453.31	111.5
453.53	76.5
453.751	89.5
453.971	92.5
454.192	95.5
454.412	79.5
454.633	95.5
454.853	94.5
455.073	90.5
455.294	82.5
455.514	93.5
455.734	70.5
455.955	84.5
456.175	77.5
456.395	79.5
456.616	68.5
456.836	89.5
457.056	83.5
457.276	73.5
457.497	94.5
457.717	84.5
457.937	88.5
458.157	76.5
458.377	80.5
458.598	96.5
458.818	148.5
459.038	169.5
459.258	107.5
459.478	97.5
459.698	76.5
459.918	76.5
460.138	85.5
460.358	74.5
460.578	83.5
460.798	99.5
461.018	93.5
461.238	75.5
461.458	89.5
461.678	96.5
461.898	82.5
462.118	89.5
462.338	73.5
462.558	92.5
462.777	83.5
462.997	72.5
463.217	74.5
463.437	90.5
463.657	81.5
463.876	71.5
464.096	85.5
464.316	70.5
464.536	86.5
464.755	91.5
464.975	99.5
465.195	166.5
465.414	165.5
465.634	103.5
465.854	85.5
466.073	90.5
466.293	79.5
466.512	89.5
466.732	97.5
466.951	72.5
467.171	104.5
467.391	92.5
467.61	91.5
467.829	95.5
468.049	98.5
468.268	93.5
468.488	77.5
468.707	83.5
468.927	80.5
469.146	83.5
469.365	87.5
469.585	97.5
469.804	95.5
470.023	90.5
470.243	86.5
470.462	86.5
470.681	106.5
470.901	78.5
471.12	74.5
471.339	87.5
471.558	91.5
471.777	77.5
471.997	75.5
472.216	103.5
472.435	119.5
472.654	94.5
472.873	95.5
473.092	79.5
473.311	84.5
473.53	91.5
473.749	83.5
473.968	89.5
474.187	104.5
474.406	96.5
474.625	89.5
474.844	88.5
475.063	95.5
475.282	90.5
475.501	74.5
475.72	75.5
475.939	85.5
476.158	73.5
476.377	79.5
476.596	88.5
476.814	95.5
477.033	79.5
477.252	78.5
477.471	96.5
477.69	75.5
477.908	87.5
478.127	74.5
478.346	78.5
478.564	77.5
478.783	90.5
479.002	105.5
479.22	94.5
479.439	99.5
479.658	89.5
479.876	93.5
480.095	81.5
480.313	105.5
480.532	94.5
480.751	112.5
480.969	92.5
481.188	167.5
481.406	129.5
481.624	97.5
481.843	75.5
482.061	81.5
482.28	92.5
482.498	87.5
482.717	90.5
482.935	79.5
483.153	88.5
483.372	87.5
483.59	71.5
483.808	76.5
484.027	87.5
484.245	76.5
484.463	87.5
484.681	90.5
484.9	84.5
485.118	81.5
485.336	92.5
485.554	85.5
485.772	91.5
485.99	109.5
486.209	102.5
486.427	104.5
486.645	103.5
486.863	102.5
487.081	100.5
487.299	95.5
487.517	91.5
487.735	101.5
487.953	94.5
488.171	81.5
488.389	89.5
488.607	90.5
488.825	105.5
489.043	81.5
489.261	88.5
489.479	77.5
489.696	83.5
489.914	105.5
490.132	92.5
490.35	85.5
490.568	83.5
490.786	92.5
491.003	85.5
491.221	81.5
491.439	76.5
491.657	92.5
491.874	88.5
492.092	93.5
492.31	77.5
492.527	83.5
492.745	79.5
492.963	93.5
493.18	91.5
493.398	89.5
493.615	92.5
493.833	85.5
494.05	90.5
494.268	83.5
494.485	81.5
494.703	90.5
494.92	94.5
495.138	87.5
495.355	84.5
495.573	81.5
495.79	92.5
496.008	86.5
496.225	84.5
496.442	89.5
496.66	91.5
496.877	81.5
497.094	97.5
497.312	80.5
497.529	73.5
497.746	74.5
497.963	78.5
498.181	84.5
498.398	82.5
498.615	113.5
498.832	108.5
499.049	92.5
499.267	88.5
499.484	85.5
499.701	72.5
499.918	78.5
500.135	79.5
500.352	93.5
500.569	87.5
500.786	111.5
501.003	83.5
501.22	95.5
501.437	80.5
501.654	98.5
501.871	114.5
502.088	80.5
502.305	67.5
502.522	75.5
502.739	79.5
502.956	78.5
503.172	92.5
503.389	91.5
503.606	111.5
503.823	101.5
504.04	97.5
504.256	82.5
504.473	82.5
504.69	88.5
504.907	89.5
505.123	94.5
505.34	88.5
505.557	80.5
505.773	89.5
505.99	82.5
506.207	74.5
506.423	79.5
506.64	84.5
506.856	90.5
507.073	97.5
507.289	82.5
507.506	88.5
507.722	106.5
507.939	105.5
508.155	88.5
508.372	96.5
508.588	73.5
508.805	83.5
509.021	90.5
509.238	82.5
509.454	73.5
509.67	106.5
509.887	93.5
510.103	129.5
510.319	217.5
510.536	826.5
510.752	2619.5
510.968	695.5
511.184	163.5
511.401	111.5
511.617	98.5
511.833	82.5
512.049	91.5
512.265	71.5
512.481	76.5
512.698	76.5
512.914	89.5
513.13	107.5
513.346	86.5
513.562	96.5
513.778	102.5
513.994	88.5
514.21	94.5
514.426	129.5
514.642	143.5
514.858	127.5
515.074	179.5
515.29	483.5
515.506	1695.5
515.721	597.5
515.937	157.5
516.153	111.5
516.369	97.5
516.585	93.5
516.801	85.5
517.016	87.5
517.232	99.5
517.448	91.5
517.664	96.5
517.879	84.5
518.095	85.5
518.311	82.5
518.527	87.5
518.742	87.5
518.958	89.5
519.173	77.5
519.389	74.5
519.605	91.5
519.82	82.5
520.036	114.5
520.251	126.5
520.467	112.5
520.682	101.5
520.898	95.5
521.113	112.5
521.329	135.5
521.544	226.5
521.76	630.5
521.975	2809.5
522.19	1640.5
522.406	329.5
522.621	138.5
522.836	101.5
523.052	96.5
523.267	81.5
523.482	87.5
523.698	90.5
523.913	110.5
524.128	89.5
524.343	80.5
524.559	83.5
524.774	95.5
524.989	96.5
525.204	104.5
525.419	97.5
525.634	87.5
525.849	77.5
526.064	80.5
526.28	87.5
526.495	81.5
526.71	72.5
526.925	89.5
527.14	79.5
527.355	91.5
527.57	87.5
527.785	91.5
527.999	90.5
528.214	80.5
528.429	84.5
528.644	81.5
528.859	91.5
529.074	68.5
529.289	132.5
529.503	192.5
529.718	99.5
529.933	93.5
530.148	83.5
530.363	79.5
530.577	87.5
530.792	89.5
531.007	80.5
531.221	97.5
531.436	77.5
531.651	88.5
531.865	76.5
532.08	85.5
532.295	89.5
532.509	78.5
532.724	89.5
532.938	92.5
533.153	97.5
533.367	93.5
533.582	99.5
533.796	91.5
534.011	100.5
534.225	90.5
534.44	81.5
534.654	85.5
534.868	75.5
535.083	79.5
535.297	96.5
535.511	91.5
535.726	101.5
535.94	104.5
536.154	108.5
536.369	90.5
536.583	80.5
536.797	77.5
