Data from Uncirc_1988_H10_HRD10591_00074.txt Node
Date: Wed Jan 03 12:04:19 EST 2024
User: Yrep
Spectrometer: HR+D1059
Trigger mode: 1
Integration Time (sec): 1.000000E-1
Scans to average: 1
Electric dark correction enabled: true
Nonlinearity correction enabled: false
Boxcar width: 0
XAxis mode: Wavelengths
Number of Pixels in Spectrum: 2048
>>>>>Begin Spectral Data<<<<<
223.165	-13.06
223.4	-13.06
223.635	-13.06
223.869	-16.06
224.104	-37.06
224.338	-11.06
224.573	-13.06
224.808	-13.06
225.042	-15.06
225.277	5.94
225.511	0.94
225.746	10.94
225.98	7.94
226.215	22.94
226.449	15.94
226.683	17.94
226.918	20.94
227.152	14.94
227.387	34.94
227.621	17.94
227.856	34.94
228.09	51.94
228.324	39.94
228.559	54.94
228.793	50.94
229.027	54.94
229.262	59.94
229.496	70.94
229.73	90.94
229.964	64.94
230.199	72.94
230.433	63.94
230.667	59.94
230.901	59.94
231.136	71.94
231.37	66.94
231.604	76.94
231.838	63.94
232.072	82.94
232.306	76.94
232.541	60.94
232.775	58.94
233.009	60.94
233.243	76.94
233.477	75.94
233.711	70.94
233.945	85.94
234.179	67.94
234.413	77.94
234.647	72.94
234.881	81.94
235.115	74.94
235.349	72.94
235.583	74.94
235.817	64.94
236.051	82.94
236.285	75.94
236.519	71.94
236.753	68.94
236.987	61.94
237.221	85.94
237.455	79.94
237.689	75.94
237.922	66.94
238.156	82.94
238.39	63.94
238.624	64.94
238.858	67.94
239.091	67.94
239.325	75.94
239.559	88.94
239.793	77.94
240.027	66.94
240.26	78.94
240.494	77.94
240.728	77.94
240.961	73.94
241.195	64.94
241.429	74.94
241.662	73.94
241.896	75.94
242.13	83.94
242.363	72.94
242.597	66.94
242.83	66.94
243.064	90.94
243.298	80.94
243.531	84.94
243.765	81.94
243.998	94.94
244.232	82.94
244.465	86.94
244.699	65.94
244.932	82.94
245.166	80.94
245.399	72.94
245.633	62.94
245.866	72.94
246.099	66.94
246.333	62.94
246.566	81.94
246.8	72.94
247.033	64.94
247.266	83.94
247.5	73.94
247.733	72.94
247.966	64.94
248.2	65.94
248.433	74.94
248.666	79.94
248.899	76.94
249.133	70.94
249.366	87.94
249.599	87.94
249.832	76.94
250.066	83.94
250.299	86.94
250.532	74.94
250.765	81.94
250.998	65.94
251.231	78.94
251.465	69.94
251.698	75.94
251.931	76.94
252.164	77.94
252.397	81.94
252.63	69.94
252.863	74.94
253.096	76.94
253.329	72.94
253.562	68.94
253.795	77.94
254.028	67.94
254.261	82.94
254.494	89.94
254.727	83.94
254.96	68.94
255.193	64.94
255.426	79.94
255.659	73.94
255.892	90.94
256.124	89.94
256.357	75.94
256.59	95.94
256.823	83.94
257.056	85.94
257.289	76.94
257.521	82.94
257.754	72.94
257.987	79.94
258.22	81.94
258.452	75.94
258.685	90.94
258.918	85.94
259.151	77.94
259.383	83.94
259.616	68.94
259.849	76.94
260.081	87.94
260.314	84.94
260.547	72.94
260.779	77.94
261.012	74.94
261.244	71.94
261.477	70.94
261.71	83.94
261.942	102.94
262.175	111.94
262.407	90.94
262.64	70.94
262.872	89.94
263.105	79.94
263.337	67.94
263.57	83.94
263.802	81.94
264.035	78.94
264.267	67.94
264.499	58.94
264.732	81.94
264.964	83.94
265.197	91.94
265.429	80.94
265.661	85.94
265.894	74.94
266.126	76.94
266.358	90.94
266.591	82.94
266.823	67.94
267.055	76.94
267.287	63.94
267.52	72.94
267.752	69.94
267.984	67.94
268.216	78.94
268.448	90.94
268.681	87.94
268.913	96.94
269.145	67.94
269.377	80.94
269.609	69.94
269.841	84.94
270.073	90.94
270.306	77.94
270.538	70.94
270.77	92.94
271.002	77.94
271.234	89.94
271.466	74.94
271.698	81.94
271.93	74.94
272.162	71.94
272.394	86.94
272.626	74.94
272.858	79.94
273.09	90.94
273.322	86.94
273.553	82.94
273.785	74.94
274.017	83.94
274.249	92.94
274.481	76.94
274.713	84.94
274.945	76.94
275.176	74.94
275.408	76.94
275.64	83.94
275.872	82.94
276.104	81.94
276.335	92.94
276.567	78.94
276.799	86.94
277.031	88.94
277.262	92.94
277.494	74.94
277.726	74.94
277.957	64.94
278.189	90.94
278.421	80.94
278.652	94.94
278.884	72.94
279.115	88.94
279.347	79.94
279.579	60.94
279.81	76.94
280.042	81.94
280.273	84.94
280.505	81.94
280.736	94.94
280.968	80.94
281.199	85.94
281.431	84.94
281.662	69.94
281.894	94.94
282.125	97.94
282.356	105.94
282.588	118.94
282.819	118.94
283.051	74.94
283.282	76.94
283.513	65.94
283.745	81.94
283.976	89.94
284.207	83.94
284.439	90.94
284.67	76.94
284.901	76.94
285.132	67.94
285.364	87.94
285.595	78.94
285.826	87.94
286.057	97.94
286.288	81.94
286.52	97.94
286.751	85.94
286.982	78.94
287.213	76.94
287.444	91.94
287.675	91.94
287.906	74.94
288.138	81.94
288.369	79.94
288.6	75.94
288.831	85.94
289.062	91.94
289.293	84.94
289.524	91.94
289.755	88.94
289.986	67.94
290.217	88.94
290.448	89.94
290.679	84.94
290.91	87.94
291.141	82.94
291.371	92.94
291.602	85.94
291.833	90.94
292.064	78.94
292.295	90.94
292.526	89.94
292.757	81.94
292.987	82.94
293.218	66.94
293.449	81.94
293.68	97.94
293.91	89.94
294.141	77.94
294.372	63.94
294.603	90.94
294.833	88.94
295.064	83.94
295.295	80.94
295.525	77.94
295.756	84.94
295.987	107.94
296.217	140.94
296.448	124.94
296.679	97.94
296.909	86.94
297.14	82.94
297.37	92.94
297.601	82.94
297.831	73.94
298.062	90.94
298.292	78.94
298.523	85.94
298.753	83.94
298.984	83.94
299.214	83.94
299.445	93.94
299.675	96.94
299.905	98.94
300.136	90.94
300.366	87.94
300.597	91.94
300.827	92.94
301.057	95.94
301.288	96.94
301.518	74.94
301.748	74.94
301.979	96.94
302.209	88.94
302.439	81.94
302.669	85.94
302.9	89.94
303.13	113.94
303.36	73.94
303.59	100.94
303.82	110.94
304.051	87.94
304.281	89.94
304.511	87.94
304.741	73.94
304.971	87.94
305.201	100.94
305.431	84.94
305.661	94.94
305.891	88.94
306.121	81.94
306.352	91.94
306.582	90.94
306.812	81.94
307.042	87.94
307.272	88.94
307.502	90.94
307.731	90.94
307.961	82.94
308.191	89.94
308.421	81.94
308.651	90.94
308.881	80.94
309.111	80.94
309.341	88.94
309.571	93.94
309.8	85.94
310.03	93.94
310.26	75.94
310.49	76.94
310.72	83.94
310.949	88.94
311.179	98.94
311.409	91.94
311.639	82.94
311.868	83.94
312.098	91.94
312.328	97.94
312.557	76.94
312.787	90.94
313.017	97.94
313.246	94.94
313.476	103.94
313.706	76.94
313.935	84.94
314.165	85.94
314.394	80.94
314.624	86.94
314.853	83.94
315.083	78.94
315.312	91.94
315.542	87.94
315.771	100.94
316.001	95.94
316.23	88.94
316.46	86.94
316.689	84.94
316.919	96.94
317.148	80.94
317.377	89.94
317.607	82.94
317.836	92.94
318.065	90.94
318.295	81.94
318.524	88.94
318.753	92.94
318.983	92.94
319.212	105.94
319.441	102.94
319.67	92.94
319.9	96.94
320.129	83.94
320.358	86.94
320.587	91.94
320.816	97.94
321.046	95.94
321.275	96.94
321.504	94.94
321.733	102.94
321.962	92.94
322.191	88.94
322.42	101.94
322.649	103.94
322.878	102.94
323.108	112.94
323.337	124.94
323.566	131.94
323.795	142.94
324.024	215.94
324.253	383.94
324.482	877.94
324.71	1799.94
324.939	2368.94
325.168	858.94
325.397	245.94
325.626	144.94
325.855	128.94
326.084	110.94
326.313	125.94
326.542	146.94
326.77	224.94
326.999	471.94
327.228	1014.94
327.457	1894.94
327.686	1467.94
327.914	390.94
328.143	182.94
328.372	147.94
328.6	119.94
328.829	113.94
329.058	112.94
329.287	116.94
329.515	111.94
329.744	100.94
329.972	107.94
330.201	119.94
330.43	112.94
330.658	134.94
330.887	130.94
331.115	112.94
331.344	91.94
331.572	103.94
331.801	94.94
332.03	96.94
332.258	108.94
332.486	80.94
332.715	91.94
332.943	107.94
333.172	88.94
333.4	94.94
333.629	108.94
333.857	99.94
334.085	104.94
334.314	110.94
334.542	114.94
334.771	114.94
334.999	97.94
335.227	93.94
335.455	88.94
335.684	93.94
335.912	94.94
336.14	92.94
336.369	91.94
336.597	98.94
336.825	82.94
337.053	75.94
337.281	90.94
337.51	82.94
337.738	76.94
337.966	82.94
338.194	98.94
338.422	80.94
338.65	81.94
338.878	84.94
339.106	76.94
339.334	91.94
339.562	87.94
339.79	98.94
340.018	92.94
340.246	92.94
340.474	97.94
340.702	78.94
340.93	93.94
341.158	97.94
341.386	90.94
341.614	93.94
341.842	85.94
342.07	85.94
342.298	78.94
342.526	82.94
342.754	75.94
342.981	77.94
343.209	77.94
343.437	99.94
343.665	87.94
343.893	94.94
344.12	83.94
344.348	78.94
344.576	87.94
344.804	84.94
345.031	100.94
345.259	103.94
345.487	105.94
345.714	91.94
345.942	83.94
346.17	78.94
346.397	82.94
346.625	91.94
346.853	76.94
347.08	90.94
347.308	80.94
347.535	97.94
347.763	94.94
347.99	92.94
348.218	101.94
348.445	81.94
348.673	95.94
348.9	93.94
349.128	85.94
349.355	86.94
349.583	80.94
349.81	84.94
350.037	79.94
350.265	82.94
350.492	95.94
350.72	98.94
350.947	107.94
351.174	107.94
351.402	117.94
351.629	110.94
351.856	96.94
352.083	87.94
352.311	103.94
352.538	103.94
352.765	96.94
352.992	113.94
353.22	98.94
353.447	100.94
353.674	96.94
353.901	93.94
354.128	109.94
354.355	89.94
354.583	97.94
354.81	92.94
355.037	94.94
355.264	84.94
355.491	76.94
355.718	90.94
355.945	82.94
356.172	92.94
356.399	92.94
356.626	97.94
356.853	85.94
357.08	75.94
357.307	81.94
357.534	82.94
357.761	74.94
357.988	81.94
358.215	89.94
358.441	82.94
358.668	102.94
358.895	79.94
359.122	78.94
359.349	68.94
359.576	89.94
359.802	97.94
360.029	92.94
360.256	100.94
360.483	100.94
360.709	86.94
360.936	78.94
361.163	91.94
361.39	91.94
361.616	92.94
361.843	82.94
362.07	98.94
362.296	85.94
362.523	84.94
362.749	93.94
362.976	74.94
363.203	100.94
363.429	92.94
363.656	82.94
363.882	85.94
364.109	85.94
364.335	87.94
364.562	87.94
364.788	80.94
365.015	86.94
365.241	83.94
365.468	86.94
365.694	102.94
365.92	80.94
366.147	88.94
366.373	78.94
366.599	83.94
366.826	88.94
367.052	92.94
367.278	92.94
367.505	75.94
367.731	94.94
367.957	83.94
368.184	82.94
368.41	80.94
368.636	94.94
368.862	100.94
369.089	93.94
369.315	86.94
369.541	86.94
369.767	79.94
369.993	78.94
370.219	86.94
370.445	82.94
370.672	81.94
370.898	98.94
371.124	88.94
371.35	73.94
371.576	83.94
371.802	84.94
372.028	88.94
372.254	82.94
372.48	66.94
372.706	63.94
372.932	72.94
373.158	86.94
373.384	101.94
373.61	89.94
373.835	85.94
374.061	75.94
374.287	79.94
374.513	85.94
374.739	78.94
374.965	95.94
375.191	84.94
375.416	92.94
375.642	91.94
375.868	82.94
376.094	82.94
376.319	77.94
376.545	76.94
376.771	74.94
376.997	84.94
377.222	87.94
377.448	87.94
377.674	97.94
377.899	89.94
378.125	80.94
378.35	82.94
378.576	99.94
378.802	78.94
379.027	74.94
379.253	98.94
379.478	81.94
379.704	85.94
379.929	75.94
380.155	91.94
380.38	103.94
380.606	80.94
380.831	84.94
381.057	87.94
381.282	91.94
381.507	98.94
381.733	102.94
381.958	90.94
382.184	91.94
382.409	98.94
382.634	92.94
382.86	101.94
383.085	83.94
383.31	100.94
383.535	84.94
383.761	79.94
383.986	94.94
384.211	90.94
384.436	90.94
384.662	81.94
384.887	75.94
385.112	86.94
385.337	102.94
385.562	92.94
385.787	90.94
386.013	100.94
386.238	102.94
386.463	107.94
386.688	98.94
386.913	82.94
387.138	89.94
387.363	98.94
387.588	95.94
387.813	92.94
388.038	104.94
388.263	103.94
388.488	102.94
388.713	89.94
388.938	93.94
389.163	89.94
389.387	88.94
389.612	78.94
389.837	90.94
390.062	89.94
390.287	77.94
390.512	88.94
390.736	78.94
390.961	80.94
391.186	95.94
391.411	92.94
391.636	87.94
391.86	90.94
392.085	97.94
392.31	83.94
392.534	84.94
392.759	80.94
392.984	82.94
393.208	84.94
393.433	83.94
393.658	92.94
393.882	67.94
394.107	85.94
394.331	79.94
394.556	91.94
394.78	80.94
395.005	88.94
395.229	74.94
395.454	74.94
395.678	85.94
395.903	81.94
396.127	83.94
396.352	89.94
396.576	80.94
396.801	94.94
397.025	87.94
397.249	60.94
397.474	93.94
397.698	89.94
397.922	90.94
398.147	85.94
398.371	89.94
398.595	106.94
398.82	84.94
399.044	83.94
399.268	84.94
399.492	79.94
399.717	74.94
399.941	72.94
400.165	86.94
400.389	81.94
400.613	74.94
400.837	74.94
401.062	87.94
401.286	83.94
401.51	77.94
401.734	85.94
401.958	98.94
402.182	112.94
402.406	121.94
402.63	94.94
402.854	85.94
403.078	99.94
403.302	89.94
403.526	93.94
403.75	84.94
403.974	86.94
404.198	85.94
404.422	89.94
404.645	75.94
404.869	85.94
405.093	79.94
405.317	90.94
405.541	109.94
405.765	91.94
405.988	113.94
406.212	170.94
406.436	208.94
406.66	129.94
406.883	99.94
407.107	95.94
407.331	96.94
407.555	91.94
407.778	86.94
408.002	78.94
408.226	83.94
408.449	87.94
408.673	74.94
408.896	93.94
409.12	97.94
409.344	89.94
409.567	81.94
409.791	83.94
410.014	88.94
410.238	90.94
410.461	92.94
410.685	92.94
410.908	88.94
411.132	93.94
411.355	85.94
411.578	92.94
411.802	80.94
412.025	71.94
412.249	76.94
412.472	95.94
412.695	81.94
412.919	93.94
413.142	86.94
413.365	90.94
413.589	89.94
413.812	83.94
414.035	82.94
414.258	83.94
414.482	76.94
414.705	76.94
414.928	82.94
415.151	81.94
415.374	89.94
415.597	90.94
415.821	87.94
416.044	80.94
416.267	81.94
416.49	84.94
416.713	95.94
416.936	99.94
417.159	90.94
417.382	94.94
417.605	82.94
417.828	97.94
418.051	96.94
418.274	70.94
418.497	88.94
418.72	81.94
418.943	95.94
419.166	95.94
419.389	93.94
419.611	73.94
419.834	80.94
420.057	80.94
420.28	82.94
420.503	74.94
420.726	73.94
420.948	91.94
421.171	101.94
421.394	88.94
421.617	76.94
421.839	90.94
422.062	80.94
422.285	92.94
422.507	95.94
422.73	102.94
422.953	95.94
423.175	79.94
423.398	88.94
423.621	80.94
423.843	85.94
424.066	81.94
424.288	81.94
424.511	87.94
424.733	104.94
424.956	110.94
425.178	105.94
425.401	97.94
425.623	94.94
425.846	67.94
426.068	82.94
426.291	91.94
426.513	86.94
426.735	90.94
426.958	98.94
427.18	105.94
427.402	121.94
427.625	159.94
427.847	124.94
428.069	115.94
428.292	90.94
428.514	88.94
428.736	65.94
428.958	98.94
429.181	83.94
429.403	87.94
429.625	62.94
429.847	104.94
430.069	77.94
430.292	89.94
430.514	78.94
430.736	88.94
430.958	85.94
431.18	76.94
431.402	95.94
431.624	70.94
431.846	83.94
432.068	86.94
432.29	74.94
432.512	87.94
432.734	88.94
432.956	103.94
433.178	95.94
433.4	94.94
433.622	89.94
433.844	82.94
434.066	84.94
434.287	88.94
434.509	87.94
434.731	69.94
434.953	71.94
435.175	74.94
435.397	78.94
435.618	90.94
435.84	105.94
436.062	109.94
436.284	120.94
436.505	100.94
436.727	96.94
436.949	79.94
437.17	76.94
437.392	74.94
437.614	83.94
437.835	102.94
438.057	100.94
438.278	105.94
438.5	109.94
438.721	124.94
438.943	95.94
439.165	90.94
439.386	87.94
439.608	87.94
439.829	96.94
440.05	112.94
440.272	151.94
440.493	98.94
440.715	88.94
440.936	92.94
441.158	92.94
441.379	75.94
441.6	79.94
441.822	78.94
442.043	79.94
442.264	98.94
442.486	94.94
442.707	88.94
442.928	100.94
443.149	134.94
443.371	116.94
443.592	111.94
443.813	98.94
444.034	106.94
444.255	103.94
444.476	82.94
444.698	98.94
444.919	73.94
445.14	122.94
445.361	117.94
445.582	112.94
445.803	134.94
446.024	128.94
446.245	149.94
446.466	94.94
446.687	88.94
446.908	87.94
447.129	65.94
447.35	81.94
447.571	89.94
447.792	90.94
448.013	78.94
448.234	98.94
448.455	96.94
448.675	126.94
448.896	118.94
449.117	102.94
449.338	96.94
449.559	118.94
449.779	128.94
450	86.94
450.221	88.94
450.442	82.94
450.662	80.94
450.883	83.94
451.104	96.94
451.324	75.94
451.545	91.94
451.766	85.94
451.986	86.94
452.207	73.94
452.428	94.94
452.648	82.94
452.869	100.94
453.089	117.94
453.31	113.94
453.53	77.94
453.751	87.94
453.971	78.94
454.192	90.94
454.412	90.94
454.633	85.94
454.853	74.94
455.073	64.94
455.294	90.94
455.514	104.94
455.734	89.94
455.955	95.94
456.175	83.94
456.395	89.94
456.616	86.94
456.836	77.94
457.056	91.94
457.276	75.94
457.497	88.94
457.717	82.94
457.937	72.94
458.157	92.94
458.377	85.94
458.598	100.94
458.818	134.94
459.038	138.94
459.258	107.94
459.478	87.94
459.698	76.94
459.918	88.94
460.138	82.94
460.358	63.94
460.578	77.94
460.798	71.94
461.018	87.94
461.238	77.94
461.458	81.94
461.678	92.94
461.898	85.94
462.118	88.94
462.338	89.94
462.558	77.94
462.777	65.94
462.997	80.94
463.217	72.94
463.437	78.94
463.657	75.94
463.876	70.94
464.096	82.94
464.316	90.94
464.536	89.94
464.755	97.94
464.975	94.94
465.195	159.94
465.414	161.94
465.634	103.94
465.854	86.94
466.073	79.94
466.293	88.94
466.512	88.94
466.732	87.94
466.951	82.94
467.171	87.94
467.391	82.94
467.61	100.94
467.829	103.94
468.049	95.94
468.268	98.94
468.488	85.94
468.707	80.94
468.927	78.94
469.146	80.94
469.365	98.94
469.585	97.94
469.804	84.94
470.023	90.94
470.243	75.94
470.462	98.94
470.681	99.94
470.901	100.94
471.12	97.94
471.339	80.94
471.558	91.94
471.777	89.94
471.997	78.94
472.216	106.94
472.435	134.94
472.654	81.94
472.873	88.94
473.092	67.94
473.311	81.94
473.53	76.94
473.749	80.94
473.968	84.94
474.187	111.94
474.406	93.94
474.625	81.94
474.844	87.94
475.063	83.94
475.282	86.94
475.501	90.94
475.72	89.94
475.939	94.94
476.158	80.94
476.377	94.94
476.596	79.94
476.814	93.94
477.033	81.94
477.252	100.94
477.471	75.94
477.69	78.94
477.908	79.94
478.127	73.94
478.346	84.94
478.564	86.94
478.783	87.94
479.002	95.94
479.22	87.94
479.439	96.94
479.658	91.94
479.876	90.94
480.095	87.94
480.313	84.94
480.532	86.94
480.751	91.94
480.969	98.94
481.188	174.94
481.406	132.94
481.624	96.94
481.843	82.94
482.061	72.94
482.28	84.94
482.498	84.94
482.717	92.94
482.935	90.94
483.153	80.94
483.372	79.94
483.59	86.94
483.808	76.94
484.027	90.94
484.245	81.94
484.463	82.94
484.681	85.94
484.9	88.94
485.118	88.94
485.336	95.94
485.554	100.94
485.772	87.94
485.99	83.94
486.209	102.94
486.427	107.94
486.645	113.94
486.863	104.94
487.081	98.94
487.299	87.94
487.517	90.94
487.735	76.94
487.953	91.94
488.171	102.94
488.389	94.94
488.607	89.94
488.825	74.94
489.043	79.94
489.261	82.94
489.479	85.94
489.696	83.94
489.914	79.94
490.132	84.94
490.35	84.94
490.568	90.94
490.786	92.94
491.003	96.94
491.221	90.94
491.439	84.94
491.657	94.94
491.874	78.94
492.092	67.94
492.31	90.94
492.527	90.94
492.745	82.94
492.963	85.94
493.18	90.94
493.398	90.94
493.615	93.94
493.833	86.94
494.05	83.94
494.268	94.94
494.485	71.94
494.703	91.94
494.92	76.94
495.138	98.94
495.355	85.94
495.573	79.94
495.79	83.94
496.008	84.94
496.225	86.94
496.442	87.94
496.66	84.94
496.877	95.94
497.094	96.94
497.312	95.94
497.529	88.94
497.746	99.94
497.963	82.94
498.181	82.94
498.398	82.94
498.615	102.94
498.832	99.94
499.049	86.94
499.267	90.94
499.484	74.94
499.701	78.94
499.918	86.94
500.135	75.94
500.352	73.94
500.569	95.94
500.786	89.94
501.003	83.94
501.22	74.94
501.437	86.94
501.654	96.94
501.871	87.94
502.088	88.94
502.305	82.94
502.522	87.94
502.739	87.94
502.956	81.94
503.172	88.94
503.389	83.94
503.606	108.94
503.823	94.94
504.04	99.94
504.256	89.94
504.473	92.94
504.69	83.94
504.907	83.94
505.123	84.94
505.34	94.94
505.557	71.94
505.773	85.94
505.99	82.94
506.207	96.94
506.423	84.94
506.64	82.94
506.856	80.94
507.073	82.94
507.289	84.94
507.506	81.94
507.722	101.94
507.939	106.94
508.155	80.94
508.372	78.94
508.588	90.94
508.805	108.94
509.021	100.94
509.238	100.94
509.454	98.94
509.67	99.94
509.887	98.94
510.103	118.94
510.319	200.94
510.536	723.94
510.752	2250.94
510.968	611.94
511.184	153.94
511.401	112.94
511.617	91.94
511.833	82.94
512.049	83.94
512.265	91.94
512.481	89.94
512.698	83.94
512.914	88.94
513.13	90.94
513.346	91.94
513.562	90.94
513.778	92.94
513.994	90.94
514.21	90.94
514.426	126.94
514.642	117.94
514.858	115.94
515.074	160.94
515.29	434.94
515.506	1381.94
515.721	512.94
515.937	140.94
516.153	98.94
516.369	124.94
516.585	93.94
516.801	91.94
517.016	95.94
517.232	85.94
