Data from Uncirc_1988_H10_HRD10591_00005.txt Node
Date: Wed Jan 03 12:04:05 EST 2024
User: Yrep
Spectrometer: HR+D1059
Trigger mode: 1
Integration Time (sec): 1.000000E-1
Scans to average: 1
Electric dark correction enabled: true
Nonlinearity correction enabled: false
Boxcar width: 0
XAxis mode: Wavelengths
Number of Pixels in Spectrum: 2048
>>>>>Begin Spectral Data<<<<<
223.165	-13.69
223.4	-13.69
223.635	-13.69
223.869	-15.69
224.104	-10.69
224.338	-7.69
224.573	-9.69
224.808	-8.69
225.042	-8.69
225.277	-3.69
225.511	2.31
225.746	-9.69
225.98	2.31
226.215	5.31
226.449	16.31
226.683	18.31
226.918	16.31
227.152	27.31
227.387	41.31
227.621	36.31
227.856	48.31
228.09	49.31
228.324	56.31
228.559	38.31
228.793	55.31
229.027	57.31
229.262	74.31
229.496	82.31
229.73	71.31
229.964	73.31
230.199	74.31
230.433	84.31
230.667	94.31
230.901	83.31
231.136	80.31
231.37	89.31
231.604	80.31
231.838	80.31
232.072	94.31
232.306	74.31
232.541	77.31
232.775	85.31
233.009	76.31
233.243	80.31
233.477	82.31
233.711	81.31
233.945	71.31
234.179	76.31
234.413	78.31
234.647	86.31
234.881	69.31
235.115	93.31
235.349	77.31
235.583	85.31
235.817	70.31
236.051	78.31
236.285	82.31
236.519	71.31
236.753	67.31
236.987	96.31
237.221	95.31
237.455	74.31
237.689	85.31
237.922	81.31
238.156	70.31
238.39	58.31
238.624	71.31
238.858	69.31
239.091	71.31
239.325	67.31
239.559	67.31
239.793	92.31
240.027	76.31
240.26	73.31
240.494	74.31
240.728	70.31
240.961	84.31
241.195	84.31
241.429	73.31
241.662	76.31
241.896	90.31
242.13	85.31
242.363	76.31
242.597	76.31
242.83	81.31
243.064	81.31
243.298	69.31
243.531	85.31
243.765	78.31
243.998	88.31
244.232	79.31
244.465	72.31
244.699	82.31
244.932	75.31
245.166	78.31
245.399	85.31
245.633	59.31
245.866	78.31
246.099	72.31
246.333	89.31
246.566	71.31
246.8	70.31
247.033	71.31
247.266	74.31
247.5	77.31
247.733	88.31
247.966	73.31
248.2	73.31
248.433	76.31
248.666	80.31
248.899	91.31
249.133	94.31
249.366	92.31
249.599	90.31
249.832	76.31
250.066	73.31
250.299	96.31
250.532	96.31
250.765	60.31
250.998	80.31
251.231	88.31
251.465	80.31
251.698	81.31
251.931	80.31
252.164	83.31
252.397	76.31
252.63	78.31
252.863	83.31
253.096	82.31
253.329	94.31
253.562	85.31
253.795	88.31
254.028	71.31
254.261	80.31
254.494	76.31
254.727	90.31
254.96	80.31
255.193	80.31
255.426	72.31
255.659	88.31
255.892	90.31
256.124	84.31
256.357	90.31
256.59	73.31
256.823	93.31
257.056	84.31
257.289	78.31
257.521	80.31
257.754	65.31
257.987	64.31
258.22	80.31
258.452	88.31
258.685	84.31
258.918	79.31
259.151	62.31
259.383	84.31
259.616	82.31
259.849	102.31
260.081	88.31
260.314	90.31
260.547	80.31
260.779	92.31
261.012	73.31
261.244	66.31
261.477	77.31
261.71	94.31
261.942	91.31
262.175	93.31
262.407	88.31
262.64	92.31
262.872	65.31
263.105	73.31
263.337	98.31
263.57	60.31
263.802	85.31
264.035	78.31
264.267	87.31
264.499	80.31
264.732	94.31
264.964	62.31
265.197	85.31
265.429	69.31
265.661	87.31
265.894	77.31
266.126	81.31
266.358	82.31
266.591	85.31
266.823	78.31
267.055	88.31
267.287	75.31
267.52	87.31
267.752	81.31
267.984	82.31
268.216	87.31
268.448	72.31
268.681	73.31
268.913	81.31
269.145	72.31
269.377	90.31
269.609	67.31
269.841	88.31
270.073	85.31
270.306	87.31
270.538	78.31
270.77	80.31
271.002	100.31
271.234	72.31
271.466	82.31
271.698	84.31
271.93	90.31
272.162	80.31
272.394	105.31
272.626	86.31
272.858	101.31
273.09	85.31
273.322	105.31
273.553	88.31
273.785	95.31
274.017	76.31
274.249	90.31
274.481	86.31
274.713	97.31
274.945	89.31
275.176	94.31
275.408	98.31
275.64	78.31
275.872	94.31
276.104	96.31
276.335	90.31
276.567	90.31
276.799	81.31
277.031	92.31
277.262	77.31
277.494	83.31
277.726	80.31
277.957	84.31
278.189	80.31
278.421	80.31
278.652	90.31
278.884	98.31
279.115	93.31
279.347	79.31
279.579	71.31
279.81	87.31
280.042	96.31
280.273	80.31
280.505	85.31
280.736	89.31
280.968	82.31
281.199	88.31
281.431	97.31
281.662	85.31
281.894	85.31
282.125	95.31
282.356	93.31
282.588	124.31
282.819	100.31
283.051	92.31
283.282	90.31
283.513	92.31
283.745	93.31
283.976	78.31
284.207	86.31
284.439	86.31
284.67	79.31
284.901	101.31
285.132	97.31
285.364	70.31
285.595	95.31
285.826	94.31
286.057	83.31
286.288	95.31
286.52	95.31
286.751	98.31
286.982	90.31
287.213	79.31
287.444	88.31
287.675	87.31
287.906	90.31
288.138	88.31
288.369	78.31
288.6	80.31
288.831	74.31
289.062	88.31
289.293	101.31
289.524	84.31
289.755	80.31
289.986	80.31
290.217	92.31
290.448	87.31
290.679	87.31
290.91	89.31
291.141	97.31
291.371	92.31
291.602	104.31
291.833	85.31
292.064	93.31
292.295	96.31
292.526	92.31
292.757	103.31
292.987	88.31
293.218	95.31
293.449	89.31
293.68	93.31
293.91	90.31
294.141	88.31
294.372	87.31
294.603	87.31
294.833	86.31
295.064	89.31
295.295	92.31
295.525	85.31
295.756	98.31
295.987	110.31
296.217	117.31
296.448	114.31
296.679	89.31
296.909	105.31
297.14	90.31
297.37	101.31
297.601	93.31
297.831	85.31
298.062	103.31
298.292	83.31
298.523	94.31
298.753	76.31
298.984	92.31
299.214	87.31
299.445	83.31
299.675	92.31
299.905	85.31
300.136	76.31
300.366	82.31
300.597	87.31
300.827	94.31
301.057	93.31
301.288	110.31
301.518	89.31
301.748	85.31
301.979	102.31
302.209	88.31
302.439	87.31
302.669	90.31
302.9	86.31
303.13	90.31
303.36	85.31
303.59	103.31
303.82	100.31
304.051	98.31
304.281	97.31
304.511	85.31
304.741	82.31
304.971	97.31
305.201	85.31
305.431	100.31
305.661	92.31
305.891	71.31
306.121	87.31
306.352	94.31
306.582	94.31
306.812	79.31
307.042	82.31
307.272	83.31
307.502	104.31
307.731	80.31
307.961	95.31
308.191	97.31
308.421	86.31
308.651	99.31
308.881	101.31
309.111	93.31
309.341	104.31
309.571	94.31
309.8	84.31
310.03	98.31
310.26	103.31
310.49	91.31
310.72	91.31
310.949	119.31
311.179	93.31
311.409	93.31
311.639	90.31
311.868	89.31
312.098	77.31
312.328	97.31
312.557	98.31
312.787	102.31
313.017	104.31
313.246	86.31
313.476	99.31
313.706	93.31
313.935	78.31
314.165	95.31
314.394	92.31
314.624	98.31
314.853	96.31
315.083	103.31
315.312	95.31
315.542	87.31
315.771	101.31
316.001	100.31
316.23	93.31
316.46	92.31
316.689	91.31
316.919	97.31
317.148	110.31
317.377	102.31
317.607	106.31
317.836	84.31
318.065	82.31
318.295	81.31
318.524	94.31
318.753	90.31
318.983	90.31
319.212	88.31
319.441	82.31
319.67	95.31
319.9	89.31
320.129	91.31
320.358	100.31
320.587	90.31
320.816	114.31
321.046	98.31
321.275	93.31
321.504	90.31
321.733	97.31
321.962	87.31
322.191	111.31
322.42	83.31
322.649	106.31
322.878	92.31
323.108	101.31
323.337	116.31
323.566	107.31
323.795	120.31
324.024	174.31
324.253	323.31
324.482	673.31
324.71	1396.31
324.939	1808.31
325.168	660.31
325.397	209.31
325.626	134.31
325.855	128.31
326.084	117.31
326.313	105.31
326.542	141.31
326.77	207.31
326.999	396.31
327.228	784.31
327.457	1445.31
327.686	1138.31
327.914	314.31
328.143	144.31
328.372	136.31
328.6	111.31
328.829	111.31
329.058	114.31
329.287	113.31
329.515	109.31
329.744	101.31
329.972	108.31
330.201	96.31
330.43	92.31
330.658	105.31
330.887	128.31
331.115	108.31
331.344	105.31
331.572	88.31
331.801	98.31
332.03	99.31
332.258	91.31
332.486	91.31
332.715	87.31
332.943	104.31
333.172	105.31
333.4	105.31
333.629	104.31
333.857	88.31
334.085	106.31
334.314	97.31
334.542	101.31
334.771	109.31
334.999	92.31
335.227	90.31
335.455	91.31
335.684	86.31
335.912	105.31
336.14	104.31
336.369	82.31
336.597	95.31
336.825	98.31
337.053	98.31
337.281	94.31
337.51	88.31
337.738	90.31
337.966	89.31
338.194	94.31
338.422	96.31
338.65	80.31
338.878	90.31
339.106	81.31
339.334	92.31
339.562	90.31
339.79	96.31
340.018	91.31
340.246	101.31
340.474	79.31
340.702	90.31
340.93	89.31
341.158	93.31
341.386	81.31
341.614	93.31
341.842	85.31
342.07	101.31
342.298	85.31
342.526	90.31
342.754	96.31
342.981	83.31
343.209	83.31
343.437	104.31
343.665	96.31
343.893	88.31
344.12	117.31
344.348	104.31
344.576	90.31
344.804	81.31
345.031	92.31
345.259	101.31
345.487	103.31
345.714	88.31
345.942	92.31
346.17	110.31
346.397	88.31
346.625	98.31
346.853	91.31
347.08	102.31
347.308	96.31
347.535	84.31
347.763	91.31
347.99	95.31
348.218	103.31
348.445	92.31
348.673	84.31
348.9	98.31
349.128	84.31
349.355	101.31
349.583	87.31
349.81	97.31
350.037	97.31
350.265	85.31
350.492	92.31
350.72	98.31
350.947	109.31
351.174	106.31
351.402	114.31
351.629	92.31
351.856	96.31
352.083	105.31
352.311	104.31
352.538	92.31
352.765	106.31
352.992	110.31
353.22	112.31
353.447	95.31
353.674	104.31
353.901	105.31
354.128	90.31
354.355	92.31
354.583	101.31
354.81	98.31
355.037	98.31
355.264	90.31
355.491	98.31
355.718	90.31
355.945	101.31
356.172	97.31
356.399	97.31
356.626	93.31
356.853	93.31
357.08	95.31
357.307	105.31
357.534	87.31
357.761	102.31
357.988	99.31
358.215	101.31
358.441	88.31
358.668	85.31
358.895	94.31
359.122	86.31
359.349	80.31
359.576	89.31
359.802	98.31
360.029	96.31
360.256	105.31
360.483	82.31
360.709	77.31
360.936	90.31
361.163	96.31
361.39	98.31
361.616	100.31
361.843	85.31
362.07	88.31
362.296	84.31
362.523	85.31
362.749	83.31
362.976	82.31
363.203	87.31
363.429	78.31
363.656	92.31
363.882	89.31
364.109	78.31
364.335	95.31
364.562	72.31
364.788	83.31
365.015	90.31
365.241	103.31
365.468	98.31
365.694	93.31
365.92	96.31
366.147	88.31
366.373	89.31
366.599	94.31
366.826	83.31
367.052	83.31
367.278	106.31
367.505	80.31
367.731	93.31
367.957	93.31
368.184	86.31
368.41	94.31
368.636	98.31
368.862	104.31
369.089	113.31
369.315	102.31
369.541	92.31
369.767	106.31
369.993	92.31
370.219	89.31
370.445	105.31
370.672	93.31
370.898	86.31
371.124	103.31
371.35	88.31
371.576	86.31
371.802	72.31
372.028	87.31
372.254	85.31
372.48	88.31
372.706	88.31
372.932	91.31
373.158	99.31
373.384	76.31
373.61	84.31
373.835	95.31
374.061	90.31
374.287	82.31
374.513	92.31
374.739	87.31
374.965	97.31
375.191	97.31
375.416	93.31
375.642	101.31
375.868	83.31
376.094	94.31
376.319	90.31
376.545	91.31
376.771	99.31
376.997	77.31
377.222	96.31
377.448	92.31
377.674	77.31
377.899	92.31
378.125	101.31
378.35	85.31
378.576	98.31
378.802	86.31
379.027	97.31
379.253	89.31
379.478	100.31
379.704	96.31
379.929	93.31
380.155	95.31
380.38	101.31
380.606	98.31
380.831	84.31
381.057	97.31
381.282	89.31
381.507	95.31
381.733	86.31
381.958	92.31
382.184	90.31
382.409	104.31
382.634	104.31
382.86	97.31
383.085	120.31
383.31	102.31
383.535	101.31
383.761	106.31
383.986	93.31
384.211	94.31
384.436	103.31
384.662	102.31
384.887	101.31
385.112	121.31
385.337	111.31
385.562	115.31
385.787	96.31
386.013	102.31
386.238	107.31
386.463	90.31
386.688	112.31
386.913	111.31
387.138	100.31
387.363	97.31
387.588	104.31
387.813	112.31
388.038	106.31
388.263	108.31
388.488	102.31
388.713	97.31
388.938	105.31
389.163	102.31
389.387	87.31
389.612	88.31
389.837	104.31
390.062	107.31
390.287	83.31
390.512	77.31
390.736	78.31
390.961	78.31
391.186	85.31
391.411	113.31
391.636	101.31
391.86	99.31
392.085	88.31
392.31	88.31
392.534	92.31
392.759	87.31
392.984	92.31
393.208	89.31
393.433	100.31
393.658	103.31
393.882	81.31
394.107	78.31
394.331	93.31
394.556	91.31
394.78	104.31
395.005	82.31
395.229	82.31
395.454	85.31
395.678	81.31
395.903	84.31
396.127	87.31
396.352	78.31
396.576	81.31
396.801	93.31
397.025	89.31
397.249	91.31
397.474	94.31
397.698	92.31
397.922	90.31
398.147	95.31
398.371	79.31
398.595	78.31
398.82	98.31
399.044	91.31
399.268	87.31
399.492	81.31
399.717	85.31
399.941	86.31
400.165	88.31
400.389	101.31
400.613	90.31
400.837	103.31
401.062	93.31
401.286	85.31
401.51	86.31
401.734	89.31
401.958	91.31
402.182	102.31
402.406	126.31
402.63	100.31
402.854	94.31
403.078	99.31
403.302	99.31
403.526	89.31
403.75	97.31
403.974	88.31
404.198	76.31
404.422	93.31
404.645	91.31
404.869	86.31
405.093	97.31
405.317	98.31
405.541	102.31
405.765	103.31
405.988	104.31
406.212	134.31
406.436	171.31
406.66	125.31
406.883	114.31
407.107	98.31
407.331	100.31
407.555	98.31
407.778	93.31
408.002	92.31
408.226	90.31
408.449	94.31
408.673	90.31
408.896	100.31
409.12	90.31
409.344	82.31
409.567	88.31
409.791	90.31
410.014	91.31
410.238	92.31
410.461	79.31
410.685	87.31
410.908	94.31
411.132	105.31
411.355	92.31
411.578	96.31
411.802	87.31
412.025	84.31
412.249	96.31
412.472	96.31
412.695	94.31
412.919	99.31
413.142	94.31
413.365	87.31
413.589	89.31
413.812	88.31
414.035	90.31
414.258	117.31
414.482	105.31
414.705	81.31
414.928	96.31
415.151	90.31
415.374	90.31
415.597	86.31
415.821	77.31
416.044	93.31
416.267	99.31
416.49	86.31
416.713	100.31
416.936	96.31
417.159	84.31
417.382	86.31
417.605	99.31
417.828	101.31
418.051	87.31
418.274	86.31
418.497	76.31
418.72	81.31
418.943	97.31
419.166	96.31
419.389	90.31
419.611	78.31
419.834	83.31
420.057	93.31
420.28	92.31
420.503	92.31
420.726	99.31
420.948	107.31
421.171	93.31
421.394	101.31
421.617	95.31
421.839	88.31
422.062	79.31
422.285	95.31
422.507	109.31
422.73	94.31
422.953	97.31
423.175	73.31
423.398	85.31
423.621	80.31
423.843	93.31
424.066	76.31
424.288	90.31
424.511	93.31
424.733	102.31
424.956	103.31
425.178	94.31
425.401	89.31
425.623	107.31
425.846	89.31
426.068	86.31
426.291	92.31
426.513	91.31
426.735	95.31
426.958	93.31
427.18	101.31
427.402	129.31
427.625	133.31
427.847	109.31
428.069	83.31
428.292	76.31
428.514	81.31
428.736	80.31
428.958	84.31
429.181	93.31
429.403	66.31
429.625	94.31
429.847	83.31
430.069	102.31
430.292	99.31
430.514	97.31
430.736	96.31
430.958	94.31
431.18	91.31
431.402	78.31
431.624	89.31
431.846	89.31
432.068	85.31
432.29	80.31
432.512	93.31
432.734	84.31
432.956	94.31
433.178	93.31
433.4	90.31
433.622	89.31
433.844	80.31
434.066	96.31
434.287	90.31
434.509	92.31
434.731	97.31
434.953	90.31
435.175	89.31
435.397	97.31
435.618	102.31
435.84	94.31
436.062	116.31
436.284	116.31
436.505	95.31
436.727	105.31
436.949	96.31
437.17	93.31
437.392	88.31
437.614	88.31
437.835	87.31
438.057	103.31
438.278	106.31
438.5	110.31
438.721	109.31
438.943	110.31
439.165	98.31
439.386	96.31
439.608	76.31
439.829	101.31
440.05	98.31
440.272	116.31
440.493	110.31
440.715	95.31
440.936	86.31
441.158	95.31
441.379	78.31
441.6	91.31
441.822	90.31
442.043	106.31
442.264	103.31
442.486	102.31
442.707	91.31
442.928	93.31
443.149	104.31
443.371	116.31
443.592	110.31
443.813	121.31
444.034	95.31
444.255	95.31
444.476	94.31
444.698	86.31
444.919	92.31
445.14	149.31
445.361	123.31
445.582	117.31
445.803	121.31
446.024	129.31
446.245	132.31
446.466	103.31
446.687	97.31
446.908	80.31
447.129	76.31
447.35	90.31
447.571	90.31
447.792	82.31
448.013	89.31
448.234	88.31
448.455	98.31
448.675	105.31
448.896	95.31
449.117	89.31
449.338	97.31
449.559	132.31
449.779	129.31
450	87.31
450.221	93.31
450.442	99.31
450.662	90.31
450.883	103.31
451.104	114.31
451.324	96.31
451.545	82.31
451.766	85.31
451.986	92.31
452.207	89.31
452.428	86.31
452.648	91.31
452.869	107.31
453.089	104.31
453.31	101.31
453.53	84.31
453.751	90.31
453.971	96.31
454.192	113.31
454.412	100.31
454.633	86.31
454.853	92.31
455.073	99.31
455.294	82.31
455.514	91.31
455.734	93.31
455.955	104.31
456.175	92.31
456.395	82.31
456.616	87.31
456.836	72.31
457.056	87.31
457.276	81.31
457.497	88.31
457.717	85.31
457.937	89.31
458.157	94.31
458.377	99.31
458.598	104.31
458.818	112.31
459.038	122.31
459.258	121.31
459.478	88.31
459.698	81.31
459.918	84.31
460.138	90.31
460.358	83.31
460.578	95.31
460.798	73.31
461.018	92.31
461.238	82.31
461.458	88.31
461.678	94.31
461.898	89.31
462.118	81.31
462.338	90.31
462.558	84.31
462.777	83.31
462.997	88.31
463.217	83.31
463.437	84.31
463.657	80.31
463.876	89.31
464.096	89.31
464.316	88.31
464.536	105.31
464.755	100.31
464.975	92.31
465.195	143.31
465.414	140.31
465.634	88.31
465.854	83.31
466.073	90.31
466.293	94.31
466.512	97.31
466.732	96.31
466.951	92.31
467.171	93.31
467.391	88.31
467.61	105.31
467.829	86.31
468.049	101.31
468.268	86.31
468.488	84.31
468.707	97.31
468.927	74.31
469.146	93.31
469.365	83.31
469.585	78.31
469.804	102.31
470.023	106.31
470.243	76.31
470.462	85.31
470.681	93.31
470.901	91.31
471.12	74.31
471.339	97.31
471.558	92.31
471.777	76.31
471.997	92.31
472.216	96.31
472.435	90.31
472.654	89.31
472.873	81.31
473.092	90.31
473.311	97.31
473.53	89.31
473.749	87.31
473.968	112.31
474.187	97.31
474.406	85.31
474.625	99.31
474.844	85.31
475.063	84.31
475.282	80.31
475.501	93.31
475.72	89.31
475.939	87.31
476.158	92.31
476.377	94.31
476.596	99.31
476.814	84.31
477.033	89.31
477.252	99.31
477.471	89.31
477.69	76.31
477.908	97.31
478.127	81.31
478.346	88.31
478.564	88.31
478.783	91.31
479.002	85.31
479.22	102.31
479.439	87.31
479.658	70.31
479.876	88.31
480.095	96.31
480.313	103.31
480.532	95.31
480.751	97.31
480.969	90.31
481.188	116.31
481.406	74.31
481.624	77.31
481.843	100.31
482.061	88.31
482.28	97.31
482.498	95.31
482.717	81.31
482.935	90.31
483.153	87.31
483.372	95.31
483.59	94.31
483.808	102.31
484.027	97.31
484.245	95.31
484.463	89.31
484.681	95.31
484.9	102.31
485.118	94.31
485.336	109.31
485.554	108.31
485.772	97.31
485.99	128.31
486.209	115.31
486.427	101.31
486.645	100.31
486.863	93.31
487.081	100.31
487.299	113.31
487.517	88.31
487.735	88.31
487.953	98.31
488.171	96.31
488.389	109.31
488.607	99.31
488.825	88.31
489.043	96.31
489.261	115.31
489.479	92.31
489.696	94.31
489.914	102.31
490.132	102.31
490.35	90.31
490.568	77.31
490.786	100.31
491.003	102.31
491.221	100.31
491.439	101.31
491.657	101.31
491.874	102.31
492.092	99.31
492.31	94.31
492.527	100.31
492.745	84.31
492.963	96.31
493.18	104.31
493.398	88.31
493.615	90.31
493.833	101.31
494.05	87.31
494.268	98.31
494.485	101.31
494.703	76.31
494.92	73.31
495.138	90.31
495.355	81.31
495.573	88.31
495.79	103.31
496.008	95.31
496.225	96.31
496.442	86.31
496.66	81.31
496.877	78.31
497.094	97.31
497.312	92.31
497.529	94.31
497.746	95.31
497.963	89.31
498.181	83.31
498.398	89.31
498.615	104.31
498.832	112.31
499.049	84.31
499.267	89.31
499.484	94.31
499.701	99.31
499.918	102.31
500.135	93.31
500.352	104.31
500.569	90.31
500.786	93.31
501.003	84.31
501.22	96.31
501.437	83.31
501.654	97.31
501.871	113.31
502.088	79.31
502.305	88.31
502.522	93.31
502.739	86.31
502.956	83.31
503.172	92.31
503.389	83.31
503.606	109.31
503.823	89.31
504.04	90.31
504.256	82.31
504.473	88.31
504.69	100.31
504.907	85.31
505.123	83.31
505.34	83.31
505.557	95.31
505.773	91.31
505.99	69.31
506.207	78.31
506.423	101.31
506.64	101.31
506.856	80.31
507.073	90.31
507.289	94.31
507.506	100.31
507.722	105.31
507.939	89.31
508.155	82.31
508.372	94.31
508.588	100.31
508.805	106.31
509.021	97.31
509.238	96.31
509.454	92.31
509.67	94.31
509.887	104.31
510.103	121.31
510.319	162.31
510.536	511.31
510.752	1485.31
510.968	430.31
511.184	132.31
511.401	98.31
511.617	96.31
511.833	82.31
512.049	83.31
512.265	88.31
512.481	97.31
512.698	96.31
512.914	97.31
513.13	96.31
513.346	85.31
513.562	99.31
513.778	82.31
513.994	87.31
514.21	94.31
514.426	108.31
514.642	114.31
514.858	121.31
515.074	153.31
515.29	333.31
515.506	939.31
515.721	361.31
515.937	125.31
