Data from Uncirc_1988_H10_HRD10591_00043.txt Node
Date: Wed Jan 03 12:04:13 EST 2024
User: Yrep
Spectrometer: HR+D1059
Trigger mode: 1
Integration Time (sec): 1.000000E-1
Scans to average: 1
Electric dark correction enabled: true
Nonlinearity correction enabled: false
Boxcar width: 0
XAxis mode: Wavelengths
Number of Pixels in Spectrum: 2048
>>>>>Begin Spectral Data<<<<<
223.165	-15.94
223.4	-15.94
223.635	-15.94
223.869	-18.94
224.104	-13.94
224.338	-20.94
224.573	-16.94
224.808	-14.94
225.042	-9.94
225.277	12.06
225.511	10.06
225.746	10.06
225.98	0.06
226.215	11.06
226.449	7.06
226.683	13.06
226.918	18.06
227.152	30.06
227.387	35.06
227.621	29.06
227.856	36.06
228.09	41.06
228.324	60.06
228.559	46.06
228.793	56.06
229.027	50.06
229.262	62.06
229.496	52.06
229.73	82.06
229.964	89.06
230.199	58.06
230.433	77.06
230.667	71.06
230.901	74.06
231.136	62.06
231.37	76.06
231.604	75.06
231.838	78.06
232.072	74.06
232.306	77.06
232.541	70.06
232.775	82.06
233.009	83.06
233.243	79.06
233.477	75.06
233.711	77.06
233.945	86.06
234.179	78.06
234.413	83.06
234.647	72.06
234.881	75.06
235.115	71.06
235.349	75.06
235.583	94.06
235.817	75.06
236.051	69.06
236.285	74.06
236.519	74.06
236.753	85.06
236.987	84.06
237.221	81.06
237.455	90.06
237.689	71.06
237.922	72.06
238.156	86.06
238.39	81.06
238.624	70.06
238.858	72.06
239.091	79.06
239.325	73.06
239.559	74.06
239.793	83.06
240.027	74.06
240.26	68.06
240.494	78.06
240.728	66.06
240.961	88.06
241.195	83.06
241.429	79.06
241.662	68.06
241.896	77.06
242.13	68.06
242.363	76.06
242.597	70.06
242.83	80.06
243.064	86.06
243.298	80.06
243.531	79.06
243.765	66.06
243.998	76.06
244.232	76.06
244.465	89.06
244.699	69.06
244.932	76.06
245.166	67.06
245.399	64.06
245.633	80.06
245.866	83.06
246.099	81.06
246.333	72.06
246.566	74.06
246.8	75.06
247.033	56.06
247.266	74.06
247.5	68.06
247.733	70.06
247.966	81.06
248.2	69.06
248.433	78.06
248.666	76.06
248.899	57.06
249.133	72.06
249.366	87.06
249.599	84.06
249.832	79.06
250.066	87.06
250.299	82.06
250.532	68.06
250.765	68.06
250.998	81.06
251.231	57.06
251.465	58.06
251.698	70.06
251.931	78.06
252.164	75.06
252.397	84.06
252.63	82.06
252.863	81.06
253.096	71.06
253.329	79.06
253.562	68.06
253.795	88.06
254.028	68.06
254.261	59.06
254.494	73.06
254.727	77.06
254.96	72.06
255.193	60.06
255.426	78.06
255.659	71.06
255.892	79.06
256.124	86.06
256.357	68.06
256.59	82.06
256.823	65.06
257.056	79.06
257.289	76.06
257.521	75.06
257.754	70.06
257.987	76.06
258.22	76.06
258.452	87.06
258.685	82.06
258.918	82.06
259.151	68.06
259.383	74.06
259.616	93.06
259.849	80.06
260.081	81.06
260.314	69.06
260.547	86.06
260.779	68.06
261.012	76.06
261.244	69.06
261.477	76.06
261.71	96.06
261.942	104.06
262.175	115.06
262.407	86.06
262.64	56.06
262.872	84.06
263.105	86.06
263.337	60.06
263.57	84.06
263.802	77.06
264.035	83.06
264.267	75.06
264.499	77.06
264.732	71.06
264.964	86.06
265.197	88.06
265.429	59.06
265.661	66.06
265.894	71.06
266.126	88.06
266.358	76.06
266.591	82.06
266.823	71.06
267.055	76.06
267.287	88.06
267.52	90.06
267.752	82.06
267.984	99.06
268.216	86.06
268.448	91.06
268.681	82.06
268.913	94.06
269.145	85.06
269.377	87.06
269.609	79.06
269.841	93.06
270.073	77.06
270.306	77.06
270.538	81.06
270.77	83.06
271.002	79.06
271.234	71.06
271.466	90.06
271.698	68.06
271.93	84.06
272.162	93.06
272.394	76.06
272.626	94.06
272.858	78.06
273.09	77.06
273.322	82.06
273.553	100.06
273.785	71.06
274.017	88.06
274.249	87.06
274.481	94.06
274.713	74.06
274.945	82.06
275.176	82.06
275.408	69.06
275.64	78.06
275.872	68.06
276.104	93.06
276.335	90.06
276.567	99.06
276.799	105.06
277.031	97.06
277.262	76.06
277.494	86.06
277.726	83.06
277.957	71.06
278.189	78.06
278.421	80.06
278.652	80.06
278.884	90.06
279.115	85.06
279.347	80.06
279.579	80.06
279.81	69.06
280.042	81.06
280.273	80.06
280.505	85.06
280.736	95.06
280.968	80.06
281.199	81.06
281.431	82.06
281.662	74.06
281.894	87.06
282.125	86.06
282.356	109.06
282.588	126.06
282.819	127.06
283.051	74.06
283.282	89.06
283.513	91.06
283.745	93.06
283.976	82.06
284.207	78.06
284.439	86.06
284.67	97.06
284.901	87.06
285.132	90.06
285.364	86.06
285.595	80.06
285.826	76.06
286.057	70.06
286.288	74.06
286.52	79.06
286.751	65.06
286.982	82.06
287.213	101.06
287.444	90.06
287.675	99.06
287.906	91.06
288.138	79.06
288.369	92.06
288.6	92.06
288.831	83.06
289.062	77.06
289.293	80.06
289.524	86.06
289.755	76.06
289.986	70.06
290.217	92.06
290.448	83.06
290.679	77.06
290.91	82.06
291.141	85.06
291.371	95.06
291.602	81.06
291.833	83.06
292.064	89.06
292.295	84.06
292.526	102.06
292.757	82.06
292.987	100.06
293.218	88.06
293.449	76.06
293.68	97.06
293.91	91.06
294.141	90.06
294.372	83.06
294.603	100.06
294.833	82.06
295.064	74.06
295.295	83.06
295.525	86.06
295.756	88.06
295.987	110.06
296.217	136.06
296.448	110.06
296.679	86.06
296.909	82.06
297.14	78.06
297.37	87.06
297.601	67.06
297.831	88.06
298.062	86.06
298.292	89.06
298.523	96.06
298.753	80.06
298.984	88.06
299.214	92.06
299.445	107.06
299.675	95.06
299.905	95.06
300.136	96.06
300.366	85.06
300.597	82.06
300.827	97.06
301.057	88.06
301.288	86.06
301.518	98.06
301.748	69.06
301.979	99.06
302.209	82.06
302.439	96.06
302.669	94.06
302.9	92.06
303.13	85.06
303.36	86.06
303.59	98.06
303.82	107.06
304.051	92.06
304.281	87.06
304.511	83.06
304.741	95.06
304.971	87.06
305.201	101.06
305.431	76.06
305.661	101.06
305.891	86.06
306.121	82.06
306.352	100.06
306.582	80.06
306.812	99.06
307.042	83.06
307.272	85.06
307.502	90.06
307.731	96.06
307.961	91.06
308.191	92.06
308.421	74.06
308.651	77.06
308.881	85.06
309.111	83.06
309.341	86.06
309.571	100.06
309.8	88.06
310.03	95.06
310.26	91.06
310.49	99.06
310.72	92.06
310.949	98.06
311.179	109.06
311.409	78.06
311.639	83.06
311.868	84.06
312.098	82.06
312.328	88.06
312.557	91.06
312.787	106.06
313.017	92.06
313.246	101.06
313.476	97.06
313.706	79.06
313.935	96.06
314.165	72.06
314.394	101.06
314.624	104.06
314.853	98.06
315.083	86.06
315.312	84.06
315.542	94.06
315.771	93.06
316.001	87.06
316.23	101.06
316.46	84.06
316.689	92.06
316.919	82.06
317.148	103.06
317.377	96.06
317.607	84.06
317.836	100.06
318.065	91.06
318.295	78.06
318.524	95.06
318.753	90.06
318.983	76.06
319.212	109.06
319.441	122.06
319.67	102.06
319.9	89.06
320.129	71.06
320.358	80.06
320.587	97.06
320.816	86.06
321.046	92.06
321.275	103.06
321.504	91.06
321.733	100.06
321.962	102.06
322.191	106.06
322.42	104.06
322.649	112.06
322.878	111.06
323.108	114.06
323.337	128.06
323.566	136.06
323.795	149.06
324.024	206.06
324.253	428.06
324.482	915.06
324.71	1910.06
324.939	2480.06
325.168	874.06
325.397	241.06
325.626	144.06
325.855	134.06
326.084	120.06
326.313	114.06
326.542	144.06
326.77	226.06
326.999	484.06
327.228	1039.06
327.457	1974.06
327.686	1524.06
327.914	380.06
328.143	212.06
328.372	126.06
328.6	128.06
328.829	117.06
329.058	129.06
329.287	129.06
329.515	126.06
329.744	103.06
329.972	88.06
330.201	96.06
330.43	110.06
330.658	125.06
330.887	146.06
331.115	118.06
331.344	101.06
331.572	93.06
331.801	100.06
332.03	116.06
332.258	90.06
332.486	99.06
332.715	93.06
332.943	102.06
333.172	88.06
333.4	95.06
333.629	100.06
333.857	111.06
334.085	111.06
334.314	109.06
334.542	90.06
334.771	111.06
334.999	98.06
335.227	102.06
335.455	87.06
335.684	99.06
335.912	89.06
336.14	91.06
336.369	96.06
336.597	90.06
336.825	89.06
337.053	91.06
337.281	77.06
337.51	97.06
337.738	96.06
337.966	96.06
338.194	87.06
338.422	87.06
338.65	85.06
338.878	88.06
339.106	93.06
339.334	91.06
339.562	83.06
339.79	98.06
340.018	90.06
340.246	80.06
340.474	96.06
340.702	100.06
340.93	87.06
341.158	98.06
341.386	88.06
341.614	105.06
341.842	103.06
342.07	79.06
342.298	97.06
342.526	98.06
342.754	83.06
342.981	96.06
343.209	84.06
343.437	96.06
343.665	93.06
343.893	111.06
344.12	100.06
344.348	83.06
344.576	75.06
344.804	89.06
345.031	94.06
345.259	94.06
345.487	97.06
345.714	94.06
345.942	80.06
346.17	98.06
346.397	86.06
346.625	93.06
346.853	103.06
347.08	88.06
347.308	95.06
347.535	100.06
347.763	86.06
347.99	98.06
348.218	100.06
348.445	102.06
348.673	105.06
348.9	107.06
349.128	82.06
349.355	103.06
349.583	94.06
349.81	91.06
350.037	97.06
350.265	108.06
350.492	78.06
350.72	85.06
350.947	107.06
351.174	115.06
351.402	110.06
351.629	92.06
351.856	90.06
352.083	100.06
352.311	101.06
352.538	101.06
352.765	115.06
352.992	103.06
353.22	105.06
353.447	98.06
353.674	103.06
353.901	100.06
354.128	92.06
354.355	85.06
354.583	95.06
354.81	114.06
355.037	108.06
355.264	98.06
355.491	87.06
355.718	82.06
355.945	90.06
356.172	74.06
356.399	101.06
356.626	82.06
356.853	97.06
357.08	101.06
357.307	83.06
357.534	88.06
357.761	100.06
357.988	92.06
358.215	85.06
358.441	80.06
358.668	75.06
358.895	76.06
359.122	86.06
359.349	83.06
359.576	79.06
359.802	117.06
360.029	105.06
360.256	91.06
360.483	95.06
360.709	84.06
360.936	92.06
361.163	103.06
361.39	102.06
361.616	95.06
361.843	74.06
362.07	83.06
362.296	87.06
362.523	93.06
362.749	90.06
362.976	76.06
363.203	88.06
363.429	87.06
363.656	84.06
363.882	99.06
364.109	82.06
364.335	76.06
364.562	86.06
364.788	84.06
365.015	98.06
365.241	97.06
365.468	104.06
365.694	99.06
365.92	87.06
366.147	96.06
366.373	81.06
366.599	90.06
366.826	75.06
367.052	91.06
367.278	89.06
367.505	85.06
367.731	93.06
367.957	75.06
368.184	92.06
368.41	108.06
368.636	111.06
368.862	123.06
369.089	103.06
369.315	85.06
369.541	90.06
369.767	91.06
369.993	82.06
370.219	84.06
370.445	87.06
370.672	85.06
370.898	80.06
371.124	80.06
371.35	85.06
371.576	79.06
371.802	83.06
372.028	84.06
372.254	90.06
372.48	86.06
372.706	78.06
372.932	85.06
373.158	92.06
373.384	80.06
373.61	87.06
373.835	78.06
374.061	70.06
374.287	96.06
374.513	90.06
374.739	95.06
374.965	93.06
375.191	73.06
375.416	87.06
375.642	87.06
375.868	102.06
376.094	93.06
376.319	78.06
376.545	71.06
376.771	81.06
376.997	84.06
377.222	82.06
377.448	84.06
377.674	84.06
377.899	86.06
378.125	78.06
378.35	92.06
378.576	90.06
378.802	74.06
379.027	82.06
379.253	98.06
379.478	94.06
379.704	90.06
379.929	84.06
380.155	76.06
380.38	97.06
380.606	90.06
380.831	93.06
381.057	96.06
381.282	90.06
381.507	95.06
381.733	94.06
381.958	89.06
382.184	81.06
382.409	94.06
382.634	99.06
382.86	86.06
383.085	99.06
383.31	84.06
383.535	94.06
383.761	104.06
383.986	101.06
384.211	84.06
384.436	92.06
384.662	94.06
384.887	102.06
385.112	91.06
385.337	99.06
385.562	100.06
385.787	102.06
386.013	104.06
386.238	99.06
386.463	100.06
386.688	104.06
386.913	92.06
387.138	92.06
387.363	101.06
387.588	105.06
387.813	100.06
388.038	112.06
388.263	113.06
388.488	103.06
388.713	95.06
388.938	80.06
389.163	82.06
389.387	101.06
389.612	100.06
389.837	91.06
390.062	91.06
390.287	102.06
390.512	96.06
390.736	106.06
390.961	97.06
391.186	100.06
391.411	86.06
391.636	87.06
391.86	88.06
392.085	85.06
392.31	71.06
392.534	80.06
392.759	96.06
392.984	88.06
393.208	79.06
393.433	81.06
393.658	92.06
393.882	82.06
394.107	83.06
394.331	84.06
394.556	103.06
394.78	88.06
395.005	90.06
395.229	86.06
395.454	94.06
395.678	90.06
395.903	82.06
396.127	97.06
396.352	87.06
396.576	89.06
396.801	80.06
397.025	71.06
397.249	79.06
397.474	87.06
397.698	80.06
397.922	78.06
398.147	88.06
398.371	86.06
398.595	70.06
398.82	81.06
399.044	71.06
399.268	85.06
399.492	88.06
399.717	82.06
399.941	69.06
400.165	95.06
400.389	84.06
400.613	84.06
400.837	99.06
401.062	88.06
401.286	91.06
401.51	86.06
401.734	89.06
401.958	94.06
402.182	128.06
402.406	152.06
402.63	120.06
402.854	91.06
403.078	84.06
403.302	100.06
403.526	86.06
403.75	95.06
403.974	70.06
404.198	101.06
404.422	83.06
404.645	87.06
404.869	84.06
405.093	108.06
405.317	89.06
405.541	96.06
405.765	87.06
405.988	101.06
406.212	176.06
406.436	215.06
406.66	133.06
406.883	111.06
407.107	84.06
407.331	89.06
407.555	96.06
407.778	86.06
408.002	94.06
408.226	82.06
408.449	73.06
408.673	90.06
408.896	107.06
409.12	108.06
409.344	90.06
409.567	87.06
409.791	82.06
410.014	101.06
410.238	85.06
410.461	86.06
410.685	76.06
410.908	93.06
411.132	106.06
411.355	88.06
411.578	88.06
411.802	92.06
412.025	70.06
412.249	67.06
412.472	94.06
412.695	76.06
412.919	94.06
413.142	95.06
413.365	91.06
413.589	82.06
413.812	76.06
414.035	90.06
414.258	94.06
414.482	95.06
414.705	72.06
414.928	91.06
415.151	104.06
415.374	87.06
415.597	86.06
415.821	88.06
416.044	87.06
416.267	89.06
416.49	86.06
416.713	86.06
416.936	83.06
417.159	80.06
417.382	87.06
417.605	71.06
417.828	86.06
418.051	92.06
418.274	86.06
418.497	95.06
418.72	88.06
418.943	91.06
419.166	77.06
419.389	90.06
419.611	84.06
419.834	84.06
420.057	83.06
420.28	84.06
420.503	83.06
420.726	82.06
420.948	83.06
421.171	85.06
421.394	87.06
421.617	68.06
421.839	82.06
422.062	83.06
422.285	87.06
422.507	96.06
422.73	110.06
422.953	98.06
423.175	81.06
423.398	83.06
423.621	83.06
423.843	78.06
424.066	86.06
424.288	88.06
424.511	98.06
424.733	85.06
424.956	98.06
425.178	99.06
425.401	89.06
425.623	92.06
425.846	96.06
426.068	75.06
426.291	90.06
426.513	91.06
426.735	89.06
426.958	103.06
427.18	98.06
427.402	129.06
427.625	160.06
427.847	142.06
428.069	115.06
428.292	91.06
428.514	87.06
428.736	77.06
428.958	71.06
429.181	86.06
429.403	71.06
429.625	94.06
429.847	102.06
430.069	103.06
430.292	97.06
430.514	86.06
430.736	81.06
430.958	97.06
431.18	82.06
431.402	78.06
431.624	87.06
431.846	80.06
432.068	73.06
432.29	79.06
432.512	89.06
432.734	83.06
432.956	98.06
433.178	102.06
433.4	90.06
433.622	100.06
433.844	88.06
434.066	83.06
434.287	92.06
434.509	93.06
434.731	93.06
434.953	91.06
435.175	84.06
435.397	67.06
435.618	80.06
435.84	104.06
436.062	133.06
436.284	124.06
436.505	109.06
436.727	105.06
436.949	91.06
437.17	98.06
437.392	87.06
437.614	104.06
437.835	100.06
438.057	110.06
438.278	103.06
438.5	113.06
438.721	123.06
438.943	111.06
439.165	83.06
439.386	79.06
439.608	69.06
439.829	102.06
440.05	137.06
440.272	144.06
440.493	104.06
440.715	84.06
440.936	87.06
441.158	80.06
441.379	81.06
441.6	84.06
441.822	95.06
442.043	88.06
442.264	102.06
442.486	103.06
442.707	92.06
442.928	94.06
443.149	140.06
443.371	110.06
443.592	114.06
443.813	117.06
444.034	108.06
444.255	92.06
444.476	97.06
444.698	86.06
444.919	97.06
445.14	118.06
445.361	112.06
445.582	117.06
445.803	144.06
446.024	132.06
446.245	116.06
446.466	110.06
446.687	80.06
446.908	77.06
447.129	83.06
447.35	87.06
447.571	97.06
447.792	94.06
448.013	87.06
448.234	103.06
448.455	109.06
448.675	106.06
448.896	130.06
449.117	109.06
449.338	100.06
449.559	138.06
449.779	135.06
450	101.06
450.221	90.06
450.442	96.06
450.662	84.06
450.883	102.06
451.104	100.06
451.324	86.06
451.545	88.06
451.766	90.06
451.986	75.06
452.207	86.06
452.428	91.06
452.648	99.06
452.869	93.06
453.089	101.06
453.31	110.06
453.53	101.06
453.751	100.06
453.971	98.06
454.192	103.06
454.412	87.06
454.633	91.06
454.853	95.06
455.073	85.06
455.294	91.06
455.514	84.06
455.734	83.06
455.955	87.06
456.175	84.06
456.395	83.06
456.616	70.06
456.836	75.06
457.056	90.06
457.276	83.06
457.497	80.06
457.717	75.06
457.937	60.06
458.157	87.06
458.377	77.06
458.598	108.06
458.818	140.06
459.038	153.06
459.258	127.06
459.478	88.06
459.698	84.06
459.918	82.06
460.138	78.06
460.358	82.06
460.578	78.06
460.798	88.06
461.018	86.06
461.238	78.06
461.458	85.06
461.678	88.06
461.898	82.06
462.118	91.06
462.338	96.06
462.558	89.06
462.777	94.06
462.997	82.06
463.217	79.06
463.437	83.06
463.657	81.06
463.876	92.06
464.096	76.06
464.316	87.06
464.536	90.06
464.755	82.06
464.975	110.06
465.195	171.06
465.414	136.06
465.634	116.06
465.854	86.06
466.073	94.06
466.293	95.06
466.512	99.06
466.732	87.06
466.951	90.06
467.171	81.06
467.391	90.06
467.61	95.06
467.829	98.06
468.049	94.06
468.268	75.06
468.488	86.06
468.707	87.06
468.927	75.06
469.146	72.06
469.365	86.06
469.585	96.06
469.804	103.06
470.023	109.06
470.243	90.06
470.462	82.06
470.681	103.06
470.901	103.06
471.12	89.06
471.339	68.06
471.558	81.06
471.777	92.06
471.997	92.06
472.216	104.06
472.435	106.06
472.654	96.06
472.873	88.06
473.092	103.06
473.311	88.06
473.53	84.06
473.749	90.06
473.968	82.06
474.187	92.06
474.406	85.06
474.625	88.06
474.844	81.06
475.063	78.06
475.282	76.06
475.501	86.06
475.72	83.06
475.939	84.06
476.158	87.06
476.377	79.06
476.596	90.06
476.814	84.06
477.033	96.06
477.252	92.06
477.471	79.06
477.69	89.06
477.908	91.06
478.127	77.06
478.346	99.06
478.564	99.06
478.783	80.06
479.002	85.06
479.22	89.06
479.439	108.06
479.658	95.06
479.876	82.06
480.095	65.06
480.313	82.06
480.532	69.06
480.751	97.06
480.969	110.06
481.188	112.06
481.406	102.06
481.624	83.06
481.843	92.06
482.061	94.06
482.28	75.06
482.498	95.06
482.717	101.06
482.935	87.06
483.153	75.06
483.372	92.06
483.59	74.06
483.808	95.06
484.027	80.06
484.245	85.06
484.463	91.06
484.681	91.06
484.9	99.06
485.118	104.06
485.336	93.06
485.554	98.06
485.772	78.06
485.99	102.06
486.209	106.06
486.427	125.06
486.645	118.06
486.863	111.06
487.081	102.06
487.299	101.06
487.517	87.06
487.735	79.06
487.953	88.06
488.171	87.06
488.389	83.06
488.607	86.06
488.825	80.06
489.043	87.06
489.261	92.06
489.479	99.06
489.696	83.06
489.914	87.06
490.132	102.06
490.35	83.06
490.568	83.06
490.786	95.06
491.003	95.06
491.221	73.06
491.439	106.06
491.657	83.06
491.874	94.06
492.092	91.06
492.31	96.06
492.527	87.06
492.745	94.06
492.963	87.06
493.18	91.06
493.398	85.06
493.615	95.06
493.833	93.06
494.05	88.06
494.268	100.06
494.485	106.06
494.703	96.06
494.92	83.06
495.138	80.06
495.355	90.06
495.573	106.06
495.79	94.06
496.008	88.06
496.225	92.06
496.442	84.06
496.66	94.06
496.877	92.06
497.094	90.06
497.312	91.06
497.529	78.06
497.746	91.06
497.963	92.06
498.181	91.06
498.398	85.06
498.615	96.06
498.832	103.06
499.049	81.06
499.267	103.06
499.484	97.06
499.701	90.06
499.918	100.06
500.135	95.06
500.352	84.06
500.569	82.06
500.786	86.06
501.003	90.06
501.22	88.06
501.437	86.06
501.654	89.06
501.871	112.06
502.088	93.06
502.305	90.06
502.522	86.06
502.739	85.06
502.956	91.06
503.172	86.06
503.389	91.06
503.606	106.06
503.823	88.06
504.04	94.06
504.256	84.06
504.473	81.06
504.69	96.06
504.907	91.06
505.123	100.06
505.34	82.06
505.557	86.06
505.773	78.06
505.99	94.06
506.207	68.06
506.423	85.06
506.64	79.06
506.856	95.06
507.073	94.06
507.289	78.06
507.506	87.06
507.722	107.06
507.939	108.06
508.155	90.06
508.372	80.06
508.588	81.06
508.805	88.06
509.021	87.06
509.238	91.06
509.454	83.06
509.67	101.06
509.887	115.06
510.103	130.06
510.319	219.06
510.536	748.06
510.752	2386.06
510.968	637.06
511.184	150.06
511.401	118.06
511.617	107.06
511.833	74.06
512.049	92.06
512.265	68.06
512.481	79.06
512.698	82.06
512.914	85.06
513.13	92.06
513.346	76.06
513.562	95.06
513.778	87.06
513.994	88.06
514.21	95.06
514.426	108.06
514.642	123.06
514.858	126.06
515.074	157.06
515.29	435.06
515.506	1478.06
515.721	530.06
515.937	168.06
516.153	95.06
