Data from Uncirc_1988_H10_HRD10591_00092.txt Node
Date: Wed Jan 03 12:04:22 EST 2024
User: Yrep
Spectrometer: HR+D1059
Trigger mode: 1
Integration Time (sec): 1.000000E-1
Scans to average: 1
Electric dark correction enabled: true
Nonlinearity correction enabled: false
Boxcar width: 0
XAxis mode: Wavelengths
Number of Pixels in Spectrum: 2048
>>>>>Begin Spectral Data<<<<<
223.165	-18.81
223.4	-18.81
223.635	-18.81
223.869	-6.81
224.104	-14.81
224.338	-18.81
224.573	-12.81
224.808	-7.81
225.042	-18.81
225.277	-15.81
225.511	8.19
225.746	-2.81
225.98	5.19
226.215	15.19
226.449	18.19
226.683	11.19
226.918	25.19
227.152	34.19
227.387	41.19
227.621	53.19
227.856	49.19
228.09	55.19
228.324	40.19
228.559	63.19
228.793	62.19
229.027	74.19
229.262	70.19
229.496	72.19
229.73	95.19
229.964	90.19
230.199	87.19
230.433	81.19
230.667	82.19
230.901	81.19
231.136	87.19
231.37	82.19
231.604	89.19
231.838	92.19
232.072	83.19
232.306	88.19
232.541	86.19
232.775	97.19
233.009	79.19
233.243	69.19
233.477	95.19
233.711	81.19
233.945	98.19
234.179	77.19
234.413	72.19
234.647	81.19
234.881	90.19
235.115	83.19
235.349	77.19
235.583	83.19
235.817	77.19
236.051	72.19
236.285	81.19
236.519	89.19
236.753	86.19
236.987	85.19
237.221	77.19
237.455	90.19
237.689	80.19
237.922	84.19
238.156	74.19
238.39	99.19
238.624	75.19
238.858	83.19
239.091	79.19
239.325	67.19
239.559	88.19
239.793	79.19
240.027	83.19
240.26	83.19
240.494	76.19
240.728	91.19
240.961	85.19
241.195	76.19
241.429	73.19
241.662	93.19
241.896	91.19
242.13	74.19
242.363	82.19
242.597	79.19
242.83	74.19
243.064	74.19
243.298	82.19
243.531	72.19
243.765	82.19
243.998	79.19
244.232	75.19
244.465	91.19
244.699	93.19
244.932	75.19
245.166	92.19
245.399	85.19
245.633	73.19
245.866	85.19
246.099	100.19
246.333	84.19
246.566	75.19
246.8	73.19
247.033	61.19
247.266	72.19
247.5	74.19
247.733	88.19
247.966	84.19
248.2	88.19
248.433	81.19
248.666	91.19
248.899	91.19
249.133	90.19
249.366	114.19
249.599	107.19
249.832	88.19
250.066	82.19
250.299	76.19
250.532	86.19
250.765	88.19
250.998	77.19
251.231	93.19
251.465	84.19
251.698	88.19
251.931	71.19
252.164	95.19
252.397	97.19
252.63	66.19
252.863	63.19
253.096	89.19
253.329	80.19
253.562	75.19
253.795	101.19
254.028	85.19
254.261	91.19
254.494	76.19
254.727	79.19
254.96	90.19
255.193	70.19
255.426	86.19
255.659	85.19
255.892	76.19
256.124	85.19
256.357	90.19
256.59	83.19
256.823	85.19
257.056	90.19
257.289	86.19
257.521	89.19
257.754	88.19
257.987	94.19
258.22	100.19
258.452	87.19
258.685	82.19
258.918	72.19
259.151	94.19
259.383	94.19
259.616	91.19
259.849	78.19
260.081	87.19
260.314	102.19
260.547	69.19
260.779	76.19
261.012	90.19
261.244	83.19
261.477	87.19
261.71	93.19
261.942	120.19
262.175	124.19
262.407	105.19
262.64	84.19
262.872	91.19
263.105	79.19
263.337	86.19
263.57	87.19
263.802	83.19
264.035	80.19
264.267	71.19
264.499	83.19
264.732	70.19
264.964	101.19
265.197	90.19
265.429	103.19
265.661	96.19
265.894	90.19
266.126	84.19
266.358	85.19
266.591	87.19
266.823	63.19
267.055	84.19
267.287	103.19
267.52	97.19
267.752	95.19
267.984	105.19
268.216	86.19
268.448	83.19
268.681	73.19
268.913	91.19
269.145	89.19
269.377	92.19
269.609	93.19
269.841	86.19
270.073	76.19
270.306	92.19
270.538	104.19
270.77	86.19
271.002	84.19
271.234	90.19
271.466	103.19
271.698	83.19
271.93	89.19
272.162	109.19
272.394	93.19
272.626	87.19
272.858	84.19
273.09	82.19
273.322	91.19
273.553	88.19
273.785	84.19
274.017	100.19
274.249	84.19
274.481	82.19
274.713	91.19
274.945	99.19
275.176	92.19
275.408	92.19
275.64	93.19
275.872	94.19
276.104	101.19
276.335	91.19
276.567	108.19
276.799	110.19
277.031	106.19
277.262	102.19
277.494	109.19
277.726	95.19
277.957	75.19
278.189	84.19
278.421	71.19
278.652	94.19
278.884	77.19
279.115	93.19
279.347	80.19
279.579	96.19
279.81	77.19
280.042	83.19
280.273	96.19
280.505	107.19
280.736	95.19
280.968	95.19
281.199	82.19
281.431	91.19
281.662	81.19
281.894	87.19
282.125	111.19
282.356	123.19
282.588	150.19
282.819	116.19
283.051	108.19
283.282	97.19
283.513	88.19
283.745	102.19
283.976	105.19
284.207	89.19
284.439	87.19
284.67	79.19
284.901	101.19
285.132	90.19
285.364	106.19
285.595	83.19
285.826	83.19
286.057	97.19
286.288	87.19
286.52	94.19
286.751	91.19
286.982	90.19
287.213	107.19
287.444	100.19
287.675	90.19
287.906	84.19
288.138	95.19
288.369	103.19
288.6	103.19
288.831	100.19
289.062	92.19
289.293	89.19
289.524	85.19
289.755	100.19
289.986	99.19
290.217	69.19
290.448	90.19
290.679	99.19
290.91	99.19
291.141	88.19
291.371	89.19
291.602	88.19
291.833	77.19
292.064	89.19
292.295	88.19
292.526	91.19
292.757	92.19
292.987	76.19
293.218	77.19
293.449	96.19
293.68	90.19
293.91	88.19
294.141	92.19
294.372	91.19
294.603	93.19
294.833	98.19
295.064	97.19
295.295	98.19
295.525	108.19
295.756	97.19
295.987	130.19
296.217	146.19
296.448	136.19
296.679	97.19
296.909	98.19
297.14	90.19
297.37	94.19
297.601	92.19
297.831	83.19
298.062	86.19
298.292	100.19
298.523	86.19
298.753	91.19
298.984	96.19
299.214	79.19
299.445	83.19
299.675	100.19
299.905	107.19
300.136	97.19
300.366	107.19
300.597	88.19
300.827	82.19
301.057	116.19
301.288	105.19
301.518	107.19
301.748	103.19
301.979	108.19
302.209	85.19
302.439	99.19
302.669	107.19
302.9	100.19
303.13	93.19
303.36	99.19
303.59	93.19
303.82	118.19
304.051	94.19
304.281	90.19
304.511	104.19
304.741	92.19
304.971	87.19
305.201	97.19
305.431	106.19
305.661	99.19
305.891	100.19
306.121	102.19
306.352	115.19
306.582	119.19
306.812	95.19
307.042	94.19
307.272	101.19
307.502	90.19
307.731	90.19
307.961	99.19
308.191	96.19
308.421	86.19
308.651	94.19
308.881	107.19
309.111	87.19
309.341	107.19
309.571	108.19
309.8	98.19
310.03	100.19
310.26	106.19
310.49	97.19
310.72	119.19
310.949	130.19
311.179	111.19
311.409	106.19
311.639	103.19
311.868	92.19
312.098	96.19
312.328	87.19
312.557	112.19
312.787	112.19
313.017	106.19
313.246	113.19
313.476	83.19
313.706	114.19
313.935	98.19
314.165	98.19
314.394	112.19
314.624	117.19
314.853	97.19
315.083	102.19
315.312	79.19
315.542	87.19
315.771	111.19
316.001	92.19
316.23	97.19
316.46	95.19
316.689	85.19
316.919	96.19
317.148	99.19
317.377	97.19
317.607	99.19
317.836	108.19
318.065	96.19
318.295	89.19
318.524	88.19
318.753	90.19
318.983	97.19
319.212	104.19
319.441	121.19
319.67	125.19
319.9	101.19
320.129	91.19
320.358	90.19
320.587	111.19
320.816	110.19
321.046	107.19
321.275	110.19
321.504	92.19
321.733	110.19
321.962	101.19
322.191	120.19
322.42	99.19
322.649	120.19
322.878	108.19
323.108	113.19
323.337	149.19
323.566	155.19
323.795	184.19
324.024	255.19
324.253	477.19
324.482	1063.19
324.71	2309.19
324.939	3133.19
325.168	1084.19
325.397	308.19
325.626	164.19
325.855	151.19
326.084	142.19
326.313	125.19
326.542	163.19
326.77	276.19
326.999	571.19
327.228	1238.19
327.457	2369.19
327.686	1851.19
327.914	476.19
328.143	227.19
328.372	185.19
328.6	139.19
328.829	139.19
329.058	145.19
329.287	146.19
329.515	134.19
329.744	132.19
329.972	113.19
330.201	147.19
330.43	178.19
330.658	168.19
330.887	199.19
331.115	159.19
331.344	117.19
331.572	95.19
331.801	99.19
332.03	137.19
332.258	115.19
332.486	105.19
332.715	87.19
332.943	105.19
333.172	110.19
333.4	107.19
333.629	116.19
333.857	130.19
334.085	117.19
334.314	138.19
334.542	197.19
334.771	182.19
334.999	121.19
335.227	100.19
335.455	109.19
335.684	110.19
335.912	107.19
336.14	102.19
336.369	106.19
336.597	95.19
336.825	111.19
337.053	87.19
337.281	100.19
337.51	85.19
337.738	109.19
337.966	102.19
338.194	104.19
338.422	104.19
338.65	115.19
338.878	101.19
339.106	98.19
339.334	107.19
339.562	100.19
339.79	95.19
340.018	90.19
340.246	103.19
340.474	103.19
340.702	106.19
340.93	91.19
341.158	98.19
341.386	113.19
341.614	89.19
341.842	110.19
342.07	97.19
342.298	107.19
342.526	96.19
342.754	81.19
342.981	97.19
343.209	101.19
343.437	125.19
343.665	95.19
343.893	94.19
344.12	90.19
344.348	102.19
344.576	97.19
344.804	94.19
345.031	107.19
345.259	122.19
345.487	111.19
345.714	100.19
345.942	104.19
346.17	80.19
346.397	94.19
346.625	88.19
346.853	100.19
347.08	106.19
347.308	91.19
347.535	98.19
347.763	108.19
347.99	104.19
348.218	101.19
348.445	125.19
348.673	115.19
348.9	112.19
349.128	98.19
349.355	99.19
349.583	99.19
349.81	97.19
350.037	93.19
350.265	84.19
350.492	95.19
350.72	108.19
350.947	103.19
351.174	115.19
351.402	116.19
351.629	99.19
351.856	103.19
352.083	114.19
352.311	113.19
352.538	112.19
352.765	112.19
352.992	109.19
353.22	109.19
353.447	100.19
353.674	99.19
353.901	98.19
354.128	93.19
354.355	99.19
354.583	101.19
354.81	103.19
355.037	102.19
355.264	92.19
355.491	100.19
355.718	97.19
355.945	106.19
356.172	93.19
356.399	94.19
356.626	99.19
356.853	100.19
357.08	102.19
357.307	102.19
357.534	92.19
357.761	95.19
357.988	106.19
358.215	95.19
358.441	107.19
358.668	109.19
358.895	80.19
359.122	92.19
359.349	94.19
359.576	106.19
359.802	105.19
360.029	126.19
360.256	125.19
360.483	111.19
360.709	106.19
360.936	89.19
361.163	102.19
361.39	102.19
361.616	88.19
361.843	105.19
362.07	116.19
362.296	100.19
362.523	88.19
362.749	86.19
362.976	111.19
363.203	93.19
363.429	115.19
363.656	83.19
363.882	91.19
364.109	97.19
364.335	93.19
364.562	84.19
364.788	79.19
365.015	96.19
365.241	111.19
365.468	125.19
365.694	135.19
365.92	100.19
366.147	100.19
366.373	96.19
366.599	96.19
366.826	76.19
367.052	89.19
367.278	85.19
367.505	96.19
367.731	101.19
367.957	105.19
368.184	95.19
368.41	103.19
368.636	115.19
368.862	123.19
369.089	116.19
369.315	82.19
369.541	97.19
369.767	88.19
369.993	89.19
370.219	94.19
370.445	94.19
370.672	87.19
370.898	96.19
371.124	95.19
371.35	89.19
371.576	92.19
371.802	83.19
372.028	98.19
372.254	91.19
372.48	101.19
372.706	84.19
372.932	89.19
373.158	89.19
373.384	107.19
373.61	81.19
373.835	97.19
374.061	103.19
374.287	98.19
374.513	97.19
374.739	83.19
374.965	94.19
375.191	98.19
375.416	97.19
375.642	88.19
375.868	90.19
376.094	105.19
376.319	102.19
376.545	87.19
376.771	80.19
376.997	76.19
377.222	101.19
377.448	99.19
377.674	92.19
377.899	91.19
378.125	93.19
378.35	103.19
378.576	102.19
378.802	87.19
379.027	96.19
379.253	101.19
379.478	99.19
379.704	101.19
379.929	103.19
380.155	102.19
380.38	92.19
380.606	103.19
380.831	103.19
381.057	84.19
381.282	99.19
381.507	97.19
381.733	95.19
381.958	98.19
382.184	103.19
382.409	95.19
382.634	99.19
382.86	93.19
383.085	101.19
383.31	105.19
383.535	87.19
383.761	106.19
383.986	102.19
384.211	106.19
384.436	96.19
384.662	110.19
384.887	91.19
385.112	102.19
385.337	108.19
385.562	117.19
385.787	101.19
386.013	93.19
386.238	111.19
386.463	100.19
386.688	110.19
386.913	99.19
387.138	99.19
387.363	93.19
387.588	114.19
387.813	83.19
388.038	102.19
388.263	92.19
388.488	113.19
388.713	98.19
388.938	96.19
389.163	93.19
389.387	84.19
389.612	103.19
389.837	87.19
390.062	91.19
390.287	95.19
390.512	101.19
390.736	103.19
390.961	96.19
391.186	91.19
391.411	95.19
391.636	85.19
391.86	88.19
392.085	85.19
392.31	93.19
392.534	81.19
392.759	102.19
392.984	88.19
393.208	95.19
393.433	82.19
393.658	101.19
393.882	105.19
394.107	89.19
394.331	104.19
394.556	97.19
394.78	99.19
395.005	100.19
395.229	90.19
395.454	92.19
395.678	87.19
395.903	84.19
396.127	86.19
396.352	85.19
396.576	106.19
396.801	83.19
397.025	96.19
397.249	100.19
397.474	98.19
397.698	95.19
397.922	92.19
398.147	82.19
398.371	104.19
398.595	98.19
398.82	101.19
399.044	103.19
399.268	85.19
399.492	101.19
399.717	103.19
399.941	91.19
400.165	93.19
400.389	109.19
400.613	93.19
400.837	90.19
401.062	95.19
401.286	109.19
401.51	91.19
401.734	89.19
401.958	109.19
402.182	136.19
402.406	200.19
402.63	139.19
402.854	115.19
403.078	97.19
403.302	94.19
403.526	90.19
403.75	93.19
403.974	107.19
404.198	88.19
404.422	91.19
404.645	84.19
404.869	110.19
405.093	100.19
405.317	102.19
405.541	113.19
405.765	106.19
405.988	129.19
406.212	202.19
406.436	267.19
406.66	177.19
406.883	109.19
407.107	95.19
407.331	108.19
407.555	112.19
407.778	117.19
408.002	98.19
408.226	107.19
408.449	88.19
408.673	95.19
408.896	108.19
409.12	119.19
409.344	104.19
409.567	95.19
409.791	91.19
410.014	101.19
410.238	106.19
410.461	99.19
410.685	102.19
410.908	91.19
411.132	107.19
411.355	91.19
411.578	108.19
411.802	95.19
412.025	95.19
412.249	98.19
412.472	109.19
412.695	108.19
412.919	97.19
413.142	100.19
413.365	106.19
413.589	85.19
413.812	92.19
414.035	83.19
414.258	87.19
414.482	103.19
414.705	87.19
414.928	92.19
415.151	90.19
415.374	103.19
415.597	91.19
415.821	92.19
416.044	85.19
416.267	100.19
416.49	109.19
416.713	91.19
416.936	85.19
417.159	93.19
417.382	96.19
417.605	91.19
417.828	89.19
418.051	95.19
418.274	99.19
418.497	76.19
418.72	87.19
418.943	91.19
419.166	91.19
419.389	92.19
419.611	92.19
419.834	105.19
420.057	91.19
420.28	90.19
420.503	87.19
420.726	96.19
420.948	100.19
421.171	109.19
421.394	107.19
421.617	90.19
421.839	84.19
422.062	101.19
422.285	110.19
422.507	103.19
422.73	112.19
422.953	95.19
423.175	95.19
423.398	99.19
423.621	95.19
423.843	84.19
424.066	91.19
424.288	89.19
424.511	96.19
424.733	104.19
424.956	136.19
425.178	107.19
425.401	109.19
425.623	107.19
425.846	88.19
426.068	103.19
426.291	95.19
426.513	94.19
426.735	93.19
426.958	97.19
427.18	114.19
427.402	172.19
427.625	204.19
427.847	173.19
428.069	145.19
428.292	95.19
428.514	99.19
428.736	96.19
428.958	99.19
429.181	100.19
429.403	102.19
429.625	101.19
429.847	96.19
430.069	112.19
430.292	101.19
430.514	85.19
430.736	99.19
430.958	96.19
431.18	81.19
431.402	89.19
431.624	112.19
431.846	83.19
432.068	94.19
432.29	81.19
432.512	83.19
432.734	98.19
432.956	102.19
433.178	103.19
433.4	100.19
433.622	91.19
433.844	101.19
434.066	99.19
434.287	99.19
434.509	103.19
434.731	94.19
434.953	100.19
435.175	100.19
435.397	95.19
435.618	107.19
435.84	113.19
436.062	148.19
436.284	132.19
436.505	120.19
436.727	114.19
436.949	112.19
437.17	83.19
437.392	86.19
437.614	104.19
437.835	128.19
438.057	140.19
438.278	135.19
438.5	112.19
438.721	138.19
438.943	117.19
439.165	98.19
439.386	81.19
439.608	86.19
439.829	104.19
440.05	146.19
440.272	197.19
440.493	116.19
440.715	91.19
440.936	97.19
441.158	103.19
441.379	89.19
441.6	92.19
441.822	103.19
442.043	109.19
442.264	127.19
442.486	131.19
442.707	116.19
442.928	115.19
443.149	170.19
443.371	149.19
443.592	116.19
443.813	137.19
444.034	135.19
444.255	90.19
444.476	111.19
444.698	92.19
444.919	92.19
445.14	135.19
445.361	131.19
445.582	127.19
445.803	172.19
446.024	191.19
446.245	170.19
446.466	152.19
446.687	110.19
446.908	81.19
447.129	101.19
447.35	115.19
447.571	88.19
447.792	92.19
448.013	115.19
448.234	127.19
448.455	114.19
448.675	149.19
448.896	143.19
449.117	132.19
449.338	119.19
449.559	153.19
449.779	163.19
450	101.19
450.221	101.19
450.442	79.19
450.662	105.19
450.883	117.19
451.104	134.19
451.324	102.19
451.545	94.19
451.766	105.19
451.986	82.19
452.207	100.19
452.428	85.19
452.648	117.19
452.869	115.19
453.089	128.19
453.31	126.19
453.53	94.19
453.751	95.19
453.971	121.19
454.192	121.19
454.412	85.19
454.633	99.19
454.853	92.19
455.073	92.19
455.294	102.19
455.514	112.19
455.734	90.19
455.955	104.19
456.175	102.19
456.395	104.19
456.616	74.19
456.836	85.19
457.056	93.19
457.276	79.19
457.497	88.19
457.717	92.19
457.937	93.19
458.157	100.19
458.377	104.19
458.598	114.19
458.818	178.19
459.038	209.19
459.258	159.19
459.478	102.19
459.698	88.19
459.918	100.19
460.138	97.19
460.358	95.19
460.578	91.19
460.798	113.19
461.018	102.19
461.238	93.19
461.458	82.19
461.678	83.19
461.898	99.19
462.118	104.19
462.338	87.19
462.558	85.19
462.777	73.19
462.997	76.19
463.217	89.19
463.437	75.19
463.657	86.19
463.876	96.19
464.096	80.19
464.316	92.19
464.536	102.19
464.755	110.19
464.975	128.19
465.195	190.19
465.414	203.19
465.634	110.19
465.854	103.19
466.073	91.19
466.293	94.19
466.512	87.19
466.732	79.19
466.951	75.19
467.171	99.19
467.391	95.19
467.61	111.19
467.829	127.19
468.049	112.19
468.268	125.19
468.488	101.19
468.707	92.19
468.927	89.19
469.146	86.19
469.365	98.19
469.585	81.19
469.804	105.19
470.023	111.19
470.243	90.19
470.462	115.19
470.681	124.19
470.901	92.19
471.12	96.19
471.339	103.19
471.558	98.19
471.777	87.19
471.997	100.19
472.216	139.19
472.435	207.19
472.654	105.19
472.873	109.19
473.092	95.19
473.311	101.19
473.53	95.19
473.749	99.19
473.968	91.19
474.187	116.19
474.406	99.19
474.625	81.19
474.844	93.19
475.063	78.19
475.282	97.19
475.501	87.19
475.72	97.19
475.939	88.19
476.158	74.19
476.377	88.19
476.596	93.19
476.814	96.19
477.033	89.19
477.252	92.19
477.471	88.19
477.69	86.19
477.908	94.19
478.127	97.19
478.346	98.19
478.564	96.19
478.783	107.19
479.002	97.19
479.22	84.19
479.439	113.19
479.658	106.19
479.876	111.19
480.095	82.19
480.313	91.19
480.532	83.19
480.751	88.19
480.969	150.19
481.188	316.19
481.406	215.19
481.624	115.19
481.843	87.19
482.061	98.19
482.28	80.19
482.498	98.19
482.717	88.19
482.935	81.19
483.153	96.19
483.372	87.19
483.59	105.19
483.808	89.19
484.027	95.19
484.245	82.19
484.463	105.19
484.681	92.19
484.9	97.19
485.118	93.19
485.336	96.19
485.554	94.19
485.772	108.19
485.99	97.19
486.209	115.19
486.427	104.19
486.645	126.19
486.863	121.19
487.081	104.19
487.299	97.19
487.517	110.19
487.735	100.19
487.953	87.19
488.171	97.19
488.389	101.19
488.607	100.19
488.825	89.19
489.043	79.19
489.261	94.19
489.479	85.19
489.696	102.19
489.914	92.19
490.132	88.19
490.35	101.19
490.568	104.19
490.786	86.19
491.003	97.19
491.221	103.19
491.439	92.19
491.657	101.19
491.874	88.19
492.092	97.19
492.31	102.19
492.527	105.19
492.745	87.19
492.963	92.19
493.18	100.19
493.398	103.19
493.615	78.19
493.833	107.19
494.05	103.19
494.268	82.19
494.485	107.19
494.703	89.19
494.92	83.19
495.138	85.19
495.355	95.19
495.573	100.19
495.79	86.19
496.008	108.19
496.225	92.19
496.442	101.19
496.66	103.19
496.877	85.19
497.094	79.19
497.312	84.19
497.529	105.19
497.746	104.19
497.963	108.19
498.181	88.19
498.398	104.19
498.615	130.19
498.832	112.19
499.049	114.19
499.267	94.19
499.484	77.19
499.701	90.19
499.918	92.19
500.135	97.19
500.352	98.19
500.569	81.19
500.786	95.19
501.003	100.19
501.22	95.19
501.437	97.19
501.654	116.19
501.871	113.19
502.088	90.19
502.305	87.19
502.522	101.19
502.739	98.19
502.956	95.19
503.172	97.19
503.389	96.19
503.606	123.19
503.823	105.19
504.04	118.19
504.256	99.19
504.473	96.19
504.69	103.19
504.907	91.19
505.123	86.19
505.34	95.19
505.557	91.19
505.773	103.19
505.99	90.19
506.207	89.19
506.423	92.19
506.64	103.19
506.856	93.19
507.073	86.19
507.289	76.19
507.506	111.19
507.722	121.19
507.939	122.19
508.155	96.19
508.372	92.19
508.588	94.19
508.805	97.19
509.021	113.19
509.238	109.19
509.454	102.19
509.67	120.19
509.887	127.19
510.103	154.19
510.319	247.19
510.536	932.19
510.752	3080.19
510.968	803.19
511.184	165.19
511.401	121.19
511.617	105.19
511.833	117.19
512.049	101.19
512.265	99.19
512.481	99.19
