Data from Uncirc_1988_H10_HRD10591_00003.txt Node
Date: Wed Jan 03 12:04:05 EST 2024
User: Yrep
Spectrometer: HR+D1059
Trigger mode: 1
Integration Time (sec): 1.000000E-1
Scans to average: 1
Electric dark correction enabled: true
Nonlinearity correction enabled: false
Boxcar width: 0
XAxis mode: Wavelengths
Number of Pixels in Spectrum: 2048
>>>>>Begin Spectral Data<<<<<
223.165	-10.94
223.4	-10.94
223.635	-10.94
223.869	-15.94
224.104	3.06
224.338	-22.94
224.573	-10.94
224.808	-12.94
225.042	-16.94
225.277	-14.94
225.511	6.06
225.746	1.06
225.98	11.06
226.215	0.06
226.449	13.06
226.683	27.06
226.918	25.06
227.152	19.06
227.387	33.06
227.621	41.06
227.856	34.06
228.09	39.06
228.324	48.06
228.559	57.06
228.793	48.06
229.027	58.06
229.262	66.06
229.496	64.06
229.73	69.06
229.964	85.06
230.199	68.06
230.433	80.06
230.667	77.06
230.901	84.06
231.136	71.06
231.37	69.06
231.604	83.06
231.838	84.06
232.072	73.06
232.306	69.06
232.541	91.06
232.775	66.06
233.009	99.06
233.243	78.06
233.477	77.06
233.711	70.06
233.945	54.06
234.179	86.06
234.413	85.06
234.647	76.06
234.881	72.06
235.115	72.06
235.349	80.06
235.583	71.06
235.817	94.06
236.051	79.06
236.285	82.06
236.519	81.06
236.753	67.06
236.987	78.06
237.221	75.06
237.455	84.06
237.689	82.06
237.922	68.06
238.156	75.06
238.39	87.06
238.624	67.06
238.858	85.06
239.091	77.06
239.325	89.06
239.559	93.06
239.793	81.06
240.027	81.06
240.26	65.06
240.494	65.06
240.728	76.06
240.961	69.06
241.195	86.06
241.429	78.06
241.662	81.06
241.896	55.06
242.13	72.06
242.363	77.06
242.597	92.06
242.83	87.06
243.064	84.06
243.298	81.06
243.531	70.06
243.765	88.06
243.998	78.06
244.232	83.06
244.465	86.06
244.699	92.06
244.932	75.06
245.166	79.06
245.399	69.06
245.633	63.06
245.866	79.06
246.099	80.06
246.333	93.06
246.566	85.06
246.8	86.06
247.033	66.06
247.266	79.06
247.5	69.06
247.733	70.06
247.966	56.06
248.2	85.06
248.433	73.06
248.666	81.06
248.899	67.06
249.133	71.06
249.366	97.06
249.599	85.06
249.832	76.06
250.066	70.06
250.299	85.06
250.532	84.06
250.765	84.06
250.998	81.06
251.231	71.06
251.465	93.06
251.698	72.06
251.931	73.06
252.164	65.06
252.397	71.06
252.63	77.06
252.863	74.06
253.096	71.06
253.329	84.06
253.562	87.06
253.795	83.06
254.028	72.06
254.261	75.06
254.494	65.06
254.727	78.06
254.96	79.06
255.193	80.06
255.426	80.06
255.659	70.06
255.892	85.06
256.124	72.06
256.357	67.06
256.59	88.06
256.823	71.06
257.056	79.06
257.289	90.06
257.521	83.06
257.754	83.06
257.987	83.06
258.22	86.06
258.452	68.06
258.685	83.06
258.918	87.06
259.151	81.06
259.383	90.06
259.616	80.06
259.849	72.06
260.081	80.06
260.314	79.06
260.547	84.06
260.779	82.06
261.012	90.06
261.244	73.06
261.477	92.06
261.71	84.06
261.942	110.06
262.175	101.06
262.407	90.06
262.64	87.06
262.872	77.06
263.105	83.06
263.337	83.06
263.57	76.06
263.802	88.06
264.035	88.06
264.267	76.06
264.499	86.06
264.732	93.06
264.964	91.06
265.197	91.06
265.429	86.06
265.661	89.06
265.894	94.06
266.126	87.06
266.358	93.06
266.591	82.06
266.823	95.06
267.055	86.06
267.287	86.06
267.52	85.06
267.752	96.06
267.984	89.06
268.216	79.06
268.448	86.06
268.681	70.06
268.913	75.06
269.145	72.06
269.377	83.06
269.609	87.06
269.841	80.06
270.073	83.06
270.306	85.06
270.538	97.06
270.77	86.06
271.002	73.06
271.234	96.06
271.466	82.06
271.698	75.06
271.93	96.06
272.162	77.06
272.394	72.06
272.626	92.06
272.858	88.06
273.09	97.06
273.322	98.06
273.553	91.06
273.785	82.06
274.017	79.06
274.249	78.06
274.481	87.06
274.713	79.06
274.945	84.06
275.176	78.06
275.408	83.06
275.64	82.06
275.872	79.06
276.104	81.06
276.335	85.06
276.567	88.06
276.799	96.06
277.031	91.06
277.262	91.06
277.494	89.06
277.726	100.06
277.957	91.06
278.189	79.06
278.421	84.06
278.652	86.06
278.884	93.06
279.115	83.06
279.347	82.06
279.579	99.06
279.81	87.06
280.042	89.06
280.273	83.06
280.505	92.06
280.736	83.06
280.968	93.06
281.199	92.06
281.431	100.06
281.662	88.06
281.894	81.06
282.125	98.06
282.356	98.06
282.588	118.06
282.819	103.06
283.051	99.06
283.282	91.06
283.513	84.06
283.745	87.06
283.976	85.06
284.207	77.06
284.439	84.06
284.67	85.06
284.901	79.06
285.132	84.06
285.364	87.06
285.595	79.06
285.826	77.06
286.057	83.06
286.288	88.06
286.52	89.06
286.751	72.06
286.982	100.06
287.213	80.06
287.444	76.06
287.675	84.06
287.906	81.06
288.138	75.06
288.369	88.06
288.6	80.06
288.831	86.06
289.062	102.06
289.293	86.06
289.524	92.06
289.755	89.06
289.986	80.06
290.217	76.06
290.448	86.06
290.679	82.06
290.91	80.06
291.141	83.06
291.371	88.06
291.602	86.06
291.833	92.06
292.064	91.06
292.295	81.06
292.526	92.06
292.757	87.06
292.987	86.06
293.218	94.06
293.449	95.06
293.68	72.06
293.91	87.06
294.141	96.06
294.372	90.06
294.603	91.06
294.833	85.06
295.064	89.06
295.295	86.06
295.525	92.06
295.756	88.06
295.987	104.06
296.217	119.06
296.448	99.06
296.679	96.06
296.909	79.06
297.14	82.06
297.37	96.06
297.601	76.06
297.831	75.06
298.062	76.06
298.292	90.06
298.523	91.06
298.753	87.06
298.984	84.06
299.214	97.06
299.445	73.06
299.675	92.06
299.905	91.06
300.136	101.06
300.366	81.06
300.597	73.06
300.827	91.06
301.057	99.06
301.288	95.06
301.518	87.06
301.748	78.06
301.979	85.06
302.209	93.06
302.439	84.06
302.669	76.06
302.9	90.06
303.13	91.06
303.36	83.06
303.59	101.06
303.82	102.06
304.051	93.06
304.281	84.06
304.511	88.06
304.741	84.06
304.971	79.06
305.201	85.06
305.431	82.06
305.661	79.06
305.891	91.06
306.121	93.06
306.352	94.06
306.582	84.06
306.812	79.06
307.042	86.06
307.272	92.06
307.502	98.06
307.731	94.06
307.961	95.06
308.191	86.06
308.421	97.06
308.651	86.06
308.881	98.06
309.111	85.06
309.341	89.06
309.571	85.06
309.8	101.06
310.03	92.06
310.26	91.06
310.49	79.06
310.72	90.06
310.949	96.06
311.179	85.06
311.409	77.06
311.639	93.06
311.868	93.06
312.098	102.06
312.328	93.06
312.557	93.06
312.787	91.06
313.017	94.06
313.246	89.06
313.476	87.06
313.706	84.06
313.935	85.06
314.165	104.06
314.394	88.06
314.624	111.06
314.853	86.06
315.083	101.06
315.312	99.06
315.542	93.06
315.771	78.06
316.001	91.06
316.23	91.06
316.46	86.06
316.689	86.06
316.919	105.06
317.148	89.06
317.377	87.06
317.607	91.06
317.836	86.06
318.065	100.06
318.295	101.06
318.524	98.06
318.753	89.06
318.983	100.06
319.212	95.06
319.441	102.06
319.67	96.06
319.9	97.06
320.129	79.06
320.358	98.06
320.587	85.06
320.816	94.06
321.046	90.06
321.275	87.06
321.504	89.06
321.733	88.06
321.962	103.06
322.191	88.06
322.42	102.06
322.649	102.06
322.878	112.06
323.108	109.06
323.337	112.06
323.566	114.06
323.795	134.06
324.024	169.06
324.253	328.06
324.482	699.06
324.71	1399.06
324.939	1851.06
325.168	696.06
325.397	214.06
325.626	126.06
325.855	123.06
326.084	117.06
326.313	129.06
326.542	140.06
326.77	208.06
326.999	387.06
327.228	832.06
327.457	1489.06
327.686	1147.06
327.914	295.06
328.143	146.06
328.372	126.06
328.6	116.06
328.829	105.06
329.058	110.06
329.287	107.06
329.515	115.06
329.744	101.06
329.972	92.06
330.201	98.06
330.43	109.06
330.658	105.06
330.887	126.06
331.115	105.06
331.344	94.06
331.572	91.06
331.801	109.06
332.03	97.06
332.258	77.06
332.486	94.06
332.715	107.06
332.943	89.06
333.172	96.06
333.4	85.06
333.629	93.06
333.857	115.06
334.085	88.06
334.314	80.06
334.542	89.06
334.771	100.06
334.999	95.06
335.227	94.06
335.455	79.06
335.684	102.06
335.912	86.06
336.14	95.06
336.369	117.06
336.597	89.06
336.825	89.06
337.053	103.06
337.281	93.06
337.51	91.06
337.738	93.06
337.966	89.06
338.194	102.06
338.422	102.06
338.65	97.06
338.878	103.06
339.106	92.06
339.334	88.06
339.562	96.06
339.79	88.06
340.018	88.06
340.246	80.06
340.474	96.06
340.702	97.06
340.93	87.06
341.158	77.06
341.386	95.06
341.614	93.06
341.842	102.06
342.07	102.06
342.298	88.06
342.526	94.06
342.754	87.06
342.981	97.06
343.209	95.06
343.437	106.06
343.665	88.06
343.893	97.06
344.12	100.06
344.348	88.06
344.576	69.06
344.804	91.06
345.031	96.06
345.259	93.06
345.487	97.06
345.714	97.06
345.942	91.06
346.17	94.06
346.397	85.06
346.625	97.06
346.853	83.06
347.08	75.06
347.308	109.06
347.535	87.06
347.763	93.06
347.99	84.06
348.218	87.06
348.445	100.06
348.673	96.06
348.9	84.06
349.128	82.06
349.355	96.06
349.583	109.06
349.81	92.06
350.037	104.06
350.265	104.06
350.492	89.06
350.72	101.06
350.947	99.06
351.174	99.06
351.402	112.06
351.629	85.06
351.856	96.06
352.083	94.06
352.311	86.06
352.538	82.06
352.765	110.06
352.992	111.06
353.22	91.06
353.447	91.06
353.674	99.06
353.901	97.06
354.128	102.06
354.355	88.06
354.583	101.06
354.81	73.06
355.037	106.06
355.264	103.06
355.491	91.06
355.718	92.06
355.945	98.06
356.172	95.06
356.399	102.06
356.626	71.06
356.853	93.06
357.08	94.06
357.307	97.06
357.534	88.06
357.761	86.06
357.988	100.06
358.215	90.06
358.441	81.06
358.668	84.06
358.895	99.06
359.122	101.06
359.349	95.06
359.576	87.06
359.802	100.06
360.029	113.06
360.256	97.06
360.483	100.06
360.709	79.06
360.936	83.06
361.163	93.06
361.39	93.06
361.616	84.06
361.843	101.06
362.07	98.06
362.296	95.06
362.523	89.06
362.749	104.06
362.976	81.06
363.203	95.06
363.429	87.06
363.656	104.06
363.882	106.06
364.109	104.06
364.335	89.06
364.562	94.06
364.788	96.06
365.015	89.06
365.241	104.06
365.468	111.06
365.694	106.06
365.92	96.06
366.147	90.06
366.373	92.06
366.599	96.06
366.826	88.06
367.052	81.06
367.278	91.06
367.505	97.06
367.731	86.06
367.957	88.06
368.184	83.06
368.41	92.06
368.636	120.06
368.862	116.06
369.089	92.06
369.315	92.06
369.541	91.06
369.767	85.06
369.993	97.06
370.219	93.06
370.445	80.06
370.672	88.06
370.898	90.06
371.124	86.06
371.35	96.06
371.576	98.06
371.802	87.06
372.028	86.06
372.254	91.06
372.48	94.06
372.706	91.06
372.932	103.06
373.158	99.06
373.384	94.06
373.61	94.06
373.835	96.06
374.061	95.06
374.287	91.06
374.513	76.06
374.739	97.06
374.965	87.06
375.191	92.06
375.416	89.06
375.642	90.06
375.868	105.06
376.094	72.06
376.319	78.06
376.545	113.06
376.771	91.06
376.997	85.06
377.222	96.06
377.448	97.06
377.674	97.06
377.899	87.06
378.125	88.06
378.35	109.06
378.576	99.06
378.802	89.06
379.027	92.06
379.253	97.06
379.478	89.06
379.704	94.06
379.929	93.06
380.155	96.06
380.38	95.06
380.606	94.06
380.831	100.06
381.057	100.06
381.282	88.06
381.507	91.06
381.733	93.06
381.958	90.06
382.184	96.06
382.409	103.06
382.634	113.06
382.86	94.06
383.085	93.06
383.31	94.06
383.535	101.06
383.761	84.06
383.986	112.06
384.211	86.06
384.436	107.06
384.662	108.06
384.887	107.06
385.112	92.06
385.337	104.06
385.562	105.06
385.787	117.06
386.013	114.06
386.238	102.06
386.463	102.06
386.688	108.06
386.913	89.06
387.138	103.06
387.363	103.06
387.588	107.06
387.813	109.06
388.038	111.06
388.263	103.06
388.488	119.06
388.713	107.06
388.938	97.06
389.163	113.06
389.387	110.06
389.612	92.06
389.837	87.06
390.062	100.06
390.287	93.06
390.512	95.06
390.736	93.06
390.961	84.06
391.186	88.06
391.411	98.06
391.636	100.06
391.86	88.06
392.085	97.06
392.31	91.06
392.534	87.06
392.759	84.06
392.984	91.06
393.208	92.06
393.433	95.06
393.658	91.06
393.882	95.06
394.107	93.06
394.331	91.06
394.556	81.06
394.78	79.06
395.005	82.06
395.229	95.06
395.454	90.06
395.678	83.06
395.903	96.06
396.127	109.06
396.352	83.06
396.576	80.06
396.801	94.06
397.025	103.06
397.249	87.06
397.474	92.06
397.698	69.06
397.922	95.06
398.147	101.06
398.371	88.06
398.595	96.06
398.82	88.06
399.044	81.06
399.268	78.06
399.492	83.06
399.717	95.06
399.941	102.06
400.165	87.06
400.389	94.06
400.613	88.06
400.837	92.06
401.062	83.06
401.286	84.06
401.51	85.06
401.734	89.06
401.958	87.06
402.182	109.06
402.406	103.06
402.63	105.06
402.854	99.06
403.078	87.06
403.302	91.06
403.526	98.06
403.75	79.06
403.974	96.06
404.198	81.06
404.422	92.06
404.645	80.06
404.869	92.06
405.093	92.06
405.317	83.06
405.541	99.06
405.765	104.06
405.988	100.06
406.212	140.06
406.436	165.06
406.66	123.06
406.883	97.06
407.107	93.06
407.331	103.06
407.555	94.06
407.778	101.06
408.002	87.06
408.226	85.06
408.449	99.06
408.673	76.06
408.896	94.06
409.12	93.06
409.344	92.06
409.567	93.06
409.791	91.06
410.014	95.06
410.238	85.06
410.461	106.06
410.685	103.06
410.908	95.06
411.132	102.06
411.355	95.06
411.578	85.06
411.802	99.06
412.025	80.06
412.249	89.06
412.472	89.06
412.695	71.06
412.919	89.06
413.142	93.06
413.365	84.06
413.589	80.06
413.812	87.06
414.035	92.06
414.258	101.06
414.482	99.06
414.705	92.06
414.928	100.06
415.151	84.06
415.374	97.06
415.597	81.06
415.821	93.06
416.044	100.06
416.267	78.06
416.49	83.06
416.713	79.06
416.936	94.06
417.159	85.06
417.382	81.06
417.605	90.06
417.828	95.06
418.051	78.06
418.274	85.06
418.497	73.06
418.72	92.06
418.943	92.06
419.166	104.06
419.389	85.06
419.611	81.06
419.834	90.06
420.057	91.06
420.28	85.06
420.503	88.06
420.726	87.06
420.948	81.06
421.171	89.06
421.394	91.06
421.617	97.06
421.839	88.06
422.062	78.06
422.285	73.06
422.507	103.06
422.73	108.06
422.953	101.06
423.175	98.06
423.398	86.06
423.621	81.06
423.843	90.06
424.066	88.06
424.288	90.06
424.511	94.06
424.733	83.06
424.956	101.06
425.178	86.06
425.401	111.06
425.623	94.06
425.846	85.06
426.068	86.06
426.291	73.06
426.513	84.06
426.735	101.06
426.958	105.06
427.18	92.06
427.402	136.06
427.625	145.06
427.847	113.06
428.069	100.06
428.292	85.06
428.514	101.06
428.736	87.06
428.958	94.06
429.181	86.06
429.403	75.06
429.625	75.06
429.847	103.06
430.069	104.06
430.292	89.06
430.514	89.06
430.736	84.06
430.958	88.06
431.18	83.06
431.402	84.06
431.624	83.06
431.846	89.06
432.068	82.06
432.29	89.06
432.512	87.06
432.734	92.06
432.956	97.06
433.178	101.06
433.4	85.06
433.622	85.06
433.844	92.06
434.066	94.06
434.287	87.06
434.509	86.06
434.731	89.06
434.953	100.06
435.175	79.06
435.397	83.06
435.618	92.06
435.84	106.06
436.062	132.06
436.284	120.06
436.505	96.06
436.727	98.06
436.949	99.06
437.17	83.06
437.392	91.06
437.614	89.06
437.835	87.06
438.057	97.06
438.278	114.06
438.5	108.06
438.721	123.06
438.943	110.06
439.165	94.06
439.386	82.06
439.608	94.06
439.829	85.06
440.05	126.06
440.272	111.06
440.493	95.06
440.715	73.06
440.936	94.06
441.158	95.06
441.379	93.06
441.6	87.06
441.822	90.06
442.043	94.06
442.264	105.06
442.486	103.06
442.707	85.06
442.928	91.06
443.149	120.06
443.371	122.06
443.592	116.06
443.813	113.06
444.034	97.06
444.255	97.06
444.476	82.06
444.698	109.06
444.919	85.06
445.14	139.06
445.361	129.06
445.582	117.06
445.803	127.06
446.024	109.06
446.245	125.06
446.466	110.06
446.687	100.06
446.908	83.06
447.129	85.06
447.35	83.06
447.571	88.06
447.792	82.06
448.013	90.06
448.234	108.06
448.455	102.06
448.675	122.06
448.896	108.06
449.117	88.06
449.338	97.06
449.559	124.06
449.779	123.06
450	88.06
450.221	99.06
450.442	102.06
450.662	86.06
450.883	106.06
451.104	103.06
451.324	91.06
451.545	88.06
451.766	74.06
451.986	85.06
452.207	96.06
452.428	89.06
452.648	92.06
452.869	112.06
453.089	96.06
453.31	95.06
453.53	86.06
453.751	91.06
453.971	105.06
454.192	121.06
454.412	96.06
454.633	81.06
454.853	83.06
455.073	89.06
455.294	97.06
455.514	93.06
455.734	87.06
455.955	77.06
456.175	87.06
456.395	92.06
456.616	83.06
456.836	89.06
457.056	87.06
457.276	100.06
457.497	96.06
457.717	68.06
457.937	95.06
458.157	89.06
458.377	76.06
458.598	101.06
458.818	119.06
459.038	115.06
459.258	101.06
459.478	76.06
459.698	82.06
459.918	92.06
460.138	82.06
460.358	78.06
460.578	91.06
460.798	81.06
461.018	80.06
461.238	72.06
461.458	83.06
461.678	95.06
461.898	88.06
462.118	87.06
462.338	79.06
462.558	84.06
462.777	88.06
462.997	100.06
463.217	94.06
463.437	77.06
463.657	79.06
463.876	75.06
464.096	80.06
464.316	94.06
464.536	83.06
464.755	97.06
464.975	97.06
465.195	118.06
465.414	120.06
465.634	89.06
465.854	93.06
466.073	93.06
466.293	85.06
466.512	80.06
466.732	87.06
466.951	80.06
467.171	89.06
467.391	86.06
467.61	99.06
467.829	88.06
468.049	100.06
468.268	95.06
468.488	88.06
468.707	69.06
468.927	80.06
469.146	81.06
469.365	99.06
469.585	88.06
469.804	98.06
470.023	92.06
470.243	87.06
470.462	105.06
470.681	97.06
470.901	100.06
471.12	89.06
471.339	84.06
471.558	81.06
471.777	81.06
471.997	82.06
472.216	99.06
472.435	96.06
472.654	100.06
472.873	98.06
473.092	80.06
473.311	80.06
473.53	99.06
473.749	79.06
473.968	87.06
474.187	83.06
474.406	83.06
474.625	96.06
474.844	92.06
475.063	80.06
475.282	85.06
475.501	78.06
475.72	86.06
475.939	83.06
476.158	100.06
476.377	103.06
476.596	86.06
476.814	82.06
477.033	81.06
477.252	94.06
477.471	83.06
477.69	87.06
477.908	81.06
478.127	99.06
478.346	81.06
478.564	89.06
478.783	93.06
479.002	86.06
479.22	90.06
479.439	100.06
479.658	95.06
479.876	92.06
480.095	86.06
480.313	88.06
480.532	81.06
480.751	83.06
480.969	82.06
481.188	92.06
481.406	96.06
481.624	92.06
481.843	94.06
482.061	98.06
482.28	90.06
482.498	86.06
482.717	102.06
482.935	88.06
483.153	93.06
483.372	87.06
483.59	91.06
483.808	84.06
484.027	96.06
484.245	86.06
484.463	95.06
484.681	87.06
484.9	100.06
485.118	83.06
485.336	91.06
485.554	97.06
485.772	103.06
485.99	103.06
486.209	118.06
486.427	104.06
486.645	110.06
486.863	97.06
487.081	101.06
487.299	97.06
487.517	85.06
487.735	94.06
487.953	97.06
488.171	93.06
488.389	92.06
488.607	108.06
488.825	91.06
489.043	89.06
489.261	84.06
489.479	82.06
489.696	89.06
489.914	81.06
490.132	97.06
490.35	96.06
490.568	85.06
490.786	98.06
491.003	90.06
491.221	91.06
491.439	98.06
491.657	88.06
491.874	83.06
492.092	85.06
492.31	73.06
492.527	87.06
492.745	85.06
492.963	94.06
493.18	88.06
493.398	81.06
493.615	84.06
493.833	73.06
494.05	88.06
494.268	93.06
494.485	82.06
494.703	88.06
494.92	85.06
495.138	102.06
495.355	90.06
495.573	96.06
495.79	76.06
496.008	92.06
496.225	75.06
496.442	87.06
496.66	78.06
496.877	93.06
497.094	96.06
497.312	101.06
497.529	77.06
497.746	99.06
497.963	97.06
498.181	85.06
498.398	88.06
498.615	98.06
498.832	104.06
499.049	93.06
499.267	99.06
499.484	98.06
499.701	91.06
499.918	84.06
500.135	95.06
500.352	97.06
500.569	87.06
500.786	103.06
501.003	82.06
501.22	89.06
501.437	97.06
501.654	85.06
501.871	92.06
502.088	98.06
502.305	90.06
502.522	92.06
502.739	94.06
502.956	87.06
503.172	90.06
503.389	103.06
503.606	98.06
503.823	97.06
504.04	101.06
504.256	86.06
504.473	86.06
504.69	89.06
504.907	90.06
505.123	80.06
505.34	79.06
505.557	97.06
505.773	91.06
505.99	88.06
506.207	83.06
506.423	95.06
506.64	93.06
506.856	71.06
507.073	103.06
507.289	97.06
507.506	97.06
507.722	110.06
507.939	103.06
508.155	93.06
508.372	93.06
508.588	97.06
508.805	96.06
509.021	93.06
509.238	83.06
509.454	88.06
509.67	100.06
509.887	105.06
510.103	124.06
510.319	173.06
510.536	513.06
510.752	1484.06
510.968	424.06
511.184	145.06
511.401	102.06
511.617	99.06
511.833	96.06
512.049	94.06
512.265	83.06
512.481	98.06
512.698	91.06
512.914	96.06
513.13	89.06
513.346	94.06
513.562	100.06
513.778	98.06
513.994	92.06
514.21	100.06
514.426	114.06
514.642	118.06
514.858	121.06
515.074	141.06
515.29	331.06
515.506	925.06
515.721	347.06
515.937	132.06
516.153	103.06
516.369	95.06
