Data from Uncirc_1988_H10_HRD10591_00085.txt Node
Date: Wed Jan 03 12:04:21 EST 2024
User: Yrep
Spectrometer: HR+D1059
Trigger mode: 1
Integration Time (sec): 1.000000E-1
Scans to average: 1
Electric dark correction enabled: true
Nonlinearity correction enabled: false
Boxcar width: 0
XAxis mode: Wavelengths
Number of Pixels in Spectrum: 2048
>>>>>Begin Spectral Data<<<<<
223.165	-19.81
223.4	-19.81
223.635	-19.81
223.869	-16.81
224.104	-9.81
224.338	-11.81
224.573	-21.81
224.808	-5.81
225.042	-1.81
225.277	-12.81
225.511	-1.81
225.746	-6.81
225.98	13.19
226.215	6.19
226.449	18.19
226.683	13.19
226.918	22.19
227.152	36.19
227.387	27.19
227.621	40.19
227.856	41.19
228.09	47.19
228.324	52.19
228.559	41.19
228.793	59.19
229.027	56.19
229.262	71.19
229.496	78.19
229.73	73.19
229.964	76.19
230.199	84.19
230.433	80.19
230.667	82.19
230.901	72.19
231.136	90.19
231.37	79.19
231.604	67.19
231.838	83.19
232.072	71.19
232.306	84.19
232.541	85.19
232.775	81.19
233.009	96.19
233.243	92.19
233.477	73.19
233.711	83.19
233.945	82.19
234.179	76.19
234.413	80.19
234.647	74.19
234.881	76.19
235.115	72.19
235.349	72.19
235.583	61.19
235.817	68.19
236.051	79.19
236.285	86.19
236.519	55.19
236.753	76.19
236.987	84.19
237.221	83.19
237.455	78.19
237.689	86.19
237.922	86.19
238.156	83.19
238.39	93.19
238.624	56.19
238.858	80.19
239.091	74.19
239.325	71.19
239.559	81.19
239.793	82.19
240.027	84.19
240.26	71.19
240.494	76.19
240.728	66.19
240.961	70.19
241.195	78.19
241.429	80.19
241.662	76.19
241.896	85.19
242.13	76.19
242.363	76.19
242.597	61.19
242.83	66.19
243.064	70.19
243.298	74.19
243.531	68.19
243.765	71.19
243.998	66.19
244.232	68.19
244.465	95.19
244.699	86.19
244.932	81.19
245.166	82.19
245.399	93.19
245.633	82.19
245.866	82.19
246.099	81.19
246.333	73.19
246.566	63.19
246.8	77.19
247.033	84.19
247.266	79.19
247.5	76.19
247.733	66.19
247.966	85.19
248.2	82.19
248.433	89.19
248.666	79.19
248.899	94.19
249.133	82.19
249.366	86.19
249.599	94.19
249.832	85.19
250.066	90.19
250.299	80.19
250.532	68.19
250.765	84.19
250.998	73.19
251.231	80.19
251.465	82.19
251.698	87.19
251.931	78.19
252.164	78.19
252.397	73.19
252.63	84.19
252.863	82.19
253.096	77.19
253.329	74.19
253.562	76.19
253.795	66.19
254.028	78.19
254.261	74.19
254.494	83.19
254.727	84.19
254.96	63.19
255.193	84.19
255.426	78.19
255.659	78.19
255.892	88.19
256.124	71.19
256.357	87.19
256.59	89.19
256.823	97.19
257.056	79.19
257.289	74.19
257.521	85.19
257.754	89.19
257.987	98.19
258.22	89.19
258.452	73.19
258.685	93.19
258.918	82.19
259.151	105.19
259.383	84.19
259.616	89.19
259.849	84.19
260.081	80.19
260.314	89.19
260.547	84.19
260.779	86.19
261.012	84.19
261.244	80.19
261.477	88.19
261.71	98.19
261.942	97.19
262.175	104.19
262.407	84.19
262.64	69.19
262.872	82.19
263.105	68.19
263.337	84.19
263.57	92.19
263.802	75.19
264.035	87.19
264.267	90.19
264.499	98.19
264.732	82.19
264.964	80.19
265.197	79.19
265.429	98.19
265.661	83.19
265.894	82.19
266.126	84.19
266.358	91.19
266.591	86.19
266.823	98.19
267.055	80.19
267.287	74.19
267.52	66.19
267.752	86.19
267.984	81.19
268.216	91.19
268.448	78.19
268.681	70.19
268.913	84.19
269.145	77.19
269.377	85.19
269.609	76.19
269.841	89.19
270.073	94.19
270.306	99.19
270.538	81.19
270.77	78.19
271.002	78.19
271.234	88.19
271.466	82.19
271.698	85.19
271.93	77.19
272.162	83.19
272.394	85.19
272.626	92.19
272.858	78.19
273.09	97.19
273.322	79.19
273.553	79.19
273.785	78.19
274.017	88.19
274.249	88.19
274.481	76.19
274.713	87.19
274.945	88.19
275.176	92.19
275.408	103.19
275.64	86.19
275.872	83.19
276.104	86.19
276.335	99.19
276.567	101.19
276.799	127.19
277.031	102.19
277.262	99.19
277.494	88.19
277.726	90.19
277.957	93.19
278.189	82.19
278.421	92.19
278.652	92.19
278.884	85.19
279.115	85.19
279.347	94.19
279.579	83.19
279.81	86.19
280.042	81.19
280.273	95.19
280.505	85.19
280.736	91.19
280.968	86.19
281.199	101.19
281.431	87.19
281.662	94.19
281.894	95.19
282.125	99.19
282.356	103.19
282.588	130.19
282.819	118.19
283.051	86.19
283.282	82.19
283.513	83.19
283.745	86.19
283.976	82.19
284.207	84.19
284.439	93.19
284.67	84.19
284.901	79.19
285.132	94.19
285.364	83.19
285.595	83.19
285.826	104.19
286.057	78.19
286.288	82.19
286.52	88.19
286.751	87.19
286.982	83.19
287.213	89.19
287.444	74.19
287.675	94.19
287.906	91.19
288.138	94.19
288.369	91.19
288.6	98.19
288.831	101.19
289.062	92.19
289.293	85.19
289.524	87.19
289.755	88.19
289.986	92.19
290.217	80.19
290.448	84.19
290.679	85.19
290.91	89.19
291.141	74.19
291.371	92.19
291.602	88.19
291.833	81.19
292.064	82.19
292.295	97.19
292.526	77.19
292.757	92.19
292.987	85.19
293.218	100.19
293.449	85.19
293.68	86.19
293.91	84.19
294.141	78.19
294.372	89.19
294.603	89.19
294.833	86.19
295.064	100.19
295.295	83.19
295.525	91.19
295.756	92.19
295.987	103.19
296.217	124.19
296.448	118.19
296.679	103.19
296.909	101.19
297.14	82.19
297.37	95.19
297.601	79.19
297.831	85.19
298.062	94.19
298.292	98.19
298.523	97.19
298.753	82.19
298.984	81.19
299.214	88.19
299.445	92.19
299.675	107.19
299.905	96.19
300.136	87.19
300.366	84.19
300.597	84.19
300.827	96.19
301.057	86.19
301.288	104.19
301.518	96.19
301.748	99.19
301.979	110.19
302.209	87.19
302.439	92.19
302.669	96.19
302.9	79.19
303.13	79.19
303.36	97.19
303.59	100.19
303.82	100.19
304.051	92.19
304.281	101.19
304.511	92.19
304.741	82.19
304.971	76.19
305.201	90.19
305.431	85.19
305.661	88.19
305.891	87.19
306.121	97.19
306.352	100.19
306.582	100.19
306.812	91.19
307.042	93.19
307.272	95.19
307.502	98.19
307.731	91.19
307.961	83.19
308.191	95.19
308.421	93.19
308.651	107.19
308.881	100.19
309.111	93.19
309.341	87.19
309.571	100.19
309.8	109.19
310.03	101.19
310.26	102.19
310.49	89.19
310.72	102.19
310.949	101.19
311.179	95.19
311.409	98.19
311.639	89.19
311.868	98.19
312.098	76.19
312.328	93.19
312.557	105.19
312.787	105.19
313.017	108.19
313.246	110.19
313.476	85.19
313.706	85.19
313.935	87.19
314.165	78.19
314.394	102.19
314.624	102.19
314.853	101.19
315.083	104.19
315.312	94.19
315.542	82.19
315.771	97.19
316.001	93.19
316.23	94.19
316.46	90.19
316.689	96.19
316.919	65.19
317.148	103.19
317.377	95.19
317.607	81.19
317.836	75.19
318.065	85.19
318.295	72.19
318.524	84.19
318.753	88.19
318.983	93.19
319.212	100.19
319.441	117.19
319.67	101.19
319.9	85.19
320.129	74.19
320.358	82.19
320.587	90.19
320.816	105.19
321.046	103.19
321.275	100.19
321.504	92.19
321.733	93.19
321.962	103.19
322.191	110.19
322.42	115.19
322.649	111.19
322.878	113.19
323.108	119.19
323.337	135.19
323.566	124.19
323.795	146.19
324.024	212.19
324.253	374.19
324.482	842.19
324.71	1764.19
324.939	2264.19
325.168	831.19
325.397	242.19
325.626	146.19
325.855	116.19
326.084	127.19
326.313	124.19
326.542	145.19
326.77	225.19
326.999	453.19
327.228	964.19
327.457	1745.19
327.686	1435.19
327.914	373.19
328.143	199.19
328.372	159.19
328.6	134.19
328.829	110.19
329.058	123.19
329.287	113.19
329.515	107.19
329.744	104.19
329.972	112.19
330.201	117.19
330.43	135.19
330.658	118.19
330.887	144.19
331.115	122.19
331.344	94.19
331.572	97.19
331.801	96.19
332.03	93.19
332.258	108.19
332.486	92.19
332.715	109.19
332.943	93.19
333.172	96.19
333.4	95.19
333.629	99.19
333.857	123.19
334.085	100.19
334.314	109.19
334.542	128.19
334.771	118.19
334.999	102.19
335.227	105.19
335.455	97.19
335.684	111.19
335.912	92.19
336.14	106.19
336.369	104.19
336.597	81.19
336.825	100.19
337.053	104.19
337.281	98.19
337.51	79.19
337.738	93.19
337.966	102.19
338.194	87.19
338.422	94.19
338.65	91.19
338.878	103.19
339.106	95.19
339.334	86.19
339.562	74.19
339.79	95.19
340.018	107.19
340.246	102.19
340.474	98.19
340.702	87.19
340.93	105.19
341.158	103.19
341.386	95.19
341.614	97.19
341.842	96.19
342.07	83.19
342.298	98.19
342.526	94.19
342.754	83.19
342.981	86.19
343.209	91.19
343.437	95.19
343.665	77.19
343.893	101.19
344.12	99.19
344.348	88.19
344.576	92.19
344.804	88.19
345.031	100.19
345.259	97.19
345.487	97.19
345.714	80.19
345.942	86.19
346.17	101.19
346.397	101.19
346.625	91.19
346.853	99.19
347.08	105.19
347.308	104.19
347.535	106.19
347.763	88.19
347.99	83.19
348.218	89.19
348.445	113.19
348.673	111.19
348.9	101.19
349.128	87.19
349.355	84.19
349.583	100.19
349.81	96.19
350.037	79.19
350.265	82.19
350.492	101.19
350.72	93.19
350.947	111.19
351.174	98.19
351.402	96.19
351.629	89.19
351.856	106.19
352.083	98.19
352.311	109.19
352.538	125.19
352.765	104.19
352.992	109.19
353.22	125.19
353.447	99.19
353.674	88.19
353.901	86.19
354.128	84.19
354.355	85.19
354.583	93.19
354.81	92.19
355.037	88.19
355.264	102.19
355.491	98.19
355.718	97.19
355.945	104.19
356.172	104.19
356.399	95.19
356.626	96.19
356.853	98.19
357.08	88.19
357.307	92.19
357.534	87.19
357.761	87.19
357.988	104.19
358.215	103.19
358.441	93.19
358.668	72.19
358.895	81.19
359.122	90.19
359.349	78.19
359.576	92.19
359.802	99.19
360.029	112.19
360.256	107.19
360.483	106.19
360.709	91.19
360.936	105.19
361.163	88.19
361.39	88.19
361.616	95.19
361.843	104.19
362.07	85.19
362.296	94.19
362.523	78.19
362.749	94.19
362.976	87.19
363.203	88.19
363.429	98.19
363.656	89.19
363.882	92.19
364.109	96.19
364.335	85.19
364.562	97.19
364.788	87.19
365.015	100.19
365.241	97.19
365.468	117.19
365.694	120.19
365.92	101.19
366.147	92.19
366.373	90.19
366.599	90.19
366.826	91.19
367.052	87.19
367.278	89.19
367.505	93.19
367.731	103.19
367.957	72.19
368.184	96.19
368.41	86.19
368.636	113.19
368.862	125.19
369.089	115.19
369.315	101.19
369.541	84.19
369.767	87.19
369.993	89.19
370.219	92.19
370.445	89.19
370.672	88.19
370.898	79.19
371.124	81.19
371.35	80.19
371.576	79.19
371.802	92.19
372.028	84.19
372.254	77.19
372.48	88.19
372.706	91.19
372.932	85.19
373.158	92.19
373.384	90.19
373.61	86.19
373.835	100.19
374.061	89.19
374.287	116.19
374.513	92.19
374.739	86.19
374.965	88.19
375.191	97.19
375.416	98.19
375.642	86.19
375.868	85.19
376.094	83.19
376.319	96.19
376.545	87.19
376.771	88.19
376.997	78.19
377.222	87.19
377.448	96.19
377.674	70.19
377.899	84.19
378.125	94.19
378.35	94.19
378.576	84.19
378.802	89.19
379.027	84.19
379.253	86.19
379.478	92.19
379.704	94.19
379.929	93.19
380.155	102.19
380.38	92.19
380.606	93.19
380.831	90.19
381.057	93.19
381.282	99.19
381.507	81.19
381.733	105.19
381.958	86.19
382.184	109.19
382.409	105.19
382.634	105.19
382.86	92.19
383.085	87.19
383.31	97.19
383.535	112.19
383.761	96.19
383.986	110.19
384.211	93.19
384.436	92.19
384.662	98.19
384.887	98.19
385.112	114.19
385.337	92.19
385.562	83.19
385.787	106.19
386.013	108.19
386.238	102.19
386.463	98.19
386.688	104.19
386.913	103.19
387.138	95.19
387.363	103.19
387.588	92.19
387.813	95.19
388.038	93.19
388.263	110.19
388.488	101.19
388.713	96.19
388.938	90.19
389.163	94.19
389.387	99.19
389.612	102.19
389.837	83.19
390.062	102.19
390.287	104.19
390.512	83.19
390.736	105.19
390.961	80.19
391.186	85.19
391.411	103.19
391.636	97.19
391.86	85.19
392.085	84.19
392.31	87.19
392.534	76.19
392.759	88.19
392.984	80.19
393.208	86.19
393.433	105.19
393.658	74.19
393.882	97.19
394.107	103.19
394.331	76.19
394.556	78.19
394.78	91.19
395.005	86.19
395.229	61.19
395.454	95.19
395.678	78.19
395.903	91.19
396.127	92.19
396.352	86.19
396.576	81.19
396.801	82.19
397.025	87.19
397.249	88.19
397.474	89.19
397.698	93.19
397.922	84.19
398.147	86.19
398.371	87.19
398.595	88.19
398.82	72.19
399.044	89.19
399.268	87.19
399.492	87.19
399.717	89.19
399.941	83.19
400.165	89.19
400.389	88.19
400.613	83.19
400.837	74.19
401.062	88.19
401.286	93.19
401.51	96.19
401.734	95.19
401.958	98.19
402.182	130.19
402.406	156.19
402.63	120.19
402.854	93.19
403.078	93.19
403.302	84.19
403.526	83.19
403.75	91.19
403.974	84.19
404.198	103.19
404.422	92.19
404.645	95.19
404.869	84.19
405.093	97.19
405.317	104.19
405.541	96.19
405.765	109.19
405.988	116.19
406.212	184.19
406.436	229.19
406.66	153.19
406.883	97.19
407.107	103.19
407.331	108.19
407.555	88.19
407.778	95.19
408.002	81.19
408.226	91.19
408.449	95.19
408.673	92.19
408.896	98.19
409.12	94.19
409.344	82.19
409.567	82.19
409.791	92.19
410.014	83.19
410.238	77.19
410.461	85.19
410.685	102.19
410.908	88.19
411.132	100.19
411.355	105.19
411.578	80.19
411.802	73.19
412.025	93.19
412.249	97.19
412.472	118.19
412.695	83.19
412.919	82.19
413.142	85.19
413.365	81.19
413.589	78.19
413.812	83.19
414.035	90.19
414.258	78.19
414.482	93.19
414.705	83.19
414.928	82.19
415.151	93.19
415.374	102.19
415.597	96.19
415.821	79.19
416.044	90.19
416.267	104.19
416.49	89.19
416.713	92.19
416.936	85.19
417.159	80.19
417.382	90.19
417.605	103.19
417.828	106.19
418.051	87.19
418.274	100.19
418.497	83.19
418.72	98.19
418.943	97.19
419.166	80.19
419.389	79.19
419.611	82.19
419.834	72.19
420.057	81.19
420.28	100.19
420.503	82.19
420.726	92.19
420.948	83.19
421.171	101.19
421.394	91.19
421.617	91.19
421.839	94.19
422.062	95.19
422.285	95.19
422.507	99.19
422.73	102.19
422.953	97.19
423.175	84.19
423.398	96.19
423.621	96.19
423.843	84.19
424.066	99.19
424.288	104.19
424.511	96.19
424.733	112.19
424.956	100.19
425.178	97.19
425.401	114.19
425.623	106.19
425.846	89.19
426.068	96.19
426.291	98.19
426.513	84.19
426.735	86.19
426.958	94.19
427.18	106.19
427.402	140.19
427.625	158.19
427.847	132.19
428.069	107.19
428.292	94.19
428.514	93.19
428.736	86.19
428.958	79.19
429.181	71.19
429.403	76.19
429.625	90.19
429.847	89.19
430.069	94.19
430.292	89.19
430.514	86.19
430.736	97.19
430.958	97.19
431.18	93.19
431.402	88.19
431.624	82.19
431.846	91.19
432.068	89.19
432.29	98.19
432.512	88.19
432.734	79.19
432.956	105.19
433.178	89.19
433.4	115.19
433.622	89.19
433.844	93.19
434.066	94.19
434.287	84.19
434.509	84.19
434.731	93.19
434.953	99.19
435.175	88.19
435.397	102.19
435.618	96.19
435.84	97.19
436.062	130.19
436.284	112.19
436.505	97.19
436.727	90.19
436.949	95.19
437.17	81.19
437.392	98.19
437.614	81.19
437.835	101.19
438.057	120.19
438.278	112.19
438.5	116.19
438.721	122.19
438.943	96.19
439.165	102.19
439.386	96.19
439.608	93.19
439.829	107.19
440.05	110.19
440.272	149.19
440.493	100.19
440.715	90.19
440.936	81.19
441.158	88.19
441.379	88.19
441.6	98.19
441.822	97.19
442.043	102.19
442.264	120.19
442.486	100.19
442.707	98.19
442.928	116.19
443.149	125.19
443.371	129.19
443.592	111.19
443.813	105.19
444.034	119.19
444.255	83.19
444.476	78.19
444.698	87.19
444.919	87.19
445.14	127.19
445.361	113.19
445.582	111.19
445.803	142.19
446.024	133.19
446.245	152.19
446.466	113.19
446.687	80.19
446.908	77.19
447.129	87.19
447.35	92.19
447.571	107.19
447.792	93.19
448.013	107.19
448.234	117.19
448.455	95.19
448.675	108.19
448.896	107.19
449.117	119.19
449.338	97.19
449.559	154.19
449.779	150.19
450	97.19
450.221	86.19
450.442	90.19
450.662	100.19
450.883	102.19
451.104	111.19
451.324	92.19
451.545	81.19
451.766	79.19
451.986	80.19
452.207	84.19
452.428	94.19
452.648	100.19
452.869	117.19
453.089	111.19
453.31	130.19
453.53	81.19
453.751	92.19
453.971	101.19
454.192	99.19
454.412	91.19
454.633	93.19
454.853	87.19
455.073	86.19
455.294	88.19
455.514	98.19
455.734	83.19
455.955	82.19
456.175	90.19
456.395	93.19
456.616	74.19
456.836	84.19
457.056	80.19
457.276	80.19
457.497	103.19
457.717	91.19
457.937	86.19
458.157	99.19
458.377	100.19
458.598	98.19
458.818	142.19
459.038	157.19
459.258	133.19
459.478	104.19
459.698	90.19
459.918	79.19
460.138	86.19
460.358	93.19
460.578	93.19
460.798	91.19
461.018	81.19
461.238	92.19
461.458	76.19
461.678	88.19
461.898	82.19
462.118	83.19
462.338	82.19
462.558	92.19
462.777	77.19
462.997	74.19
463.217	76.19
463.437	90.19
463.657	86.19
463.876	100.19
464.096	72.19
464.316	90.19
464.536	64.19
464.755	93.19
464.975	119.19
465.195	159.19
465.414	151.19
465.634	101.19
465.854	92.19
466.073	98.19
466.293	86.19
466.512	82.19
466.732	97.19
466.951	94.19
467.171	110.19
467.391	115.19
467.61	104.19
467.829	88.19
468.049	108.19
468.268	109.19
468.488	89.19
468.707	86.19
468.927	85.19
469.146	90.19
469.365	102.19
469.585	93.19
469.804	89.19
470.023	100.19
470.243	95.19
470.462	102.19
470.681	111.19
470.901	78.19
471.12	72.19
471.339	76.19
471.558	87.19
471.777	93.19
471.997	90.19
472.216	109.19
472.435	156.19
472.654	87.19
472.873	87.19
473.092	93.19
473.311	88.19
473.53	74.19
473.749	85.19
473.968	96.19
474.187	104.19
474.406	105.19
474.625	95.19
474.844	103.19
475.063	82.19
475.282	78.19
475.501	85.19
475.72	86.19
475.939	85.19
476.158	90.19
476.377	83.19
476.596	93.19
476.814	100.19
477.033	96.19
477.252	92.19
477.471	77.19
477.69	99.19
477.908	96.19
478.127	93.19
478.346	97.19
478.564	93.19
478.783	98.19
479.002	92.19
479.22	89.19
479.439	104.19
479.658	106.19
479.876	92.19
480.095	89.19
480.313	97.19
480.532	82.19
480.751	89.19
480.969	111.19
481.188	199.19
481.406	156.19
481.624	101.19
481.843	82.19
482.061	104.19
482.28	96.19
482.498	79.19
482.717	84.19
482.935	96.19
483.153	81.19
483.372	85.19
483.59	83.19
483.808	84.19
484.027	77.19
484.245	92.19
484.463	88.19
484.681	98.19
484.9	94.19
485.118	96.19
485.336	96.19
485.554	100.19
485.772	104.19
485.99	90.19
486.209	103.19
486.427	111.19
486.645	111.19
486.863	119.19
487.081	96.19
487.299	104.19
487.517	84.19
487.735	90.19
487.953	85.19
488.171	84.19
488.389	99.19
488.607	95.19
488.825	79.19
489.043	96.19
489.261	78.19
489.479	84.19
489.696	89.19
489.914	98.19
490.132	89.19
490.35	95.19
490.568	89.19
490.786	79.19
491.003	88.19
491.221	85.19
491.439	89.19
491.657	92.19
491.874	92.19
492.092	85.19
492.31	92.19
492.527	77.19
492.745	89.19
492.963	92.19
493.18	92.19
493.398	96.19
493.615	92.19
493.833	99.19
494.05	88.19
494.268	91.19
494.485	102.19
494.703	80.19
494.92	92.19
495.138	79.19
495.355	97.19
495.573	94.19
495.79	77.19
496.008	90.19
496.225	100.19
496.442	87.19
496.66	89.19
496.877	95.19
497.094	100.19
497.312	77.19
497.529	95.19
497.746	100.19
497.963	91.19
498.181	93.19
498.398	98.19
498.615	101.19
498.832	101.19
499.049	89.19
499.267	89.19
499.484	96.19
499.701	98.19
499.918	89.19
500.135	81.19
500.352	86.19
500.569	88.19
500.786	71.19
501.003	89.19
501.22	80.19
501.437	82.19
501.654	90.19
501.871	98.19
502.088	89.19
502.305	103.19
502.522	69.19
502.739	81.19
502.956	87.19
503.172	86.19
503.389	95.19
503.606	107.19
503.823	87.19
504.04	88.19
504.256	101.19
504.473	97.19
504.69	83.19
504.907	92.19
505.123	87.19
505.34	86.19
505.557	90.19
505.773	95.19
505.99	90.19
506.207	92.19
506.423	97.19
506.64	93.19
506.856	82.19
507.073	96.19
507.289	90.19
507.506	101.19
507.722	115.19
507.939	123.19
508.155	85.19
508.372	76.19
508.588	93.19
508.805	92.19
509.021	82.19
509.238	96.19
509.454	100.19
509.67	105.19
509.887	105.19
510.103	116.19
510.319	213.19
510.536	741.19
510.752	2345.19
510.968	633.19
511.184	142.19
511.401	107.19
511.617	94.19
511.833	93.19
512.049	97.19
512.265	93.19
512.481	87.19
512.698	96.19
512.914	92.19
513.13	99.19
513.346	92.19
513.562	104.19
513.778	100.19
513.994	90.19
514.21	103.19
514.426	108.19
514.642	141.19
514.858	125.19
515.074	159.19
515.29	458.19
515.506	1503.19
