Data from Uncirc_1988_H10_HRD10591_00075.txt Node
Date: Wed Jan 03 12:04:19 EST 2024
User: Yrep
Spectrometer: HR+D1059
Trigger mode: 1
Integration Time (sec): 1.000000E-1
Scans to average: 1
Electric dark correction enabled: true
Nonlinearity correction enabled: false
Boxcar width: 0
XAxis mode: Wavelengths
Number of Pixels in Spectrum: 2048
>>>>>Begin Spectral Data<<<<<
223.165	-20.62
223.4	-20.62
223.635	-20.62
223.869	-18.62
224.104	-17.62
224.338	-6.62
224.573	0.38
224.808	-5.62
225.042	-21.62
225.277	-13.62
225.511	-8.62
225.746	-5.62
225.98	15.38
226.215	14.38
226.449	12.38
226.683	25.38
226.918	14.38
227.152	36.38
227.387	29.38
227.621	50.38
227.856	44.38
228.09	36.38
228.324	48.38
228.559	52.38
228.793	63.38
229.027	73.38
229.262	68.38
229.496	72.38
229.73	88.38
229.964	64.38
230.199	73.38
230.433	76.38
230.667	69.38
230.901	79.38
231.136	89.38
231.37	85.38
231.604	78.38
231.838	80.38
232.072	73.38
232.306	88.38
232.541	86.38
232.775	86.38
233.009	80.38
233.243	81.38
233.477	85.38
233.711	76.38
233.945	95.38
234.179	84.38
234.413	91.38
234.647	83.38
234.881	94.38
235.115	78.38
235.349	80.38
235.583	86.38
235.817	76.38
236.051	71.38
236.285	67.38
236.519	83.38
236.753	92.38
236.987	90.38
237.221	74.38
237.455	94.38
237.689	81.38
237.922	76.38
238.156	77.38
238.39	81.38
238.624	76.38
238.858	84.38
239.091	63.38
239.325	68.38
239.559	78.38
239.793	68.38
240.027	90.38
240.26	86.38
240.494	89.38
240.728	76.38
240.961	80.38
241.195	73.38
241.429	69.38
241.662	73.38
241.896	84.38
242.13	74.38
242.363	71.38
242.597	72.38
242.83	79.38
243.064	81.38
243.298	65.38
243.531	64.38
243.765	67.38
243.998	73.38
244.232	66.38
244.465	82.38
244.699	77.38
244.932	81.38
245.166	82.38
245.399	82.38
245.633	101.38
245.866	81.38
246.099	96.38
246.333	100.38
246.566	76.38
246.8	83.38
247.033	72.38
247.266	73.38
247.5	68.38
247.733	69.38
247.966	88.38
248.2	85.38
248.433	87.38
248.666	80.38
248.899	77.38
249.133	79.38
249.366	82.38
249.599	95.38
249.832	88.38
250.066	91.38
250.299	73.38
250.532	93.38
250.765	90.38
250.998	78.38
251.231	81.38
251.465	87.38
251.698	81.38
251.931	84.38
252.164	88.38
252.397	93.38
252.63	97.38
252.863	78.38
253.096	78.38
253.329	86.38
253.562	62.38
253.795	81.38
254.028	78.38
254.261	86.38
254.494	91.38
254.727	78.38
254.96	75.38
255.193	79.38
255.426	89.38
255.659	78.38
255.892	80.38
256.124	77.38
256.357	89.38
256.59	89.38
256.823	72.38
257.056	88.38
257.289	84.38
257.521	82.38
257.754	65.38
257.987	80.38
258.22	102.38
258.452	94.38
258.685	81.38
258.918	69.38
259.151	89.38
259.383	72.38
259.616	84.38
259.849	90.38
260.081	93.38
260.314	71.38
260.547	81.38
260.779	73.38
261.012	74.38
261.244	88.38
261.477	88.38
261.71	95.38
261.942	113.38
262.175	118.38
262.407	96.38
262.64	88.38
262.872	74.38
263.105	95.38
263.337	82.38
263.57	82.38
263.802	79.38
264.035	85.38
264.267	79.38
264.499	78.38
264.732	96.38
264.964	77.38
265.197	108.38
265.429	77.38
265.661	60.38
265.894	89.38
266.126	92.38
266.358	75.38
266.591	89.38
266.823	78.38
267.055	78.38
267.287	87.38
267.52	85.38
267.752	87.38
267.984	93.38
268.216	71.38
268.448	98.38
268.681	73.38
268.913	76.38
269.145	84.38
269.377	89.38
269.609	90.38
269.841	78.38
270.073	94.38
270.306	81.38
270.538	96.38
270.77	75.38
271.002	84.38
271.234	86.38
271.466	100.38
271.698	84.38
271.93	88.38
272.162	91.38
272.394	84.38
272.626	83.38
272.858	77.38
273.09	94.38
273.322	73.38
273.553	97.38
273.785	92.38
274.017	84.38
274.249	72.38
274.481	79.38
274.713	84.38
274.945	89.38
275.176	81.38
275.408	90.38
275.64	84.38
275.872	94.38
276.104	78.38
276.335	88.38
276.567	93.38
276.799	109.38
277.031	92.38
277.262	98.38
277.494	87.38
277.726	82.38
277.957	74.38
278.189	76.38
278.421	87.38
278.652	89.38
278.884	86.38
279.115	100.38
279.347	90.38
279.579	86.38
279.81	86.38
280.042	91.38
280.273	76.38
280.505	87.38
280.736	88.38
280.968	101.38
281.199	84.38
281.431	88.38
281.662	74.38
281.894	80.38
282.125	99.38
282.356	125.38
282.588	134.38
282.819	128.38
283.051	94.38
283.282	87.38
283.513	80.38
283.745	84.38
283.976	92.38
284.207	86.38
284.439	85.38
284.67	96.38
284.901	88.38
285.132	89.38
285.364	94.38
285.595	99.38
285.826	94.38
286.057	95.38
286.288	63.38
286.52	89.38
286.751	85.38
286.982	89.38
287.213	93.38
287.444	80.38
287.675	98.38
287.906	103.38
288.138	90.38
288.369	85.38
288.6	109.38
288.831	81.38
289.062	86.38
289.293	104.38
289.524	104.38
289.755	79.38
289.986	80.38
290.217	85.38
290.448	80.38
290.679	83.38
290.91	93.38
291.141	81.38
291.371	77.38
291.602	82.38
291.833	88.38
292.064	96.38
292.295	96.38
292.526	82.38
292.757	95.38
292.987	101.38
293.218	96.38
293.449	92.38
293.68	81.38
293.91	96.38
294.141	94.38
294.372	93.38
294.603	78.38
294.833	80.38
295.064	90.38
295.295	88.38
295.525	81.38
295.756	86.38
295.987	113.38
296.217	142.38
296.448	112.38
296.679	86.38
296.909	82.38
297.14	93.38
297.37	91.38
297.601	89.38
297.831	100.38
298.062	78.38
298.292	88.38
298.523	88.38
298.753	96.38
298.984	86.38
299.214	97.38
299.445	84.38
299.675	89.38
299.905	80.38
300.136	105.38
300.366	83.38
300.597	84.38
300.827	99.38
301.057	98.38
301.288	104.38
301.518	89.38
301.748	81.38
301.979	80.38
302.209	73.38
302.439	93.38
302.669	80.38
302.9	89.38
303.13	80.38
303.36	84.38
303.59	91.38
303.82	106.38
304.051	94.38
304.281	89.38
304.511	93.38
304.741	84.38
304.971	83.38
305.201	88.38
305.431	94.38
305.661	92.38
305.891	89.38
306.121	100.38
306.352	84.38
306.582	94.38
306.812	85.38
307.042	96.38
307.272	84.38
307.502	84.38
307.731	105.38
307.961	102.38
308.191	80.38
308.421	92.38
308.651	91.38
308.881	90.38
309.111	93.38
309.341	96.38
309.571	94.38
309.8	93.38
310.03	99.38
310.26	92.38
310.49	86.38
310.72	109.38
310.949	100.38
311.179	105.38
311.409	100.38
311.639	101.38
311.868	96.38
312.098	104.38
312.328	94.38
312.557	115.38
312.787	108.38
313.017	101.38
313.246	94.38
313.476	93.38
313.706	87.38
313.935	95.38
314.165	111.38
314.394	98.38
314.624	94.38
314.853	104.38
315.083	88.38
315.312	106.38
315.542	72.38
315.771	101.38
316.001	81.38
316.23	99.38
316.46	102.38
316.689	61.38
316.919	95.38
317.148	93.38
317.377	96.38
317.607	90.38
317.836	96.38
318.065	80.38
318.295	100.38
318.524	86.38
318.753	79.38
318.983	90.38
319.212	106.38
319.441	115.38
319.67	100.38
319.9	96.38
320.129	96.38
320.358	90.38
320.587	97.38
320.816	96.38
321.046	101.38
321.275	100.38
321.504	90.38
321.733	86.38
321.962	100.38
322.191	99.38
322.42	96.38
322.649	110.38
322.878	108.38
323.108	117.38
323.337	117.38
323.566	118.38
323.795	150.38
324.024	217.38
324.253	401.38
324.482	817.38
324.71	1711.38
324.939	2296.38
325.168	809.38
325.397	248.38
325.626	147.38
325.855	132.38
326.084	124.38
326.313	137.38
326.542	170.38
326.77	223.38
326.999	465.38
327.228	959.38
327.457	1780.38
327.686	1434.38
327.914	378.38
328.143	197.38
328.372	165.38
328.6	127.38
328.829	134.38
329.058	130.38
329.287	127.38
329.515	100.38
329.744	83.38
329.972	107.38
330.201	125.38
330.43	138.38
330.658	140.38
330.887	160.38
331.115	125.38
331.344	108.38
331.572	104.38
331.801	112.38
332.03	109.38
332.258	104.38
332.486	93.38
332.715	91.38
332.943	98.38
333.172	109.38
333.4	92.38
333.629	109.38
333.857	112.38
334.085	107.38
334.314	102.38
334.542	123.38
334.771	146.38
334.999	108.38
335.227	96.38
335.455	114.38
335.684	100.38
335.912	108.38
336.14	101.38
336.369	94.38
336.597	101.38
336.825	91.38
337.053	94.38
337.281	106.38
337.51	112.38
337.738	98.38
337.966	95.38
338.194	92.38
338.422	112.38
338.65	88.38
338.878	99.38
339.106	97.38
339.334	80.38
339.562	87.38
339.79	93.38
340.018	98.38
340.246	68.38
340.474	83.38
340.702	90.38
340.93	87.38
341.158	92.38
341.386	94.38
341.614	85.38
341.842	92.38
342.07	105.38
342.298	103.38
342.526	87.38
342.754	101.38
342.981	89.38
343.209	94.38
343.437	101.38
343.665	82.38
343.893	92.38
344.12	92.38
344.348	78.38
344.576	92.38
344.804	90.38
345.031	99.38
345.259	95.38
345.487	96.38
345.714	86.38
345.942	91.38
346.17	89.38
346.397	94.38
346.625	100.38
346.853	93.38
347.08	92.38
347.308	100.38
347.535	83.38
347.763	95.38
347.99	92.38
348.218	100.38
348.445	101.38
348.673	90.38
348.9	87.38
349.128	104.38
349.355	97.38
349.583	70.38
349.81	88.38
350.037	93.38
350.265	90.38
350.492	94.38
350.72	102.38
350.947	104.38
351.174	109.38
351.402	104.38
351.629	114.38
351.856	108.38
352.083	103.38
352.311	105.38
352.538	107.38
352.765	106.38
352.992	112.38
353.22	125.38
353.447	100.38
353.674	107.38
353.901	104.38
354.128	103.38
354.355	98.38
354.583	94.38
354.81	105.38
355.037	98.38
355.264	93.38
355.491	93.38
355.718	88.38
355.945	107.38
356.172	96.38
356.399	95.38
356.626	111.38
356.853	98.38
357.08	83.38
357.307	101.38
357.534	94.38
357.761	96.38
357.988	100.38
358.215	106.38
358.441	91.38
358.668	85.38
358.895	89.38
359.122	88.38
359.349	89.38
359.576	89.38
359.802	104.38
360.029	128.38
360.256	109.38
360.483	102.38
360.709	80.38
360.936	84.38
361.163	93.38
361.39	91.38
361.616	94.38
361.843	82.38
362.07	90.38
362.296	82.38
362.523	100.38
362.749	92.38
362.976	82.38
363.203	101.38
363.429	90.38
363.656	83.38
363.882	70.38
364.109	95.38
364.335	96.38
364.562	102.38
364.788	96.38
365.015	97.38
365.241	95.38
365.468	104.38
365.694	109.38
365.92	91.38
366.147	94.38
366.373	89.38
366.599	74.38
366.826	93.38
367.052	90.38
367.278	93.38
367.505	94.38
367.731	82.38
367.957	102.38
368.184	102.38
368.41	113.38
368.636	105.38
368.862	123.38
369.089	107.38
369.315	95.38
369.541	94.38
369.767	101.38
369.993	104.38
370.219	100.38
370.445	102.38
370.672	88.38
370.898	82.38
371.124	101.38
371.35	90.38
371.576	85.38
371.802	87.38
372.028	97.38
372.254	94.38
372.48	85.38
372.706	85.38
372.932	92.38
373.158	80.38
373.384	82.38
373.61	96.38
373.835	92.38
374.061	108.38
374.287	95.38
374.513	90.38
374.739	92.38
374.965	92.38
375.191	101.38
375.416	92.38
375.642	89.38
375.868	98.38
376.094	80.38
376.319	87.38
376.545	97.38
376.771	87.38
376.997	86.38
377.222	100.38
377.448	83.38
377.674	86.38
377.899	90.38
378.125	102.38
378.35	89.38
378.576	85.38
378.802	96.38
379.027	86.38
379.253	88.38
379.478	100.38
379.704	87.38
379.929	107.38
380.155	95.38
380.38	112.38
380.606	103.38
380.831	84.38
381.057	83.38
381.282	102.38
381.507	92.38
381.733	94.38
381.958	94.38
382.184	92.38
382.409	102.38
382.634	88.38
382.86	89.38
383.085	96.38
383.31	86.38
383.535	105.38
383.761	94.38
383.986	87.38
384.211	95.38
384.436	78.38
384.662	93.38
384.887	95.38
385.112	94.38
385.337	108.38
385.562	96.38
385.787	98.38
386.013	117.38
386.238	122.38
386.463	96.38
386.688	106.38
386.913	87.38
387.138	102.38
387.363	115.38
387.588	110.38
387.813	96.38
388.038	112.38
388.263	102.38
388.488	109.38
388.713	101.38
388.938	87.38
389.163	77.38
389.387	85.38
389.612	87.38
389.837	94.38
390.062	96.38
390.287	109.38
390.512	100.38
390.736	93.38
390.961	83.38
391.186	99.38
391.411	96.38
391.636	90.38
391.86	72.38
392.085	93.38
392.31	91.38
392.534	87.38
392.759	89.38
392.984	85.38
393.208	88.38
393.433	72.38
393.658	101.38
393.882	71.38
394.107	88.38
394.331	75.38
394.556	76.38
394.78	85.38
395.005	105.38
395.229	95.38
395.454	96.38
395.678	81.38
395.903	94.38
396.127	91.38
396.352	109.38
396.576	77.38
396.801	94.38
397.025	80.38
397.249	103.38
397.474	92.38
397.698	92.38
397.922	89.38
398.147	80.38
398.371	69.38
398.595	86.38
398.82	92.38
399.044	78.38
399.268	85.38
399.492	102.38
399.717	85.38
399.941	100.38
400.165	89.38
400.389	93.38
400.613	82.38
400.837	74.38
401.062	86.38
401.286	91.38
401.51	96.38
401.734	96.38
401.958	106.38
402.182	117.38
402.406	144.38
402.63	119.38
402.854	98.38
403.078	89.38
403.302	89.38
403.526	83.38
403.75	81.38
403.974	84.38
404.198	94.38
404.422	76.38
404.645	84.38
404.869	93.38
405.093	102.38
405.317	100.38
405.541	96.38
405.765	94.38
405.988	119.38
406.212	171.38
406.436	226.38
406.66	143.38
406.883	102.38
407.107	87.38
407.331	97.38
407.555	95.38
407.778	100.38
408.002	90.38
408.226	94.38
408.449	83.38
408.673	93.38
408.896	97.38
409.12	112.38
409.344	92.38
409.567	84.38
409.791	92.38
410.014	94.38
410.238	81.38
410.461	84.38
410.685	95.38
410.908	102.38
411.132	120.38
411.355	100.38
411.578	90.38
411.802	100.38
412.025	80.38
412.249	77.38
412.472	106.38
412.695	94.38
412.919	101.38
413.142	86.38
413.365	92.38
413.589	103.38
413.812	82.38
414.035	91.38
414.258	90.38
414.482	84.38
414.705	90.38
414.928	97.38
415.151	81.38
415.374	101.38
415.597	84.38
415.821	84.38
416.044	94.38
416.267	87.38
416.49	85.38
416.713	102.38
416.936	82.38
417.159	92.38
417.382	100.38
417.605	70.38
417.828	97.38
418.051	81.38
418.274	80.38
418.497	84.38
418.72	97.38
418.943	102.38
419.166	87.38
419.389	94.38
419.611	89.38
419.834	94.38
420.057	81.38
420.28	88.38
420.503	83.38
420.726	90.38
420.948	83.38
421.171	111.38
421.394	92.38
421.617	92.38
421.839	93.38
422.062	88.38
422.285	82.38
422.507	95.38
422.73	112.38
422.953	99.38
423.175	102.38
423.398	88.38
423.621	94.38
423.843	78.38
424.066	82.38
424.288	87.38
424.511	92.38
424.733	110.38
424.956	113.38
425.178	104.38
425.401	110.38
425.623	111.38
425.846	100.38
426.068	95.38
426.291	89.38
426.513	87.38
426.735	98.38
426.958	96.38
427.18	112.38
427.402	140.38
427.625	165.38
427.847	129.38
428.069	109.38
428.292	92.38
428.514	82.38
428.736	81.38
428.958	71.38
429.181	86.38
429.403	98.38
429.625	91.38
429.847	100.38
430.069	97.38
430.292	87.38
430.514	86.38
430.736	82.38
430.958	82.38
431.18	84.38
431.402	93.38
431.624	95.38
431.846	79.38
432.068	90.38
432.29	69.38
432.512	84.38
432.734	86.38
432.956	95.38
433.178	97.38
433.4	100.38
433.622	94.38
433.844	83.38
434.066	90.38
434.287	85.38
434.509	101.38
434.731	88.38
434.953	108.38
435.175	98.38
435.397	97.38
435.618	93.38
435.84	103.38
436.062	129.38
436.284	111.38
436.505	100.38
436.727	107.38
436.949	90.38
437.17	100.38
437.392	77.38
437.614	95.38
437.835	110.38
438.057	102.38
438.278	102.38
438.5	120.38
438.721	134.38
438.943	91.38
439.165	103.38
439.386	89.38
439.608	98.38
439.829	95.38
440.05	125.38
440.272	144.38
440.493	106.38
440.715	91.38
440.936	96.38
441.158	108.38
441.379	89.38
441.6	89.38
441.822	99.38
442.043	86.38
442.264	112.38
442.486	100.38
442.707	80.38
442.928	108.38
443.149	125.38
443.371	135.38
443.592	113.38
443.813	110.38
444.034	116.38
444.255	99.38
444.476	93.38
444.698	89.38
444.919	89.38
445.14	133.38
445.361	121.38
445.582	114.38
445.803	123.38
446.024	126.38
446.245	140.38
446.466	122.38
446.687	94.38
446.908	83.38
447.129	92.38
447.35	79.38
447.571	82.38
447.792	92.38
448.013	100.38
448.234	114.38
448.455	104.38
448.675	116.38
448.896	117.38
449.117	110.38
449.338	93.38
449.559	133.38
449.779	130.38
450	98.38
450.221	92.38
450.442	78.38
450.662	90.38
450.883	113.38
451.104	103.38
451.324	103.38
451.545	96.38
451.766	95.38
451.986	81.38
452.207	71.38
452.428	95.38
452.648	97.38
452.869	106.38
453.089	100.38
453.31	110.38
453.53	97.38
453.751	79.38
453.971	109.38
454.192	117.38
454.412	96.38
454.633	92.38
454.853	74.38
455.073	88.38
455.294	93.38
455.514	107.38
455.734	92.38
455.955	82.38
456.175	102.38
456.395	76.38
456.616	93.38
456.836	86.38
457.056	77.38
457.276	88.38
457.497	96.38
457.717	68.38
457.937	81.38
458.157	92.38
458.377	107.38
458.598	108.38
458.818	148.38
459.038	148.38
459.258	110.38
459.478	89.38
459.698	84.38
459.918	89.38
460.138	93.38
460.358	82.38
460.578	97.38
460.798	95.38
461.018	99.38
461.238	84.38
461.458	80.38
461.678	90.38
461.898	87.38
462.118	77.38
462.338	66.38
462.558	87.38
462.777	84.38
462.997	90.38
463.217	80.38
463.437	79.38
463.657	95.38
463.876	102.38
464.096	79.38
464.316	85.38
464.536	99.38
464.755	88.38
464.975	100.38
465.195	180.38
465.414	145.38
465.634	84.38
465.854	93.38
466.073	94.38
466.293	80.38
466.512	73.38
466.732	78.38
466.951	88.38
467.171	81.38
467.391	97.38
467.61	103.38
467.829	101.38
468.049	107.38
468.268	104.38
468.488	96.38
468.707	92.38
468.927	81.38
469.146	74.38
469.365	91.38
469.585	88.38
469.804	84.38
470.023	97.38
470.243	102.38
470.462	93.38
470.681	100.38
470.901	90.38
471.12	92.38
471.339	81.38
471.558	91.38
471.777	87.38
471.997	74.38
472.216	106.38
472.435	156.38
472.654	92.38
472.873	80.38
473.092	73.38
473.311	78.38
473.53	96.38
473.749	89.38
473.968	70.38
474.187	104.38
474.406	98.38
474.625	85.38
474.844	83.38
475.063	77.38
475.282	82.38
475.501	87.38
475.72	87.38
475.939	90.38
476.158	78.38
476.377	97.38
476.596	97.38
476.814	99.38
477.033	99.38
477.252	84.38
477.471	72.38
477.69	93.38
477.908	88.38
478.127	91.38
478.346	94.38
478.564	88.38
478.783	92.38
479.002	103.38
479.22	82.38
479.439	85.38
479.658	101.38
479.876	91.38
480.095	82.38
480.313	95.38
480.532	102.38
480.751	88.38
480.969	116.38
481.188	212.38
481.406	165.38
481.624	96.38
481.843	94.38
482.061	88.38
482.28	82.38
482.498	99.38
482.717	86.38
482.935	89.38
483.153	92.38
483.372	82.38
483.59	78.38
483.808	82.38
484.027	73.38
484.245	73.38
484.463	89.38
484.681	99.38
484.9	90.38
485.118	95.38
485.336	106.38
485.554	100.38
485.772	101.38
485.99	101.38
486.209	112.38
486.427	105.38
486.645	112.38
486.863	108.38
487.081	102.38
487.299	99.38
487.517	96.38
487.735	101.38
487.953	83.38
488.171	88.38
488.389	83.38
488.607	87.38
488.825	94.38
489.043	87.38
489.261	95.38
489.479	81.38
489.696	68.38
489.914	76.38
490.132	91.38
490.35	101.38
490.568	101.38
490.786	91.38
491.003	88.38
491.221	90.38
491.439	88.38
491.657	102.38
491.874	92.38
492.092	87.38
492.31	88.38
492.527	82.38
492.745	97.38
492.963	93.38
493.18	80.38
493.398	97.38
493.615	99.38
493.833	87.38
494.05	87.38
494.268	84.38
494.485	79.38
494.703	92.38
494.92	92.38
495.138	85.38
495.355	92.38
495.573	96.38
495.79	85.38
496.008	100.38
496.225	84.38
496.442	80.38
496.66	91.38
496.877	87.38
497.094	87.38
497.312	87.38
497.529	93.38
497.746	92.38
497.963	96.38
498.181	78.38
498.398	94.38
498.615	93.38
498.832	111.38
499.049	88.38
499.267	96.38
499.484	87.38
499.701	87.38
499.918	91.38
500.135	82.38
500.352	101.38
500.569	81.38
500.786	94.38
501.003	87.38
501.22	70.38
501.437	90.38
501.654	94.38
501.871	99.38
502.088	85.38
502.305	97.38
502.522	85.38
502.739	80.38
502.956	93.38
503.172	97.38
503.389	99.38
503.606	119.38
503.823	99.38
504.04	86.38
504.256	103.38
504.473	91.38
504.69	96.38
504.907	100.38
505.123	80.38
505.34	87.38
505.557	89.38
505.773	98.38
505.99	85.38
506.207	88.38
506.423	88.38
506.64	91.38
506.856	95.38
507.073	87.38
507.289	93.38
507.506	83.38
507.722	110.38
507.939	109.38
508.155	101.38
508.372	94.38
508.588	105.38
508.805	91.38
509.021	100.38
509.238	114.38
509.454	101.38
509.67	101.38
509.887	121.38
510.103	124.38
510.319	231.38
510.536	756.38
510.752	2343.38
510.968	626.38
511.184	152.38
511.401	115.38
511.617	88.38
511.833	99.38
512.049	93.38
512.265	104.38
512.481	94.38
512.698	97.38
512.914	95.38
513.13	90.38
513.346	94.38
513.562	105.38
513.778	101.38
513.994	100.38
514.21	88.38
514.426	105.38
514.642	119.38
514.858	130.38
515.074	152.38
