Data from Uncirc_1988_H10_HRD10591_00025.txt Node
Date: Wed Jan 03 12:04:09 EST 2024
User: Yrep
Spectrometer: HR+D1059
Trigger mode: 1
Integration Time (sec): 1.000000E-1
Scans to average: 1
Electric dark correction enabled: true
Nonlinearity correction enabled: false
Boxcar width: 0
XAxis mode: Wavelengths
Number of Pixels in Spectrum: 2048
>>>>>Begin Spectral Data<<<<<
223.165	-15.56
223.4	-15.56
223.635	-15.56
223.869	-15.56
224.104	-16.56
224.338	-18.56
224.573	-22.56
224.808	-19.56
225.042	-3.56
225.277	-14.56
225.511	9.44
225.746	3.44
225.98	24.44
226.215	10.44
226.449	7.44
226.683	7.44
226.918	20.44
227.152	43.44
227.387	36.44
227.621	48.44
227.856	57.44
228.09	54.44
228.324	57.44
228.559	62.44
228.793	48.44
229.027	52.44
229.262	78.44
229.496	79.44
229.73	92.44
229.964	84.44
230.199	84.44
230.433	82.44
230.667	90.44
230.901	74.44
231.136	57.44
231.37	89.44
231.604	84.44
231.838	78.44
232.072	69.44
232.306	85.44
232.541	72.44
232.775	78.44
233.009	84.44
233.243	88.44
233.477	81.44
233.711	84.44
233.945	83.44
234.179	82.44
234.413	71.44
234.647	80.44
234.881	81.44
235.115	83.44
235.349	81.44
235.583	75.44
235.817	75.44
236.051	76.44
236.285	91.44
236.519	82.44
236.753	81.44
236.987	79.44
237.221	83.44
237.455	91.44
237.689	85.44
237.922	83.44
238.156	73.44
238.39	87.44
238.624	87.44
238.858	72.44
239.091	67.44
239.325	75.44
239.559	82.44
239.793	72.44
240.027	80.44
240.26	83.44
240.494	87.44
240.728	82.44
240.961	73.44
241.195	86.44
241.429	76.44
241.662	73.44
241.896	86.44
242.13	70.44
242.363	94.44
242.597	76.44
242.83	77.44
243.064	79.44
243.298	91.44
243.531	73.44
243.765	91.44
243.998	73.44
244.232	90.44
244.465	91.44
244.699	67.44
244.932	73.44
245.166	82.44
245.399	68.44
245.633	84.44
245.866	74.44
246.099	94.44
246.333	93.44
246.566	104.44
246.8	85.44
247.033	91.44
247.266	74.44
247.5	87.44
247.733	68.44
247.966	83.44
248.2	88.44
248.433	74.44
248.666	92.44
248.899	75.44
249.133	85.44
249.366	96.44
249.599	95.44
249.832	67.44
250.066	97.44
250.299	83.44
250.532	86.44
250.765	85.44
250.998	83.44
251.231	74.44
251.465	72.44
251.698	85.44
251.931	80.44
252.164	91.44
252.397	64.44
252.63	74.44
252.863	76.44
253.096	84.44
253.329	82.44
253.562	69.44
253.795	86.44
254.028	67.44
254.261	70.44
254.494	80.44
254.727	82.44
254.96	83.44
255.193	88.44
255.426	84.44
255.659	81.44
255.892	87.44
256.124	87.44
256.357	86.44
256.59	92.44
256.823	90.44
257.056	78.44
257.289	74.44
257.521	80.44
257.754	91.44
257.987	80.44
258.22	88.44
258.452	93.44
258.685	87.44
258.918	92.44
259.151	84.44
259.383	79.44
259.616	84.44
259.849	75.44
260.081	78.44
260.314	82.44
260.547	88.44
260.779	88.44
261.012	88.44
261.244	95.44
261.477	78.44
261.71	81.44
261.942	114.44
262.175	105.44
262.407	90.44
262.64	71.44
262.872	76.44
263.105	66.44
263.337	80.44
263.57	79.44
263.802	75.44
264.035	100.44
264.267	92.44
264.499	94.44
264.732	83.44
264.964	80.44
265.197	97.44
265.429	97.44
265.661	82.44
265.894	88.44
266.126	87.44
266.358	83.44
266.591	94.44
266.823	103.44
267.055	81.44
267.287	86.44
267.52	84.44
267.752	81.44
267.984	91.44
268.216	89.44
268.448	78.44
268.681	81.44
268.913	82.44
269.145	80.44
269.377	78.44
269.609	83.44
269.841	73.44
270.073	85.44
270.306	89.44
270.538	100.44
270.77	83.44
271.002	87.44
271.234	99.44
271.466	90.44
271.698	94.44
271.93	90.44
272.162	90.44
272.394	92.44
272.626	82.44
272.858	95.44
273.09	90.44
273.322	93.44
273.553	76.44
273.785	82.44
274.017	79.44
274.249	80.44
274.481	86.44
274.713	80.44
274.945	97.44
275.176	78.44
275.408	74.44
275.64	79.44
275.872	89.44
276.104	90.44
276.335	85.44
276.567	102.44
276.799	101.44
277.031	102.44
277.262	87.44
277.494	98.44
277.726	90.44
277.957	103.44
278.189	86.44
278.421	72.44
278.652	83.44
278.884	81.44
279.115	82.44
279.347	94.44
279.579	80.44
279.81	88.44
280.042	96.44
280.273	89.44
280.505	94.44
280.736	89.44
280.968	85.44
281.199	91.44
281.431	95.44
281.662	100.44
281.894	98.44
282.125	105.44
282.356	107.44
282.588	139.44
282.819	105.44
283.051	92.44
283.282	78.44
283.513	95.44
283.745	98.44
283.976	75.44
284.207	95.44
284.439	92.44
284.67	91.44
284.901	81.44
285.132	81.44
285.364	82.44
285.595	92.44
285.826	103.44
286.057	76.44
286.288	97.44
286.52	79.44
286.751	78.44
286.982	89.44
287.213	106.44
287.444	90.44
287.675	86.44
287.906	82.44
288.138	72.44
288.369	87.44
288.6	102.44
288.831	95.44
289.062	84.44
289.293	85.44
289.524	84.44
289.755	78.44
289.986	98.44
290.217	94.44
290.448	88.44
290.679	94.44
290.91	101.44
291.141	87.44
291.371	83.44
291.602	100.44
291.833	93.44
292.064	108.44
292.295	78.44
292.526	87.44
292.757	84.44
292.987	98.44
293.218	79.44
293.449	85.44
293.68	81.44
293.91	99.44
294.141	95.44
294.372	92.44
294.603	94.44
294.833	96.44
295.064	87.44
295.295	91.44
295.525	88.44
295.756	98.44
295.987	107.44
296.217	124.44
296.448	123.44
296.679	95.44
296.909	102.44
297.14	94.44
297.37	100.44
297.601	74.44
297.831	87.44
298.062	83.44
298.292	99.44
298.523	87.44
298.753	105.44
298.984	91.44
299.214	84.44
299.445	104.44
299.675	87.44
299.905	95.44
300.136	88.44
300.366	86.44
300.597	88.44
300.827	79.44
301.057	102.44
301.288	97.44
301.518	84.44
301.748	89.44
301.979	101.44
302.209	91.44
302.439	97.44
302.669	93.44
302.9	100.44
303.13	108.44
303.36	92.44
303.59	96.44
303.82	103.44
304.051	91.44
304.281	100.44
304.511	83.44
304.741	82.44
304.971	90.44
305.201	95.44
305.431	90.44
305.661	94.44
305.891	94.44
306.121	94.44
306.352	84.44
306.582	99.44
306.812	97.44
307.042	89.44
307.272	101.44
307.502	98.44
307.731	106.44
307.961	85.44
308.191	80.44
308.421	90.44
308.651	87.44
308.881	101.44
309.111	99.44
309.341	86.44
309.571	100.44
309.8	105.44
310.03	86.44
310.26	101.44
310.49	83.44
310.72	102.44
310.949	103.44
311.179	98.44
311.409	109.44
311.639	102.44
311.868	85.44
312.098	90.44
312.328	94.44
312.557	94.44
312.787	100.44
313.017	101.44
313.246	86.44
313.476	72.44
313.706	87.44
313.935	95.44
314.165	98.44
314.394	102.44
314.624	91.44
314.853	103.44
315.083	84.44
315.312	96.44
315.542	98.44
315.771	92.44
316.001	90.44
316.23	88.44
316.46	73.44
316.689	86.44
316.919	97.44
317.148	91.44
317.377	100.44
317.607	88.44
317.836	105.44
318.065	104.44
318.295	104.44
318.524	90.44
318.753	96.44
318.983	92.44
319.212	104.44
319.441	111.44
319.67	103.44
319.9	102.44
320.129	96.44
320.358	90.44
320.587	85.44
320.816	89.44
321.046	75.44
321.275	106.44
321.504	96.44
321.733	96.44
321.962	106.44
322.191	96.44
322.42	97.44
322.649	115.44
322.878	111.44
323.108	109.44
323.337	122.44
323.566	130.44
323.795	168.44
324.024	192.44
324.253	383.44
324.482	807.44
324.71	1651.44
324.939	2151.44
325.168	783.44
325.397	243.44
325.626	150.44
325.855	130.44
326.084	142.44
326.313	121.44
326.542	153.44
326.77	232.44
326.999	459.44
327.228	930.44
327.457	1703.44
327.686	1328.44
327.914	363.44
328.143	172.44
328.372	135.44
328.6	123.44
328.829	120.44
329.058	121.44
329.287	111.44
329.515	99.44
329.744	115.44
329.972	102.44
330.201	88.44
330.43	111.44
330.658	98.44
330.887	118.44
331.115	121.44
331.344	105.44
331.572	91.44
331.801	116.44
332.03	91.44
332.258	85.44
332.486	85.44
332.715	77.44
332.943	83.44
333.172	96.44
333.4	95.44
333.629	98.44
333.857	104.44
334.085	94.44
334.314	101.44
334.542	89.44
334.771	99.44
334.999	95.44
335.227	103.44
335.455	96.44
335.684	110.44
335.912	116.44
336.14	96.44
336.369	108.44
336.597	104.44
336.825	95.44
337.053	88.44
337.281	94.44
337.51	92.44
337.738	91.44
337.966	107.44
338.194	100.44
338.422	96.44
338.65	100.44
338.878	103.44
339.106	98.44
339.334	93.44
339.562	90.44
339.79	80.44
340.018	93.44
340.246	86.44
340.474	111.44
340.702	105.44
340.93	86.44
341.158	89.44
341.386	109.44
341.614	91.44
341.842	91.44
342.07	94.44
342.298	98.44
342.526	83.44
342.754	93.44
342.981	100.44
343.209	96.44
343.437	83.44
343.665	99.44
343.893	97.44
344.12	111.44
344.348	103.44
344.576	95.44
344.804	100.44
345.031	103.44
345.259	97.44
345.487	94.44
345.714	106.44
345.942	84.44
346.17	97.44
346.397	94.44
346.625	100.44
346.853	95.44
347.08	105.44
347.308	98.44
347.535	103.44
347.763	101.44
347.99	83.44
348.218	92.44
348.445	91.44
348.673	97.44
348.9	103.44
349.128	86.44
349.355	88.44
349.583	98.44
349.81	108.44
350.037	104.44
350.265	95.44
350.492	93.44
350.72	98.44
350.947	91.44
351.174	95.44
351.402	112.44
351.629	92.44
351.856	119.44
352.083	97.44
352.311	117.44
352.538	100.44
352.765	110.44
352.992	115.44
353.22	107.44
353.447	107.44
353.674	103.44
353.901	108.44
354.128	105.44
354.355	107.44
354.583	90.44
354.81	90.44
355.037	88.44
355.264	97.44
355.491	99.44
355.718	100.44
355.945	97.44
356.172	95.44
356.399	83.44
356.626	99.44
356.853	93.44
357.08	94.44
357.307	95.44
357.534	104.44
357.761	75.44
357.988	83.44
358.215	93.44
358.441	89.44
358.668	91.44
358.895	90.44
359.122	101.44
359.349	94.44
359.576	89.44
359.802	99.44
360.029	103.44
360.256	110.44
360.483	107.44
360.709	86.44
360.936	84.44
361.163	96.44
361.39	99.44
361.616	104.44
361.843	100.44
362.07	86.44
362.296	104.44
362.523	91.44
362.749	91.44
362.976	89.44
363.203	99.44
363.429	81.44
363.656	98.44
363.882	82.44
364.109	101.44
364.335	91.44
364.562	74.44
364.788	80.44
365.015	109.44
365.241	93.44
365.468	103.44
365.694	113.44
365.92	90.44
366.147	101.44
366.373	95.44
366.599	87.44
366.826	95.44
367.052	96.44
367.278	99.44
367.505	94.44
367.731	91.44
367.957	106.44
368.184	84.44
368.41	108.44
368.636	114.44
368.862	120.44
369.089	96.44
369.315	102.44
369.541	89.44
369.767	104.44
369.993	90.44
370.219	80.44
370.445	93.44
370.672	103.44
370.898	94.44
371.124	89.44
371.35	91.44
371.576	102.44
371.802	89.44
372.028	105.44
372.254	82.44
372.48	95.44
372.706	99.44
372.932	98.44
373.158	108.44
373.384	109.44
373.61	89.44
373.835	105.44
374.061	93.44
374.287	99.44
374.513	92.44
374.739	89.44
374.965	95.44
375.191	98.44
375.416	95.44
375.642	82.44
375.868	86.44
376.094	104.44
376.319	88.44
376.545	96.44
376.771	78.44
376.997	80.44
377.222	106.44
377.448	87.44
377.674	100.44
377.899	95.44
378.125	90.44
378.35	94.44
378.576	85.44
378.802	102.44
379.027	111.44
379.253	98.44
379.478	94.44
379.704	78.44
379.929	84.44
380.155	97.44
380.38	106.44
380.606	81.44
380.831	89.44
381.057	89.44
381.282	105.44
381.507	94.44
381.733	103.44
381.958	99.44
382.184	81.44
382.409	80.44
382.634	107.44
382.86	103.44
383.085	100.44
383.31	101.44
383.535	95.44
383.761	105.44
383.986	92.44
384.211	85.44
384.436	104.44
384.662	102.44
384.887	98.44
385.112	99.44
385.337	107.44
385.562	113.44
385.787	124.44
386.013	108.44
386.238	100.44
386.463	97.44
386.688	99.44
386.913	111.44
387.138	104.44
387.363	94.44
387.588	92.44
387.813	104.44
388.038	100.44
388.263	99.44
388.488	111.44
388.713	106.44
388.938	98.44
389.163	103.44
389.387	87.44
389.612	91.44
389.837	84.44
390.062	95.44
390.287	98.44
390.512	91.44
390.736	97.44
390.961	102.44
391.186	95.44
391.411	94.44
391.636	94.44
391.86	87.44
392.085	78.44
392.31	81.44
392.534	89.44
392.759	92.44
392.984	88.44
393.208	93.44
393.433	107.44
393.658	82.44
393.882	92.44
394.107	90.44
394.331	93.44
394.556	90.44
394.78	73.44
395.005	89.44
395.229	89.44
395.454	73.44
395.678	95.44
395.903	93.44
396.127	92.44
396.352	90.44
396.576	72.44
396.801	88.44
397.025	87.44
397.249	89.44
397.474	90.44
397.698	103.44
397.922	84.44
398.147	83.44
398.371	90.44
398.595	97.44
398.82	83.44
399.044	100.44
399.268	87.44
399.492	107.44
399.717	94.44
399.941	106.44
400.165	89.44
400.389	82.44
400.613	96.44
400.837	94.44
401.062	92.44
401.286	80.44
401.51	103.44
401.734	106.44
401.958	121.44
402.182	108.44
402.406	135.44
402.63	121.44
402.854	92.44
403.078	102.44
403.302	83.44
403.526	86.44
403.75	81.44
403.974	91.44
404.198	86.44
404.422	112.44
404.645	99.44
404.869	82.44
405.093	86.44
405.317	98.44
405.541	99.44
405.765	84.44
405.988	125.44
406.212	159.44
406.436	194.44
406.66	124.44
406.883	108.44
407.107	97.44
407.331	104.44
407.555	90.44
407.778	86.44
408.002	90.44
408.226	97.44
408.449	83.44
408.673	92.44
408.896	82.44
409.12	94.44
409.344	95.44
409.567	86.44
409.791	92.44
410.014	77.44
410.238	88.44
410.461	93.44
410.685	96.44
410.908	88.44
411.132	103.44
411.355	102.44
411.578	103.44
411.802	98.44
412.025	99.44
412.249	95.44
412.472	73.44
412.695	94.44
412.919	88.44
413.142	92.44
413.365	111.44
413.589	91.44
413.812	84.44
414.035	103.44
414.258	88.44
414.482	98.44
414.705	87.44
414.928	98.44
415.151	96.44
415.374	88.44
415.597	84.44
415.821	100.44
416.044	86.44
416.267	94.44
416.49	97.44
416.713	107.44
416.936	94.44
417.159	81.44
417.382	110.44
417.605	89.44
417.828	92.44
418.051	73.44
418.274	85.44
418.497	87.44
418.72	80.44
418.943	87.44
419.166	81.44
419.389	106.44
419.611	95.44
419.834	92.44
420.057	106.44
420.28	79.44
420.503	91.44
420.726	87.44
420.948	83.44
421.171	102.44
421.394	101.44
421.617	99.44
421.839	91.44
422.062	90.44
422.285	98.44
422.507	103.44
422.73	101.44
422.953	96.44
423.175	88.44
423.398	90.44
423.621	97.44
423.843	83.44
424.066	93.44
424.288	91.44
424.511	92.44
424.733	91.44
424.956	107.44
425.178	97.44
425.401	107.44
425.623	106.44
425.846	78.44
426.068	100.44
426.291	96.44
426.513	98.44
426.735	93.44
426.958	88.44
427.18	96.44
427.402	116.44
427.625	154.44
427.847	114.44
428.069	104.44
428.292	87.44
428.514	96.44
428.736	83.44
428.958	97.44
429.181	87.44
429.403	96.44
429.625	88.44
429.847	100.44
430.069	105.44
430.292	98.44
430.514	96.44
430.736	99.44
430.958	97.44
431.18	96.44
431.402	84.44
431.624	86.44
431.846	94.44
432.068	100.44
432.29	87.44
432.512	86.44
432.734	76.44
432.956	94.44
433.178	97.44
433.4	86.44
433.622	93.44
433.844	86.44
434.066	88.44
434.287	92.44
434.509	80.44
434.731	98.44
434.953	86.44
435.175	86.44
435.397	85.44
435.618	80.44
435.84	108.44
436.062	121.44
436.284	104.44
436.505	98.44
436.727	101.44
436.949	94.44
437.17	81.44
437.392	86.44
437.614	94.44
437.835	108.44
438.057	123.44
438.278	104.44
438.5	103.44
438.721	127.44
438.943	112.44
439.165	95.44
439.386	86.44
439.608	88.44
439.829	101.44
440.05	128.44
440.272	134.44
440.493	105.44
440.715	96.44
440.936	92.44
441.158	91.44
441.379	100.44
441.6	94.44
441.822	89.44
442.043	111.44
442.264	95.44
442.486	108.44
442.707	103.44
442.928	100.44
443.149	119.44
443.371	116.44
443.592	105.44
443.813	113.44
444.034	96.44
444.255	91.44
444.476	94.44
444.698	94.44
444.919	98.44
445.14	131.44
445.361	127.44
445.582	97.44
445.803	144.44
446.024	127.44
446.245	120.44
446.466	113.44
446.687	97.44
446.908	107.44
447.129	104.44
447.35	84.44
447.571	106.44
447.792	103.44
448.013	103.44
448.234	99.44
448.455	112.44
448.675	94.44
448.896	102.44
449.117	92.44
449.338	105.44
449.559	121.44
449.779	134.44
450	88.44
450.221	82.44
450.442	78.44
450.662	92.44
450.883	111.44
451.104	101.44
451.324	103.44
451.545	86.44
451.766	86.44
451.986	93.44
452.207	94.44
452.428	96.44
452.648	104.44
452.869	105.44
453.089	103.44
453.31	102.44
453.53	99.44
453.751	91.44
453.971	106.44
454.192	94.44
454.412	87.44
454.633	88.44
454.853	96.44
455.073	88.44
455.294	100.44
455.514	106.44
455.734	87.44
455.955	88.44
456.175	94.44
456.395	82.44
456.616	91.44
456.836	70.44
457.056	87.44
457.276	77.44
457.497	89.44
457.717	100.44
457.937	83.44
458.157	89.44
458.377	97.44
458.598	106.44
458.818	138.44
459.038	149.44
459.258	119.44
459.478	86.44
459.698	92.44
459.918	86.44
460.138	80.44
460.358	79.44
460.578	92.44
460.798	86.44
461.018	94.44
461.238	85.44
461.458	88.44
461.678	89.44
461.898	91.44
462.118	84.44
462.338	82.44
462.558	80.44
462.777	82.44
462.997	93.44
463.217	89.44
463.437	86.44
463.657	74.44
463.876	95.44
464.096	88.44
464.316	98.44
464.536	86.44
464.755	90.44
464.975	107.44
465.195	157.44
465.414	154.44
465.634	94.44
465.854	92.44
466.073	86.44
466.293	95.44
466.512	89.44
466.732	92.44
466.951	85.44
467.171	92.44
467.391	90.44
467.61	101.44
467.829	118.44
468.049	92.44
468.268	92.44
468.488	97.44
468.707	85.44
468.927	81.44
469.146	82.44
469.365	89.44
469.585	93.44
469.804	103.44
470.023	92.44
470.243	89.44
470.462	103.44
470.681	112.44
470.901	82.44
471.12	85.44
471.339	92.44
471.558	84.44
471.777	84.44
471.997	91.44
472.216	96.44
472.435	99.44
472.654	83.44
472.873	81.44
473.092	92.44
473.311	86.44
473.53	78.44
473.749	98.44
473.968	88.44
474.187	89.44
474.406	98.44
474.625	83.44
474.844	82.44
475.063	96.44
475.282	91.44
475.501	97.44
475.72	84.44
475.939	81.44
476.158	96.44
476.377	97.44
476.596	89.44
476.814	91.44
477.033	94.44
477.252	87.44
477.471	81.44
477.69	90.44
477.908	99.44
478.127	90.44
478.346	95.44
478.564	84.44
478.783	90.44
479.002	89.44
479.22	89.44
479.439	107.44
479.658	106.44
479.876	95.44
480.095	95.44
480.313	91.44
480.532	86.44
480.751	98.44
480.969	102.44
481.188	102.44
481.406	95.44
481.624	104.44
481.843	98.44
482.061	81.44
482.28	86.44
482.498	89.44
482.717	95.44
482.935	88.44
483.153	92.44
483.372	86.44
483.59	104.44
483.808	91.44
484.027	89.44
484.245	91.44
484.463	93.44
484.681	98.44
484.9	99.44
485.118	89.44
485.336	100.44
485.554	103.44
485.772	109.44
485.99	108.44
486.209	98.44
486.427	104.44
486.645	112.44
486.863	120.44
487.081	108.44
487.299	107.44
487.517	93.44
487.735	100.44
487.953	94.44
488.171	100.44
488.389	112.44
488.607	100.44
488.825	104.44
489.043	86.44
489.261	96.44
489.479	101.44
489.696	82.44
489.914	90.44
490.132	100.44
490.35	103.44
490.568	97.44
490.786	92.44
491.003	95.44
491.221	89.44
491.439	84.44
491.657	106.44
491.874	87.44
492.092	83.44
492.31	86.44
492.527	96.44
492.745	97.44
492.963	89.44
493.18	104.44
493.398	102.44
493.615	104.44
493.833	100.44
494.05	90.44
494.268	90.44
494.485	79.44
494.703	84.44
494.92	97.44
495.138	89.44
495.355	94.44
495.573	99.44
495.79	86.44
496.008	90.44
496.225	83.44
496.442	90.44
496.66	103.44
496.877	96.44
497.094	91.44
497.312	87.44
497.529	90.44
497.746	90.44
497.963	90.44
498.181	98.44
498.398	108.44
498.615	106.44
498.832	103.44
499.049	81.44
499.267	79.44
499.484	99.44
499.701	88.44
499.918	90.44
500.135	88.44
500.352	91.44
500.569	88.44
500.786	90.44
501.003	92.44
501.22	85.44
501.437	94.44
501.654	82.44
501.871	90.44
502.088	88.44
502.305	92.44
502.522	90.44
502.739	107.44
502.956	87.44
503.172	76.44
503.389	91.44
503.606	96.44
503.823	91.44
504.04	95.44
504.256	99.44
504.473	90.44
504.69	90.44
504.907	107.44
505.123	87.44
505.34	84.44
505.557	92.44
505.773	82.44
505.99	82.44
506.207	96.44
506.423	72.44
506.64	95.44
506.856	94.44
507.073	105.44
507.289	102.44
507.506	98.44
507.722	116.44
507.939	95.44
508.155	99.44
508.372	86.44
508.588	94.44
508.805	108.44
509.021	97.44
509.238	94.44
509.454	108.44
509.67	109.44
509.887	100.44
510.103	128.44
510.319	200.44
510.536	707.44
510.752	2149.44
510.968	592.44
511.184	142.44
511.401	110.44
511.617	93.44
511.833	102.44
512.049	87.44
512.265	89.44
512.481	84.44
512.698	90.44
512.914	81.44
513.13	84.44
513.346	103.44
513.562	96.44
513.778	102.44
513.994	108.44
514.21	105.44
514.426	123.44
514.642	119.44
514.858	116.44
515.074	149.44
