Data from Uncirc_1988_H10_HRD10591_00097.txt Node
Date: Wed Jan 03 12:04:23 EST 2024
User: Yrep
Spectrometer: HR+D1059
Trigger mode: 1
Integration Time (sec): 1.000000E-1
Scans to average: 1
Electric dark correction enabled: true
Nonlinearity correction enabled: false
Boxcar width: 0
XAxis mode: Wavelengths
Number of Pixels in Spectrum: 2048
>>>>>Begin Spectral Data<<<<<
223.165	-19.69
223.4	-19.69
223.635	-19.69
223.869	-13.69
224.104	-17.69
224.338	-10.69
224.573	-8.69
224.808	-5.69
225.042	-14.69
225.277	-9.69
225.511	2.31
225.746	3.31
225.98	4.31
226.215	-1.69
226.449	14.31
226.683	25.31
226.918	22.31
227.152	30.31
227.387	27.31
227.621	36.31
227.856	21.31
228.09	36.31
228.324	66.31
228.559	53.31
228.793	49.31
229.027	49.31
229.262	49.31
229.496	66.31
229.73	78.31
229.964	92.31
230.199	60.31
230.433	75.31
230.667	79.31
230.901	64.31
231.136	78.31
231.37	77.31
231.604	83.31
231.838	84.31
232.072	67.31
232.306	62.31
232.541	84.31
232.775	70.31
233.009	83.31
233.243	75.31
233.477	74.31
233.711	70.31
233.945	78.31
234.179	80.31
234.413	74.31
234.647	87.31
234.881	74.31
235.115	65.31
235.349	89.31
235.583	83.31
235.817	67.31
236.051	66.31
236.285	59.31
236.519	77.31
236.753	69.31
236.987	80.31
237.221	79.31
237.455	73.31
237.689	65.31
237.922	64.31
238.156	93.31
238.39	83.31
238.624	74.31
238.858	72.31
239.091	69.31
239.325	87.31
239.559	86.31
239.793	63.31
240.027	76.31
240.26	76.31
240.494	69.31
240.728	36.31
240.961	72.31
241.195	86.31
241.429	75.31
241.662	67.31
241.896	72.31
242.13	64.31
242.363	84.31
242.597	85.31
242.83	78.31
243.064	77.31
243.298	78.31
243.531	84.31
243.765	87.31
243.998	74.31
244.232	72.31
244.465	84.31
244.699	80.31
244.932	88.31
245.166	84.31
245.399	78.31
245.633	69.31
245.866	90.31
246.099	72.31
246.333	78.31
246.566	74.31
246.8	69.31
247.033	73.31
247.266	80.31
247.5	73.31
247.733	75.31
247.966	86.31
248.2	69.31
248.433	74.31
248.666	77.31
248.899	86.31
249.133	75.31
249.366	106.31
249.599	108.31
249.832	76.31
250.066	77.31
250.299	75.31
250.532	83.31
250.765	80.31
250.998	77.31
251.231	85.31
251.465	79.31
251.698	94.31
251.931	85.31
252.164	72.31
252.397	79.31
252.63	96.31
252.863	84.31
253.096	70.31
253.329	79.31
253.562	64.31
253.795	78.31
254.028	90.31
254.261	77.31
254.494	86.31
254.727	80.31
254.96	70.31
255.193	76.31
255.426	68.31
255.659	75.31
255.892	78.31
256.124	73.31
256.357	73.31
256.59	81.31
256.823	67.31
257.056	85.31
257.289	79.31
257.521	65.31
257.754	69.31
257.987	91.31
258.22	96.31
258.452	84.31
258.685	77.31
258.918	90.31
259.151	68.31
259.383	81.31
259.616	84.31
259.849	70.31
260.081	87.31
260.314	86.31
260.547	74.31
260.779	81.31
261.012	87.31
261.244	70.31
261.477	90.31
261.71	88.31
261.942	110.31
262.175	118.31
262.407	77.31
262.64	77.31
262.872	82.31
263.105	63.31
263.337	88.31
263.57	84.31
263.802	83.31
264.035	68.31
264.267	86.31
264.499	76.31
264.732	82.31
264.964	92.31
265.197	70.31
265.429	77.31
265.661	69.31
265.894	71.31
266.126	83.31
266.358	82.31
266.591	82.31
266.823	80.31
267.055	79.31
267.287	82.31
267.52	81.31
267.752	93.31
267.984	77.31
268.216	68.31
268.448	80.31
268.681	75.31
268.913	82.31
269.145	68.31
269.377	79.31
269.609	78.31
269.841	83.31
270.073	77.31
270.306	79.31
270.538	64.31
270.77	81.31
271.002	85.31
271.234	77.31
271.466	82.31
271.698	67.31
271.93	93.31
272.162	90.31
272.394	89.31
272.626	67.31
272.858	90.31
273.09	84.31
273.322	88.31
273.553	83.31
273.785	86.31
274.017	93.31
274.249	79.31
274.481	78.31
274.713	82.31
274.945	82.31
275.176	77.31
275.408	82.31
275.64	90.31
275.872	80.31
276.104	65.31
276.335	83.31
276.567	92.31
276.799	113.31
277.031	96.31
277.262	90.31
277.494	68.31
277.726	86.31
277.957	88.31
278.189	89.31
278.421	76.31
278.652	80.31
278.884	82.31
279.115	82.31
279.347	80.31
279.579	99.31
279.81	78.31
280.042	87.31
280.273	91.31
280.505	87.31
280.736	90.31
280.968	76.31
281.199	79.31
281.431	63.31
281.662	66.31
281.894	80.31
282.125	92.31
282.356	121.31
282.588	162.31
282.819	101.31
283.051	75.31
283.282	81.31
283.513	83.31
283.745	87.31
283.976	88.31
284.207	84.31
284.439	84.31
284.67	95.31
284.901	91.31
285.132	88.31
285.364	70.31
285.595	94.31
285.826	82.31
286.057	92.31
286.288	83.31
286.52	89.31
286.751	93.31
286.982	77.31
287.213	76.31
287.444	73.31
287.675	86.31
287.906	98.31
288.138	82.31
288.369	87.31
288.6	85.31
288.831	84.31
289.062	91.31
289.293	83.31
289.524	81.31
289.755	92.31
289.986	86.31
290.217	94.31
290.448	99.31
290.679	93.31
290.91	82.31
291.141	83.31
291.371	79.31
291.602	81.31
291.833	73.31
292.064	79.31
292.295	89.31
292.526	91.31
292.757	86.31
292.987	80.31
293.218	77.31
293.449	89.31
293.68	84.31
293.91	88.31
294.141	82.31
294.372	89.31
294.603	86.31
294.833	99.31
295.064	79.31
295.295	85.31
295.525	93.31
295.756	85.31
295.987	108.31
296.217	153.31
296.448	111.31
296.679	108.31
296.909	94.31
297.14	80.31
297.37	104.31
297.601	78.31
297.831	80.31
298.062	92.31
298.292	80.31
298.523	82.31
298.753	72.31
298.984	93.31
299.214	80.31
299.445	91.31
299.675	90.31
299.905	94.31
300.136	83.31
300.366	84.31
300.597	83.31
300.827	89.31
301.057	93.31
301.288	103.31
301.518	107.31
301.748	91.31
301.979	87.31
302.209	70.31
302.439	90.31
302.669	85.31
302.9	72.31
303.13	88.31
303.36	88.31
303.59	121.31
303.82	96.31
304.051	95.31
304.281	88.31
304.511	84.31
304.741	92.31
304.971	82.31
305.201	88.31
305.431	89.31
305.661	97.31
305.891	85.31
306.121	97.31
306.352	99.31
306.582	98.31
306.812	100.31
307.042	86.31
307.272	91.31
307.502	93.31
307.731	92.31
307.961	92.31
308.191	97.31
308.421	76.31
308.651	82.31
308.881	93.31
309.111	87.31
309.341	100.31
309.571	100.31
309.8	86.31
310.03	96.31
310.26	93.31
310.49	80.31
310.72	102.31
310.949	102.31
311.179	93.31
311.409	88.31
311.639	83.31
311.868	104.31
312.098	89.31
312.328	93.31
312.557	101.31
312.787	104.31
313.017	110.31
313.246	85.31
313.476	90.31
313.706	90.31
313.935	86.31
314.165	111.31
314.394	106.31
314.624	100.31
314.853	97.31
315.083	96.31
315.312	84.31
315.542	91.31
315.771	94.31
316.001	84.31
316.23	94.31
316.46	90.31
316.689	78.31
316.919	80.31
317.148	91.31
317.377	88.31
317.607	104.31
317.836	95.31
318.065	77.31
318.295	91.31
318.524	85.31
318.753	100.31
318.983	100.31
319.212	108.31
319.441	100.31
319.67	108.31
319.9	94.31
320.129	98.31
320.358	77.31
320.587	84.31
320.816	106.31
321.046	104.31
321.275	103.31
321.504	93.31
321.733	97.31
321.962	93.31
322.191	73.31
322.42	109.31
322.649	106.31
322.878	108.31
323.108	121.31
323.337	133.31
323.566	138.31
323.795	170.31
324.024	222.31
324.253	446.31
324.482	970.31
324.71	2056.31
324.939	2732.31
325.168	962.31
325.397	277.31
325.626	170.31
325.855	131.31
326.084	123.31
326.313	117.31
326.542	146.31
326.77	258.31
326.999	527.31
327.228	1105.31
327.457	2082.31
327.686	1666.31
327.914	431.31
328.143	215.31
328.372	173.31
328.6	132.31
328.829	134.31
329.058	133.31
329.287	141.31
329.515	110.31
329.744	102.31
329.972	98.31
330.201	131.31
330.43	152.31
330.658	135.31
330.887	160.31
331.115	132.31
331.344	100.31
331.572	85.31
331.801	107.31
332.03	94.31
332.258	91.31
332.486	85.31
332.715	92.31
332.943	101.31
333.172	112.31
333.4	90.31
333.629	113.31
333.857	116.31
334.085	101.31
334.314	116.31
334.542	162.31
334.771	143.31
334.999	113.31
335.227	98.31
335.455	112.31
335.684	102.31
335.912	74.31
336.14	94.31
336.369	89.31
336.597	87.31
336.825	90.31
337.053	88.31
337.281	78.31
337.51	79.31
337.738	84.31
337.966	82.31
338.194	82.31
338.422	94.31
338.65	79.31
338.878	94.31
339.106	80.31
339.334	102.31
339.562	90.31
339.79	84.31
340.018	89.31
340.246	87.31
340.474	92.31
340.702	92.31
340.93	85.31
341.158	84.31
341.386	95.31
341.614	91.31
341.842	99.31
342.07	84.31
342.298	84.31
342.526	93.31
342.754	89.31
342.981	90.31
343.209	77.31
343.437	97.31
343.665	99.31
343.893	80.31
344.12	89.31
344.348	87.31
344.576	77.31
344.804	105.31
345.031	101.31
345.259	108.31
345.487	82.31
345.714	102.31
345.942	91.31
346.17	86.31
346.397	91.31
346.625	93.31
346.853	94.31
347.08	102.31
347.308	101.31
347.535	98.31
347.763	93.31
347.99	85.31
348.218	85.31
348.445	91.31
348.673	98.31
348.9	100.31
349.128	85.31
349.355	94.31
349.583	95.31
349.81	80.31
350.037	89.31
350.265	109.31
350.492	84.31
350.72	100.31
350.947	110.31
351.174	98.31
351.402	108.31
351.629	109.31
351.856	106.31
352.083	103.31
352.311	102.31
352.538	109.31
352.765	102.31
352.992	113.31
353.22	126.31
353.447	106.31
353.674	107.31
353.901	86.31
354.128	88.31
354.355	100.31
354.583	81.31
354.81	86.31
355.037	101.31
355.264	84.31
355.491	100.31
355.718	105.31
355.945	87.31
356.172	85.31
356.399	108.31
356.626	74.31
356.853	87.31
357.08	85.31
357.307	95.31
357.534	101.31
357.761	110.31
357.988	106.31
358.215	83.31
358.441	81.31
358.668	82.31
358.895	84.31
359.122	82.31
359.349	84.31
359.576	85.31
359.802	106.31
360.029	108.31
360.256	109.31
360.483	89.31
360.709	84.31
360.936	82.31
361.163	78.31
361.39	83.31
361.616	108.31
361.843	78.31
362.07	98.31
362.296	105.31
362.523	86.31
362.749	91.31
362.976	91.31
363.203	92.31
363.429	84.31
363.656	97.31
363.882	102.31
364.109	76.31
364.335	82.31
364.562	94.31
364.788	88.31
365.015	90.31
365.241	100.31
365.468	121.31
365.694	95.31
365.92	102.31
366.147	92.31
366.373	81.31
366.599	88.31
366.826	91.31
367.052	99.31
367.278	79.31
367.505	89.31
367.731	90.31
367.957	89.31
368.184	89.31
368.41	90.31
368.636	101.31
368.862	126.31
369.089	109.31
369.315	90.31
369.541	90.31
369.767	89.31
369.993	83.31
370.219	93.31
370.445	87.31
370.672	90.31
370.898	98.31
371.124	84.31
371.35	82.31
371.576	88.31
371.802	72.31
372.028	78.31
372.254	89.31
372.48	81.31
372.706	74.31
372.932	90.31
373.158	82.31
373.384	86.31
373.61	97.31
373.835	102.31
374.061	97.31
374.287	89.31
374.513	84.31
374.739	82.31
374.965	84.31
375.191	81.31
375.416	90.31
375.642	91.31
375.868	96.31
376.094	79.31
376.319	79.31
376.545	88.31
376.771	90.31
376.997	90.31
377.222	83.31
377.448	72.31
377.674	87.31
377.899	83.31
378.125	90.31
378.35	99.31
378.576	89.31
378.802	100.31
379.027	87.31
379.253	94.31
379.478	95.31
379.704	84.31
379.929	99.31
380.155	91.31
380.38	104.31
380.606	89.31
380.831	98.31
381.057	107.31
381.282	90.31
381.507	86.31
381.733	84.31
381.958	84.31
382.184	106.31
382.409	92.31
382.634	91.31
382.86	90.31
383.085	91.31
383.31	97.31
383.535	105.31
383.761	94.31
383.986	75.31
384.211	90.31
384.436	100.31
384.662	90.31
384.887	101.31
385.112	89.31
385.337	97.31
385.562	96.31
385.787	90.31
386.013	106.31
386.238	117.31
386.463	96.31
386.688	100.31
386.913	98.31
387.138	108.31
387.363	105.31
387.588	99.31
387.813	92.31
388.038	105.31
388.263	97.31
388.488	82.31
388.713	92.31
388.938	80.31
389.163	90.31
389.387	92.31
389.612	96.31
389.837	89.31
390.062	104.31
390.287	89.31
390.512	100.31
390.736	99.31
390.961	96.31
391.186	98.31
391.411	83.31
391.636	99.31
391.86	83.31
392.085	92.31
392.31	69.31
392.534	76.31
392.759	84.31
392.984	107.31
393.208	78.31
393.433	81.31
393.658	79.31
393.882	75.31
394.107	84.31
394.331	84.31
394.556	81.31
394.78	92.31
395.005	91.31
395.229	83.31
395.454	96.31
395.678	82.31
395.903	70.31
396.127	83.31
396.352	68.31
396.576	81.31
396.801	94.31
397.025	90.31
397.249	68.31
397.474	100.31
397.698	79.31
397.922	75.31
398.147	70.31
398.371	81.31
398.595	87.31
398.82	77.31
399.044	72.31
399.268	81.31
399.492	81.31
399.717	80.31
399.941	76.31
400.165	94.31
400.389	92.31
400.613	83.31
400.837	80.31
401.062	84.31
401.286	81.31
401.51	81.31
401.734	86.31
401.958	98.31
402.182	122.31
402.406	164.31
402.63	138.31
402.854	96.31
403.078	85.31
403.302	83.31
403.526	86.31
403.75	88.31
403.974	77.31
404.198	78.31
404.422	92.31
404.645	91.31
404.869	84.31
405.093	87.31
405.317	93.31
405.541	102.31
405.765	93.31
405.988	108.31
406.212	172.31
406.436	262.31
406.66	158.31
406.883	113.31
407.107	93.31
407.331	104.31
407.555	94.31
407.778	106.31
408.002	74.31
408.226	81.31
408.449	86.31
408.673	79.31
408.896	85.31
409.12	108.31
409.344	88.31
409.567	78.31
409.791	81.31
410.014	88.31
410.238	84.31
410.461	89.31
410.685	99.31
410.908	77.31
411.132	102.31
411.355	104.31
411.578	92.31
411.802	95.31
412.025	84.31
412.249	94.31
412.472	92.31
412.695	106.31
412.919	97.31
413.142	87.31
413.365	77.31
413.589	82.31
413.812	93.31
414.035	83.31
414.258	73.31
414.482	86.31
414.705	84.31
414.928	92.31
415.151	95.31
415.374	76.31
415.597	90.31
415.821	92.31
416.044	89.31
416.267	93.31
416.49	92.31
416.713	85.31
416.936	82.31
417.159	85.31
417.382	75.31
417.605	83.31
417.828	81.31
418.051	97.31
418.274	84.31
418.497	76.31
418.72	83.31
418.943	61.31
419.166	83.31
419.389	88.31
419.611	83.31
419.834	91.31
420.057	92.31
420.28	92.31
420.503	83.31
420.726	80.31
420.948	82.31
421.171	99.31
421.394	86.31
421.617	80.31
421.839	76.31
422.062	83.31
422.285	83.31
422.507	92.31
422.73	97.31
422.953	78.31
423.175	85.31
423.398	88.31
423.621	87.31
423.843	76.31
424.066	94.31
424.288	73.31
424.511	102.31
424.733	83.31
424.956	99.31
425.178	97.31
425.401	93.31
425.623	84.31
425.846	78.31
426.068	101.31
426.291	97.31
426.513	90.31
426.735	77.31
426.958	94.31
427.18	100.31
427.402	151.31
427.625	194.31
427.847	132.31
428.069	121.31
428.292	85.31
428.514	90.31
428.736	88.31
428.958	75.31
429.181	77.31
429.403	95.31
429.625	81.31
429.847	93.31
430.069	105.31
430.292	88.31
430.514	84.31
430.736	77.31
430.958	88.31
431.18	72.31
431.402	90.31
431.624	77.31
431.846	74.31
432.068	89.31
432.29	86.31
432.512	88.31
432.734	77.31
432.956	81.31
433.178	92.31
433.4	110.31
433.622	100.31
433.844	92.31
434.066	91.31
434.287	83.31
434.509	90.31
434.731	89.31
434.953	94.31
435.175	91.31
435.397	96.31
435.618	90.31
435.84	101.31
436.062	125.31
436.284	129.31
436.505	102.31
436.727	108.31
436.949	95.31
437.17	80.31
437.392	76.31
437.614	96.31
437.835	120.31
438.057	127.31
438.278	122.31
438.5	113.31
438.721	128.31
438.943	79.31
439.165	72.31
439.386	83.31
439.608	84.31
439.829	106.31
440.05	116.31
440.272	156.31
440.493	110.31
440.715	79.31
440.936	91.31
441.158	83.31
441.379	78.31
441.6	82.31
441.822	99.31
442.043	81.31
442.264	116.31
442.486	98.31
442.707	80.31
442.928	106.31
443.149	142.31
443.371	133.31
443.592	108.31
443.813	116.31
444.034	115.31
444.255	96.31
444.476	81.31
444.698	95.31
444.919	81.31
445.14	119.31
445.361	108.31
445.582	143.31
445.803	140.31
446.024	146.31
446.245	142.31
446.466	133.31
446.687	88.31
446.908	91.31
447.129	88.31
447.35	76.31
447.571	87.31
447.792	91.31
448.013	87.31
448.234	106.31
448.455	102.31
448.675	122.31
448.896	138.31
449.117	103.31
449.338	100.31
449.559	134.31
449.779	160.31
450	84.31
450.221	89.31
450.442	61.31
450.662	80.31
450.883	100.31
451.104	106.31
451.324	106.31
451.545	97.31
451.766	78.31
451.986	81.31
452.207	75.31
452.428	102.31
452.648	90.31
452.869	125.31
453.089	116.31
453.31	126.31
453.53	101.31
453.751	101.31
453.971	98.31
454.192	108.31
454.412	83.31
454.633	87.31
454.853	99.31
455.073	93.31
455.294	93.31
455.514	106.31
455.734	83.31
455.955	95.31
456.175	98.31
456.395	76.31
456.616	77.31
456.836	78.31
457.056	88.31
457.276	91.31
457.497	87.31
457.717	81.31
457.937	82.31
458.157	76.31
458.377	76.31
458.598	107.31
458.818	156.31
459.038	168.31
459.258	123.31
459.478	91.31
459.698	90.31
459.918	81.31
460.138	80.31
460.358	90.31
460.578	90.31
460.798	93.31
461.018	86.31
461.238	74.31
461.458	83.31
461.678	84.31
461.898	85.31
462.118	83.31
462.338	92.31
462.558	79.31
462.777	74.31
462.997	85.31
463.217	89.31
463.437	94.31
463.657	96.31
463.876	86.31
464.096	77.31
464.316	89.31
464.536	74.31
464.755	98.31
464.975	108.31
465.195	195.31
465.414	188.31
465.634	97.31
465.854	80.31
466.073	84.31
466.293	83.31
466.512	80.31
466.732	92.31
466.951	74.31
467.171	91.31
467.391	82.31
467.61	115.31
467.829	109.31
468.049	89.31
468.268	116.31
468.488	79.31
468.707	80.31
468.927	92.31
469.146	96.31
469.365	102.31
469.585	84.31
469.804	103.31
470.023	95.31
470.243	85.31
470.462	112.31
470.681	125.31
470.901	95.31
471.12	87.31
471.339	91.31
471.558	84.31
471.777	81.31
471.997	101.31
472.216	130.31
472.435	179.31
472.654	110.31
472.873	85.31
473.092	93.31
473.311	77.31
473.53	83.31
473.749	85.31
473.968	97.31
474.187	110.31
474.406	98.31
474.625	72.31
474.844	80.31
475.063	89.31
475.282	96.31
475.501	74.31
475.72	100.31
475.939	81.31
476.158	67.31
476.377	92.31
476.596	91.31
476.814	99.31
477.033	101.31
477.252	84.31
477.471	91.31
477.69	77.31
477.908	90.31
478.127	89.31
478.346	79.31
478.564	94.31
478.783	99.31
479.002	93.31
479.22	78.31
479.439	95.31
479.658	101.31
479.876	101.31
480.095	94.31
480.313	94.31
480.532	80.31
480.751	92.31
480.969	127.31
481.188	257.31
481.406	173.31
481.624	90.31
481.843	91.31
482.061	87.31
482.28	100.31
482.498	102.31
482.717	85.31
482.935	96.31
483.153	90.31
483.372	81.31
483.59	80.31
483.808	90.31
484.027	84.31
484.245	88.31
484.463	84.31
484.681	94.31
484.9	93.31
485.118	93.31
485.336	85.31
485.554	107.31
485.772	87.31
485.99	118.31
486.209	120.31
486.427	106.31
486.645	99.31
486.863	125.31
487.081	89.31
487.299	81.31
487.517	85.31
487.735	72.31
487.953	96.31
488.171	86.31
488.389	94.31
488.607	97.31
488.825	101.31
489.043	96.31
489.261	74.31
489.479	76.31
489.696	84.31
489.914	89.31
490.132	84.31
490.35	94.31
490.568	91.31
490.786	83.31
491.003	82.31
491.221	79.31
491.439	92.31
491.657	84.31
491.874	86.31
492.092	79.31
492.31	96.31
492.527	92.31
492.745	89.31
492.963	68.31
493.18	83.31
493.398	90.31
493.615	97.31
493.833	101.31
494.05	80.31
494.268	81.31
494.485	91.31
494.703	88.31
494.92	87.31
495.138	80.31
495.355	84.31
495.573	97.31
495.79	92.31
496.008	88.31
496.225	99.31
496.442	89.31
496.66	95.31
496.877	93.31
497.094	82.31
497.312	80.31
497.529	88.31
497.746	86.31
497.963	80.31
498.181	99.31
498.398	92.31
498.615	104.31
498.832	93.31
499.049	94.31
499.267	98.31
499.484	84.31
499.701	97.31
499.918	82.31
500.135	84.31
500.352	85.31
500.569	83.31
500.786	85.31
501.003	96.31
501.22	88.31
501.437	84.31
501.654	96.31
501.871	102.31
502.088	91.31
502.305	94.31
502.522	78.31
502.739	68.31
502.956	83.31
503.172	92.31
503.389	93.31
503.606	104.31
503.823	87.31
504.04	88.31
504.256	83.31
504.473	76.31
504.69	79.31
504.907	92.31
505.123	80.31
505.34	88.31
505.557	93.31
505.773	79.31
505.99	92.31
506.207	82.31
506.423	81.31
506.64	86.31
506.856	89.31
507.073	84.31
507.289	84.31
507.506	105.31
507.722	113.31
507.939	120.31
508.155	104.31
508.372	83.31
508.588	92.31
508.805	87.31
509.021	109.31
509.238	90.31
509.454	93.31
509.67	98.31
509.887	105.31
510.103	121.31
510.319	236.31
510.536	852.31
510.752	2744.31
510.968	734.31
511.184	156.31
511.401	117.31
511.617	91.31
511.833	85.31
512.049	92.31
512.265	85.31
512.481	92.31
512.698	92.31
512.914	101.31
513.13	87.31
513.346	73.31
513.562	90.31
513.778	92.31
513.994	99.31
514.21	104.31
514.426	123.31
514.642	149.31
514.858	126.31
515.074	175.31
515.29	542.31
515.506	1838.31
515.721	642.31
515.937	163.31
516.153	95.31
