Data from Uncirc_1988_H10_HRD10591_00071.txt Node
Date: Wed Jan 03 12:04:18 EST 2024
User: Yrep
Spectrometer: HR+D1059
Trigger mode: 1
Integration Time (sec): 1.000000E-1
Scans to average: 1
Electric dark correction enabled: true
Nonlinearity correction enabled: false
Boxcar width: 0
XAxis mode: Wavelengths
Number of Pixels in Spectrum: 2048
>>>>>Begin Spectral Data<<<<<
223.165	-27.12
223.4	-27.12
223.635	-27.12
223.869	-18.12
224.104	-12.12
224.338	-31.12
224.573	-1.12
224.808	-13.12
225.042	-18.12
225.277	-9.12
225.511	12.88
225.746	-0.12
225.98	-11.12
226.215	3.88
226.449	26.88
226.683	28.88
226.918	25.88
227.152	42.88
227.387	44.88
227.621	38.88
227.856	55.88
228.09	42.88
228.324	45.88
228.559	52.88
228.793	48.88
229.027	62.88
229.262	60.88
229.496	75.88
229.73	77.88
229.964	78.88
230.199	67.88
230.433	73.88
230.667	82.88
230.901	88.88
231.136	64.88
231.37	88.88
231.604	93.88
231.838	76.88
232.072	83.88
232.306	74.88
232.541	76.88
232.775	80.88
233.009	81.88
233.243	89.88
233.477	81.88
233.711	90.88
233.945	81.88
234.179	91.88
234.413	79.88
234.647	88.88
234.881	73.88
235.115	81.88
235.349	83.88
235.583	78.88
235.817	85.88
236.051	79.88
236.285	85.88
236.519	80.88
236.753	75.88
236.987	86.88
237.221	94.88
237.455	83.88
237.689	76.88
237.922	69.88
238.156	79.88
238.39	76.88
238.624	71.88
238.858	82.88
239.091	85.88
239.325	92.88
239.559	78.88
239.793	80.88
240.027	86.88
240.26	86.88
240.494	82.88
240.728	71.88
240.961	84.88
241.195	83.88
241.429	89.88
241.662	70.88
241.896	69.88
242.13	72.88
242.363	71.88
242.597	60.88
242.83	66.88
243.064	90.88
243.298	80.88
243.531	63.88
243.765	86.88
243.998	79.88
244.232	80.88
244.465	79.88
244.699	81.88
244.932	71.88
245.166	80.88
245.399	66.88
245.633	79.88
245.866	74.88
246.099	64.88
246.333	76.88
246.566	68.88
246.8	71.88
247.033	69.88
247.266	80.88
247.5	80.88
247.733	82.88
247.966	90.88
248.2	81.88
248.433	76.88
248.666	88.88
248.899	77.88
249.133	93.88
249.366	82.88
249.599	94.88
249.832	71.88
250.066	84.88
250.299	76.88
250.532	77.88
250.765	88.88
250.998	82.88
251.231	89.88
251.465	78.88
251.698	87.88
251.931	70.88
252.164	70.88
252.397	80.88
252.63	86.88
252.863	87.88
253.096	77.88
253.329	78.88
253.562	88.88
253.795	68.88
254.028	83.88
254.261	80.88
254.494	93.88
254.727	94.88
254.96	81.88
255.193	98.88
255.426	80.88
255.659	70.88
255.892	84.88
256.124	72.88
256.357	83.88
256.59	76.88
256.823	89.88
257.056	82.88
257.289	92.88
257.521	79.88
257.754	87.88
257.987	86.88
258.22	82.88
258.452	94.88
258.685	89.88
258.918	76.88
259.151	74.88
259.383	91.88
259.616	83.88
259.849	86.88
260.081	78.88
260.314	86.88
260.547	79.88
260.779	88.88
261.012	82.88
261.244	87.88
261.477	81.88
261.71	95.88
261.942	116.88
262.175	113.88
262.407	103.88
262.64	77.88
262.872	77.88
263.105	85.88
263.337	85.88
263.57	79.88
263.802	92.88
264.035	71.88
264.267	86.88
264.499	80.88
264.732	92.88
264.964	78.88
265.197	80.88
265.429	81.88
265.661	88.88
265.894	88.88
266.126	94.88
266.358	72.88
266.591	84.88
266.823	82.88
267.055	71.88
267.287	79.88
267.52	83.88
267.752	80.88
267.984	80.88
268.216	75.88
268.448	87.88
268.681	69.88
268.913	82.88
269.145	94.88
269.377	85.88
269.609	72.88
269.841	98.88
270.073	82.88
270.306	71.88
270.538	68.88
270.77	88.88
271.002	85.88
271.234	72.88
271.466	85.88
271.698	82.88
271.93	71.88
272.162	77.88
272.394	86.88
272.626	104.88
272.858	79.88
273.09	78.88
273.322	85.88
273.553	92.88
273.785	80.88
274.017	94.88
274.249	94.88
274.481	85.88
274.713	84.88
274.945	84.88
275.176	95.88
275.408	90.88
275.64	89.88
275.872	73.88
276.104	89.88
276.335	88.88
276.567	95.88
276.799	95.88
277.031	98.88
277.262	82.88
277.494	89.88
277.726	93.88
277.957	79.88
278.189	72.88
278.421	90.88
278.652	82.88
278.884	80.88
279.115	92.88
279.347	84.88
279.579	82.88
279.81	93.88
280.042	94.88
280.273	76.88
280.505	93.88
280.736	95.88
280.968	97.88
281.199	93.88
281.431	84.88
281.662	80.88
281.894	95.88
282.125	98.88
282.356	100.88
282.588	124.88
282.819	112.88
283.051	80.88
283.282	93.88
283.513	85.88
283.745	80.88
283.976	83.88
284.207	89.88
284.439	87.88
284.67	83.88
284.901	86.88
285.132	77.88
285.364	67.88
285.595	80.88
285.826	94.88
286.057	82.88
286.288	85.88
286.52	85.88
286.751	88.88
286.982	71.88
287.213	65.88
287.444	94.88
287.675	86.88
287.906	93.88
288.138	87.88
288.369	77.88
288.6	89.88
288.831	89.88
289.062	87.88
289.293	85.88
289.524	100.88
289.755	80.88
289.986	77.88
290.217	85.88
290.448	85.88
290.679	66.88
290.91	85.88
291.141	79.88
291.371	84.88
291.602	94.88
291.833	96.88
292.064	84.88
292.295	72.88
292.526	101.88
292.757	80.88
292.987	80.88
293.218	78.88
293.449	56.88
293.68	80.88
293.91	92.88
294.141	76.88
294.372	89.88
294.603	82.88
294.833	92.88
295.064	94.88
295.295	86.88
295.525	94.88
295.756	98.88
295.987	110.88
296.217	131.88
296.448	104.88
296.679	100.88
296.909	90.88
297.14	89.88
297.37	93.88
297.601	74.88
297.831	82.88
298.062	97.88
298.292	88.88
298.523	76.88
298.753	89.88
298.984	93.88
299.214	79.88
299.445	84.88
299.675	83.88
299.905	94.88
300.136	104.88
300.366	97.88
300.597	85.88
300.827	74.88
301.057	100.88
301.288	106.88
301.518	91.88
301.748	83.88
301.979	98.88
302.209	80.88
302.439	88.88
302.669	76.88
302.9	94.88
303.13	84.88
303.36	86.88
303.59	101.88
303.82	105.88
304.051	90.88
304.281	89.88
304.511	87.88
304.741	92.88
304.971	87.88
305.201	85.88
305.431	82.88
305.661	88.88
305.891	72.88
306.121	92.88
306.352	94.88
306.582	101.88
306.812	88.88
307.042	88.88
307.272	92.88
307.502	86.88
307.731	86.88
307.961	97.88
308.191	97.88
308.421	82.88
308.651	84.88
308.881	95.88
309.111	86.88
309.341	102.88
309.571	88.88
309.8	92.88
310.03	105.88
310.26	101.88
310.49	92.88
310.72	89.88
310.949	94.88
311.179	95.88
311.409	80.88
311.639	90.88
311.868	89.88
312.098	86.88
312.328	85.88
312.557	82.88
312.787	98.88
313.017	95.88
313.246	88.88
313.476	102.88
313.706	84.88
313.935	96.88
314.165	103.88
314.394	84.88
314.624	100.88
314.853	97.88
315.083	97.88
315.312	88.88
315.542	96.88
315.771	87.88
316.001	92.88
316.23	93.88
316.46	93.88
316.689	105.88
316.919	92.88
317.148	105.88
317.377	81.88
317.607	97.88
317.836	91.88
318.065	111.88
318.295	101.88
318.524	90.88
318.753	81.88
318.983	85.88
319.212	97.88
319.441	102.88
319.67	98.88
319.9	89.88
320.129	91.88
320.358	99.88
320.587	92.88
320.816	81.88
321.046	79.88
321.275	88.88
321.504	76.88
321.733	90.88
321.962	94.88
322.191	100.88
322.42	86.88
322.649	114.88
322.878	96.88
323.108	106.88
323.337	105.88
323.566	110.88
323.795	139.88
324.024	184.88
324.253	322.88
324.482	644.88
324.71	1340.88
324.939	1730.88
325.168	648.88
325.397	231.88
325.626	135.88
325.855	129.88
326.084	121.88
326.313	118.88
326.542	134.88
326.77	190.88
326.999	362.88
327.228	708.88
327.457	1326.88
327.686	1058.88
327.914	309.88
328.143	162.88
328.372	127.88
328.6	110.88
328.829	110.88
329.058	106.88
329.287	115.88
329.515	111.88
329.744	92.88
329.972	99.88
330.201	109.88
330.43	116.88
330.658	119.88
330.887	136.88
331.115	120.88
331.344	108.88
331.572	105.88
331.801	96.88
332.03	97.88
332.258	96.88
332.486	92.88
332.715	78.88
332.943	96.88
333.172	84.88
333.4	91.88
333.629	121.88
333.857	106.88
334.085	108.88
334.314	101.88
334.542	109.88
334.771	101.88
334.999	97.88
335.227	82.88
335.455	99.88
335.684	99.88
335.912	87.88
336.14	95.88
336.369	89.88
336.597	86.88
336.825	72.88
337.053	86.88
337.281	90.88
337.51	78.88
337.738	84.88
337.966	76.88
338.194	82.88
338.422	80.88
338.65	106.88
338.878	101.88
339.106	90.88
339.334	88.88
339.562	90.88
339.79	86.88
340.018	86.88
340.246	88.88
340.474	95.88
340.702	88.88
340.93	97.88
341.158	73.88
341.386	80.88
341.614	80.88
341.842	87.88
342.07	94.88
342.298	96.88
342.526	87.88
342.754	102.88
342.981	78.88
343.209	83.88
343.437	105.88
343.665	88.88
343.893	87.88
344.12	104.88
344.348	95.88
344.576	93.88
344.804	95.88
345.031	62.88
345.259	80.88
345.487	99.88
345.714	84.88
345.942	99.88
346.17	90.88
346.397	89.88
346.625	99.88
346.853	96.88
347.08	95.88
347.308	86.88
347.535	84.88
347.763	84.88
347.99	93.88
348.218	83.88
348.445	111.88
348.673	90.88
348.9	84.88
349.128	86.88
349.355	78.88
349.583	92.88
349.81	88.88
350.037	104.88
350.265	98.88
350.492	86.88
350.72	88.88
350.947	94.88
351.174	103.88
351.402	97.88
351.629	99.88
351.856	92.88
352.083	97.88
352.311	98.88
352.538	90.88
352.765	98.88
352.992	99.88
353.22	101.88
353.447	90.88
353.674	104.88
353.901	96.88
354.128	88.88
354.355	95.88
354.583	80.88
354.81	96.88
355.037	92.88
355.264	84.88
355.491	77.88
355.718	85.88
355.945	90.88
356.172	93.88
356.399	78.88
356.626	91.88
356.853	76.88
357.08	92.88
357.307	82.88
357.534	71.88
357.761	84.88
357.988	82.88
358.215	88.88
358.441	86.88
358.668	96.88
358.895	85.88
359.122	101.88
359.349	81.88
359.576	105.88
359.802	90.88
360.029	105.88
360.256	96.88
360.483	84.88
360.709	89.88
360.936	92.88
361.163	90.88
361.39	93.88
361.616	85.88
361.843	75.88
362.07	100.88
362.296	92.88
362.523	87.88
362.749	96.88
362.976	93.88
363.203	92.88
363.429	90.88
363.656	100.88
363.882	87.88
364.109	88.88
364.335	86.88
364.562	77.88
364.788	96.88
365.015	94.88
365.241	97.88
365.468	100.88
365.694	90.88
365.92	101.88
366.147	100.88
366.373	77.88
366.599	94.88
366.826	92.88
367.052	80.88
367.278	80.88
367.505	79.88
367.731	86.88
367.957	90.88
368.184	91.88
368.41	90.88
368.636	101.88
368.862	104.88
369.089	100.88
369.315	94.88
369.541	98.88
369.767	85.88
369.993	84.88
370.219	95.88
370.445	97.88
370.672	76.88
370.898	89.88
371.124	86.88
371.35	94.88
371.576	109.88
371.802	92.88
372.028	88.88
372.254	90.88
372.48	78.88
372.706	73.88
372.932	90.88
373.158	88.88
373.384	93.88
373.61	81.88
373.835	81.88
374.061	92.88
374.287	84.88
374.513	97.88
374.739	77.88
374.965	89.88
375.191	78.88
375.416	83.88
375.642	94.88
375.868	93.88
376.094	84.88
376.319	87.88
376.545	66.88
376.771	94.88
376.997	98.88
377.222	97.88
377.448	94.88
377.674	89.88
377.899	92.88
378.125	104.88
378.35	96.88
378.576	76.88
378.802	75.88
379.027	96.88
379.253	67.88
379.478	89.88
379.704	95.88
379.929	98.88
380.155	97.88
380.38	89.88
380.606	87.88
380.831	80.88
381.057	95.88
381.282	88.88
381.507	88.88
381.733	78.88
381.958	98.88
382.184	86.88
382.409	87.88
382.634	89.88
382.86	90.88
383.085	86.88
383.31	82.88
383.535	89.88
383.761	77.88
383.986	80.88
384.211	84.88
384.436	87.88
384.662	91.88
384.887	80.88
385.112	92.88
385.337	97.88
385.562	72.88
385.787	86.88
386.013	110.88
386.238	84.88
386.463	88.88
386.688	101.88
386.913	94.88
387.138	86.88
387.363	96.88
387.588	82.88
387.813	78.88
388.038	89.88
388.263	103.88
388.488	110.88
388.713	92.88
388.938	87.88
389.163	73.88
389.387	93.88
389.612	96.88
389.837	86.88
390.062	85.88
390.287	80.88
390.512	93.88
390.736	86.88
390.961	80.88
391.186	81.88
391.411	87.88
391.636	88.88
391.86	83.88
392.085	85.88
392.31	68.88
392.534	75.88
392.759	82.88
392.984	92.88
393.208	101.88
393.433	84.88
393.658	86.88
393.882	77.88
394.107	86.88
394.331	69.88
394.556	71.88
394.78	88.88
395.005	78.88
395.229	84.88
395.454	82.88
395.678	76.88
395.903	88.88
396.127	86.88
396.352	79.88
396.576	86.88
396.801	79.88
397.025	80.88
397.249	105.88
397.474	98.88
397.698	77.88
397.922	91.88
398.147	100.88
398.371	95.88
398.595	85.88
398.82	78.88
399.044	87.88
399.268	84.88
399.492	88.88
399.717	89.88
399.941	84.88
400.165	100.88
400.389	99.88
400.613	83.88
400.837	80.88
401.062	87.88
401.286	83.88
401.51	79.88
401.734	80.88
401.958	103.88
402.182	121.88
402.406	150.88
402.63	124.88
402.854	88.88
403.078	80.88
403.302	82.88
403.526	98.88
403.75	100.88
403.974	78.88
404.198	91.88
404.422	89.88
404.645	88.88
404.869	77.88
405.093	96.88
405.317	79.88
405.541	100.88
405.765	94.88
405.988	114.88
406.212	172.88
406.436	219.88
406.66	136.88
406.883	97.88
407.107	103.88
407.331	91.88
407.555	100.88
407.778	87.88
408.002	97.88
408.226	91.88
408.449	80.88
408.673	76.88
408.896	82.88
409.12	89.88
409.344	78.88
409.567	83.88
409.791	78.88
410.014	76.88
410.238	93.88
410.461	95.88
410.685	88.88
410.908	91.88
411.132	88.88
411.355	78.88
411.578	91.88
411.802	79.88
412.025	89.88
412.249	71.88
412.472	89.88
412.695	80.88
412.919	76.88
413.142	82.88
413.365	88.88
413.589	82.88
413.812	80.88
414.035	78.88
414.258	67.88
414.482	83.88
414.705	71.88
414.928	89.88
415.151	86.88
415.374	102.88
415.597	80.88
415.821	78.88
416.044	87.88
416.267	76.88
416.49	80.88
416.713	73.88
416.936	79.88
417.159	94.88
417.382	87.88
417.605	91.88
417.828	95.88
418.051	90.88
418.274	83.88
418.497	87.88
418.72	77.88
418.943	88.88
419.166	78.88
419.389	80.88
419.611	88.88
419.834	72.88
420.057	84.88
420.28	80.88
420.503	68.88
420.726	82.88
420.948	76.88
421.171	63.88
421.394	87.88
421.617	93.88
421.839	90.88
422.062	90.88
422.285	83.88
422.507	108.88
422.73	105.88
422.953	88.88
423.175	81.88
423.398	78.88
423.621	96.88
423.843	87.88
424.066	86.88
424.288	89.88
424.511	72.88
424.733	89.88
424.956	99.88
425.178	89.88
425.401	93.88
425.623	88.88
425.846	85.88
426.068	96.88
426.291	73.88
426.513	82.88
426.735	92.88
426.958	81.88
427.18	97.88
427.402	105.88
427.625	163.88
427.847	122.88
428.069	102.88
428.292	92.88
428.514	88.88
428.736	87.88
428.958	74.88
429.181	81.88
429.403	98.88
429.625	85.88
429.847	78.88
430.069	88.88
430.292	69.88
430.514	88.88
430.736	77.88
430.958	87.88
431.18	89.88
431.402	90.88
431.624	74.88
431.846	77.88
432.068	67.88
432.29	78.88
432.512	88.88
432.734	90.88
432.956	76.88
433.178	94.88
433.4	93.88
433.622	80.88
433.844	90.88
434.066	90.88
434.287	89.88
434.509	81.88
434.731	70.88
434.953	94.88
435.175	88.88
435.397	92.88
435.618	89.88
435.84	84.88
436.062	121.88
436.284	95.88
436.505	92.88
436.727	82.88
436.949	74.88
437.17	89.88
437.392	84.88
437.614	88.88
437.835	87.88
438.057	99.88
438.278	92.88
438.5	96.88
438.721	100.88
438.943	92.88
439.165	73.88
439.386	80.88
439.608	86.88
439.829	96.88
440.05	103.88
440.272	126.88
440.493	95.88
440.715	84.88
440.936	86.88
441.158	87.88
441.379	86.88
441.6	83.88
441.822	74.88
442.043	79.88
442.264	88.88
442.486	94.88
442.707	86.88
442.928	94.88
443.149	130.88
443.371	117.88
443.592	92.88
443.813	97.88
444.034	83.88
444.255	89.88
444.476	98.88
444.698	72.88
444.919	77.88
445.14	117.88
445.361	122.88
445.582	101.88
445.803	112.88
446.024	120.88
446.245	127.88
446.466	104.88
446.687	81.88
446.908	86.88
447.129	88.88
447.35	85.88
447.571	85.88
447.792	77.88
448.013	94.88
448.234	93.88
448.455	81.88
448.675	92.88
448.896	103.88
449.117	98.88
449.338	90.88
449.559	111.88
449.779	112.88
450	92.88
450.221	90.88
450.442	96.88
450.662	81.88
450.883	89.88
451.104	106.88
451.324	79.88
451.545	67.88
451.766	78.88
451.986	88.88
452.207	83.88
452.428	106.88
452.648	92.88
452.869	116.88
453.089	103.88
453.31	117.88
453.53	94.88
453.751	84.88
453.971	103.88
454.192	98.88
454.412	92.88
454.633	83.88
454.853	78.88
455.073	86.88
455.294	89.88
455.514	84.88
455.734	95.88
455.955	96.88
456.175	97.88
456.395	89.88
456.616	77.88
456.836	84.88
457.056	95.88
457.276	83.88
457.497	86.88
457.717	88.88
457.937	100.88
458.157	70.88
458.377	86.88
458.598	106.88
458.818	153.88
459.038	140.88
459.258	101.88
459.478	112.88
459.698	92.88
459.918	85.88
460.138	93.88
460.358	81.88
460.578	87.88
460.798	95.88
461.018	80.88
461.238	80.88
461.458	86.88
461.678	80.88
461.898	73.88
462.118	74.88
462.338	87.88
462.558	69.88
462.777	81.88
462.997	77.88
463.217	77.88
463.437	82.88
463.657	76.88
463.876	81.88
464.096	83.88
464.316	87.88
464.536	101.88
464.755	87.88
464.975	111.88
465.195	143.88
465.414	153.88
465.634	109.88
465.854	93.88
466.073	85.88
466.293	86.88
466.512	75.88
466.732	66.88
466.951	88.88
467.171	83.88
467.391	89.88
467.61	104.88
467.829	81.88
468.049	103.88
468.268	106.88
468.488	93.88
468.707	69.88
468.927	89.88
469.146	93.88
469.365	82.88
469.585	82.88
469.804	94.88
470.023	100.88
470.243	75.88
470.462	103.88
470.681	99.88
470.901	92.88
471.12	69.88
471.339	84.88
471.558	90.88
471.777	79.88
471.997	95.88
472.216	96.88
472.435	115.88
472.654	80.88
472.873	87.88
473.092	78.88
473.311	80.88
473.53	81.88
473.749	88.88
473.968	88.88
474.187	88.88
474.406	76.88
474.625	93.88
474.844	73.88
475.063	85.88
475.282	86.88
475.501	82.88
475.72	83.88
475.939	86.88
476.158	86.88
476.377	86.88
476.596	96.88
476.814	84.88
477.033	84.88
477.252	86.88
477.471	89.88
477.69	100.88
477.908	94.88
478.127	88.88
478.346	93.88
478.564	78.88
478.783	94.88
479.002	96.88
479.22	85.88
479.439	101.88
479.658	94.88
479.876	104.88
480.095	92.88
480.313	92.88
480.532	95.88
480.751	79.88
480.969	98.88
481.188	145.88
481.406	116.88
481.624	94.88
481.843	92.88
482.061	81.88
482.28	79.88
482.498	88.88
482.717	81.88
482.935	97.88
483.153	86.88
483.372	100.88
483.59	79.88
483.808	89.88
484.027	97.88
484.245	91.88
484.463	81.88
484.681	91.88
484.9	107.88
485.118	96.88
485.336	94.88
485.554	88.88
485.772	78.88
485.99	86.88
486.209	85.88
486.427	95.88
486.645	93.88
486.863	81.88
487.081	84.88
487.299	92.88
487.517	86.88
487.735	94.88
487.953	80.88
488.171	79.88
488.389	88.88
488.607	89.88
488.825	82.88
489.043	71.88
489.261	94.88
489.479	95.88
489.696	93.88
489.914	79.88
490.132	85.88
490.35	82.88
490.568	89.88
490.786	94.88
491.003	84.88
491.221	75.88
491.439	84.88
491.657	104.88
491.874	96.88
492.092	93.88
492.31	81.88
492.527	64.88
492.745	66.88
492.963	89.88
493.18	94.88
493.398	101.88
493.615	79.88
493.833	71.88
494.05	88.88
494.268	74.88
494.485	92.88
494.703	81.88
494.92	78.88
495.138	76.88
495.355	89.88
495.573	94.88
495.79	78.88
496.008	98.88
496.225	101.88
496.442	65.88
496.66	69.88
496.877	101.88
497.094	89.88
497.312	77.88
497.529	100.88
497.746	82.88
497.963	91.88
498.181	96.88
498.398	88.88
498.615	104.88
498.832	104.88
499.049	92.88
499.267	94.88
499.484	95.88
499.701	89.88
499.918	97.88
500.135	98.88
500.352	95.88
500.569	84.88
500.786	89.88
501.003	90.88
501.22	80.88
501.437	83.88
501.654	93.88
501.871	97.88
502.088	92.88
502.305	88.88
502.522	83.88
502.739	87.88
502.956	101.88
503.172	87.88
503.389	85.88
503.606	89.88
503.823	85.88
504.04	95.88
504.256	88.88
504.473	82.88
504.69	87.88
504.907	88.88
505.123	101.88
505.34	75.88
505.557	86.88
505.773	82.88
505.99	84.88
506.207	86.88
506.423	82.88
506.64	105.88
506.856	89.88
507.073	89.88
507.289	101.88
507.506	87.88
507.722	109.88
507.939	118.88
508.155	93.88
508.372	85.88
508.588	91.88
508.805	99.88
509.021	76.88
509.238	88.88
509.454	105.88
509.67	104.88
509.887	107.88
510.103	124.88
510.319	217.88
510.536	724.88
510.752	2280.88
510.968	610.88
511.184	138.88
511.401	101.88
511.617	78.88
511.833	83.88
512.049	95.88
512.265	98.88
512.481	76.88
512.698	94.88
512.914	68.88
513.13	90.88
513.346	104.88
513.562	99.88
513.778	94.88
513.994	89.88
514.21	104.88
514.426	115.88
514.642	119.88
514.858	111.88
515.074	179.88
515.29	454.88
515.506	1460.88
515.721	538.88
515.937	146.88
516.153	109.88
516.369	93.88
516.585	102.88
516.801	105.88
517.016	90.88
