Data from Uncirc_1988_H10_HRD10591_00007.txt Node
Date: Wed Jan 03 12:04:05 EST 2024
User: Yrep
Spectrometer: HR+D1059
Trigger mode: 1
Integration Time (sec): 1.000000E-1
Scans to average: 1
Electric dark correction enabled: true
Nonlinearity correction enabled: false
Boxcar width: 0
XAxis mode: Wavelengths
Number of Pixels in Spectrum: 2048
>>>>>Begin Spectral Data<<<<<
223.165	-5.88
223.4	-5.88
223.635	-5.88
223.869	-26.88
224.104	-13.88
224.338	-18.88
224.573	-29.88
224.808	-6.88
225.042	-2.88
225.277	-12.88
225.511	3.12
225.746	4.12
225.98	10.12
226.215	7.12
226.449	13.12
226.683	16.12
226.918	33.12
227.152	31.12
227.387	31.12
227.621	44.12
227.856	51.12
228.09	55.12
228.324	43.12
228.559	59.12
228.793	52.12
229.027	38.12
229.262	53.12
229.496	71.12
229.73	81.12
229.964	76.12
230.199	65.12
230.433	82.12
230.667	81.12
230.901	79.12
231.136	73.12
231.37	79.12
231.604	79.12
231.838	100.12
232.072	67.12
232.306	84.12
232.541	73.12
232.775	87.12
233.009	80.12
233.243	75.12
233.477	78.12
233.711	79.12
233.945	102.12
234.179	72.12
234.413	83.12
234.647	70.12
234.881	87.12
235.115	67.12
235.349	93.12
235.583	75.12
235.817	76.12
236.051	72.12
236.285	80.12
236.519	82.12
236.753	73.12
236.987	64.12
237.221	88.12
237.455	86.12
237.689	93.12
237.922	86.12
238.156	70.12
238.39	87.12
238.624	84.12
238.858	85.12
239.091	81.12
239.325	61.12
239.559	68.12
239.793	76.12
240.027	67.12
240.26	69.12
240.494	76.12
240.728	79.12
240.961	70.12
241.195	79.12
241.429	62.12
241.662	80.12
241.896	67.12
242.13	77.12
242.363	76.12
242.597	70.12
242.83	80.12
243.064	70.12
243.298	71.12
243.531	83.12
243.765	71.12
243.998	72.12
244.232	71.12
244.465	83.12
244.699	88.12
244.932	62.12
245.166	69.12
245.399	87.12
245.633	72.12
245.866	70.12
246.099	78.12
246.333	77.12
246.566	66.12
246.8	74.12
247.033	72.12
247.266	75.12
247.5	75.12
247.733	78.12
247.966	83.12
248.2	71.12
248.433	83.12
248.666	87.12
248.899	80.12
249.133	85.12
249.366	85.12
249.599	100.12
249.832	77.12
250.066	65.12
250.299	76.12
250.532	77.12
250.765	89.12
250.998	71.12
251.231	77.12
251.465	83.12
251.698	71.12
251.931	89.12
252.164	77.12
252.397	72.12
252.63	84.12
252.863	69.12
253.096	75.12
253.329	64.12
253.562	80.12
253.795	77.12
254.028	77.12
254.261	86.12
254.494	79.12
254.727	82.12
254.96	85.12
255.193	82.12
255.426	66.12
255.659	72.12
255.892	66.12
256.124	69.12
256.357	58.12
256.59	72.12
256.823	91.12
257.056	83.12
257.289	83.12
257.521	95.12
257.754	75.12
257.987	88.12
258.22	101.12
258.452	78.12
258.685	66.12
258.918	69.12
259.151	79.12
259.383	80.12
259.616	72.12
259.849	92.12
260.081	76.12
260.314	85.12
260.547	82.12
260.779	83.12
261.012	76.12
261.244	86.12
261.477	83.12
261.71	89.12
261.942	107.12
262.175	89.12
262.407	82.12
262.64	87.12
262.872	81.12
263.105	79.12
263.337	98.12
263.57	81.12
263.802	82.12
264.035	91.12
264.267	91.12
264.499	88.12
264.732	94.12
264.964	78.12
265.197	82.12
265.429	83.12
265.661	84.12
265.894	81.12
266.126	91.12
266.358	73.12
266.591	89.12
266.823	74.12
267.055	76.12
267.287	76.12
267.52	83.12
267.752	76.12
267.984	78.12
268.216	68.12
268.448	75.12
268.681	88.12
268.913	75.12
269.145	82.12
269.377	81.12
269.609	89.12
269.841	87.12
270.073	95.12
270.306	87.12
270.538	79.12
270.77	78.12
271.002	91.12
271.234	81.12
271.466	87.12
271.698	79.12
271.93	86.12
272.162	78.12
272.394	81.12
272.626	77.12
272.858	69.12
273.09	76.12
273.322	77.12
273.553	81.12
273.785	92.12
274.017	80.12
274.249	72.12
274.481	86.12
274.713	87.12
274.945	84.12
275.176	71.12
275.408	70.12
275.64	82.12
275.872	81.12
276.104	93.12
276.335	91.12
276.567	79.12
276.799	95.12
277.031	91.12
277.262	102.12
277.494	80.12
277.726	81.12
277.957	75.12
278.189	80.12
278.421	84.12
278.652	95.12
278.884	72.12
279.115	82.12
279.347	91.12
279.579	82.12
279.81	84.12
280.042	84.12
280.273	100.12
280.505	82.12
280.736	90.12
280.968	85.12
281.199	76.12
281.431	81.12
281.662	85.12
281.894	80.12
282.125	99.12
282.356	99.12
282.588	115.12
282.819	105.12
283.051	80.12
283.282	92.12
283.513	81.12
283.745	86.12
283.976	68.12
284.207	79.12
284.439	85.12
284.67	81.12
284.901	89.12
285.132	92.12
285.364	91.12
285.595	91.12
285.826	88.12
286.057	83.12
286.288	83.12
286.52	84.12
286.751	78.12
286.982	82.12
287.213	81.12
287.444	90.12
287.675	85.12
287.906	87.12
288.138	73.12
288.369	81.12
288.6	90.12
288.831	91.12
289.062	85.12
289.293	82.12
289.524	90.12
289.755	92.12
289.986	89.12
290.217	96.12
290.448	93.12
290.679	92.12
290.91	78.12
291.141	73.12
291.371	85.12
291.602	73.12
291.833	72.12
292.064	86.12
292.295	75.12
292.526	90.12
292.757	87.12
292.987	84.12
293.218	86.12
293.449	85.12
293.68	83.12
293.91	78.12
294.141	96.12
294.372	91.12
294.603	91.12
294.833	83.12
295.064	70.12
295.295	95.12
295.525	92.12
295.756	101.12
295.987	112.12
296.217	118.12
296.448	111.12
296.679	93.12
296.909	86.12
297.14	88.12
297.37	83.12
297.601	83.12
297.831	87.12
298.062	93.12
298.292	83.12
298.523	91.12
298.753	88.12
298.984	84.12
299.214	79.12
299.445	79.12
299.675	88.12
299.905	104.12
300.136	88.12
300.366	93.12
300.597	75.12
300.827	94.12
301.057	98.12
301.288	92.12
301.518	81.12
301.748	92.12
301.979	91.12
302.209	95.12
302.439	80.12
302.669	80.12
302.9	81.12
303.13	103.12
303.36	85.12
303.59	99.12
303.82	93.12
304.051	101.12
304.281	92.12
304.511	81.12
304.741	88.12
304.971	97.12
305.201	75.12
305.431	102.12
305.661	99.12
305.891	91.12
306.121	100.12
306.352	105.12
306.582	99.12
306.812	97.12
307.042	83.12
307.272	79.12
307.502	92.12
307.731	78.12
307.961	93.12
308.191	85.12
308.421	94.12
308.651	89.12
308.881	84.12
309.111	92.12
309.341	103.12
309.571	103.12
309.8	85.12
310.03	94.12
310.26	91.12
310.49	94.12
310.72	97.12
310.949	108.12
311.179	76.12
311.409	88.12
311.639	95.12
311.868	92.12
312.098	99.12
312.328	98.12
312.557	103.12
312.787	97.12
313.017	100.12
313.246	100.12
313.476	95.12
313.706	84.12
313.935	100.12
314.165	100.12
314.394	98.12
314.624	100.12
314.853	86.12
315.083	89.12
315.312	87.12
315.542	81.12
315.771	89.12
316.001	91.12
316.23	92.12
316.46	85.12
316.689	87.12
316.919	76.12
317.148	91.12
317.377	98.12
317.607	80.12
317.836	82.12
318.065	90.12
318.295	96.12
318.524	84.12
318.753	73.12
318.983	91.12
319.212	98.12
319.441	101.12
319.67	95.12
319.9	82.12
320.129	99.12
320.358	90.12
320.587	93.12
320.816	95.12
321.046	87.12
321.275	96.12
321.504	95.12
321.733	84.12
321.962	96.12
322.191	108.12
322.42	94.12
322.649	102.12
322.878	112.12
323.108	112.12
323.337	109.12
323.566	119.12
323.795	135.12
324.024	184.12
324.253	361.12
324.482	775.12
324.71	1572.12
324.939	2060.12
325.168	740.12
325.397	221.12
325.626	155.12
325.855	123.12
326.084	130.12
326.313	137.12
326.542	140.12
326.77	203.12
326.999	432.12
327.228	907.12
327.457	1644.12
327.686	1260.12
327.914	327.12
328.143	181.12
328.372	127.12
328.6	104.12
328.829	111.12
329.058	117.12
329.287	119.12
329.515	111.12
329.744	108.12
329.972	108.12
330.201	94.12
330.43	107.12
330.658	109.12
330.887	116.12
331.115	101.12
331.344	104.12
331.572	84.12
331.801	95.12
332.03	101.12
332.258	107.12
332.486	81.12
332.715	102.12
332.943	91.12
333.172	93.12
333.4	90.12
333.629	91.12
333.857	100.12
334.085	114.12
334.314	95.12
334.542	106.12
334.771	95.12
334.999	83.12
335.227	89.12
335.455	109.12
335.684	88.12
335.912	104.12
336.14	98.12
336.369	100.12
336.597	89.12
336.825	110.12
337.053	93.12
337.281	88.12
337.51	75.12
337.738	95.12
337.966	89.12
338.194	91.12
338.422	92.12
338.65	90.12
338.878	97.12
339.106	94.12
339.334	105.12
339.562	79.12
339.79	86.12
340.018	88.12
340.246	93.12
340.474	88.12
340.702	102.12
340.93	86.12
341.158	89.12
341.386	95.12
341.614	85.12
341.842	86.12
342.07	100.12
342.298	104.12
342.526	88.12
342.754	62.12
342.981	85.12
343.209	83.12
343.437	93.12
343.665	88.12
343.893	91.12
344.12	96.12
344.348	97.12
344.576	94.12
344.804	91.12
345.031	74.12
345.259	94.12
345.487	70.12
345.714	97.12
345.942	103.12
346.17	92.12
346.397	90.12
346.625	95.12
346.853	80.12
347.08	84.12
347.308	86.12
347.535	99.12
347.763	102.12
347.99	99.12
348.218	96.12
348.445	113.12
348.673	96.12
348.9	98.12
349.128	114.12
349.355	91.12
349.583	88.12
349.81	93.12
350.037	89.12
350.265	97.12
350.492	92.12
350.72	76.12
350.947	96.12
351.174	112.12
351.402	100.12
351.629	95.12
351.856	94.12
352.083	97.12
352.311	104.12
352.538	97.12
352.765	116.12
352.992	114.12
353.22	95.12
353.447	96.12
353.674	104.12
353.901	111.12
354.128	107.12
354.355	77.12
354.583	121.12
354.81	92.12
355.037	101.12
355.264	97.12
355.491	93.12
355.718	79.12
355.945	89.12
356.172	95.12
356.399	87.12
356.626	97.12
356.853	103.12
357.08	99.12
357.307	85.12
357.534	100.12
357.761	96.12
357.988	84.12
358.215	78.12
358.441	105.12
358.668	89.12
358.895	91.12
359.122	93.12
359.349	91.12
359.576	101.12
359.802	104.12
360.029	105.12
360.256	110.12
360.483	100.12
360.709	92.12
360.936	100.12
361.163	99.12
361.39	84.12
361.616	81.12
361.843	100.12
362.07	92.12
362.296	94.12
362.523	84.12
362.749	88.12
362.976	88.12
363.203	88.12
363.429	92.12
363.656	92.12
363.882	83.12
364.109	82.12
364.335	102.12
364.562	95.12
364.788	79.12
365.015	85.12
365.241	88.12
365.468	104.12
365.694	93.12
365.92	82.12
366.147	86.12
366.373	92.12
366.599	85.12
366.826	88.12
367.052	88.12
367.278	95.12
367.505	98.12
367.731	90.12
367.957	87.12
368.184	93.12
368.41	98.12
368.636	107.12
368.862	111.12
369.089	99.12
369.315	91.12
369.541	96.12
369.767	107.12
369.993	89.12
370.219	92.12
370.445	94.12
370.672	80.12
370.898	78.12
371.124	87.12
371.35	97.12
371.576	92.12
371.802	100.12
372.028	99.12
372.254	92.12
372.48	76.12
372.706	88.12
372.932	81.12
373.158	71.12
373.384	93.12
373.61	93.12
373.835	86.12
374.061	75.12
374.287	72.12
374.513	89.12
374.739	84.12
374.965	86.12
375.191	79.12
375.416	82.12
375.642	92.12
375.868	110.12
376.094	89.12
376.319	102.12
376.545	80.12
376.771	95.12
376.997	76.12
377.222	85.12
377.448	103.12
377.674	93.12
377.899	89.12
378.125	100.12
378.35	91.12
378.576	90.12
378.802	93.12
379.027	86.12
379.253	89.12
379.478	92.12
379.704	86.12
379.929	91.12
380.155	87.12
380.38	84.12
380.606	93.12
380.831	89.12
381.057	97.12
381.282	92.12
381.507	90.12
381.733	98.12
381.958	91.12
382.184	108.12
382.409	107.12
382.634	106.12
382.86	97.12
383.085	99.12
383.31	95.12
383.535	96.12
383.761	91.12
383.986	87.12
384.211	88.12
384.436	83.12
384.662	104.12
384.887	99.12
385.112	100.12
385.337	104.12
385.562	107.12
385.787	95.12
386.013	119.12
386.238	121.12
386.463	98.12
386.688	101.12
386.913	96.12
387.138	102.12
387.363	104.12
387.588	105.12
387.813	92.12
388.038	96.12
388.263	106.12
388.488	106.12
388.713	100.12
388.938	101.12
389.163	100.12
389.387	103.12
389.612	90.12
389.837	93.12
390.062	107.12
390.287	102.12
390.512	98.12
390.736	109.12
390.961	93.12
391.186	88.12
391.411	101.12
391.636	108.12
391.86	81.12
392.085	77.12
392.31	85.12
392.534	84.12
392.759	86.12
392.984	93.12
393.208	109.12
393.433	135.12
393.658	98.12
393.882	85.12
394.107	87.12
394.331	84.12
394.556	90.12
394.78	100.12
395.005	87.12
395.229	88.12
395.454	98.12
395.678	87.12
395.903	106.12
396.127	91.12
396.352	82.12
396.576	84.12
396.801	107.12
397.025	95.12
397.249	95.12
397.474	91.12
397.698	85.12
397.922	93.12
398.147	84.12
398.371	88.12
398.595	95.12
398.82	100.12
399.044	87.12
399.268	99.12
399.492	89.12
399.717	89.12
399.941	88.12
400.165	100.12
400.389	83.12
400.613	86.12
400.837	81.12
401.062	77.12
401.286	85.12
401.51	96.12
401.734	87.12
401.958	96.12
402.182	118.12
402.406	131.12
402.63	117.12
402.854	104.12
403.078	88.12
403.302	78.12
403.526	93.12
403.75	91.12
403.974	77.12
404.198	89.12
404.422	75.12
404.645	89.12
404.869	79.12
405.093	96.12
405.317	83.12
405.541	104.12
405.765	105.12
405.988	112.12
406.212	139.12
406.436	188.12
406.66	133.12
406.883	85.12
407.107	86.12
407.331	83.12
407.555	102.12
407.778	114.12
408.002	81.12
408.226	100.12
408.449	89.12
408.673	94.12
408.896	98.12
409.12	97.12
409.344	100.12
409.567	111.12
409.791	85.12
410.014	101.12
410.238	95.12
410.461	88.12
410.685	83.12
410.908	98.12
411.132	112.12
411.355	92.12
411.578	84.12
411.802	94.12
412.025	84.12
412.249	105.12
412.472	85.12
412.695	94.12
412.919	91.12
413.142	98.12
413.365	90.12
413.589	100.12
413.812	91.12
414.035	89.12
414.258	86.12
414.482	92.12
414.705	90.12
414.928	83.12
415.151	98.12
415.374	82.12
415.597	79.12
415.821	77.12
416.044	75.12
416.267	83.12
416.49	70.12
416.713	91.12
416.936	95.12
417.159	92.12
417.382	78.12
417.605	79.12
417.828	91.12
418.051	77.12
418.274	82.12
418.497	86.12
418.72	83.12
418.943	96.12
419.166	93.12
419.389	101.12
419.611	84.12
419.834	77.12
420.057	88.12
420.28	91.12
420.503	85.12
420.726	92.12
420.948	88.12
421.171	96.12
421.394	86.12
421.617	99.12
421.839	88.12
422.062	69.12
422.285	75.12
422.507	98.12
422.73	100.12
422.953	108.12
423.175	93.12
423.398	86.12
423.621	90.12
423.843	81.12
424.066	78.12
424.288	96.12
424.511	95.12
424.733	91.12
424.956	86.12
425.178	91.12
425.401	110.12
425.623	91.12
425.846	89.12
426.068	87.12
426.291	85.12
426.513	85.12
426.735	84.12
426.958	99.12
427.18	103.12
427.402	118.12
427.625	155.12
427.847	111.12
428.069	105.12
428.292	90.12
428.514	94.12
428.736	92.12
428.958	96.12
429.181	98.12
429.403	83.12
429.625	81.12
429.847	81.12
430.069	84.12
430.292	87.12
430.514	91.12
430.736	82.12
430.958	92.12
431.18	92.12
431.402	79.12
431.624	71.12
431.846	85.12
432.068	91.12
432.29	88.12
432.512	91.12
432.734	87.12
432.956	78.12
433.178	93.12
433.4	101.12
433.622	77.12
433.844	86.12
434.066	92.12
434.287	95.12
434.509	77.12
434.731	99.12
434.953	94.12
435.175	102.12
435.397	84.12
435.618	95.12
435.84	109.12
436.062	134.12
436.284	105.12
436.505	108.12
436.727	87.12
436.949	86.12
437.17	87.12
437.392	92.12
437.614	58.12
437.835	104.12
438.057	95.12
438.278	100.12
438.5	100.12
438.721	97.12
438.943	96.12
439.165	79.12
439.386	91.12
439.608	93.12
439.829	103.12
440.05	118.12
440.272	143.12
440.493	109.12
440.715	89.12
440.936	98.12
441.158	90.12
441.379	79.12
441.6	91.12
441.822	86.12
442.043	99.12
442.264	109.12
442.486	91.12
442.707	100.12
442.928	108.12
443.149	107.12
443.371	126.12
443.592	88.12
443.813	114.12
444.034	101.12
444.255	100.12
444.476	82.12
444.698	90.12
444.919	102.12
445.14	143.12
445.361	112.12
445.582	101.12
445.803	118.12
446.024	124.12
446.245	126.12
446.466	102.12
446.687	91.12
446.908	76.12
447.129	94.12
447.35	86.12
447.571	96.12
447.792	91.12
448.013	109.12
448.234	87.12
448.455	99.12
448.675	112.12
448.896	118.12
449.117	94.12
449.338	101.12
449.559	117.12
449.779	116.12
450	93.12
450.221	105.12
450.442	81.12
450.662	94.12
450.883	95.12
451.104	98.12
451.324	117.12
451.545	79.12
451.766	90.12
451.986	82.12
452.207	92.12
452.428	73.12
452.648	109.12
452.869	105.12
453.089	90.12
453.31	100.12
453.53	89.12
453.751	99.12
453.971	92.12
454.192	110.12
454.412	85.12
454.633	103.12
454.853	95.12
455.073	79.12
455.294	94.12
455.514	88.12
455.734	100.12
455.955	95.12
456.175	87.12
456.395	85.12
456.616	89.12
456.836	80.12
457.056	77.12
457.276	87.12
457.497	93.12
457.717	87.12
457.937	95.12
458.157	87.12
458.377	85.12
458.598	107.12
458.818	129.12
459.038	135.12
459.258	99.12
459.478	91.12
459.698	90.12
459.918	94.12
460.138	76.12
460.358	83.12
460.578	86.12
460.798	84.12
461.018	76.12
461.238	85.12
461.458	80.12
461.678	81.12
461.898	93.12
462.118	90.12
462.338	85.12
462.558	95.12
462.777	80.12
462.997	84.12
463.217	79.12
463.437	97.12
463.657	77.12
463.876	88.12
464.096	85.12
464.316	89.12
464.536	98.12
464.755	98.12
464.975	104.12
465.195	132.12
465.414	122.12
465.634	87.12
465.854	88.12
466.073	80.12
466.293	79.12
466.512	75.12
466.732	75.12
466.951	76.12
467.171	83.12
467.391	91.12
467.61	87.12
467.829	92.12
468.049	81.12
468.268	88.12
468.488	86.12
468.707	92.12
468.927	79.12
469.146	71.12
469.365	97.12
469.585	89.12
469.804	96.12
470.023	97.12
470.243	88.12
470.462	80.12
470.681	103.12
470.901	92.12
471.12	90.12
471.339	82.12
471.558	93.12
471.777	75.12
471.997	94.12
472.216	91.12
472.435	92.12
472.654	104.12
472.873	73.12
473.092	88.12
473.311	86.12
473.53	90.12
473.749	80.12
473.968	112.12
474.187	96.12
474.406	80.12
474.625	83.12
474.844	96.12
475.063	106.12
475.282	79.12
475.501	96.12
475.72	95.12
475.939	85.12
476.158	78.12
476.377	81.12
476.596	86.12
476.814	93.12
477.033	86.12
477.252	77.12
477.471	88.12
477.69	80.12
477.908	97.12
478.127	97.12
478.346	78.12
478.564	84.12
478.783	89.12
479.002	78.12
479.22	87.12
479.439	92.12
479.658	100.12
479.876	91.12
480.095	66.12
480.313	85.12
480.532	95.12
480.751	93.12
480.969	83.12
481.188	105.12
481.406	93.12
481.624	97.12
481.843	96.12
482.061	85.12
482.28	73.12
482.498	93.12
482.717	84.12
482.935	95.12
483.153	85.12
483.372	91.12
483.59	83.12
483.808	67.12
484.027	93.12
484.245	91.12
484.463	81.12
484.681	89.12
484.9	87.12
485.118	88.12
485.336	89.12
485.554	91.12
485.772	93.12
485.99	104.12
486.209	96.12
486.427	110.12
486.645	111.12
486.863	104.12
487.081	101.12
487.299	98.12
487.517	89.12
487.735	97.12
487.953	95.12
488.171	97.12
488.389	100.12
488.607	98.12
488.825	103.12
489.043	85.12
489.261	90.12
489.479	95.12
489.696	101.12
489.914	84.12
490.132	84.12
490.35	77.12
490.568	102.12
490.786	91.12
491.003	97.12
491.221	98.12
491.439	83.12
491.657	99.12
491.874	91.12
492.092	87.12
492.31	104.12
492.527	94.12
492.745	78.12
492.963	82.12
493.18	88.12
493.398	81.12
493.615	102.12
493.833	93.12
494.05	95.12
494.268	77.12
494.485	93.12
494.703	96.12
494.92	91.12
495.138	89.12
495.355	104.12
495.573	83.12
495.79	91.12
496.008	81.12
496.225	97.12
496.442	86.12
496.66	88.12
496.877	88.12
497.094	93.12
497.312	83.12
497.529	82.12
497.746	94.12
497.963	99.12
498.181	99.12
498.398	94.12
498.615	112.12
498.832	96.12
499.049	82.12
499.267	90.12
499.484	93.12
499.701	85.12
499.918	89.12
500.135	101.12
500.352	86.12
500.569	93.12
500.786	92.12
501.003	100.12
501.22	96.12
501.437	100.12
501.654	91.12
501.871	100.12
502.088	96.12
502.305	101.12
502.522	90.12
502.739	81.12
502.956	93.12
503.172	89.12
503.389	93.12
503.606	105.12
503.823	99.12
504.04	104.12
504.256	88.12
504.473	87.12
504.69	80.12
504.907	88.12
505.123	93.12
505.34	80.12
505.557	92.12
505.773	90.12
505.99	100.12
506.207	72.12
506.423	95.12
506.64	83.12
506.856	94.12
507.073	83.12
507.289	95.12
507.506	103.12
507.722	102.12
507.939	109.12
508.155	93.12
508.372	84.12
508.588	100.12
508.805	97.12
509.021	77.12
509.238	82.12
509.454	103.12
509.67	97.12
509.887	93.12
510.103	123.12
510.319	189.12
510.536	608.12
510.752	1805.12
510.968	516.12
511.184	139.12
511.401	111.12
511.617	80.12
511.833	102.12
512.049	94.12
512.265	95.12
512.481	95.12
512.698	79.12
512.914	84.12
513.13	91.12
513.346	77.12
513.562	88.12
513.778	97.12
513.994	92.12
514.21	111.12
514.426	119.12
514.642	130.12
514.858	125.12
515.074	145.12
515.29	365.12
515.506	1189.12
515.721	429.12
515.937	123.12
516.153	93.12
