Data from Uncirc_1988_H10_HRD10591_00012.txt Node
Date: Wed Jan 03 12:04:06 EST 2024
User: Yrep
Spectrometer: HR+D1059
Trigger mode: 1
Integration Time (sec): 1.000000E-1
Scans to average: 1
Electric dark correction enabled: true
Nonlinearity correction enabled: false
Boxcar width: 0
XAxis mode: Wavelengths
Number of Pixels in Spectrum: 2048
>>>>>Begin Spectral Data<<<<<
223.165	-14
223.4	-14
223.635	-14
223.869	-38
224.104	-34
224.338	-4
224.573	-13
224.808	-13
225.042	-9
225.277	-9
225.511	-6
225.746	13
225.98	17
226.215	19
226.449	26
226.683	12
226.918	18
227.152	35
227.387	36
227.621	41
227.856	48
228.09	52
228.324	55
228.559	61
228.793	63
229.027	54
229.262	68
229.496	69
229.73	74
229.964	68
230.199	75
230.433	72
230.667	81
230.901	78
231.136	80
231.37	81
231.604	85
231.838	64
232.072	83
232.306	87
232.541	83
232.775	76
233.009	69
233.243	62
233.477	86
233.711	76
233.945	85
234.179	74
234.413	86
234.647	70
234.881	84
235.115	80
235.349	89
235.583	86
235.817	76
236.051	76
236.285	67
236.519	88
236.753	78
236.987	86
237.221	74
237.455	87
237.689	62
237.922	56
238.156	68
238.39	66
238.624	71
238.858	77
239.091	65
239.325	82
239.559	66
239.793	72
240.027	81
240.26	78
240.494	84
240.728	71
240.961	81
241.195	88
241.429	84
241.662	71
241.896	85
242.13	62
242.363	78
242.597	79
242.83	64
243.064	69
243.298	84
243.531	64
243.765	71
243.998	72
244.232	71
244.465	90
244.699	71
244.932	78
245.166	79
245.399	67
245.633	66
245.866	61
246.099	59
246.333	60
246.566	70
246.8	67
247.033	78
247.266	85
247.5	79
247.733	83
247.966	84
248.2	76
248.433	75
248.666	86
248.899	70
249.133	83
249.366	102
249.599	85
249.832	76
250.066	90
250.299	62
250.532	74
250.765	78
250.998	80
251.231	86
251.465	80
251.698	69
251.931	69
252.164	83
252.397	65
252.63	85
252.863	76
253.096	65
253.329	80
253.562	84
253.795	66
254.028	85
254.261	74
254.494	91
254.727	83
254.96	76
255.193	93
255.426	84
255.659	95
255.892	70
256.124	75
256.357	80
256.59	81
256.823	82
257.056	81
257.289	77
257.521	80
257.754	96
257.987	78
258.22	98
258.452	79
258.685	83
258.918	89
259.151	81
259.383	79
259.616	81
259.849	68
260.081	78
260.314	84
260.547	75
260.779	70
261.012	82
261.244	76
261.477	91
261.71	85
261.942	106
262.175	108
262.407	86
262.64	77
262.872	72
263.105	69
263.337	87
263.57	76
263.802	84
264.035	77
264.267	69
264.499	80
264.732	76
264.964	70
265.197	83
265.429	70
265.661	84
265.894	78
266.126	75
266.358	78
266.591	77
266.823	92
267.055	80
267.287	83
267.52	83
267.752	82
267.984	102
268.216	84
268.448	91
268.681	76
268.913	82
269.145	85
269.377	80
269.609	84
269.841	84
270.073	75
270.306	84
270.538	90
270.77	84
271.002	95
271.234	87
271.466	79
271.698	102
271.93	90
272.162	88
272.394	79
272.626	78
272.858	87
273.09	88
273.322	95
273.553	75
273.785	85
274.017	89
274.249	79
274.481	102
274.713	87
274.945	86
275.176	102
275.408	94
275.64	91
275.872	82
276.104	75
276.335	90
276.567	82
276.799	96
277.031	103
277.262	80
277.494	76
277.726	98
277.957	94
278.189	83
278.421	91
278.652	85
278.884	87
279.115	96
279.347	94
279.579	78
279.81	88
280.042	87
280.273	82
280.505	85
280.736	102
280.968	69
281.199	82
281.431	87
281.662	99
281.894	78
282.125	98
282.356	102
282.588	102
282.819	111
283.051	85
283.282	88
283.513	95
283.745	81
283.976	84
284.207	86
284.439	85
284.67	86
284.901	95
285.132	78
285.364	62
285.595	88
285.826	102
286.057	79
286.288	89
286.52	87
286.751	82
286.982	76
287.213	94
287.444	78
287.675	85
287.906	80
288.138	84
288.369	100
288.6	85
288.831	84
289.062	95
289.293	94
289.524	82
289.755	93
289.986	88
290.217	94
290.448	82
290.679	75
290.91	97
291.141	77
291.371	83
291.602	84
291.833	72
292.064	80
292.295	89
292.526	92
292.757	101
292.987	84
293.218	91
293.449	86
293.68	89
293.91	86
294.141	90
294.372	94
294.603	90
294.833	83
295.064	89
295.295	92
295.525	84
295.756	98
295.987	108
296.217	128
296.448	123
296.679	94
296.909	87
297.14	85
297.37	97
297.601	87
297.831	97
298.062	98
298.292	90
298.523	102
298.753	99
298.984	83
299.214	100
299.445	83
299.675	86
299.905	91
300.136	98
300.366	91
300.597	85
300.827	76
301.057	76
301.288	95
301.518	101
301.748	91
301.979	109
302.209	77
302.439	86
302.669	99
302.9	78
303.13	89
303.36	101
303.59	89
303.82	99
304.051	94
304.281	84
304.511	85
304.741	81
304.971	82
305.201	68
305.431	90
305.661	82
305.891	103
306.121	101
306.352	103
306.582	91
306.812	94
307.042	87
307.272	80
307.502	83
307.731	76
307.961	71
308.191	82
308.421	68
308.651	78
308.881	74
309.111	93
309.341	82
309.571	85
309.8	86
310.03	98
310.26	101
310.49	102
310.72	89
310.949	103
311.179	96
311.409	100
311.639	81
311.868	99
312.098	91
312.328	95
312.557	96
312.787	96
313.017	96
313.246	84
313.476	98
313.706	95
313.935	98
314.165	101
314.394	93
314.624	93
314.853	95
315.083	79
315.312	90
315.542	90
315.771	88
316.001	99
316.23	92
316.46	85
316.689	101
316.919	98
317.148	94
317.377	87
317.607	97
317.836	107
318.065	92
318.295	86
318.524	88
318.753	96
318.983	83
319.212	88
319.441	93
319.67	106
319.9	98
320.129	87
320.358	97
320.587	80
320.816	94
321.046	109
321.275	94
321.504	96
321.733	107
321.962	94
322.191	96
322.42	94
322.649	99
322.878	114
323.108	112
323.337	110
323.566	118
323.795	133
324.024	186
324.253	347
324.482	766
324.71	1520
324.939	2023
325.168	749
325.397	238
325.626	154
325.855	126
326.084	107
326.313	129
326.542	156
326.77	202
326.999	422
327.228	896
327.457	1602
327.686	1232
327.914	334
328.143	180
328.372	146
328.6	109
328.829	108
329.058	114
329.287	129
329.515	107
329.744	98
329.972	99
330.201	96
330.43	101
330.658	114
330.887	108
331.115	115
331.344	86
331.572	100
331.801	102
332.03	106
332.258	90
332.486	90
332.715	100
332.943	92
333.172	96
333.4	107
333.629	110
333.857	113
334.085	96
334.314	100
334.542	92
334.771	79
334.999	90
335.227	90
335.455	102
335.684	100
335.912	90
336.14	85
336.369	91
336.597	97
336.825	91
337.053	85
337.281	99
337.51	96
337.738	83
337.966	81
338.194	82
338.422	96
338.65	85
338.878	91
339.106	89
339.334	84
339.562	90
339.79	98
340.018	93
340.246	95
340.474	96
340.702	82
340.93	106
341.158	89
341.386	100
341.614	80
341.842	80
342.07	76
342.298	85
342.526	84
342.754	70
342.981	103
343.209	85
343.437	102
343.665	97
343.893	93
344.12	93
344.348	92
344.576	94
344.804	92
345.031	86
345.259	96
345.487	84
345.714	92
345.942	90
346.17	95
346.397	97
346.625	88
346.853	79
347.08	82
347.308	105
347.535	101
347.763	107
347.99	88
348.218	98
348.445	99
348.673	92
348.9	105
349.128	95
349.355	91
349.583	87
349.81	86
350.037	98
350.265	87
350.492	76
350.72	90
350.947	93
351.174	98
351.402	94
351.629	88
351.856	92
352.083	104
352.311	101
352.538	111
352.765	111
352.992	108
353.22	114
353.447	99
353.674	93
353.901	101
354.128	102
354.355	94
354.583	102
354.81	95
355.037	95
355.264	99
355.491	102
355.718	80
355.945	88
356.172	87
356.399	96
356.626	103
356.853	101
357.08	86
357.307	93
357.534	86
357.761	86
357.988	84
358.215	93
358.441	98
358.668	103
358.895	94
359.122	84
359.349	88
359.576	91
359.802	99
360.029	114
360.256	99
360.483	88
360.709	76
360.936	102
361.163	101
361.39	93
361.616	99
361.843	91
362.07	79
362.296	93
362.523	89
362.749	89
362.976	93
363.203	79
363.429	68
363.656	91
363.882	87
364.109	109
364.335	95
364.562	107
364.788	76
365.015	77
365.241	93
365.468	96
365.694	104
365.92	101
366.147	82
366.373	78
366.599	97
366.826	93
367.052	100
367.278	100
367.505	77
367.731	94
367.957	65
368.184	93
368.41	112
368.636	120
368.862	124
369.089	96
369.315	100
369.541	107
369.767	93
369.993	97
370.219	83
370.445	102
370.672	95
370.898	92
371.124	88
371.35	76
371.576	77
371.802	90
372.028	83
372.254	85
372.48	94
372.706	76
372.932	80
373.158	74
373.384	96
373.61	91
373.835	92
374.061	89
374.287	96
374.513	87
374.739	105
374.965	104
375.191	89
375.416	90
375.642	88
375.868	86
376.094	84
376.319	79
376.545	88
376.771	86
376.997	82
377.222	85
377.448	81
377.674	91
377.899	72
378.125	107
378.35	86
378.576	87
378.802	76
379.027	82
379.253	96
379.478	77
379.704	92
379.929	95
380.155	107
380.38	91
380.606	93
380.831	77
381.057	82
381.282	99
381.507	101
381.733	87
381.958	83
382.184	77
382.409	100
382.634	104
382.86	99
383.085	94
383.31	94
383.535	90
383.761	90
383.986	90
384.211	87
384.436	96
384.662	100
384.887	91
385.112	105
385.337	95
385.562	92
385.787	126
386.013	105
386.238	112
386.463	108
386.688	93
386.913	92
387.138	107
387.363	106
387.588	91
387.813	105
388.038	101
388.263	103
388.488	103
388.713	100
388.938	84
389.163	84
389.387	84
389.612	85
389.837	84
390.062	89
390.287	80
390.512	95
390.736	85
390.961	86
391.186	91
391.411	88
391.636	90
391.86	86
392.085	90
392.31	92
392.534	82
392.759	88
392.984	78
393.208	93
393.433	88
393.658	88
393.882	91
394.107	78
394.331	100
394.556	88
394.78	93
395.005	96
395.229	79
395.454	83
395.678	72
395.903	79
396.127	82
396.352	76
396.576	85
396.801	79
397.025	92
397.249	79
397.474	82
397.698	81
397.922	87
398.147	98
398.371	87
398.595	67
398.82	90
399.044	68
399.268	91
399.492	88
399.717	81
399.941	88
400.165	94
400.389	95
400.613	82
400.837	88
401.062	87
401.286	81
401.51	83
401.734	99
401.958	94
402.182	126
402.406	171
402.63	108
402.854	87
403.078	84
403.302	91
403.526	84
403.75	79
403.974	88
404.198	92
404.422	89
404.645	91
404.869	95
405.093	82
405.317	90
405.541	93
405.765	93
405.988	107
406.212	166
406.436	211
406.66	121
406.883	88
407.107	93
407.331	100
407.555	82
407.778	77
408.002	86
408.226	89
408.449	99
408.673	88
408.896	92
409.12	100
409.344	91
409.567	82
409.791	76
410.014	96
410.238	81
410.461	85
410.685	88
410.908	78
411.132	96
411.355	86
411.578	106
411.802	94
412.025	82
412.249	98
412.472	82
412.695	87
412.919	84
413.142	68
413.365	94
413.589	88
413.812	90
414.035	94
414.258	90
414.482	90
414.705	92
414.928	88
415.151	84
415.374	95
415.597	82
415.821	90
416.044	86
416.267	74
416.49	75
416.713	75
416.936	86
417.159	79
417.382	78
417.605	88
417.828	93
418.051	90
418.274	77
418.497	92
418.72	78
418.943	76
419.166	86
419.389	83
419.611	95
419.834	90
420.057	91
420.28	95
420.503	90
420.726	79
420.948	95
421.171	99
421.394	99
421.617	91
421.839	84
422.062	91
422.285	76
422.507	97
422.73	98
422.953	82
423.175	86
423.398	95
423.621	87
423.843	92
424.066	98
424.288	91
424.511	81
424.733	91
424.956	100
425.178	93
425.401	102
425.623	91
425.846	87
426.068	82
426.291	87
426.513	74
426.735	85
426.958	104
427.18	106
427.402	142
427.625	159
427.847	119
428.069	93
428.292	90
428.514	70
428.736	90
428.958	75
429.181	86
429.403	76
429.625	94
429.847	92
430.069	90
430.292	85
430.514	95
430.736	64
430.958	99
431.18	75
431.402	79
431.624	76
431.846	81
432.068	97
432.29	77
432.512	90
432.734	76
432.956	98
433.178	86
433.4	88
433.622	93
433.844	81
434.066	80
434.287	78
434.509	72
434.731	90
434.953	103
435.175	74
435.397	102
435.618	81
435.84	94
436.062	107
436.284	103
436.505	88
436.727	99
436.949	95
437.17	69
437.392	84
437.614	90
437.835	103
438.057	103
438.278	113
438.5	103
438.721	109
438.943	94
439.165	91
439.386	92
439.608	83
439.829	88
440.05	127
440.272	129
440.493	99
440.715	77
440.936	99
441.158	76
441.379	90
441.6	94
441.822	87
442.043	86
442.264	91
442.486	97
442.707	79
442.928	82
443.149	106
443.371	126
443.592	101
443.813	111
444.034	108
444.255	91
444.476	81
444.698	94
444.919	78
445.14	122
445.361	115
445.582	101
445.803	118
446.024	155
446.245	145
446.466	112
446.687	80
446.908	86
447.129	92
447.35	87
447.571	90
447.792	87
448.013	93
448.234	99
448.455	89
448.675	116
448.896	118
449.117	114
449.338	104
449.559	127
449.779	132
450	98
450.221	103
450.442	86
450.662	99
450.883	99
451.104	103
451.324	88
451.545	91
451.766	77
451.986	75
452.207	83
452.428	85
452.648	86
452.869	82
453.089	100
453.31	118
453.53	74
453.751	93
453.971	97
454.192	98
454.412	86
454.633	87
454.853	88
455.073	72
455.294	100
455.514	83
455.734	75
455.955	78
456.175	93
456.395	83
456.616	96
456.836	89
457.056	80
457.276	81
457.497	80
457.717	66
457.937	91
458.157	80
458.377	84
458.598	86
458.818	133
459.038	153
459.258	110
459.478	74
459.698	71
459.918	78
460.138	80
460.358	102
460.578	94
460.798	92
461.018	82
461.238	87
461.458	79
461.678	83
461.898	79
462.118	79
462.338	85
462.558	70
462.777	78
462.997	83
463.217	84
463.437	92
463.657	75
463.876	80
464.096	86
464.316	86
464.536	93
464.755	90
464.975	91
465.195	168
465.414	165
465.634	103
465.854	86
466.073	82
466.293	83
466.512	90
466.732	93
466.951	98
467.171	95
467.391	85
467.61	94
467.829	87
468.049	90
468.268	88
468.488	69
468.707	105
468.927	88
469.146	86
469.365	87
469.585	70
469.804	103
470.023	95
470.243	78
470.462	95
470.681	103
470.901	79
471.12	93
471.339	82
471.558	83
471.777	92
471.997	83
472.216	94
472.435	91
472.654	100
472.873	66
473.092	76
473.311	84
473.53	79
473.749	86
473.968	78
474.187	100
474.406	98
474.625	85
474.844	82
475.063	93
475.282	83
475.501	83
475.72	80
475.939	78
476.158	86
476.377	91
476.596	82
476.814	96
477.033	69
477.252	93
477.471	83
477.69	81
477.908	93
478.127	81
478.346	70
478.564	81
478.783	84
479.002	93
479.22	79
479.439	90
479.658	90
479.876	84
480.095	92
480.313	84
480.532	101
480.751	90
480.969	76
481.188	103
481.406	90
481.624	85
481.843	89
482.061	98
482.28	78
482.498	76
482.717	78
482.935	87
483.153	86
483.372	89
483.59	103
483.808	94
484.027	87
484.245	89
484.463	72
484.681	90
484.9	86
485.118	103
485.336	90
485.554	87
485.772	108
485.99	98
486.209	101
486.427	87
486.645	101
486.863	113
487.081	92
487.299	92
487.517	98
487.735	98
487.953	98
488.171	96
488.389	84
488.607	104
488.825	71
489.043	79
489.261	98
489.479	84
489.696	77
489.914	85
490.132	74
490.35	83
490.568	88
490.786	67
491.003	78
491.221	70
491.439	70
491.657	79
491.874	95
492.092	88
492.31	108
492.527	84
492.745	87
492.963	93
493.18	81
493.398	93
493.615	85
493.833	103
494.05	91
494.268	87
494.485	102
494.703	91
494.92	71
495.138	96
495.355	88
495.573	70
495.79	86
496.008	82
496.225	87
496.442	83
496.66	99
496.877	82
497.094	102
497.312	84
497.529	91
497.746	97
497.963	95
498.181	94
498.398	100
498.615	101
498.832	101
499.049	88
499.267	88
499.484	92
499.701	85
499.918	80
500.135	85
500.352	88
500.569	88
500.786	91
501.003	83
501.22	86
501.437	85
501.654	96
501.871	104
502.088	88
502.305	92
502.522	91
502.739	86
502.956	99
503.172	97
503.389	91
503.606	98
503.823	93
504.04	88
504.256	87
504.473	83
504.69	85
504.907	90
505.123	77
505.34	92
505.557	81
505.773	78
505.99	83
506.207	83
506.423	95
506.64	86
506.856	85
507.073	84
507.289	115
507.506	100
507.722	110
507.939	111
508.155	92
508.372	97
508.588	79
508.805	96
509.021	98
509.238	98
509.454	100
509.67	106
509.887	100
510.103	124
510.319	189
510.536	694
510.752	2055
510.968	574
511.184	158
511.401	94
511.617	97
511.833	86
512.049	88
512.265	83
512.481	89
512.698	71
512.914	91
513.13	94
513.346	100
513.562	85
513.778	103
513.994	90
514.21	102
514.426	116
514.642	130
514.858	112
515.074	159
515.29	419
515.506	1313
515.721	477
515.937	156
516.153	105
516.369	103
516.585	95
516.801	74
517.016	90
517.232	100
517.448	100
517.664	107
517.879	82
518.095	92
518.311	94
518.527	105
518.742	89
518.958	94
519.173	83
519.389	77
519.605	81
519.82	98
520.036	92
520.251	102
520.467	107
520.682	103
520.898	103
521.113	104
521.329	135
521.544	199
521.76	538
521.975	2165
522.19	1284
522.406	277
522.621	108
522.836	86
523.052	107
523.267	98
523.482	97
523.698	95
523.913	111
524.128	84
524.343	79
524.559	84
524.774	101
524.989	93
525.204	102
525.419	100
525.634	87
525.849	101
526.064	91
526.28	82
526.495	88
526.71	85
526.925	83
527.14	87
527.355	68
527.57	84
527.785	98
527.999	93
528.214	100
528.429	92
528.644	83
528.859	80
529.074	95
529.289	127
529.503	161
529.718	96
529.933	87
530.148	85
530.363	84
530.577	83
530.792	94
531.007	87
531.221	87
531.436	91
531.651	84
531.865	86
532.08	85
532.295	67
532.509	85
532.724	82
532.938	82
533.153	109
533.367	88
533.582	93
533.796	88
534.011	94
534.225	89
534.44	93
534.654	89
534.868	94
535.083	97
535.297	83
535.511	94
535.726	96
535.94	94
536.154	102
536.369	88
536.583	104
536.797	92
537.011	101
537.225	99
537.44	89
537.654	98
537.868	92
538.082	96
538.296	84
538.51	92
538.724	80
538.938	75
539.153	97
539.367	101
539.581	93
539.795	96
540.009	86
540.222	82
540.436	78
540.65	104
540.864	80
541.078	98
541.292	95
541.506	78
541.72	71
541.934	84
542.147	92
542.361	71
542.575	77
542.789	85
543.002	75
543.216	73
543.43	80
543.644	96
543.857	87
544.071	84
544.285	82
544.498	89
544.712	82
544.925	90
545.139	94
545.352	91
545.566	86
545.779	103
545.993	81
546.206	95
546.42	98
546.633	96
546.847	93
547.06	87
547.274	79
547.487	84
547.7	84
547.914	95
548.127	79
548.34	89
548.554	88
548.767	96
548.98	90
549.193	71
549.407	80
549.62	93
549.833	97
550.046	83
550.259	81
550.473	99
550.686	82
550.899	100
551.112	99
551.325	106
551.538	82
551.751	95
551.964	79
552.177	80
552.39	96
552.603	91
552.816	82
553.029	88
553.242	86
553.455	103
553.667	108
553.88	104
554.093	93
554.306	85
554.519	97
554.732	95
554.944	84
555.157	88
555.37	95
555.583	85
555.795	90
556.008	91
556.221	91
556.433	94
556.646	98
556.859	77
557.071	84
557.284	77
557.496	90
557.709	95
557.921	102
558.134	86
558.346	76
558.559	89
558.771	89
558.984	88
559.196	96
559.409	87
559.621	86
559.833	94
560.046	89
560.258	87
560.47	87
560.683	87
560.895	82
561.107	75
561.32	86
561.532	85
561.744	79
561.956	86
562.168	78
562.381	76
562.593	99
562.805	108
563.017	102
563.229	104
563.441	91
563.653	92
563.865	95
564.077	91
564.289	95
564.501	102
564.713	83
564.925	92
565.137	102
565.349	91
565.561	99
565.773	90
565.985	91
566.197	83
566.408	93
566.62	83
566.832	76
567.044	77
567.255	82
567.467	92
567.679	79
567.891	74
568.102	82
568.314	97
568.526	94
568.737	83
568.949	86
569.161	93
569.372	69
569.584	83
569.795	95
570.007	108
570.218	224
570.43	125
570.641	88
570.853	99
571.064	94
571.276	83
571.487	74
571.698	84
571.91	83
572.121	87
572.333	99
572.544	97
572.755	92
572.966	75
573.178	93
573.389	92
573.6	93
573.811	94
574.023	92
574.234	75
574.445	82
574.656	95
574.867	90
575.078	87
575.289	81
575.501	87
575.712	87
575.923	85
576.134	91
576.345	78
576.556	86
576.767	89
576.978	99
577.188	86
577.399	91
577.61	81
577.821	88
578.032	102
578.243	260
578.454	703
578.665	183
578.875	96
579.086	110
579.297	89
579.508	94
579.718	83
579.929	100
580.14	102
580.35	98
580.561	100
580.772	82
580.982	70
581.193	83
581.403	85
581.614	74
581.825	76
582.035	96
582.246	93
582.456	83
582.667	77
582.877	94
583.087	91
583.298	88
583.508	81
583.719	88
583.929	85
584.139	83
584.35	87
584.56	93
584.77	79
584.981	91
585.191	88
585.401	79
585.611	82
