Data from Uncirc_1988_H10_HRD10591_00044.txt Node
Date: Wed Jan 03 12:04:13 EST 2024
User: Yrep
Spectrometer: HR+D1059
Trigger mode: 1
Integration Time (sec): 1.000000E-1
Scans to average: 1
Electric dark correction enabled: true
Nonlinearity correction enabled: false
Boxcar width: 0
XAxis mode: Wavelengths
Number of Pixels in Spectrum: 2048
>>>>>Begin Spectral Data<<<<<
223.165	-6.62
223.4	-6.62
223.635	-6.62
223.869	-12.62
224.104	-27.62
224.338	-16.62
224.573	-14.62
224.808	-19.62
225.042	-26.62
225.277	-11.62
225.511	-2.62
225.746	3.38
225.98	24.38
226.215	-4.62
226.449	32.38
226.683	14.38
226.918	28.38
227.152	40.38
227.387	25.38
227.621	47.38
227.856	33.38
228.09	45.38
228.324	57.38
228.559	51.38
228.793	44.38
229.027	67.38
229.262	74.38
229.496	76.38
229.73	63.38
229.964	84.38
230.199	69.38
230.433	71.38
230.667	82.38
230.901	74.38
231.136	65.38
231.37	84.38
231.604	69.38
231.838	84.38
232.072	60.38
232.306	67.38
232.541	84.38
232.775	77.38
233.009	88.38
233.243	84.38
233.477	78.38
233.711	57.38
233.945	91.38
234.179	88.38
234.413	74.38
234.647	82.38
234.881	67.38
235.115	73.38
235.349	88.38
235.583	72.38
235.817	73.38
236.051	82.38
236.285	66.38
236.519	76.38
236.753	82.38
236.987	72.38
237.221	58.38
237.455	72.38
237.689	74.38
237.922	56.38
238.156	59.38
238.39	83.38
238.624	81.38
238.858	78.38
239.091	74.38
239.325	71.38
239.559	75.38
239.793	77.38
240.027	74.38
240.26	69.38
240.494	61.38
240.728	80.38
240.961	75.38
241.195	64.38
241.429	87.38
241.662	57.38
241.896	67.38
242.13	64.38
242.363	64.38
242.597	70.38
242.83	65.38
243.064	82.38
243.298	74.38
243.531	53.38
243.765	74.38
243.998	78.38
244.232	82.38
244.465	83.38
244.699	70.38
244.932	60.38
245.166	83.38
245.399	82.38
245.633	74.38
245.866	74.38
246.099	65.38
246.333	56.38
246.566	59.38
246.8	63.38
247.033	70.38
247.266	63.38
247.5	80.38
247.733	78.38
247.966	69.38
248.2	70.38
248.433	87.38
248.666	74.38
248.899	83.38
249.133	82.38
249.366	95.38
249.599	91.38
249.832	86.38
250.066	85.38
250.299	65.38
250.532	76.38
250.765	69.38
250.998	75.38
251.231	80.38
251.465	78.38
251.698	68.38
251.931	78.38
252.164	63.38
252.397	57.38
252.63	81.38
252.863	71.38
253.096	84.38
253.329	88.38
253.562	74.38
253.795	74.38
254.028	70.38
254.261	80.38
254.494	65.38
254.727	63.38
254.96	87.38
255.193	72.38
255.426	70.38
255.659	66.38
255.892	74.38
256.124	81.38
256.357	83.38
256.59	82.38
256.823	73.38
257.056	75.38
257.289	84.38
257.521	76.38
257.754	75.38
257.987	74.38
258.22	68.38
258.452	89.38
258.685	82.38
258.918	80.38
259.151	74.38
259.383	81.38
259.616	75.38
259.849	86.38
260.081	69.38
260.314	84.38
260.547	79.38
260.779	76.38
261.012	68.38
261.244	84.38
261.477	90.38
261.71	84.38
261.942	102.38
262.175	108.38
262.407	94.38
262.64	80.38
262.872	75.38
263.105	81.38
263.337	97.38
263.57	82.38
263.802	76.38
264.035	93.38
264.267	78.38
264.499	78.38
264.732	83.38
264.964	68.38
265.197	83.38
265.429	81.38
265.661	84.38
265.894	84.38
266.126	87.38
266.358	84.38
266.591	96.38
266.823	95.38
267.055	83.38
267.287	80.38
267.52	78.38
267.752	77.38
267.984	67.38
268.216	84.38
268.448	78.38
268.681	74.38
268.913	81.38
269.145	69.38
269.377	86.38
269.609	83.38
269.841	54.38
270.073	63.38
270.306	80.38
270.538	76.38
270.77	76.38
271.002	88.38
271.234	91.38
271.466	84.38
271.698	84.38
271.93	69.38
272.162	84.38
272.394	74.38
272.626	84.38
272.858	88.38
273.09	70.38
273.322	81.38
273.553	91.38
273.785	81.38
274.017	92.38
274.249	82.38
274.481	83.38
274.713	80.38
274.945	81.38
275.176	79.38
275.408	81.38
275.64	65.38
275.872	68.38
276.104	95.38
276.335	98.38
276.567	92.38
276.799	105.38
277.031	101.38
277.262	103.38
277.494	77.38
277.726	79.38
277.957	77.38
278.189	75.38
278.421	91.38
278.652	76.38
278.884	82.38
279.115	88.38
279.347	88.38
279.579	75.38
279.81	81.38
280.042	80.38
280.273	78.38
280.505	78.38
280.736	89.38
280.968	80.38
281.199	84.38
281.431	85.38
281.662	89.38
281.894	92.38
282.125	81.38
282.356	112.38
282.588	142.38
282.819	115.38
283.051	94.38
283.282	82.38
283.513	85.38
283.745	66.38
283.976	91.38
284.207	80.38
284.439	84.38
284.67	89.38
284.901	82.38
285.132	86.38
285.364	84.38
285.595	90.38
285.826	93.38
286.057	79.38
286.288	82.38
286.52	68.38
286.751	72.38
286.982	78.38
287.213	67.38
287.444	80.38
287.675	91.38
287.906	104.38
288.138	84.38
288.369	77.38
288.6	95.38
288.831	82.38
289.062	87.38
289.293	93.38
289.524	77.38
289.755	85.38
289.986	84.38
290.217	83.38
290.448	70.38
290.679	80.38
290.91	69.38
291.141	86.38
291.371	76.38
291.602	70.38
291.833	67.38
292.064	73.38
292.295	93.38
292.526	97.38
292.757	78.38
292.987	76.38
293.218	98.38
293.449	88.38
293.68	83.38
293.91	72.38
294.141	88.38
294.372	106.38
294.603	92.38
294.833	83.38
295.064	75.38
295.295	83.38
295.525	102.38
295.756	89.38
295.987	125.38
296.217	145.38
296.448	128.38
296.679	82.38
296.909	95.38
297.14	76.38
297.37	91.38
297.601	99.38
297.831	90.38
298.062	82.38
298.292	82.38
298.523	93.38
298.753	76.38
298.984	81.38
299.214	80.38
299.445	74.38
299.675	107.38
299.905	93.38
300.136	89.38
300.366	90.38
300.597	93.38
300.827	69.38
301.057	92.38
301.288	102.38
301.518	91.38
301.748	94.38
301.979	101.38
302.209	82.38
302.439	94.38
302.669	90.38
302.9	84.38
303.13	79.38
303.36	83.38
303.59	100.38
303.82	106.38
304.051	84.38
304.281	82.38
304.511	76.38
304.741	87.38
304.971	79.38
305.201	83.38
305.431	83.38
305.661	100.38
305.891	90.38
306.121	92.38
306.352	100.38
306.582	104.38
306.812	91.38
307.042	83.38
307.272	88.38
307.502	92.38
307.731	85.38
307.961	91.38
308.191	80.38
308.421	88.38
308.651	85.38
308.881	97.38
309.111	88.38
309.341	92.38
309.571	92.38
309.8	102.38
310.03	99.38
310.26	87.38
310.49	95.38
310.72	84.38
310.949	107.38
311.179	105.38
311.409	81.38
311.639	83.38
311.868	92.38
312.098	95.38
312.328	92.38
312.557	88.38
312.787	106.38
313.017	91.38
313.246	81.38
313.476	85.38
313.706	88.38
313.935	97.38
314.165	84.38
314.394	116.38
314.624	94.38
314.853	90.38
315.083	98.38
315.312	91.38
315.542	85.38
315.771	80.38
316.001	102.38
316.23	93.38
316.46	89.38
316.689	72.38
316.919	84.38
317.148	107.38
317.377	83.38
317.607	96.38
317.836	99.38
318.065	106.38
318.295	88.38
318.524	84.38
318.753	88.38
318.983	108.38
319.212	88.38
319.441	104.38
319.67	103.38
319.9	93.38
320.129	89.38
320.358	81.38
320.587	88.38
320.816	98.38
321.046	108.38
321.275	107.38
321.504	96.38
321.733	89.38
321.962	99.38
322.191	102.38
322.42	99.38
322.649	116.38
322.878	121.38
323.108	105.38
323.337	118.38
323.566	140.38
323.795	156.38
324.024	230.38
324.253	485.38
324.482	1044.38
324.71	2219.38
324.939	2981.38
325.168	1026.38
325.397	298.38
325.626	157.38
325.855	129.38
326.084	130.38
326.313	131.38
326.542	172.38
326.77	267.38
326.999	549.38
327.228	1194.38
327.457	2238.38
327.686	1772.38
327.914	474.38
328.143	218.38
328.372	153.38
328.6	137.38
328.829	113.38
329.058	141.38
329.287	146.38
329.515	115.38
329.744	96.38
329.972	104.38
330.201	104.38
330.43	131.38
330.658	129.38
330.887	158.38
331.115	152.38
331.344	101.38
331.572	101.38
331.801	104.38
332.03	106.38
332.258	116.38
332.486	82.38
332.715	85.38
332.943	94.38
333.172	89.38
333.4	83.38
333.629	98.38
333.857	106.38
334.085	127.38
334.314	108.38
334.542	112.38
334.771	111.38
334.999	101.38
335.227	100.38
335.455	83.38
335.684	88.38
335.912	112.38
336.14	98.38
336.369	95.38
336.597	93.38
336.825	105.38
337.053	89.38
337.281	80.38
337.51	78.38
337.738	73.38
337.966	93.38
338.194	96.38
338.422	85.38
338.65	96.38
338.878	102.38
339.106	88.38
339.334	89.38
339.562	98.38
339.79	81.38
340.018	107.38
340.246	88.38
340.474	93.38
340.702	93.38
340.93	87.38
341.158	78.38
341.386	89.38
341.614	98.38
341.842	92.38
342.07	92.38
342.298	90.38
342.526	86.38
342.754	99.38
342.981	93.38
343.209	81.38
343.437	86.38
343.665	93.38
343.893	95.38
344.12	85.38
344.348	77.38
344.576	90.38
344.804	80.38
345.031	98.38
345.259	95.38
345.487	94.38
345.714	90.38
345.942	87.38
346.17	92.38
346.397	90.38
346.625	95.38
346.853	81.38
347.08	88.38
347.308	91.38
347.535	111.38
347.763	107.38
347.99	101.38
348.218	91.38
348.445	110.38
348.673	105.38
348.9	95.38
349.128	94.38
349.355	93.38
349.583	85.38
349.81	93.38
350.037	98.38
350.265	103.38
350.492	106.38
350.72	85.38
350.947	98.38
351.174	106.38
351.402	101.38
351.629	115.38
351.856	102.38
352.083	103.38
352.311	90.38
352.538	104.38
352.765	106.38
352.992	111.38
353.22	113.38
353.447	107.38
353.674	101.38
353.901	83.38
354.128	88.38
354.355	92.38
354.583	98.38
354.81	109.38
355.037	67.38
355.264	94.38
355.491	98.38
355.718	92.38
355.945	89.38
356.172	104.38
356.399	90.38
356.626	91.38
356.853	79.38
357.08	78.38
357.307	107.38
357.534	96.38
357.761	81.38
357.988	82.38
358.215	93.38
358.441	81.38
358.668	89.38
358.895	78.38
359.122	77.38
359.349	81.38
359.576	101.38
359.802	103.38
360.029	118.38
360.256	110.38
360.483	106.38
360.709	83.38
360.936	100.38
361.163	88.38
361.39	92.38
361.616	116.38
361.843	92.38
362.07	90.38
362.296	91.38
362.523	91.38
362.749	90.38
362.976	89.38
363.203	82.38
363.429	90.38
363.656	84.38
363.882	87.38
364.109	96.38
364.335	98.38
364.562	91.38
364.788	93.38
365.015	100.38
365.241	104.38
365.468	100.38
365.694	103.38
365.92	98.38
366.147	80.38
366.373	92.38
366.599	84.38
366.826	75.38
367.052	98.38
367.278	87.38
367.505	84.38
367.731	94.38
367.957	81.38
368.184	81.38
368.41	92.38
368.636	108.38
368.862	117.38
369.089	102.38
369.315	97.38
369.541	97.38
369.767	101.38
369.993	97.38
370.219	102.38
370.445	97.38
370.672	82.38
370.898	84.38
371.124	68.38
371.35	89.38
371.576	95.38
371.802	77.38
372.028	88.38
372.254	90.38
372.48	76.38
372.706	88.38
372.932	76.38
373.158	83.38
373.384	82.38
373.61	88.38
373.835	79.38
374.061	85.38
374.287	86.38
374.513	84.38
374.739	83.38
374.965	65.38
375.191	83.38
375.416	90.38
375.642	74.38
375.868	95.38
376.094	74.38
376.319	84.38
376.545	83.38
376.771	90.38
376.997	86.38
377.222	80.38
377.448	68.38
377.674	83.38
377.899	89.38
378.125	72.38
378.35	80.38
378.576	98.38
378.802	80.38
379.027	88.38
379.253	90.38
379.478	81.38
379.704	84.38
379.929	88.38
380.155	91.38
380.38	99.38
380.606	84.38
380.831	76.38
381.057	98.38
381.282	93.38
381.507	97.38
381.733	100.38
381.958	85.38
382.184	104.38
382.409	107.38
382.634	96.38
382.86	99.38
383.085	85.38
383.31	96.38
383.535	105.38
383.761	100.38
383.986	92.38
384.211	94.38
384.436	100.38
384.662	100.38
384.887	97.38
385.112	90.38
385.337	89.38
385.562	93.38
385.787	88.38
386.013	109.38
386.238	105.38
386.463	103.38
386.688	97.38
386.913	93.38
387.138	106.38
387.363	90.38
387.588	85.38
387.813	95.38
388.038	91.38
388.263	93.38
388.488	83.38
388.713	95.38
388.938	88.38
389.163	79.38
389.387	86.38
389.612	102.38
389.837	85.38
390.062	83.38
390.287	92.38
390.512	77.38
390.736	78.38
390.961	80.38
391.186	82.38
391.411	91.38
391.636	82.38
391.86	82.38
392.085	90.38
392.31	97.38
392.534	89.38
392.759	78.38
392.984	82.38
393.208	66.38
393.433	81.38
393.658	98.38
393.882	79.38
394.107	89.38
394.331	93.38
394.556	83.38
394.78	82.38
395.005	86.38
395.229	84.38
395.454	94.38
395.678	72.38
395.903	83.38
396.127	90.38
396.352	88.38
396.576	86.38
396.801	87.38
397.025	82.38
397.249	86.38
397.474	75.38
397.698	88.38
397.922	81.38
398.147	94.38
398.371	82.38
398.595	80.38
398.82	79.38
399.044	73.38
399.268	77.38
399.492	80.38
399.717	76.38
399.941	95.38
400.165	84.38
400.389	85.38
400.613	73.38
400.837	88.38
401.062	88.38
401.286	98.38
401.51	77.38
401.734	93.38
401.958	90.38
402.182	133.38
402.406	168.38
402.63	122.38
402.854	104.38
403.078	86.38
403.302	83.38
403.526	86.38
403.75	86.38
403.974	67.38
404.198	68.38
404.422	101.38
404.645	77.38
404.869	79.38
405.093	97.38
405.317	94.38
405.541	107.38
405.765	90.38
405.988	128.38
406.212	193.38
406.436	267.38
406.66	184.38
406.883	112.38
407.107	99.38
407.331	99.38
407.555	111.38
407.778	95.38
408.002	79.38
408.226	80.38
408.449	88.38
408.673	84.38
408.896	84.38
409.12	92.38
409.344	86.38
409.567	83.38
409.791	77.38
410.014	97.38
410.238	90.38
410.461	105.38
410.685	98.38
410.908	92.38
411.132	94.38
411.355	109.38
411.578	108.38
411.802	84.38
412.025	80.38
412.249	79.38
412.472	76.38
412.695	91.38
412.919	94.38
413.142	97.38
413.365	74.38
413.589	85.38
413.812	69.38
414.035	100.38
414.258	88.38
414.482	74.38
414.705	92.38
414.928	79.38
415.151	78.38
415.374	87.38
415.597	85.38
415.821	88.38
416.044	78.38
416.267	74.38
416.49	87.38
416.713	83.38
416.936	78.38
417.159	81.38
417.382	84.38
417.605	89.38
417.828	98.38
418.051	98.38
418.274	102.38
418.497	86.38
418.72	94.38
418.943	76.38
419.166	88.38
419.389	80.38
419.611	86.38
419.834	107.38
420.057	88.38
420.28	89.38
420.503	90.38
420.726	81.38
420.948	94.38
421.171	96.38
421.394	91.38
421.617	94.38
421.839	79.38
422.062	89.38
422.285	101.38
422.507	97.38
422.73	104.38
422.953	86.38
423.175	97.38
423.398	96.38
423.621	95.38
423.843	96.38
424.066	84.38
424.288	90.38
424.511	89.38
424.733	99.38
424.956	99.38
425.178	104.38
425.401	86.38
425.623	98.38
425.846	89.38
426.068	82.38
426.291	84.38
426.513	64.38
426.735	90.38
426.958	107.38
427.18	99.38
427.402	154.38
427.625	198.38
427.847	136.38
428.069	106.38
428.292	95.38
428.514	92.38
428.736	86.38
428.958	81.38
429.181	94.38
429.403	74.38
429.625	86.38
429.847	92.38
430.069	107.38
430.292	98.38
430.514	76.38
430.736	82.38
430.958	86.38
431.18	81.38
431.402	85.38
431.624	98.38
431.846	85.38
432.068	69.38
432.29	76.38
432.512	85.38
432.734	80.38
432.956	85.38
433.178	92.38
433.4	103.38
433.622	88.38
433.844	83.38
434.066	89.38
434.287	59.38
434.509	75.38
434.731	96.38
434.953	84.38
435.175	90.38
435.397	89.38
435.618	84.38
435.84	104.38
436.062	122.38
436.284	113.38
436.505	102.38
436.727	96.38
436.949	100.38
437.17	86.38
437.392	85.38
437.614	79.38
437.835	102.38
438.057	125.38
438.278	109.38
438.5	93.38
438.721	114.38
438.943	100.38
439.165	87.38
439.386	86.38
439.608	80.38
439.829	101.38
440.05	129.38
440.272	160.38
440.493	111.38
440.715	80.38
440.936	84.38
441.158	91.38
441.379	89.38
441.6	96.38
441.822	91.38
442.043	92.38
442.264	105.38
442.486	105.38
442.707	93.38
442.928	110.38
443.149	149.38
443.371	139.38
443.592	120.38
443.813	110.38
444.034	110.38
444.255	89.38
444.476	86.38
444.698	96.38
444.919	73.38
445.14	130.38
445.361	132.38
445.582	102.38
445.803	133.38
446.024	150.38
446.245	154.38
446.466	132.38
446.687	94.38
446.908	92.38
447.129	95.38
447.35	95.38
447.571	79.38
447.792	101.38
448.013	94.38
448.234	105.38
448.455	103.38
448.675	122.38
448.896	125.38
449.117	110.38
449.338	98.38
449.559	120.38
449.779	148.38
450	98.38
450.221	78.38
450.442	100.38
450.662	83.38
450.883	104.38
451.104	116.38
451.324	91.38
451.545	79.38
451.766	88.38
451.986	80.38
452.207	90.38
452.428	93.38
452.648	97.38
452.869	124.38
453.089	115.38
453.31	126.38
453.53	97.38
453.751	85.38
453.971	113.38
454.192	110.38
454.412	84.38
454.633	75.38
454.853	78.38
455.073	93.38
455.294	80.38
455.514	92.38
455.734	88.38
455.955	86.38
456.175	95.38
456.395	77.38
456.616	85.38
456.836	70.38
457.056	86.38
457.276	81.38
457.497	76.38
457.717	92.38
457.937	84.38
458.157	90.38
458.377	80.38
458.598	121.38
458.818	172.38
459.038	193.38
459.258	121.38
459.478	85.38
459.698	85.38
459.918	84.38
460.138	71.38
460.358	68.38
460.578	83.38
460.798	85.38
461.018	86.38
461.238	76.38
461.458	76.38
461.678	80.38
461.898	93.38
462.118	85.38
462.338	78.38
462.558	81.38
462.777	76.38
462.997	80.38
463.217	89.38
463.437	89.38
463.657	93.38
463.876	90.38
464.096	93.38
464.316	86.38
464.536	120.38
464.755	88.38
464.975	98.38
465.195	193.38
465.414	188.38
465.634	94.38
465.854	93.38
466.073	90.38
466.293	94.38
466.512	78.38
466.732	98.38
466.951	99.38
467.171	85.38
467.391	90.38
467.61	106.38
467.829	100.38
468.049	91.38
468.268	84.38
468.488	102.38
468.707	64.38
468.927	90.38
469.146	85.38
469.365	88.38
469.585	84.38
469.804	106.38
470.023	94.38
470.243	103.38
470.462	100.38
470.681	112.38
470.901	78.38
471.12	88.38
471.339	84.38
471.558	85.38
471.777	92.38
471.997	86.38
472.216	94.38
472.435	120.38
472.654	90.38
472.873	81.38
473.092	74.38
473.311	96.38
473.53	82.38
473.749	88.38
473.968	82.38
474.187	97.38
474.406	98.38
474.625	93.38
474.844	79.38
475.063	82.38
475.282	83.38
475.501	78.38
475.72	92.38
475.939	86.38
476.158	92.38
476.377	84.38
476.596	87.38
476.814	94.38
477.033	78.38
477.252	97.38
477.471	85.38
477.69	82.38
477.908	91.38
478.127	80.38
478.346	95.38
478.564	98.38
478.783	95.38
479.002	94.38
479.22	85.38
479.439	98.38
479.658	106.38
479.876	102.38
480.095	82.38
480.313	106.38
480.532	94.38
480.751	86.38
480.969	98.38
481.188	141.38
481.406	108.38
481.624	85.38
481.843	78.38
482.061	98.38
482.28	97.38
482.498	89.38
482.717	76.38
482.935	78.38
483.153	101.38
483.372	92.38
483.59	95.38
483.808	95.38
484.027	81.38
484.245	88.38
484.463	87.38
484.681	90.38
484.9	82.38
485.118	91.38
485.336	96.38
485.554	100.38
485.772	105.38
485.99	94.38
486.209	102.38
486.427	100.38
486.645	117.38
486.863	101.38
487.081	100.38
487.299	94.38
487.517	82.38
487.735	86.38
487.953	89.38
488.171	81.38
488.389	83.38
488.607	91.38
488.825	83.38
489.043	99.38
489.261	104.38
489.479	85.38
489.696	96.38
489.914	84.38
490.132	93.38
490.35	90.38
490.568	91.38
490.786	84.38
491.003	90.38
491.221	92.38
491.439	79.38
491.657	98.38
491.874	81.38
492.092	98.38
492.31	93.38
492.527	76.38
492.745	76.38
492.963	96.38
493.18	93.38
493.398	95.38
493.615	94.38
493.833	76.38
494.05	89.38
494.268	88.38
494.485	85.38
494.703	83.38
494.92	91.38
495.138	92.38
495.355	97.38
495.573	94.38
495.79	85.38
496.008	97.38
496.225	74.38
496.442	100.38
496.66	98.38
496.877	89.38
497.094	78.38
497.312	93.38
497.529	91.38
497.746	85.38
497.963	112.38
498.181	93.38
498.398	93.38
498.615	96.38
498.832	106.38
499.049	97.38
499.267	89.38
499.484	80.38
499.701	86.38
499.918	78.38
500.135	91.38
500.352	76.38
500.569	97.38
500.786	96.38
501.003	94.38
501.22	98.38
501.437	78.38
501.654	89.38
501.871	106.38
502.088	96.38
502.305	91.38
502.522	94.38
502.739	97.38
502.956	81.38
503.172	79.38
503.389	80.38
503.606	106.38
503.823	100.38
504.04	86.38
504.256	81.38
504.473	86.38
504.69	94.38
504.907	99.38
505.123	76.38
505.34	90.38
505.557	80.38
505.773	89.38
505.99	97.38
506.207	89.38
506.423	90.38
506.64	101.38
506.856	92.38
507.073	93.38
507.289	90.38
507.506	90.38
507.722	112.38
507.939	120.38
508.155	96.38
508.372	92.38
508.588	105.38
508.805	96.38
509.021	101.38
509.238	88.38
509.454	101.38
509.67	86.38
509.887	101.38
510.103	137.38
510.319	245.38
510.536	943.38
510.752	3046.38
510.968	808.38
511.184	164.38
511.401	113.38
511.617	95.38
511.833	95.38
512.049	91.38
512.265	102.38
512.481	89.38
512.698	90.38
512.914	94.38
513.13	103.38
513.346	100.38
513.562	95.38
513.778	100.38
513.994	97.38
514.21	101.38
514.426	116.38
514.642	153.38
514.858	131.38
515.074	186.38
515.29	598.38
515.506	2044.38
515.721	700.38
515.937	175.38
516.153	122.38
