Data from Uncirc_1988_H10_HRD10591_00031.txt Node
Date: Wed Jan 03 12:04:10 EST 2024
User: Yrep
Spectrometer: HR+D1059
Trigger mode: 1
Integration Time (sec): 1.000000E-1
Scans to average: 1
Electric dark correction enabled: true
Nonlinearity correction enabled: false
Boxcar width: 0
XAxis mode: Wavelengths
Number of Pixels in Spectrum: 2048
>>>>>Begin Spectral Data<<<<<
223.165	-23.75
223.4	-23.75
223.635	-23.75
223.869	-15.75
224.104	-22.75
224.338	-26.75
224.573	-13.75
224.808	-2.75
225.042	7.25
225.277	-1.75
225.511	9.25
225.746	-10.75
225.98	11.25
226.215	10.25
226.449	16.25
226.683	1.25
226.918	24.25
227.152	38.25
227.387	21.25
227.621	50.25
227.856	36.25
228.09	40.25
228.324	46.25
228.559	50.25
228.793	60.25
229.027	68.25
229.262	65.25
229.496	78.25
229.73	73.25
229.964	69.25
230.199	81.25
230.433	56.25
230.667	92.25
230.901	89.25
231.136	84.25
231.37	79.25
231.604	72.25
231.838	84.25
232.072	70.25
232.306	79.25
232.541	92.25
232.775	87.25
233.009	72.25
233.243	81.25
233.477	84.25
233.711	73.25
233.945	87.25
234.179	92.25
234.413	80.25
234.647	75.25
234.881	73.25
235.115	76.25
235.349	80.25
235.583	72.25
235.817	77.25
236.051	67.25
236.285	67.25
236.519	86.25
236.753	77.25
236.987	79.25
237.221	72.25
237.455	91.25
237.689	84.25
237.922	64.25
238.156	80.25
238.39	73.25
238.624	74.25
238.858	83.25
239.091	81.25
239.325	80.25
239.559	80.25
239.793	80.25
240.027	72.25
240.26	70.25
240.494	73.25
240.728	69.25
240.961	70.25
241.195	87.25
241.429	71.25
241.662	72.25
241.896	75.25
242.13	76.25
242.363	70.25
242.597	84.25
242.83	79.25
243.064	74.25
243.298	78.25
243.531	76.25
243.765	79.25
243.998	84.25
244.232	75.25
244.465	80.25
244.699	81.25
244.932	60.25
245.166	76.25
245.399	68.25
245.633	80.25
245.866	88.25
246.099	71.25
246.333	79.25
246.566	83.25
246.8	79.25
247.033	70.25
247.266	72.25
247.5	90.25
247.733	65.25
247.966	74.25
248.2	81.25
248.433	70.25
248.666	78.25
248.899	85.25
249.133	92.25
249.366	93.25
249.599	89.25
249.832	77.25
250.066	86.25
250.299	63.25
250.532	71.25
250.765	79.25
250.998	77.25
251.231	97.25
251.465	81.25
251.698	82.25
251.931	91.25
252.164	79.25
252.397	77.25
252.63	84.25
252.863	83.25
253.096	82.25
253.329	92.25
253.562	78.25
253.795	80.25
254.028	77.25
254.261	90.25
254.494	69.25
254.727	74.25
254.96	83.25
255.193	90.25
255.426	83.25
255.659	74.25
255.892	78.25
256.124	77.25
256.357	69.25
256.59	74.25
256.823	81.25
257.056	83.25
257.289	79.25
257.521	70.25
257.754	92.25
257.987	93.25
258.22	86.25
258.452	76.25
258.685	80.25
258.918	73.25
259.151	86.25
259.383	75.25
259.616	77.25
259.849	96.25
260.081	94.25
260.314	82.25
260.547	74.25
260.779	84.25
261.012	79.25
261.244	78.25
261.477	88.25
261.71	92.25
261.942	95.25
262.175	100.25
262.407	87.25
262.64	79.25
262.872	81.25
263.105	72.25
263.337	91.25
263.57	80.25
263.802	89.25
264.035	86.25
264.267	88.25
264.499	68.25
264.732	85.25
264.964	78.25
265.197	77.25
265.429	86.25
265.661	84.25
265.894	81.25
266.126	101.25
266.358	89.25
266.591	74.25
266.823	59.25
267.055	71.25
267.287	79.25
267.52	92.25
267.752	87.25
267.984	81.25
268.216	90.25
268.448	72.25
268.681	84.25
268.913	81.25
269.145	77.25
269.377	89.25
269.609	80.25
269.841	87.25
270.073	86.25
270.306	89.25
270.538	97.25
270.77	79.25
271.002	73.25
271.234	88.25
271.466	68.25
271.698	85.25
271.93	93.25
272.162	84.25
272.394	106.25
272.626	81.25
272.858	78.25
273.09	80.25
273.322	80.25
273.553	80.25
273.785	87.25
274.017	86.25
274.249	82.25
274.481	90.25
274.713	81.25
274.945	81.25
275.176	87.25
275.408	94.25
275.64	92.25
275.872	96.25
276.104	93.25
276.335	89.25
276.567	100.25
276.799	100.25
277.031	83.25
277.262	84.25
277.494	94.25
277.726	84.25
277.957	89.25
278.189	78.25
278.421	85.25
278.652	80.25
278.884	94.25
279.115	94.25
279.347	89.25
279.579	72.25
279.81	84.25
280.042	77.25
280.273	92.25
280.505	87.25
280.736	89.25
280.968	91.25
281.199	84.25
281.431	80.25
281.662	97.25
281.894	106.25
282.125	107.25
282.356	112.25
282.588	114.25
282.819	112.25
283.051	100.25
283.282	98.25
283.513	74.25
283.745	88.25
283.976	99.25
284.207	78.25
284.439	89.25
284.67	83.25
284.901	67.25
285.132	64.25
285.364	80.25
285.595	79.25
285.826	83.25
286.057	89.25
286.288	80.25
286.52	83.25
286.751	88.25
286.982	85.25
287.213	74.25
287.444	74.25
287.675	82.25
287.906	79.25
288.138	85.25
288.369	88.25
288.6	80.25
288.831	96.25
289.062	88.25
289.293	116.25
289.524	87.25
289.755	86.25
289.986	96.25
290.217	96.25
290.448	97.25
290.679	88.25
290.91	85.25
291.141	91.25
291.371	90.25
291.602	80.25
291.833	79.25
292.064	87.25
292.295	96.25
292.526	88.25
292.757	80.25
292.987	77.25
293.218	80.25
293.449	98.25
293.68	89.25
293.91	97.25
294.141	89.25
294.372	82.25
294.603	92.25
294.833	88.25
295.064	71.25
295.295	88.25
295.525	84.25
295.756	90.25
295.987	100.25
296.217	116.25
296.448	100.25
296.679	79.25
296.909	88.25
297.14	77.25
297.37	78.25
297.601	91.25
297.831	91.25
298.062	90.25
298.292	80.25
298.523	94.25
298.753	96.25
298.984	90.25
299.214	84.25
299.445	103.25
299.675	98.25
299.905	101.25
300.136	89.25
300.366	91.25
300.597	86.25
300.827	104.25
301.057	101.25
301.288	89.25
301.518	94.25
301.748	104.25
301.979	84.25
302.209	96.25
302.439	91.25
302.669	84.25
302.9	90.25
303.13	83.25
303.36	81.25
303.59	88.25
303.82	101.25
304.051	86.25
304.281	88.25
304.511	97.25
304.741	76.25
304.971	105.25
305.201	89.25
305.431	97.25
305.661	101.25
305.891	99.25
306.121	104.25
306.352	110.25
306.582	108.25
306.812	97.25
307.042	88.25
307.272	94.25
307.502	95.25
307.731	99.25
307.961	88.25
308.191	87.25
308.421	78.25
308.651	99.25
308.881	88.25
309.111	96.25
309.341	90.25
309.571	97.25
309.8	98.25
310.03	94.25
310.26	82.25
310.49	85.25
310.72	99.25
310.949	94.25
311.179	94.25
311.409	101.25
311.639	103.25
311.868	110.25
312.098	101.25
312.328	98.25
312.557	84.25
312.787	108.25
313.017	95.25
313.246	89.25
313.476	99.25
313.706	95.25
313.935	101.25
314.165	93.25
314.394	100.25
314.624	99.25
314.853	98.25
315.083	88.25
315.312	96.25
315.542	87.25
315.771	90.25
316.001	95.25
316.23	89.25
316.46	96.25
316.689	108.25
316.919	96.25
317.148	90.25
317.377	85.25
317.607	84.25
317.836	82.25
318.065	89.25
318.295	86.25
318.524	80.25
318.753	99.25
318.983	103.25
319.212	81.25
319.441	116.25
319.67	91.25
319.9	100.25
320.129	93.25
320.358	104.25
320.587	82.25
320.816	110.25
321.046	90.25
321.275	96.25
321.504	95.25
321.733	85.25
321.962	104.25
322.191	102.25
322.42	99.25
322.649	121.25
322.878	109.25
323.108	110.25
323.337	108.25
323.566	119.25
323.795	131.25
324.024	178.25
324.253	371.25
324.482	782.25
324.71	1601.25
324.939	2103.25
325.168	768.25
325.397	240.25
325.626	145.25
325.855	124.25
326.084	117.25
326.313	124.25
326.542	146.25
326.77	224.25
326.999	465.25
327.228	928.25
327.457	1679.25
327.686	1335.25
327.914	362.25
328.143	177.25
328.372	137.25
328.6	116.25
328.829	126.25
329.058	140.25
329.287	136.25
329.515	97.25
329.744	108.25
329.972	107.25
330.201	101.25
330.43	104.25
330.658	114.25
330.887	129.25
331.115	116.25
331.344	92.25
331.572	104.25
331.801	103.25
332.03	96.25
332.258	95.25
332.486	90.25
332.715	88.25
332.943	100.25
333.172	93.25
333.4	92.25
333.629	104.25
333.857	96.25
334.085	88.25
334.314	98.25
334.542	109.25
334.771	94.25
334.999	100.25
335.227	106.25
335.455	81.25
335.684	88.25
335.912	96.25
336.14	119.25
336.369	96.25
336.597	98.25
336.825	97.25
337.053	86.25
337.281	90.25
337.51	94.25
337.738	88.25
337.966	78.25
338.194	90.25
338.422	102.25
338.65	93.25
338.878	90.25
339.106	84.25
339.334	97.25
339.562	93.25
339.79	99.25
340.018	93.25
340.246	87.25
340.474	92.25
340.702	89.25
340.93	72.25
341.158	99.25
341.386	103.25
341.614	90.25
341.842	88.25
342.07	97.25
342.298	82.25
342.526	85.25
342.754	90.25
342.981	91.25
343.209	87.25
343.437	99.25
343.665	81.25
343.893	84.25
344.12	112.25
344.348	103.25
344.576	85.25
344.804	99.25
345.031	81.25
345.259	97.25
345.487	98.25
345.714	81.25
345.942	94.25
346.17	94.25
346.397	100.25
346.625	94.25
346.853	89.25
347.08	91.25
347.308	98.25
347.535	90.25
347.763	94.25
347.99	105.25
348.218	102.25
348.445	102.25
348.673	99.25
348.9	102.25
349.128	92.25
349.355	90.25
349.583	87.25
349.81	92.25
350.037	85.25
350.265	85.25
350.492	91.25
350.72	107.25
350.947	98.25
351.174	114.25
351.402	114.25
351.629	101.25
351.856	89.25
352.083	102.25
352.311	96.25
352.538	101.25
352.765	95.25
352.992	96.25
353.22	118.25
353.447	116.25
353.674	103.25
353.901	91.25
354.128	80.25
354.355	95.25
354.583	109.25
354.81	103.25
355.037	94.25
355.264	99.25
355.491	97.25
355.718	95.25
355.945	82.25
356.172	96.25
356.399	100.25
356.626	92.25
356.853	91.25
357.08	98.25
357.307	89.25
357.534	86.25
357.761	98.25
357.988	84.25
358.215	101.25
358.441	115.25
358.668	96.25
358.895	96.25
359.122	103.25
359.349	94.25
359.576	96.25
359.802	100.25
360.029	104.25
360.256	105.25
360.483	106.25
360.709	95.25
360.936	98.25
361.163	90.25
361.39	104.25
361.616	83.25
361.843	83.25
362.07	96.25
362.296	88.25
362.523	86.25
362.749	91.25
362.976	74.25
363.203	88.25
363.429	98.25
363.656	89.25
363.882	95.25
364.109	94.25
364.335	103.25
364.562	84.25
364.788	85.25
365.015	96.25
365.241	80.25
365.468	101.25
365.694	86.25
365.92	89.25
366.147	86.25
366.373	84.25
366.599	96.25
366.826	80.25
367.052	91.25
367.278	93.25
367.505	98.25
367.731	86.25
367.957	107.25
368.184	86.25
368.41	98.25
368.636	106.25
368.862	112.25
369.089	81.25
369.315	84.25
369.541	85.25
369.767	81.25
369.993	98.25
370.219	98.25
370.445	101.25
370.672	81.25
370.898	102.25
371.124	105.25
371.35	86.25
371.576	87.25
371.802	82.25
372.028	88.25
372.254	96.25
372.48	96.25
372.706	80.25
372.932	82.25
373.158	80.25
373.384	94.25
373.61	105.25
373.835	98.25
374.061	88.25
374.287	90.25
374.513	102.25
374.739	90.25
374.965	86.25
375.191	93.25
375.416	68.25
375.642	90.25
375.868	85.25
376.094	93.25
376.319	95.25
376.545	90.25
376.771	88.25
376.997	94.25
377.222	95.25
377.448	96.25
377.674	86.25
377.899	84.25
378.125	82.25
378.35	85.25
378.576	98.25
378.802	78.25
379.027	81.25
379.253	92.25
379.478	74.25
379.704	88.25
379.929	95.25
380.155	96.25
380.38	88.25
380.606	81.25
380.831	100.25
381.057	104.25
381.282	99.25
381.507	99.25
381.733	84.25
381.958	78.25
382.184	94.25
382.409	91.25
382.634	100.25
382.86	100.25
383.085	88.25
383.31	97.25
383.535	95.25
383.761	102.25
383.986	100.25
384.211	90.25
384.436	90.25
384.662	103.25
384.887	101.25
385.112	103.25
385.337	92.25
385.562	86.25
385.787	106.25
386.013	109.25
386.238	116.25
386.463	104.25
386.688	118.25
386.913	87.25
387.138	93.25
387.363	89.25
387.588	100.25
387.813	85.25
388.038	109.25
388.263	96.25
388.488	110.25
388.713	107.25
388.938	89.25
389.163	77.25
389.387	104.25
389.612	84.25
389.837	92.25
390.062	100.25
390.287	99.25
390.512	95.25
390.736	95.25
390.961	84.25
391.186	107.25
391.411	98.25
391.636	81.25
391.86	79.25
392.085	88.25
392.31	89.25
392.534	82.25
392.759	93.25
392.984	92.25
393.208	82.25
393.433	85.25
393.658	86.25
393.882	92.25
394.107	99.25
394.331	90.25
394.556	73.25
394.78	88.25
395.005	90.25
395.229	92.25
395.454	92.25
395.678	84.25
395.903	89.25
396.127	85.25
396.352	84.25
396.576	88.25
396.801	87.25
397.025	84.25
397.249	81.25
397.474	77.25
397.698	88.25
397.922	78.25
398.147	93.25
398.371	94.25
398.595	101.25
398.82	92.25
399.044	95.25
399.268	95.25
399.492	88.25
399.717	87.25
399.941	101.25
400.165	92.25
400.389	93.25
400.613	86.25
400.837	80.25
401.062	86.25
401.286	89.25
401.51	85.25
401.734	90.25
401.958	104.25
402.182	116.25
402.406	147.25
402.63	114.25
402.854	92.25
403.078	101.25
403.302	86.25
403.526	95.25
403.75	81.25
403.974	86.25
404.198	92.25
404.422	88.25
404.645	87.25
404.869	85.25
405.093	83.25
405.317	89.25
405.541	99.25
405.765	97.25
405.988	101.25
406.212	156.25
406.436	215.25
406.66	118.25
406.883	94.25
407.107	90.25
407.331	84.25
407.555	92.25
407.778	98.25
408.002	101.25
408.226	95.25
408.449	84.25
408.673	83.25
408.896	77.25
409.12	90.25
409.344	87.25
409.567	91.25
409.791	97.25
410.014	105.25
410.238	88.25
410.461	95.25
410.685	103.25
410.908	78.25
411.132	98.25
411.355	100.25
411.578	82.25
411.802	89.25
412.025	89.25
412.249	87.25
412.472	94.25
412.695	92.25
412.919	90.25
413.142	92.25
413.365	91.25
413.589	109.25
413.812	88.25
414.035	98.25
414.258	97.25
414.482	100.25
414.705	96.25
414.928	71.25
415.151	97.25
415.374	97.25
415.597	84.25
415.821	82.25
416.044	85.25
416.267	69.25
416.49	88.25
416.713	85.25
416.936	92.25
417.159	96.25
417.382	89.25
417.605	90.25
417.828	90.25
418.051	89.25
418.274	101.25
418.497	81.25
418.72	77.25
418.943	96.25
419.166	83.25
419.389	94.25
419.611	72.25
419.834	84.25
420.057	82.25
420.28	80.25
420.503	81.25
420.726	85.25
420.948	89.25
421.171	88.25
421.394	84.25
421.617	68.25
421.839	64.25
422.062	88.25
422.285	81.25
422.507	87.25
422.73	102.25
422.953	101.25
423.175	93.25
423.398	87.25
423.621	78.25
423.843	102.25
424.066	103.25
424.288	82.25
424.511	92.25
424.733	99.25
424.956	97.25
425.178	89.25
425.401	95.25
425.623	105.25
425.846	85.25
426.068	80.25
426.291	86.25
426.513	85.25
426.735	92.25
426.958	86.25
427.18	119.25
427.402	134.25
427.625	145.25
427.847	129.25
428.069	109.25
428.292	89.25
428.514	95.25
428.736	88.25
428.958	97.25
429.181	78.25
429.403	93.25
429.625	86.25
429.847	96.25
430.069	94.25
430.292	94.25
430.514	87.25
430.736	84.25
430.958	83.25
431.18	93.25
431.402	86.25
431.624	92.25
431.846	101.25
432.068	87.25
432.29	84.25
432.512	72.25
432.734	99.25
432.956	82.25
433.178	98.25
433.4	92.25
433.622	85.25
433.844	79.25
434.066	88.25
434.287	92.25
434.509	82.25
434.731	85.25
434.953	77.25
435.175	69.25
435.397	100.25
435.618	93.25
435.84	96.25
436.062	112.25
436.284	115.25
436.505	97.25
436.727	92.25
436.949	82.25
437.17	90.25
437.392	82.25
437.614	91.25
437.835	92.25
438.057	109.25
438.278	112.25
438.5	107.25
438.721	128.25
438.943	101.25
439.165	92.25
439.386	94.25
439.608	91.25
439.829	94.25
440.05	120.25
440.272	142.25
440.493	86.25
440.715	82.25
440.936	78.25
441.158	89.25
441.379	85.25
441.6	88.25
441.822	82.25
442.043	97.25
442.264	100.25
442.486	94.25
442.707	93.25
442.928	92.25
443.149	124.25
443.371	127.25
443.592	102.25
443.813	108.25
444.034	102.25
444.255	104.25
444.476	96.25
444.698	100.25
444.919	92.25
445.14	130.25
445.361	114.25
445.582	100.25
445.803	122.25
446.024	144.25
446.245	127.25
446.466	96.25
446.687	76.25
446.908	73.25
447.129	78.25
447.35	90.25
447.571	92.25
447.792	86.25
448.013	92.25
448.234	105.25
448.455	112.25
448.675	117.25
448.896	115.25
449.117	107.25
449.338	94.25
449.559	128.25
449.779	119.25
450	77.25
450.221	84.25
450.442	96.25
450.662	84.25
450.883	95.25
451.104	104.25
451.324	99.25
451.545	88.25
451.766	92.25
451.986	87.25
452.207	77.25
452.428	92.25
452.648	101.25
452.869	100.25
453.089	106.25
453.31	130.25
453.53	95.25
453.751	96.25
453.971	87.25
454.192	90.25
454.412	95.25
454.633	82.25
454.853	78.25
455.073	91.25
455.294	81.25
455.514	95.25
455.734	88.25
455.955	72.25
456.175	88.25
456.395	79.25
456.616	81.25
456.836	92.25
457.056	90.25
457.276	85.25
457.497	89.25
457.717	98.25
457.937	90.25
458.157	95.25
458.377	92.25
458.598	98.25
458.818	136.25
459.038	137.25
459.258	104.25
459.478	77.25
459.698	78.25
459.918	84.25
460.138	90.25
460.358	77.25
460.578	101.25
460.798	112.25
461.018	97.25
461.238	85.25
461.458	79.25
461.678	93.25
461.898	84.25
462.118	98.25
462.338	85.25
462.558	98.25
462.777	83.25
462.997	92.25
463.217	82.25
463.437	71.25
463.657	82.25
463.876	87.25
464.096	86.25
464.316	104.25
464.536	100.25
464.755	89.25
464.975	102.25
465.195	137.25
465.414	129.25
465.634	99.25
465.854	88.25
466.073	89.25
466.293	94.25
466.512	86.25
466.732	105.25
466.951	91.25
467.171	89.25
467.391	104.25
467.61	102.25
467.829	86.25
468.049	80.25
468.268	89.25
468.488	87.25
468.707	98.25
468.927	88.25
469.146	104.25
469.365	80.25
469.585	98.25
469.804	99.25
470.023	93.25
470.243	92.25
470.462	92.25
470.681	104.25
470.901	86.25
471.12	92.25
471.339	80.25
471.558	89.25
471.777	84.25
471.997	87.25
472.216	90.25
472.435	106.25
472.654	95.25
472.873	97.25
473.092	95.25
473.311	87.25
473.53	88.25
473.749	91.25
473.968	98.25
474.187	89.25
474.406	91.25
474.625	97.25
474.844	91.25
475.063	81.25
475.282	81.25
475.501	78.25
475.72	104.25
475.939	85.25
476.158	97.25
476.377	101.25
476.596	93.25
476.814	83.25
477.033	98.25
477.252	99.25
477.471	90.25
477.69	96.25
477.908	95.25
478.127	92.25
478.346	87.25
478.564	90.25
478.783	94.25
479.002	80.25
479.22	102.25
479.439	83.25
479.658	104.25
479.876	111.25
480.095	88.25
480.313	93.25
480.532	80.25
480.751	84.25
480.969	102.25
481.188	99.25
481.406	97.25
481.624	79.25
481.843	91.25
482.061	89.25
482.28	101.25
482.498	94.25
482.717	90.25
482.935	80.25
483.153	84.25
483.372	106.25
483.59	90.25
483.808	83.25
484.027	100.25
484.245	104.25
484.463	85.25
484.681	100.25
484.9	89.25
485.118	85.25
485.336	87.25
485.554	97.25
485.772	81.25
485.99	101.25
486.209	102.25
486.427	94.25
486.645	111.25
486.863	108.25
487.081	105.25
487.299	88.25
487.517	85.25
487.735	82.25
487.953	93.25
488.171	96.25
488.389	93.25
488.607	87.25
488.825	103.25
489.043	82.25
489.261	91.25
489.479	98.25
489.696	96.25
489.914	88.25
490.132	99.25
490.35	69.25
490.568	78.25
490.786	81.25
491.003	97.25
491.221	89.25
491.439	85.25
491.657	79.25
491.874	99.25
492.092	85.25
492.31	101.25
492.527	89.25
492.745	76.25
492.963	91.25
493.18	90.25
493.398	105.25
493.615	117.25
493.833	90.25
494.05	88.25
494.268	102.25
494.485	87.25
494.703	105.25
494.92	84.25
495.138	95.25
495.355	80.25
495.573	83.25
495.79	96.25
496.008	86.25
496.225	83.25
496.442	90.25
496.66	89.25
496.877	96.25
497.094	92.25
497.312	101.25
497.529	94.25
497.746	89.25
497.963	88.25
498.181	81.25
498.398	85.25
498.615	117.25
498.832	93.25
499.049	92.25
499.267	86.25
499.484	90.25
499.701	106.25
499.918	84.25
500.135	96.25
500.352	88.25
500.569	86.25
500.786	101.25
501.003	88.25
501.22	94.25
501.437	96.25
501.654	90.25
501.871	96.25
502.088	94.25
502.305	86.25
502.522	92.25
502.739	86.25
502.956	92.25
503.172	100.25
503.389	102.25
503.606	98.25
503.823	95.25
504.04	101.25
504.256	83.25
504.473	89.25
504.69	94.25
504.907	93.25
505.123	83.25
505.34	90.25
505.557	94.25
505.773	82.25
505.99	96.25
506.207	77.25
506.423	92.25
506.64	94.25
506.856	101.25
507.073	100.25
507.289	93.25
507.506	87.25
507.722	105.25
507.939	102.25
508.155	99.25
508.372	99.25
508.588	104.25
508.805	103.25
509.021	88.25
509.238	84.25
509.454	85.25
509.67	104.25
509.887	109.25
510.103	124.25
510.319	195.25
510.536	624.25
510.752	1938.25
510.968	542.25
511.184	150.25
511.401	112.25
511.617	81.25
511.833	89.25
512.049	89.25
512.265	94.25
512.481	92.25
512.698	87.25
512.914	93.25
513.13	85.25
513.346	89.25
513.562	107.25
513.778	109.25
513.994	90.25
514.21	99.25
514.426	105.25
514.642	121.25
514.858	128.25
515.074	156.25
515.29	402.25
515.506	1232.25
515.721	464.25
515.937	156.25
516.153	101.25
