Data from Uncirc_1988_H10_HRD10591_00040.txt Node
Date: Wed Jan 03 12:04:12 EST 2024
User: Yrep
Spectrometer: HR+D1059
Trigger mode: 1
Integration Time (sec): 1.000000E-1
Scans to average: 1
Electric dark correction enabled: true
Nonlinearity correction enabled: false
Boxcar width: 0
XAxis mode: Wavelengths
Number of Pixels in Spectrum: 2048
>>>>>Begin Spectral Data<<<<<
223.165	-12.62
223.4	-12.62
223.635	-12.62
223.869	-18.62
224.104	-14.62
224.338	-22.62
224.573	2.38
224.808	-16.62
225.042	-3.62
225.277	-6.62
225.511	-6.62
225.746	-0.62
225.98	5.38
226.215	5.38
226.449	12.38
226.683	8.38
226.918	27.38
227.152	41.38
227.387	29.38
227.621	41.38
227.856	44.38
228.09	38.38
228.324	53.38
228.559	50.38
228.793	56.38
229.027	52.38
229.262	73.38
229.496	75.38
229.73	72.38
229.964	79.38
230.199	65.38
230.433	70.38
230.667	71.38
230.901	79.38
231.136	67.38
231.37	69.38
231.604	78.38
231.838	72.38
232.072	79.38
232.306	86.38
232.541	72.38
232.775	70.38
233.009	75.38
233.243	57.38
233.477	85.38
233.711	71.38
233.945	77.38
234.179	73.38
234.413	76.38
234.647	76.38
234.881	94.38
235.115	87.38
235.349	63.38
235.583	83.38
235.817	88.38
236.051	75.38
236.285	79.38
236.519	87.38
236.753	89.38
236.987	75.38
237.221	87.38
237.455	88.38
237.689	84.38
237.922	65.38
238.156	88.38
238.39	67.38
238.624	84.38
238.858	92.38
239.091	73.38
239.325	77.38
239.559	90.38
239.793	71.38
240.027	87.38
240.26	85.38
240.494	80.38
240.728	79.38
240.961	80.38
241.195	71.38
241.429	77.38
241.662	62.38
241.896	80.38
242.13	68.38
242.363	65.38
242.597	87.38
242.83	71.38
243.064	62.38
243.298	79.38
243.531	79.38
243.765	95.38
243.998	70.38
244.232	68.38
244.465	78.38
244.699	70.38
244.932	67.38
245.166	84.38
245.399	72.38
245.633	84.38
245.866	79.38
246.099	76.38
246.333	70.38
246.566	69.38
246.8	82.38
247.033	85.38
247.266	73.38
247.5	79.38
247.733	74.38
247.966	85.38
248.2	78.38
248.433	75.38
248.666	56.38
248.899	89.38
249.133	86.38
249.366	103.38
249.599	87.38
249.832	92.38
250.066	83.38
250.299	79.38
250.532	85.38
250.765	85.38
250.998	84.38
251.231	69.38
251.465	60.38
251.698	83.38
251.931	95.38
252.164	78.38
252.397	65.38
252.63	83.38
252.863	79.38
253.096	76.38
253.329	78.38
253.562	76.38
253.795	70.38
254.028	80.38
254.261	83.38
254.494	67.38
254.727	95.38
254.96	95.38
255.193	73.38
255.426	72.38
255.659	87.38
255.892	89.38
256.124	87.38
256.357	83.38
256.59	87.38
256.823	77.38
257.056	89.38
257.289	76.38
257.521	70.38
257.754	65.38
257.987	83.38
258.22	79.38
258.452	83.38
258.685	87.38
258.918	92.38
259.151	76.38
259.383	68.38
259.616	71.38
259.849	61.38
260.081	78.38
260.314	69.38
260.547	86.38
260.779	83.38
261.012	86.38
261.244	75.38
261.477	89.38
261.71	96.38
261.942	100.38
262.175	110.38
262.407	85.38
262.64	88.38
262.872	84.38
263.105	70.38
263.337	87.38
263.57	77.38
263.802	86.38
264.035	69.38
264.267	81.38
264.499	71.38
264.732	77.38
264.964	68.38
265.197	80.38
265.429	90.38
265.661	85.38
265.894	81.38
266.126	80.38
266.358	87.38
266.591	70.38
266.823	79.38
267.055	77.38
267.287	87.38
267.52	84.38
267.752	73.38
267.984	81.38
268.216	90.38
268.448	83.38
268.681	82.38
268.913	80.38
269.145	93.38
269.377	81.38
269.609	78.38
269.841	86.38
270.073	69.38
270.306	79.38
270.538	72.38
270.77	81.38
271.002	77.38
271.234	78.38
271.466	95.38
271.698	89.38
271.93	88.38
272.162	57.38
272.394	84.38
272.626	85.38
272.858	71.38
273.09	84.38
273.322	88.38
273.553	84.38
273.785	78.38
274.017	83.38
274.249	83.38
274.481	76.38
274.713	97.38
274.945	79.38
275.176	95.38
275.408	100.38
275.64	101.38
275.872	93.38
276.104	78.38
276.335	87.38
276.567	105.38
276.799	92.38
277.031	110.38
277.262	81.38
277.494	94.38
277.726	77.38
277.957	87.38
278.189	82.38
278.421	76.38
278.652	75.38
278.884	89.38
279.115	85.38
279.347	92.38
279.579	81.38
279.81	86.38
280.042	89.38
280.273	85.38
280.505	76.38
280.736	107.38
280.968	67.38
281.199	83.38
281.431	83.38
281.662	94.38
281.894	83.38
282.125	96.38
282.356	111.38
282.588	131.38
282.819	115.38
283.051	95.38
283.282	79.38
283.513	109.38
283.745	84.38
283.976	85.38
284.207	82.38
284.439	94.38
284.67	81.38
284.901	69.38
285.132	85.38
285.364	78.38
285.595	86.38
285.826	105.38
286.057	85.38
286.288	85.38
286.52	89.38
286.751	76.38
286.982	83.38
287.213	81.38
287.444	90.38
287.675	83.38
287.906	86.38
288.138	92.38
288.369	97.38
288.6	97.38
288.831	72.38
289.062	80.38
289.293	98.38
289.524	83.38
289.755	85.38
289.986	94.38
290.217	92.38
290.448	81.38
290.679	79.38
290.91	77.38
291.141	96.38
291.371	80.38
291.602	80.38
291.833	101.38
292.064	98.38
292.295	87.38
292.526	88.38
292.757	79.38
292.987	85.38
293.218	103.38
293.449	99.38
293.68	91.38
293.91	102.38
294.141	104.38
294.372	78.38
294.603	79.38
294.833	89.38
295.064	70.38
295.295	100.38
295.525	98.38
295.756	110.38
295.987	108.38
296.217	141.38
296.448	126.38
296.679	80.38
296.909	94.38
297.14	91.38
297.37	97.38
297.601	91.38
297.831	79.38
298.062	97.38
298.292	88.38
298.523	97.38
298.753	81.38
298.984	89.38
299.214	76.38
299.445	97.38
299.675	95.38
299.905	101.38
300.136	91.38
300.366	73.38
300.597	84.38
300.827	87.38
301.057	79.38
301.288	91.38
301.518	77.38
301.748	81.38
301.979	101.38
302.209	92.38
302.439	87.38
302.669	88.38
302.9	88.38
303.13	88.38
303.36	88.38
303.59	104.38
303.82	107.38
304.051	101.38
304.281	86.38
304.511	73.38
304.741	95.38
304.971	91.38
305.201	94.38
305.431	99.38
305.661	95.38
305.891	85.38
306.121	105.38
306.352	101.38
306.582	93.38
306.812	98.38
307.042	104.38
307.272	86.38
307.502	101.38
307.731	102.38
307.961	102.38
308.191	100.38
308.421	85.38
308.651	95.38
308.881	101.38
309.111	92.38
309.341	103.38
309.571	102.38
309.8	95.38
310.03	87.38
310.26	89.38
310.49	99.38
310.72	94.38
310.949	99.38
311.179	94.38
311.409	83.38
311.639	92.38
311.868	82.38
312.098	102.38
312.328	95.38
312.557	104.38
312.787	101.38
313.017	110.38
313.246	84.38
313.476	99.38
313.706	86.38
313.935	87.38
314.165	112.38
314.394	101.38
314.624	91.38
314.853	83.38
315.083	95.38
315.312	90.38
315.542	93.38
315.771	94.38
316.001	84.38
316.23	89.38
316.46	84.38
316.689	105.38
316.919	93.38
317.148	97.38
317.377	101.38
317.607	97.38
317.836	104.38
318.065	100.38
318.295	92.38
318.524	85.38
318.753	91.38
318.983	91.38
319.212	91.38
319.441	108.38
319.67	90.38
319.9	93.38
320.129	101.38
320.358	89.38
320.587	77.38
320.816	103.38
321.046	93.38
321.275	106.38
321.504	86.38
321.733	93.38
321.962	83.38
322.191	101.38
322.42	98.38
322.649	120.38
322.878	99.38
323.108	97.38
323.337	121.38
323.566	140.38
323.795	146.38
324.024	210.38
324.253	403.38
324.482	816.38
324.71	1747.38
324.939	2259.38
325.168	834.38
325.397	244.38
325.626	151.38
325.855	131.38
326.084	136.38
326.313	125.38
326.542	156.38
326.77	225.38
326.999	463.38
327.228	979.38
327.457	1804.38
327.686	1395.38
327.914	370.38
328.143	200.38
328.372	149.38
328.6	127.38
328.829	128.38
329.058	138.38
329.287	111.38
329.515	97.38
329.744	113.38
329.972	98.38
330.201	99.38
330.43	107.38
330.658	128.38
330.887	128.38
331.115	110.38
331.344	103.38
331.572	90.38
331.801	97.38
332.03	107.38
332.258	87.38
332.486	85.38
332.715	91.38
332.943	98.38
333.172	97.38
333.4	93.38
333.629	109.38
333.857	117.38
334.085	96.38
334.314	108.38
334.542	114.38
334.771	105.38
334.999	97.38
335.227	85.38
335.455	105.38
335.684	91.38
335.912	103.38
336.14	103.38
336.369	95.38
336.597	95.38
336.825	99.38
337.053	89.38
337.281	77.38
337.51	83.38
337.738	97.38
337.966	96.38
338.194	95.38
338.422	102.38
338.65	93.38
338.878	94.38
339.106	101.38
339.334	101.38
339.562	94.38
339.79	93.38
340.018	87.38
340.246	93.38
340.474	95.38
340.702	85.38
340.93	94.38
341.158	85.38
341.386	95.38
341.614	101.38
341.842	84.38
342.07	91.38
342.298	91.38
342.526	78.38
342.754	88.38
342.981	80.38
343.209	86.38
343.437	92.38
343.665	97.38
343.893	103.38
344.12	97.38
344.348	92.38
344.576	85.38
344.804	97.38
345.031	108.38
345.259	103.38
345.487	103.38
345.714	111.38
345.942	105.38
346.17	94.38
346.397	83.38
346.625	100.38
346.853	93.38
347.08	104.38
347.308	91.38
347.535	100.38
347.763	105.38
347.99	93.38
348.218	80.38
348.445	85.38
348.673	90.38
348.9	72.38
349.128	88.38
349.355	95.38
349.583	103.38
349.81	109.38
350.037	105.38
350.265	89.38
350.492	84.38
350.72	86.38
350.947	99.38
351.174	103.38
351.402	101.38
351.629	115.38
351.856	111.38
352.083	107.38
352.311	111.38
352.538	108.38
352.765	110.38
352.992	108.38
353.22	111.38
353.447	102.38
353.674	113.38
353.901	89.38
354.128	94.38
354.355	89.38
354.583	104.38
354.81	95.38
355.037	96.38
355.264	110.38
355.491	100.38
355.718	91.38
355.945	92.38
356.172	89.38
356.399	92.38
356.626	94.38
356.853	98.38
357.08	76.38
357.307	94.38
357.534	100.38
357.761	89.38
357.988	102.38
358.215	101.38
358.441	89.38
358.668	91.38
358.895	83.38
359.122	95.38
359.349	104.38
359.576	99.38
359.802	99.38
360.029	106.38
360.256	116.38
360.483	97.38
360.709	75.38
360.936	84.38
361.163	93.38
361.39	91.38
361.616	89.38
361.843	97.38
362.07	93.38
362.296	100.38
362.523	101.38
362.749	76.38
362.976	106.38
363.203	87.38
363.429	87.38
363.656	93.38
363.882	93.38
364.109	84.38
364.335	77.38
364.562	70.38
364.788	93.38
365.015	99.38
365.241	95.38
365.468	95.38
365.694	105.38
365.92	85.38
366.147	72.38
366.373	80.38
366.599	90.38
366.826	77.38
367.052	99.38
367.278	96.38
367.505	87.38
367.731	91.38
367.957	102.38
368.184	93.38
368.41	101.38
368.636	117.38
368.862	118.38
369.089	105.38
369.315	85.38
369.541	72.38
369.767	91.38
369.993	86.38
370.219	83.38
370.445	87.38
370.672	84.38
370.898	75.38
371.124	85.38
371.35	92.38
371.576	99.38
371.802	86.38
372.028	95.38
372.254	78.38
372.48	76.38
372.706	75.38
372.932	89.38
373.158	85.38
373.384	86.38
373.61	87.38
373.835	97.38
374.061	99.38
374.287	82.38
374.513	86.38
374.739	98.38
374.965	98.38
375.191	93.38
375.416	79.38
375.642	88.38
375.868	93.38
376.094	86.38
376.319	88.38
376.545	87.38
376.771	89.38
376.997	83.38
377.222	93.38
377.448	83.38
377.674	95.38
377.899	86.38
378.125	93.38
378.35	92.38
378.576	82.38
378.802	96.38
379.027	95.38
379.253	99.38
379.478	84.38
379.704	93.38
379.929	79.38
380.155	94.38
380.38	93.38
380.606	91.38
380.831	95.38
381.057	98.38
381.282	88.38
381.507	93.38
381.733	90.38
381.958	86.38
382.184	104.38
382.409	95.38
382.634	101.38
382.86	89.38
383.085	113.38
383.31	104.38
383.535	102.38
383.761	98.38
383.986	110.38
384.211	103.38
384.436	98.38
384.662	103.38
384.887	100.38
385.112	104.38
385.337	96.38
385.562	99.38
385.787	104.38
386.013	101.38
386.238	106.38
386.463	106.38
386.688	97.38
386.913	112.38
387.138	105.38
387.363	108.38
387.588	96.38
387.813	98.38
388.038	97.38
388.263	109.38
388.488	110.38
388.713	87.38
388.938	103.38
389.163	95.38
389.387	98.38
389.612	93.38
389.837	86.38
390.062	105.38
390.287	94.38
390.512	98.38
390.736	92.38
390.961	91.38
391.186	105.38
391.411	95.38
391.636	93.38
391.86	87.38
392.085	87.38
392.31	99.38
392.534	95.38
392.759	83.38
392.984	98.38
393.208	90.38
393.433	105.38
393.658	84.38
393.882	84.38
394.107	82.38
394.331	79.38
394.556	80.38
394.78	84.38
395.005	87.38
395.229	75.38
395.454	89.38
395.678	87.38
395.903	98.38
396.127	87.38
396.352	95.38
396.576	97.38
396.801	78.38
397.025	88.38
397.249	85.38
397.474	95.38
397.698	86.38
397.922	83.38
398.147	81.38
398.371	81.38
398.595	93.38
398.82	74.38
399.044	81.38
399.268	94.38
399.492	77.38
399.717	87.38
399.941	96.38
400.165	93.38
400.389	96.38
400.613	88.38
400.837	93.38
401.062	102.38
401.286	84.38
401.51	86.38
401.734	90.38
401.958	100.38
402.182	120.38
402.406	130.38
402.63	97.38
402.854	102.38
403.078	86.38
403.302	74.38
403.526	90.38
403.75	98.38
403.974	81.38
404.198	98.38
404.422	87.38
404.645	87.38
404.869	80.38
405.093	86.38
405.317	91.38
405.541	95.38
405.765	111.38
405.988	106.38
406.212	153.38
406.436	205.38
406.66	139.38
406.883	106.38
407.107	93.38
407.331	82.38
407.555	96.38
407.778	98.38
408.002	98.38
408.226	83.38
408.449	96.38
408.673	68.38
408.896	92.38
409.12	97.38
409.344	93.38
409.567	103.38
409.791	83.38
410.014	95.38
410.238	83.38
410.461	86.38
410.685	103.38
410.908	93.38
411.132	95.38
411.355	99.38
411.578	87.38
411.802	79.38
412.025	93.38
412.249	99.38
412.472	88.38
412.695	85.38
412.919	97.38
413.142	86.38
413.365	85.38
413.589	99.38
413.812	100.38
414.035	106.38
414.258	91.38
414.482	103.38
414.705	90.38
414.928	91.38
415.151	97.38
415.374	99.38
415.597	79.38
415.821	83.38
416.044	76.38
416.267	89.38
416.49	77.38
416.713	98.38
416.936	92.38
417.159	86.38
417.382	75.38
417.605	87.38
417.828	99.38
418.051	71.38
418.274	82.38
418.497	90.38
418.72	97.38
418.943	82.38
419.166	93.38
419.389	99.38
419.611	104.38
419.834	85.38
420.057	83.38
420.28	87.38
420.503	69.38
420.726	87.38
420.948	86.38
421.171	95.38
421.394	88.38
421.617	94.38
421.839	85.38
422.062	81.38
422.285	91.38
422.507	102.38
422.73	97.38
422.953	97.38
423.175	107.38
423.398	84.38
423.621	72.38
423.843	91.38
424.066	72.38
424.288	79.38
424.511	91.38
424.733	97.38
424.956	97.38
425.178	97.38
425.401	97.38
425.623	85.38
425.846	101.38
426.068	95.38
426.291	95.38
426.513	94.38
426.735	99.38
426.958	86.38
427.18	97.38
427.402	131.38
427.625	153.38
427.847	125.38
428.069	107.38
428.292	79.38
428.514	87.38
428.736	86.38
428.958	98.38
429.181	88.38
429.403	72.38
429.625	88.38
429.847	100.38
430.069	83.38
430.292	104.38
430.514	84.38
430.736	83.38
430.958	87.38
431.18	100.38
431.402	86.38
431.624	84.38
431.846	81.38
432.068	83.38
432.29	70.38
432.512	79.38
432.734	86.38
432.956	87.38
433.178	99.38
433.4	94.38
433.622	77.38
433.844	88.38
434.066	96.38
434.287	96.38
434.509	96.38
434.731	101.38
434.953	84.38
435.175	94.38
435.397	91.38
435.618	108.38
435.84	102.38
436.062	111.38
436.284	122.38
436.505	95.38
436.727	94.38
436.949	103.38
437.17	90.38
437.392	87.38
437.614	79.38
437.835	103.38
438.057	104.38
438.278	115.38
438.5	104.38
438.721	108.38
438.943	85.38
439.165	91.38
439.386	100.38
439.608	83.38
439.829	100.38
440.05	111.38
440.272	132.38
440.493	108.38
440.715	95.38
440.936	83.38
441.158	83.38
441.379	97.38
441.6	87.38
441.822	85.38
442.043	96.38
442.264	112.38
442.486	93.38
442.707	104.38
442.928	97.38
443.149	126.38
443.371	118.38
443.592	103.38
443.813	108.38
444.034	109.38
444.255	87.38
444.476	78.38
444.698	94.38
444.919	95.38
445.14	141.38
445.361	113.38
445.582	123.38
445.803	120.38
446.024	124.38
446.245	132.38
446.466	107.38
446.687	97.38
446.908	78.38
447.129	96.38
447.35	87.38
447.571	93.38
447.792	91.38
448.013	88.38
448.234	94.38
448.455	85.38
448.675	118.38
448.896	118.38
449.117	101.38
449.338	98.38
449.559	123.38
449.779	136.38
450	104.38
450.221	82.38
450.442	85.38
450.662	91.38
450.883	92.38
451.104	117.38
451.324	99.38
451.545	81.38
451.766	82.38
451.986	78.38
452.207	86.38
452.428	96.38
452.648	95.38
452.869	105.38
453.089	116.38
453.31	104.38
453.53	92.38
453.751	111.38
453.971	87.38
454.192	107.38
454.412	91.38
454.633	93.38
454.853	75.38
455.073	93.38
455.294	93.38
455.514	93.38
455.734	87.38
455.955	78.38
456.175	85.38
456.395	97.38
456.616	103.38
456.836	92.38
457.056	76.38
457.276	73.38
457.497	75.38
457.717	81.38
457.937	84.38
458.157	79.38
458.377	85.38
458.598	111.38
458.818	144.38
459.038	139.38
459.258	97.38
459.478	87.38
459.698	71.38
459.918	95.38
460.138	73.38
460.358	93.38
460.578	93.38
460.798	84.38
461.018	89.38
461.238	83.38
461.458	88.38
461.678	87.38
461.898	82.38
462.118	91.38
462.338	90.38
462.558	84.38
462.777	92.38
462.997	86.38
463.217	80.38
463.437	77.38
463.657	81.38
463.876	85.38
464.096	99.38
464.316	84.38
464.536	86.38
464.755	97.38
464.975	92.38
465.195	155.38
465.414	145.38
465.634	93.38
465.854	87.38
466.073	104.38
466.293	71.38
466.512	96.38
466.732	92.38
466.951	91.38
467.171	85.38
467.391	77.38
467.61	84.38
467.829	81.38
468.049	104.38
468.268	101.38
468.488	83.38
468.707	85.38
468.927	85.38
469.146	88.38
469.365	86.38
469.585	76.38
469.804	102.38
470.023	97.38
470.243	86.38
470.462	95.38
470.681	103.38
470.901	95.38
471.12	81.38
471.339	94.38
471.558	88.38
471.777	93.38
471.997	89.38
472.216	89.38
472.435	107.38
472.654	83.38
472.873	92.38
473.092	86.38
473.311	86.38
473.53	89.38
473.749	86.38
473.968	85.38
474.187	97.38
474.406	87.38
474.625	100.38
474.844	97.38
475.063	97.38
475.282	87.38
475.501	82.38
475.72	87.38
475.939	93.38
476.158	82.38
476.377	83.38
476.596	80.38
476.814	79.38
477.033	81.38
477.252	96.38
477.471	81.38
477.69	93.38
477.908	85.38
478.127	88.38
478.346	82.38
478.564	89.38
478.783	96.38
479.002	82.38
479.22	92.38
479.439	107.38
479.658	106.38
479.876	112.38
480.095	91.38
480.313	88.38
480.532	86.38
480.751	95.38
480.969	88.38
481.188	132.38
481.406	95.38
481.624	100.38
481.843	99.38
482.061	80.38
482.28	79.38
482.498	95.38
482.717	91.38
482.935	88.38
483.153	79.38
483.372	84.38
483.59	87.38
483.808	93.38
484.027	103.38
484.245	86.38
484.463	80.38
484.681	105.38
484.9	91.38
485.118	100.38
485.336	102.38
485.554	83.38
485.772	87.38
485.99	102.38
486.209	107.38
486.427	111.38
486.645	122.38
486.863	107.38
487.081	88.38
487.299	91.38
487.517	93.38
487.735	94.38
487.953	79.38
488.171	93.38
488.389	100.38
488.607	99.38
488.825	89.38
489.043	90.38
489.261	88.38
489.479	97.38
489.696	77.38
489.914	85.38
490.132	89.38
490.35	89.38
490.568	98.38
490.786	91.38
491.003	86.38
491.221	81.38
491.439	102.38
491.657	100.38
491.874	83.38
492.092	93.38
492.31	81.38
492.527	95.38
492.745	81.38
492.963	87.38
493.18	87.38
493.398	95.38
493.615	93.38
493.833	100.38
494.05	101.38
494.268	98.38
494.485	95.38
494.703	84.38
494.92	85.38
495.138	88.38
495.355	97.38
495.573	98.38
495.79	93.38
496.008	99.38
496.225	101.38
496.442	92.38
496.66	88.38
496.877	83.38
497.094	84.38
497.312	89.38
497.529	73.38
497.746	96.38
497.963	85.38
498.181	95.38
498.398	89.38
498.615	112.38
498.832	99.38
499.049	92.38
499.267	84.38
499.484	104.38
499.701	86.38
499.918	92.38
500.135	86.38
500.352	79.38
500.569	88.38
500.786	85.38
501.003	101.38
501.22	85.38
501.437	84.38
501.654	96.38
501.871	114.38
502.088	97.38
502.305	97.38
502.522	89.38
502.739	81.38
502.956	87.38
503.172	100.38
503.389	93.38
503.606	106.38
503.823	93.38
504.04	83.38
504.256	85.38
504.473	87.38
504.69	85.38
504.907	86.38
505.123	88.38
505.34	95.38
505.557	93.38
505.773	109.38
505.99	93.38
506.207	84.38
506.423	75.38
506.64	82.38
506.856	86.38
507.073	78.38
507.289	81.38
507.506	82.38
507.722	109.38
507.939	103.38
508.155	95.38
508.372	107.38
508.588	93.38
508.805	102.38
509.021	95.38
509.238	101.38
509.454	108.38
509.67	98.38
509.887	105.38
510.103	126.38
510.319	204.38
510.536	713.38
510.752	2149.38
510.968	583.38
511.184	141.38
511.401	115.38
511.617	94.38
511.833	85.38
512.049	92.38
512.265	93.38
512.481	104.38
512.698	85.38
512.914	78.38
513.13	93.38
513.346	88.38
513.562	103.38
513.778	110.38
513.994	104.38
514.21	98.38
514.426	109.38
514.642	132.38
514.858	122.38
515.074	143.38
515.29	392.38
515.506	1303.38
515.721	484.38
