Data from Uncirc_1988_H10_HRD10591_00066.txt Node
Date: Wed Jan 03 12:04:17 EST 2024
User: Yrep
Spectrometer: HR+D1059
Trigger mode: 1
Integration Time (sec): 1.000000E-1
Scans to average: 1
Electric dark correction enabled: true
Nonlinearity correction enabled: false
Boxcar width: 0
XAxis mode: Wavelengths
Number of Pixels in Spectrum: 2048
>>>>>Begin Spectral Data<<<<<
223.165	-25.06
223.4	-25.06
223.635	-25.06
223.869	-15.06
224.104	-23.06
224.338	-9.06
224.573	-22.06
224.808	-8.06
225.042	-12.06
225.277	-19.06
225.511	-2.06
225.746	11.94
225.98	16.94
226.215	14.94
226.449	5.94
226.683	15.94
226.918	37.94
227.152	31.94
227.387	30.94
227.621	37.94
227.856	40.94
228.09	36.94
228.324	47.94
228.559	60.94
228.793	51.94
229.027	51.94
229.262	68.94
229.496	79.94
229.73	84.94
229.964	83.94
230.199	63.94
230.433	83.94
230.667	74.94
230.901	71.94
231.136	84.94
231.37	64.94
231.604	55.94
231.838	79.94
232.072	76.94
232.306	83.94
232.541	78.94
232.775	72.94
233.009	83.94
233.243	90.94
233.477	82.94
233.711	70.94
233.945	76.94
234.179	83.94
234.413	95.94
234.647	88.94
234.881	76.94
235.115	79.94
235.349	84.94
235.583	66.94
235.817	74.94
236.051	75.94
236.285	94.94
236.519	64.94
236.753	81.94
236.987	94.94
237.221	81.94
237.455	81.94
237.689	78.94
237.922	69.94
238.156	63.94
238.39	76.94
238.624	78.94
238.858	87.94
239.091	75.94
239.325	69.94
239.559	84.94
239.793	74.94
240.027	88.94
240.26	77.94
240.494	87.94
240.728	63.94
240.961	72.94
241.195	89.94
241.429	81.94
241.662	70.94
241.896	67.94
242.13	75.94
242.363	85.94
242.597	80.94
242.83	82.94
243.064	81.94
243.298	75.94
243.531	83.94
243.765	97.94
243.998	62.94
244.232	77.94
244.465	82.94
244.699	76.94
244.932	63.94
245.166	71.94
245.399	83.94
245.633	56.94
245.866	79.94
246.099	71.94
246.333	65.94
246.566	83.94
246.8	79.94
247.033	84.94
247.266	79.94
247.5	77.94
247.733	71.94
247.966	69.94
248.2	78.94
248.433	92.94
248.666	90.94
248.899	86.94
249.133	77.94
249.366	100.94
249.599	97.94
249.832	81.94
250.066	79.94
250.299	78.94
250.532	93.94
250.765	83.94
250.998	81.94
251.231	78.94
251.465	91.94
251.698	90.94
251.931	83.94
252.164	80.94
252.397	86.94
252.63	85.94
252.863	96.94
253.096	75.94
253.329	82.94
253.562	81.94
253.795	83.94
254.028	71.94
254.261	81.94
254.494	74.94
254.727	66.94
254.96	81.94
255.193	75.94
255.426	77.94
255.659	71.94
255.892	69.94
256.124	79.94
256.357	76.94
256.59	81.94
256.823	84.94
257.056	74.94
257.289	78.94
257.521	77.94
257.754	76.94
257.987	84.94
258.22	88.94
258.452	76.94
258.685	80.94
258.918	84.94
259.151	79.94
259.383	80.94
259.616	67.94
259.849	74.94
260.081	74.94
260.314	88.94
260.547	80.94
260.779	71.94
261.012	94.94
261.244	79.94
261.477	84.94
261.71	90.94
261.942	100.94
262.175	118.94
262.407	74.94
262.64	85.94
262.872	92.94
263.105	96.94
263.337	79.94
263.57	76.94
263.802	77.94
264.035	69.94
264.267	72.94
264.499	78.94
264.732	86.94
264.964	66.94
265.197	90.94
265.429	74.94
265.661	75.94
265.894	77.94
266.126	96.94
266.358	84.94
266.591	82.94
266.823	84.94
267.055	86.94
267.287	87.94
267.52	82.94
267.752	68.94
267.984	75.94
268.216	71.94
268.448	80.94
268.681	88.94
268.913	94.94
269.145	80.94
269.377	82.94
269.609	82.94
269.841	83.94
270.073	88.94
270.306	80.94
270.538	81.94
270.77	99.94
271.002	90.94
271.234	90.94
271.466	87.94
271.698	82.94
271.93	88.94
272.162	85.94
272.394	85.94
272.626	74.94
272.858	82.94
273.09	84.94
273.322	77.94
273.553	89.94
273.785	88.94
274.017	78.94
274.249	72.94
274.481	89.94
274.713	80.94
274.945	75.94
275.176	94.94
275.408	86.94
275.64	77.94
275.872	79.94
276.104	76.94
276.335	90.94
276.567	108.94
276.799	91.94
277.031	104.94
277.262	98.94
277.494	83.94
277.726	80.94
277.957	93.94
278.189	87.94
278.421	78.94
278.652	83.94
278.884	85.94
279.115	66.94
279.347	88.94
279.579	76.94
279.81	93.94
280.042	87.94
280.273	96.94
280.505	91.94
280.736	80.94
280.968	102.94
281.199	93.94
281.431	106.94
281.662	84.94
281.894	75.94
282.125	102.94
282.356	104.94
282.588	128.94
282.819	124.94
283.051	85.94
283.282	92.94
283.513	90.94
283.745	86.94
283.976	90.94
284.207	88.94
284.439	99.94
284.67	86.94
284.901	65.94
285.132	90.94
285.364	87.94
285.595	98.94
285.826	87.94
286.057	94.94
286.288	83.94
286.52	67.94
286.751	95.94
286.982	97.94
287.213	93.94
287.444	82.94
287.675	86.94
287.906	81.94
288.138	89.94
288.369	89.94
288.6	90.94
288.831	83.94
289.062	94.94
289.293	78.94
289.524	82.94
289.755	87.94
289.986	91.94
290.217	81.94
290.448	103.94
290.679	95.94
290.91	106.94
291.141	81.94
291.371	85.94
291.602	78.94
291.833	77.94
292.064	92.94
292.295	80.94
292.526	106.94
292.757	78.94
292.987	81.94
293.218	93.94
293.449	85.94
293.68	65.94
293.91	72.94
294.141	98.94
294.372	87.94
294.603	92.94
294.833	86.94
295.064	87.94
295.295	84.94
295.525	100.94
295.756	95.94
295.987	123.94
296.217	139.94
296.448	117.94
296.679	100.94
296.909	99.94
297.14	78.94
297.37	80.94
297.601	64.94
297.831	96.94
298.062	86.94
298.292	79.94
298.523	80.94
298.753	76.94
298.984	90.94
299.214	77.94
299.445	78.94
299.675	98.94
299.905	103.94
300.136	87.94
300.366	69.94
300.597	84.94
300.827	82.94
301.057	93.94
301.288	89.94
301.518	86.94
301.748	91.94
301.979	97.94
302.209	99.94
302.439	98.94
302.669	84.94
302.9	92.94
303.13	86.94
303.36	94.94
303.59	99.94
303.82	101.94
304.051	89.94
304.281	87.94
304.511	90.94
304.741	88.94
304.971	87.94
305.201	94.94
305.431	82.94
305.661	71.94
305.891	103.94
306.121	88.94
306.352	99.94
306.582	107.94
306.812	92.94
307.042	95.94
307.272	81.94
307.502	94.94
307.731	94.94
307.961	107.94
308.191	88.94
308.421	101.94
308.651	88.94
308.881	74.94
309.111	83.94
309.341	90.94
309.571	91.94
309.8	83.94
310.03	101.94
310.26	98.94
310.49	88.94
310.72	80.94
310.949	109.94
311.179	97.94
311.409	99.94
311.639	101.94
311.868	108.94
312.098	89.94
312.328	78.94
312.557	91.94
312.787	91.94
313.017	96.94
313.246	98.94
313.476	82.94
313.706	83.94
313.935	75.94
314.165	114.94
314.394	102.94
314.624	98.94
314.853	92.94
315.083	81.94
315.312	99.94
315.542	87.94
315.771	81.94
316.001	89.94
316.23	94.94
316.46	84.94
316.689	74.94
316.919	75.94
317.148	93.94
317.377	97.94
317.607	94.94
317.836	97.94
318.065	99.94
318.295	98.94
318.524	96.94
318.753	95.94
318.983	90.94
319.212	101.94
319.441	122.94
319.67	109.94
319.9	90.94
320.129	94.94
320.358	93.94
320.587	105.94
320.816	93.94
321.046	97.94
321.275	84.94
321.504	86.94
321.733	89.94
321.962	103.94
322.191	99.94
322.42	95.94
322.649	97.94
322.878	101.94
323.108	109.94
323.337	131.94
323.566	125.94
323.795	140.94
324.024	199.94
324.253	415.94
324.482	933.94
324.71	1857.94
324.939	2484.94
325.168	866.94
325.397	261.94
325.626	151.94
325.855	131.94
326.084	132.94
326.313	134.94
326.542	154.94
326.77	248.94
326.999	483.94
327.228	1045.94
327.457	1890.94
327.686	1522.94
327.914	402.94
328.143	211.94
328.372	150.94
328.6	116.94
328.829	108.94
329.058	127.94
329.287	132.94
329.515	114.94
329.744	102.94
329.972	104.94
330.201	116.94
330.43	116.94
330.658	121.94
330.887	159.94
331.115	129.94
331.344	93.94
331.572	95.94
331.801	102.94
332.03	87.94
332.258	117.94
332.486	81.94
332.715	89.94
332.943	98.94
333.172	89.94
333.4	98.94
333.629	109.94
333.857	121.94
334.085	120.94
334.314	100.94
334.542	109.94
334.771	124.94
334.999	106.94
335.227	82.94
335.455	103.94
335.684	95.94
335.912	93.94
336.14	94.94
336.369	109.94
336.597	106.94
336.825	101.94
337.053	87.94
337.281	86.94
337.51	93.94
337.738	90.94
337.966	83.94
338.194	104.94
338.422	93.94
338.65	82.94
338.878	98.94
339.106	81.94
339.334	93.94
339.562	86.94
339.79	88.94
340.018	97.94
340.246	89.94
340.474	96.94
340.702	83.94
340.93	79.94
341.158	98.94
341.386	100.94
341.614	102.94
341.842	86.94
342.07	92.94
342.298	107.94
342.526	82.94
342.754	78.94
342.981	88.94
343.209	83.94
343.437	98.94
343.665	95.94
343.893	88.94
344.12	88.94
344.348	91.94
344.576	88.94
344.804	79.94
345.031	96.94
345.259	83.94
345.487	95.94
345.714	97.94
345.942	79.94
346.17	84.94
346.397	90.94
346.625	82.94
346.853	87.94
347.08	80.94
347.308	93.94
347.535	108.94
347.763	96.94
347.99	99.94
348.218	98.94
348.445	110.94
348.673	71.94
348.9	98.94
349.128	90.94
349.355	69.94
349.583	89.94
349.81	111.94
350.037	90.94
350.265	100.94
350.492	85.94
350.72	95.94
350.947	106.94
351.174	116.94
351.402	110.94
351.629	90.94
351.856	103.94
352.083	103.94
352.311	101.94
352.538	104.94
352.765	100.94
352.992	92.94
353.22	112.94
353.447	108.94
353.674	96.94
353.901	108.94
354.128	90.94
354.355	97.94
354.583	85.94
354.81	97.94
355.037	101.94
355.264	103.94
355.491	86.94
355.718	90.94
355.945	89.94
356.172	85.94
356.399	94.94
356.626	87.94
356.853	95.94
357.08	103.94
357.307	87.94
357.534	94.94
357.761	91.94
357.988	99.94
358.215	91.94
358.441	90.94
358.668	87.94
358.895	68.94
359.122	98.94
359.349	95.94
359.576	96.94
359.802	95.94
360.029	107.94
360.256	119.94
360.483	87.94
360.709	86.94
360.936	81.94
361.163	98.94
361.39	99.94
361.616	95.94
361.843	93.94
362.07	91.94
362.296	91.94
362.523	104.94
362.749	96.94
362.976	90.94
363.203	98.94
363.429	91.94
363.656	83.94
363.882	83.94
364.109	85.94
364.335	85.94
364.562	85.94
364.788	100.94
365.015	100.94
365.241	87.94
365.468	106.94
365.694	107.94
365.92	97.94
366.147	105.94
366.373	85.94
366.599	84.94
366.826	75.94
367.052	96.94
367.278	99.94
367.505	90.94
367.731	101.94
367.957	102.94
368.184	91.94
368.41	112.94
368.636	108.94
368.862	121.94
369.089	105.94
369.315	105.94
369.541	97.94
369.767	91.94
369.993	91.94
370.219	91.94
370.445	71.94
370.672	78.94
370.898	88.94
371.124	92.94
371.35	86.94
371.576	91.94
371.802	80.94
372.028	81.94
372.254	84.94
372.48	67.94
372.706	88.94
372.932	78.94
373.158	83.94
373.384	90.94
373.61	78.94
373.835	90.94
374.061	80.94
374.287	88.94
374.513	101.94
374.739	76.94
374.965	94.94
375.191	84.94
375.416	91.94
375.642	66.94
375.868	93.94
376.094	87.94
376.319	85.94
376.545	78.94
376.771	88.94
376.997	91.94
377.222	86.94
377.448	94.94
377.674	83.94
377.899	106.94
378.125	85.94
378.35	110.94
378.576	96.94
378.802	73.94
379.027	77.94
379.253	86.94
379.478	80.94
379.704	101.94
379.929	80.94
380.155	91.94
380.38	84.94
380.606	84.94
380.831	93.94
381.057	104.94
381.282	81.94
381.507	81.94
381.733	86.94
381.958	90.94
382.184	86.94
382.409	100.94
382.634	99.94
382.86	74.94
383.085	99.94
383.31	89.94
383.535	92.94
383.761	86.94
383.986	98.94
384.211	81.94
384.436	95.94
384.662	87.94
384.887	87.94
385.112	89.94
385.337	94.94
385.562	99.94
385.787	90.94
386.013	105.94
386.238	108.94
386.463	99.94
386.688	90.94
386.913	96.94
387.138	104.94
387.363	104.94
387.588	100.94
387.813	96.94
388.038	101.94
388.263	108.94
388.488	98.94
388.713	93.94
388.938	83.94
389.163	84.94
389.387	92.94
389.612	90.94
389.837	81.94
390.062	86.94
390.287	100.94
390.512	102.94
390.736	76.94
390.961	91.94
391.186	78.94
391.411	94.94
391.636	94.94
391.86	87.94
392.085	80.94
392.31	72.94
392.534	88.94
392.759	77.94
392.984	79.94
393.208	80.94
393.433	99.94
393.658	90.94
393.882	74.94
394.107	85.94
394.331	85.94
394.556	84.94
394.78	88.94
395.005	87.94
395.229	92.94
395.454	90.94
395.678	77.94
395.903	90.94
396.127	90.94
396.352	91.94
396.576	80.94
396.801	90.94
397.025	104.94
397.249	75.94
397.474	78.94
397.698	82.94
397.922	88.94
398.147	99.94
398.371	82.94
398.595	86.94
398.82	83.94
399.044	95.94
399.268	78.94
399.492	91.94
399.717	77.94
399.941	88.94
400.165	101.94
400.389	95.94
400.613	85.94
400.837	87.94
401.062	103.94
401.286	88.94
401.51	75.94
401.734	100.94
401.958	101.94
402.182	123.94
402.406	162.94
402.63	116.94
402.854	91.94
403.078	90.94
403.302	91.94
403.526	103.94
403.75	86.94
403.974	84.94
404.198	92.94
404.422	86.94
404.645	80.94
404.869	98.94
405.093	104.94
405.317	112.94
405.541	99.94
405.765	101.94
405.988	117.94
406.212	166.94
406.436	255.94
406.66	149.94
406.883	103.94
407.107	95.94
407.331	94.94
407.555	93.94
407.778	98.94
408.002	86.94
408.226	91.94
408.449	87.94
408.673	97.94
408.896	86.94
409.12	85.94
409.344	98.94
409.567	92.94
409.791	84.94
410.014	107.94
410.238	92.94
410.461	93.94
410.685	98.94
410.908	83.94
411.132	88.94
411.355	112.94
411.578	74.94
411.802	89.94
412.025	91.94
412.249	91.94
412.472	86.94
412.695	94.94
412.919	96.94
413.142	84.94
413.365	101.94
413.589	91.94
413.812	88.94
414.035	85.94
414.258	86.94
414.482	88.94
414.705	87.94
414.928	86.94
415.151	86.94
415.374	81.94
415.597	82.94
415.821	92.94
416.044	91.94
416.267	79.94
416.49	82.94
416.713	78.94
416.936	82.94
417.159	77.94
417.382	83.94
417.605	70.94
417.828	104.94
418.051	87.94
418.274	83.94
418.497	78.94
418.72	90.94
418.943	90.94
419.166	91.94
419.389	98.94
419.611	74.94
419.834	94.94
420.057	77.94
420.28	79.94
420.503	84.94
420.726	86.94
420.948	86.94
421.171	101.94
421.394	85.94
421.617	96.94
421.839	77.94
422.062	86.94
422.285	74.94
422.507	86.94
422.73	110.94
422.953	95.94
423.175	87.94
423.398	91.94
423.621	87.94
423.843	83.94
424.066	98.94
424.288	89.94
424.511	92.94
424.733	91.94
424.956	99.94
425.178	104.94
425.401	118.94
425.623	86.94
425.846	92.94
426.068	100.94
426.291	104.94
426.513	89.94
426.735	93.94
426.958	94.94
427.18	111.94
427.402	142.94
427.625	194.94
427.847	122.94
428.069	101.94
428.292	97.94
428.514	83.94
428.736	83.94
428.958	88.94
429.181	70.94
429.403	77.94
429.625	89.94
429.847	85.94
430.069	99.94
430.292	89.94
430.514	87.94
430.736	80.94
430.958	89.94
431.18	92.94
431.402	83.94
431.624	82.94
431.846	75.94
432.068	85.94
432.29	82.94
432.512	83.94
432.734	83.94
432.956	92.94
433.178	91.94
433.4	102.94
433.622	94.94
433.844	85.94
434.066	82.94
434.287	87.94
434.509	84.94
434.731	82.94
434.953	98.94
435.175	95.94
435.397	95.94
435.618	95.94
435.84	105.94
436.062	129.94
436.284	122.94
436.505	96.94
436.727	117.94
436.949	100.94
437.17	93.94
437.392	84.94
437.614	97.94
437.835	96.94
438.057	120.94
438.278	127.94
438.5	115.94
438.721	131.94
438.943	95.94
439.165	97.94
439.386	88.94
439.608	81.94
439.829	109.94
440.05	123.94
440.272	145.94
440.493	104.94
440.715	91.94
440.936	98.94
441.158	88.94
441.379	95.94
441.6	79.94
441.822	79.94
442.043	80.94
442.264	97.94
442.486	97.94
442.707	84.94
442.928	115.94
443.149	121.94
443.371	143.94
443.592	106.94
443.813	107.94
444.034	97.94
444.255	82.94
444.476	99.94
444.698	89.94
444.919	83.94
445.14	125.94
445.361	138.94
445.582	110.94
445.803	124.94
446.024	150.94
446.245	153.94
446.466	101.94
446.687	90.94
446.908	82.94
447.129	89.94
447.35	80.94
447.571	100.94
447.792	103.94
448.013	75.94
448.234	103.94
448.455	102.94
448.675	109.94
448.896	130.94
449.117	102.94
449.338	87.94
449.559	117.94
449.779	151.94
450	97.94
450.221	87.94
450.442	95.94
450.662	104.94
450.883	106.94
451.104	108.94
451.324	80.94
451.545	79.94
451.766	70.94
451.986	85.94
452.207	88.94
452.428	96.94
452.648	102.94
452.869	112.94
453.089	130.94
453.31	111.94
453.53	98.94
453.751	95.94
453.971	118.94
454.192	126.94
454.412	69.94
454.633	81.94
454.853	80.94
455.073	79.94
455.294	82.94
455.514	106.94
455.734	106.94
455.955	90.94
456.175	92.94
456.395	94.94
456.616	81.94
456.836	86.94
457.056	83.94
457.276	79.94
457.497	90.94
457.717	97.94
457.937	78.94
458.157	90.94
458.377	105.94
458.598	89.94
458.818	169.94
459.038	170.94
459.258	112.94
459.478	82.94
459.698	80.94
459.918	86.94
460.138	87.94
460.358	85.94
460.578	91.94
460.798	84.94
461.018	107.94
461.238	82.94
461.458	90.94
461.678	99.94
461.898	92.94
462.118	111.94
462.338	74.94
462.558	72.94
462.777	84.94
462.997	82.94
463.217	74.94
463.437	84.94
463.657	83.94
463.876	91.94
464.096	85.94
464.316	84.94
464.536	96.94
464.755	89.94
464.975	112.94
465.195	174.94
465.414	178.94
465.634	97.94
465.854	90.94
466.073	105.94
466.293	98.94
466.512	90.94
466.732	84.94
466.951	110.94
467.171	94.94
467.391	87.94
467.61	84.94
467.829	104.94
468.049	97.94
468.268	103.94
468.488	86.94
468.707	75.94
468.927	90.94
469.146	96.94
469.365	79.94
469.585	81.94
469.804	99.94
470.023	106.94
470.243	90.94
470.462	99.94
470.681	111.94
470.901	90.94
471.12	80.94
471.339	84.94
471.558	82.94
471.777	100.94
471.997	93.94
472.216	95.94
472.435	128.94
472.654	113.94
472.873	90.94
473.092	92.94
473.311	87.94
473.53	80.94
473.749	82.94
473.968	101.94
474.187	103.94
474.406	93.94
474.625	80.94
474.844	82.94
475.063	75.94
475.282	91.94
475.501	98.94
475.72	87.94
475.939	90.94
476.158	85.94
476.377	76.94
476.596	83.94
476.814	94.94
477.033	90.94
477.252	89.94
477.471	75.94
477.69	90.94
477.908	95.94
478.127	98.94
478.346	79.94
478.564	82.94
478.783	78.94
479.002	95.94
479.22	98.94
479.439	101.94
479.658	111.94
479.876	103.94
480.095	80.94
480.313	91.94
480.532	98.94
480.751	90.94
480.969	108.94
481.188	166.94
481.406	132.94
481.624	95.94
481.843	71.94
482.061	87.94
482.28	79.94
482.498	88.94
482.717	90.94
482.935	85.94
483.153	76.94
483.372	91.94
483.59	78.94
483.808	84.94
484.027	93.94
484.245	70.94
484.463	81.94
484.681	87.94
484.9	75.94
485.118	86.94
485.336	86.94
485.554	96.94
485.772	100.94
485.99	99.94
486.209	100.94
486.427	94.94
486.645	103.94
486.863	119.94
487.081	89.94
487.299	98.94
487.517	92.94
487.735	89.94
487.953	84.94
488.171	90.94
488.389	100.94
488.607	85.94
488.825	86.94
489.043	96.94
489.261	99.94
489.479	90.94
489.696	81.94
489.914	84.94
490.132	78.94
490.35	82.94
490.568	91.94
490.786	83.94
491.003	83.94
491.221	91.94
491.439	81.94
491.657	105.94
491.874	88.94
492.092	76.94
492.31	76.94
492.527	85.94
492.745	86.94
492.963	78.94
493.18	102.94
493.398	85.94
493.615	101.94
493.833	87.94
494.05	90.94
494.268	90.94
494.485	102.94
494.703	91.94
494.92	98.94
495.138	104.94
495.355	83.94
495.573	90.94
495.79	89.94
496.008	97.94
496.225	101.94
496.442	76.94
496.66	86.94
496.877	98.94
497.094	76.94
497.312	85.94
497.529	75.94
497.746	95.94
497.963	97.94
498.181	88.94
498.398	89.94
498.615	104.94
498.832	118.94
499.049	92.94
499.267	86.94
499.484	79.94
499.701	76.94
499.918	94.94
500.135	106.94
500.352	92.94
500.569	81.94
500.786	90.94
501.003	90.94
501.22	88.94
501.437	90.94
501.654	88.94
501.871	111.94
502.088	89.94
502.305	89.94
502.522	85.94
502.739	86.94
502.956	91.94
503.172	92.94
503.389	105.94
503.606	95.94
503.823	111.94
504.04	95.94
504.256	88.94
504.473	86.94
504.69	84.94
504.907	95.94
505.123	76.94
505.34	92.94
505.557	97.94
505.773	82.94
505.99	90.94
506.207	75.94
506.423	87.94
506.64	81.94
506.856	95.94
507.073	104.94
507.289	87.94
507.506	103.94
507.722	107.94
507.939	106.94
508.155	105.94
508.372	94.94
508.588	83.94
508.805	103.94
509.021	74.94
509.238	99.94
509.454	109.94
509.67	107.94
509.887	113.94
510.103	143.94
510.319	240.94
510.536	828.94
510.752	2728.94
510.968	719.94
511.184	166.94
511.401	105.94
511.617	87.94
511.833	98.94
512.049	88.94
512.265	82.94
512.481	90.94
512.698	104.94
512.914	98.94
513.13	101.94
513.346	93.94
513.562	102.94
513.778	102.94
513.994	109.94
514.21	99.94
514.426	115.94
514.642	128.94
514.858	130.94
515.074	185.94
515.29	514.94
515.506	1753.94
515.721	595.94
515.937	154.94
