Data from Uncirc_1988_H10_HRD10591_00037.txt Node
Date: Wed Jan 03 12:04:11 EST 2024
User: Yrep
Spectrometer: HR+D1059
Trigger mode: 1
Integration Time (sec): 1.000000E-1
Scans to average: 1
Electric dark correction enabled: true
Nonlinearity correction enabled: false
Boxcar width: 0
XAxis mode: Wavelengths
Number of Pixels in Spectrum: 2048
>>>>>Begin Spectral Data<<<<<
223.165	-20.81
223.4	-20.81
223.635	-20.81
223.869	-22.81
224.104	-17.81
224.338	-33.81
224.573	-14.81
224.808	-5.81
225.042	7.19
225.277	-9.81
225.511	-6.81
225.746	11.19
225.98	17.19
226.215	15.19
226.449	17.19
226.683	17.19
226.918	18.19
227.152	29.19
227.387	50.19
227.621	49.19
227.856	26.19
228.09	36.19
228.324	47.19
228.559	52.19
228.793	68.19
229.027	54.19
229.262	75.19
229.496	73.19
229.73	88.19
229.964	90.19
230.199	78.19
230.433	87.19
230.667	84.19
230.901	71.19
231.136	70.19
231.37	78.19
231.604	82.19
231.838	87.19
232.072	87.19
232.306	72.19
232.541	69.19
232.775	85.19
233.009	94.19
233.243	90.19
233.477	89.19
233.711	72.19
233.945	79.19
234.179	104.19
234.413	77.19
234.647	82.19
234.881	78.19
235.115	84.19
235.349	68.19
235.583	84.19
235.817	79.19
236.051	84.19
236.285	79.19
236.519	66.19
236.753	75.19
236.987	84.19
237.221	72.19
237.455	96.19
237.689	79.19
237.922	83.19
238.156	78.19
238.39	84.19
238.624	77.19
238.858	83.19
239.091	66.19
239.325	80.19
239.559	94.19
239.793	73.19
240.027	68.19
240.26	73.19
240.494	70.19
240.728	64.19
240.961	77.19
241.195	77.19
241.429	71.19
241.662	87.19
241.896	84.19
242.13	92.19
242.363	82.19
242.597	65.19
242.83	95.19
243.064	77.19
243.298	69.19
243.531	85.19
243.765	72.19
243.998	83.19
244.232	73.19
244.465	81.19
244.699	86.19
244.932	79.19
245.166	64.19
245.399	83.19
245.633	83.19
245.866	90.19
246.099	65.19
246.333	79.19
246.566	81.19
246.8	81.19
247.033	88.19
247.266	78.19
247.5	68.19
247.733	79.19
247.966	85.19
248.2	89.19
248.433	84.19
248.666	80.19
248.899	70.19
249.133	71.19
249.366	90.19
249.599	95.19
249.832	88.19
250.066	88.19
250.299	74.19
250.532	72.19
250.765	69.19
250.998	78.19
251.231	85.19
251.465	74.19
251.698	65.19
251.931	61.19
252.164	77.19
252.397	77.19
252.63	79.19
252.863	87.19
253.096	78.19
253.329	79.19
253.562	83.19
253.795	63.19
254.028	81.19
254.261	77.19
254.494	84.19
254.727	79.19
254.96	83.19
255.193	80.19
255.426	77.19
255.659	79.19
255.892	99.19
256.124	90.19
256.357	78.19
256.59	73.19
256.823	70.19
257.056	69.19
257.289	88.19
257.521	79.19
257.754	79.19
257.987	104.19
258.22	95.19
258.452	82.19
258.685	74.19
258.918	81.19
259.151	87.19
259.383	79.19
259.616	90.19
259.849	82.19
260.081	90.19
260.314	78.19
260.547	87.19
260.779	84.19
261.012	89.19
261.244	77.19
261.477	85.19
261.71	80.19
261.942	102.19
262.175	118.19
262.407	89.19
262.64	89.19
262.872	81.19
263.105	88.19
263.337	88.19
263.57	75.19
263.802	81.19
264.035	83.19
264.267	88.19
264.499	78.19
264.732	89.19
264.964	73.19
265.197	90.19
265.429	70.19
265.661	82.19
265.894	77.19
266.126	104.19
266.358	88.19
266.591	79.19
266.823	99.19
267.055	82.19
267.287	67.19
267.52	73.19
267.752	75.19
267.984	72.19
268.216	99.19
268.448	89.19
268.681	76.19
268.913	93.19
269.145	86.19
269.377	84.19
269.609	84.19
269.841	79.19
270.073	81.19
270.306	81.19
270.538	101.19
270.77	82.19
271.002	87.19
271.234	94.19
271.466	94.19
271.698	66.19
271.93	72.19
272.162	83.19
272.394	103.19
272.626	84.19
272.858	88.19
273.09	85.19
273.322	85.19
273.553	96.19
273.785	84.19
274.017	93.19
274.249	100.19
274.481	88.19
274.713	86.19
274.945	95.19
275.176	80.19
275.408	84.19
275.64	92.19
275.872	78.19
276.104	94.19
276.335	82.19
276.567	118.19
276.799	103.19
277.031	100.19
277.262	78.19
277.494	94.19
277.726	80.19
277.957	89.19
278.189	90.19
278.421	88.19
278.652	87.19
278.884	87.19
279.115	85.19
279.347	75.19
279.579	103.19
279.81	85.19
280.042	81.19
280.273	76.19
280.505	83.19
280.736	88.19
280.968	81.19
281.199	84.19
281.431	90.19
281.662	93.19
281.894	94.19
282.125	88.19
282.356	107.19
282.588	133.19
282.819	113.19
283.051	85.19
283.282	89.19
283.513	85.19
283.745	93.19
283.976	92.19
284.207	81.19
284.439	86.19
284.67	90.19
284.901	88.19
285.132	95.19
285.364	89.19
285.595	90.19
285.826	87.19
286.057	90.19
286.288	89.19
286.52	96.19
286.751	90.19
286.982	86.19
287.213	77.19
287.444	90.19
287.675	93.19
287.906	93.19
288.138	97.19
288.369	82.19
288.6	79.19
288.831	86.19
289.062	93.19
289.293	76.19
289.524	90.19
289.755	71.19
289.986	95.19
290.217	91.19
290.448	86.19
290.679	86.19
290.91	87.19
291.141	86.19
291.371	94.19
291.602	87.19
291.833	86.19
292.064	77.19
292.295	91.19
292.526	94.19
292.757	87.19
292.987	95.19
293.218	79.19
293.449	110.19
293.68	86.19
293.91	97.19
294.141	93.19
294.372	94.19
294.603	94.19
294.833	92.19
295.064	87.19
295.295	93.19
295.525	82.19
295.756	102.19
295.987	120.19
296.217	135.19
296.448	134.19
296.679	105.19
296.909	86.19
297.14	102.19
297.37	112.19
297.601	104.19
297.831	97.19
298.062	93.19
298.292	100.19
298.523	98.19
298.753	91.19
298.984	93.19
299.214	104.19
299.445	82.19
299.675	93.19
299.905	100.19
300.136	88.19
300.366	87.19
300.597	77.19
300.827	85.19
301.057	105.19
301.288	90.19
301.518	101.19
301.748	89.19
301.979	97.19
302.209	93.19
302.439	85.19
302.669	85.19
302.9	98.19
303.13	100.19
303.36	91.19
303.59	91.19
303.82	80.19
304.051	93.19
304.281	90.19
304.511	89.19
304.741	88.19
304.971	79.19
305.201	69.19
305.431	87.19
305.661	87.19
305.891	91.19
306.121	102.19
306.352	93.19
306.582	85.19
306.812	91.19
307.042	95.19
307.272	93.19
307.502	93.19
307.731	100.19
307.961	86.19
308.191	93.19
308.421	82.19
308.651	86.19
308.881	96.19
309.111	109.19
309.341	90.19
309.571	100.19
309.8	91.19
310.03	94.19
310.26	82.19
310.49	99.19
310.72	95.19
310.949	103.19
311.179	109.19
311.409	90.19
311.639	90.19
311.868	98.19
312.098	97.19
312.328	95.19
312.557	99.19
312.787	95.19
313.017	104.19
313.246	90.19
313.476	90.19
313.706	85.19
313.935	87.19
314.165	88.19
314.394	105.19
314.624	103.19
314.853	104.19
315.083	88.19
315.312	101.19
315.542	81.19
315.771	78.19
316.001	81.19
316.23	99.19
316.46	83.19
316.689	87.19
316.919	89.19
317.148	97.19
317.377	100.19
317.607	93.19
317.836	89.19
318.065	98.19
318.295	93.19
318.524	100.19
318.753	93.19
318.983	91.19
319.212	109.19
319.441	99.19
319.67	102.19
319.9	82.19
320.129	98.19
320.358	101.19
320.587	94.19
320.816	102.19
321.046	102.19
321.275	94.19
321.504	101.19
321.733	98.19
321.962	107.19
322.191	94.19
322.42	121.19
322.649	95.19
322.878	105.19
323.108	110.19
323.337	119.19
323.566	141.19
323.795	167.19
324.024	206.19
324.253	390.19
324.482	874.19
324.71	1863.19
324.939	2489.19
325.168	894.19
325.397	253.19
325.626	146.19
325.855	148.19
326.084	126.19
326.313	134.19
326.542	137.19
326.77	222.19
326.999	508.19
327.228	1034.19
327.457	1979.19
327.686	1546.19
327.914	387.19
328.143	185.19
328.372	157.19
328.6	120.19
328.829	115.19
329.058	125.19
329.287	132.19
329.515	98.19
329.744	95.19
329.972	102.19
330.201	101.19
330.43	117.19
330.658	125.19
330.887	130.19
331.115	133.19
331.344	96.19
331.572	98.19
331.801	107.19
332.03	101.19
332.258	87.19
332.486	99.19
332.715	93.19
332.943	80.19
333.172	105.19
333.4	114.19
333.629	113.19
333.857	92.19
334.085	105.19
334.314	112.19
334.542	104.19
334.771	106.19
334.999	109.19
335.227	116.19
335.455	103.19
335.684	101.19
335.912	88.19
336.14	105.19
336.369	101.19
336.597	96.19
336.825	100.19
337.053	87.19
337.281	101.19
337.51	91.19
337.738	99.19
337.966	95.19
338.194	85.19
338.422	98.19
338.65	92.19
338.878	92.19
339.106	102.19
339.334	97.19
339.562	92.19
339.79	91.19
340.018	101.19
340.246	99.19
340.474	105.19
340.702	88.19
340.93	93.19
341.158	89.19
341.386	95.19
341.614	99.19
341.842	99.19
342.07	83.19
342.298	97.19
342.526	104.19
342.754	86.19
342.981	93.19
343.209	92.19
343.437	111.19
343.665	87.19
343.893	89.19
344.12	88.19
344.348	92.19
344.576	91.19
344.804	88.19
345.031	103.19
345.259	101.19
345.487	88.19
345.714	96.19
345.942	90.19
346.17	87.19
346.397	96.19
346.625	94.19
346.853	88.19
347.08	90.19
347.308	93.19
347.535	109.19
347.763	104.19
347.99	109.19
348.218	80.19
348.445	95.19
348.673	105.19
348.9	109.19
349.128	101.19
349.355	84.19
349.583	93.19
349.81	100.19
350.037	95.19
350.265	83.19
350.492	104.19
350.72	102.19
350.947	96.19
351.174	114.19
351.402	113.19
351.629	112.19
351.856	85.19
352.083	103.19
352.311	94.19
352.538	107.19
352.765	110.19
352.992	112.19
353.22	102.19
353.447	107.19
353.674	107.19
353.901	104.19
354.128	113.19
354.355	104.19
354.583	102.19
354.81	102.19
355.037	93.19
355.264	97.19
355.491	90.19
355.718	101.19
355.945	98.19
356.172	98.19
356.399	96.19
356.626	97.19
356.853	94.19
357.08	90.19
357.307	111.19
357.534	96.19
357.761	86.19
357.988	79.19
358.215	88.19
358.441	92.19
358.668	88.19
358.895	100.19
359.122	84.19
359.349	94.19
359.576	96.19
359.802	106.19
360.029	123.19
360.256	124.19
360.483	103.19
360.709	93.19
360.936	88.19
361.163	114.19
361.39	103.19
361.616	109.19
361.843	89.19
362.07	88.19
362.296	96.19
362.523	105.19
362.749	85.19
362.976	99.19
363.203	109.19
363.429	93.19
363.656	91.19
363.882	89.19
364.109	96.19
364.335	84.19
364.562	101.19
364.788	94.19
365.015	99.19
365.241	106.19
365.468	116.19
365.694	115.19
365.92	115.19
366.147	85.19
366.373	82.19
366.599	95.19
366.826	101.19
367.052	94.19
367.278	93.19
367.505	87.19
367.731	98.19
367.957	105.19
368.184	88.19
368.41	106.19
368.636	110.19
368.862	124.19
369.089	111.19
369.315	96.19
369.541	85.19
369.767	79.19
369.993	83.19
370.219	86.19
370.445	94.19
370.672	84.19
370.898	91.19
371.124	93.19
371.35	91.19
371.576	83.19
371.802	89.19
372.028	90.19
372.254	81.19
372.48	84.19
372.706	104.19
372.932	93.19
373.158	90.19
373.384	103.19
373.61	95.19
373.835	95.19
374.061	92.19
374.287	79.19
374.513	93.19
374.739	87.19
374.965	95.19
375.191	90.19
375.416	105.19
375.642	90.19
375.868	83.19
376.094	93.19
376.319	88.19
376.545	92.19
376.771	89.19
376.997	116.19
377.222	98.19
377.448	104.19
377.674	102.19
377.899	85.19
378.125	89.19
378.35	100.19
378.576	90.19
378.802	95.19
379.027	79.19
379.253	86.19
379.478	91.19
379.704	90.19
379.929	101.19
380.155	91.19
380.38	94.19
380.606	88.19
380.831	96.19
381.057	103.19
381.282	107.19
381.507	98.19
381.733	109.19
381.958	94.19
382.184	102.19
382.409	101.19
382.634	90.19
382.86	103.19
383.085	120.19
383.31	101.19
383.535	86.19
383.761	98.19
383.986	71.19
384.211	89.19
384.436	97.19
384.662	109.19
384.887	104.19
385.112	102.19
385.337	102.19
385.562	107.19
385.787	105.19
386.013	112.19
386.238	114.19
386.463	110.19
386.688	107.19
386.913	89.19
387.138	105.19
387.363	94.19
387.588	95.19
387.813	111.19
388.038	98.19
388.263	105.19
388.488	103.19
388.713	87.19
388.938	107.19
389.163	96.19
389.387	99.19
389.612	93.19
389.837	90.19
390.062	89.19
390.287	94.19
390.512	93.19
390.736	102.19
390.961	84.19
391.186	83.19
391.411	100.19
391.636	100.19
391.86	103.19
392.085	86.19
392.31	78.19
392.534	92.19
392.759	89.19
392.984	93.19
393.208	87.19
393.433	97.19
393.658	83.19
393.882	98.19
394.107	94.19
394.331	96.19
394.556	85.19
394.78	88.19
395.005	96.19
395.229	85.19
395.454	93.19
395.678	88.19
395.903	91.19
396.127	102.19
396.352	103.19
396.576	93.19
396.801	90.19
397.025	99.19
397.249	90.19
397.474	97.19
397.698	107.19
397.922	102.19
398.147	87.19
398.371	91.19
398.595	94.19
398.82	88.19
399.044	88.19
399.268	97.19
399.492	81.19
399.717	98.19
399.941	99.19
400.165	100.19
400.389	89.19
400.613	93.19
400.837	95.19
401.062	94.19
401.286	82.19
401.51	92.19
401.734	79.19
401.958	96.19
402.182	129.19
402.406	167.19
402.63	121.19
402.854	99.19
403.078	96.19
403.302	97.19
403.526	85.19
403.75	103.19
403.974	87.19
404.198	94.19
404.422	101.19
404.645	94.19
404.869	93.19
405.093	96.19
405.317	103.19
405.541	103.19
405.765	90.19
405.988	118.19
406.212	172.19
406.436	229.19
406.66	156.19
406.883	108.19
407.107	97.19
407.331	90.19
407.555	111.19
407.778	91.19
408.002	99.19
408.226	100.19
408.449	93.19
408.673	87.19
408.896	104.19
409.12	106.19
409.344	95.19
409.567	79.19
409.791	94.19
410.014	94.19
410.238	88.19
410.461	101.19
410.685	92.19
410.908	99.19
411.132	99.19
411.355	93.19
411.578	102.19
411.802	74.19
412.025	82.19
412.249	88.19
412.472	91.19
412.695	89.19
412.919	95.19
413.142	87.19
413.365	95.19
413.589	89.19
413.812	85.19
414.035	98.19
414.258	106.19
414.482	102.19
414.705	96.19
414.928	86.19
415.151	88.19
415.374	84.19
415.597	88.19
415.821	78.19
416.044	88.19
416.267	109.19
416.49	81.19
416.713	95.19
416.936	97.19
417.159	97.19
417.382	95.19
417.605	101.19
417.828	96.19
418.051	95.19
418.274	93.19
418.497	88.19
418.72	93.19
418.943	108.19
419.166	95.19
419.389	81.19
419.611	76.19
419.834	90.19
420.057	88.19
420.28	82.19
420.503	99.19
420.726	99.19
420.948	93.19
421.171	100.19
421.394	104.19
421.617	93.19
421.839	99.19
422.062	98.19
422.285	99.19
422.507	103.19
422.73	101.19
422.953	88.19
423.175	80.19
423.398	83.19
423.621	110.19
423.843	91.19
424.066	93.19
424.288	95.19
424.511	85.19
424.733	101.19
424.956	104.19
425.178	104.19
425.401	109.19
425.623	101.19
425.846	81.19
426.068	94.19
426.291	97.19
426.513	93.19
426.735	76.19
426.958	91.19
427.18	117.19
427.402	143.19
427.625	160.19
427.847	120.19
428.069	110.19
428.292	89.19
428.514	97.19
428.736	80.19
428.958	77.19
429.181	99.19
429.403	83.19
429.625	93.19
429.847	82.19
430.069	85.19
430.292	103.19
430.514	98.19
430.736	100.19
430.958	94.19
431.18	74.19
431.402	89.19
431.624	86.19
431.846	102.19
432.068	96.19
432.29	90.19
432.512	94.19
432.734	84.19
432.956	87.19
433.178	89.19
433.4	91.19
433.622	92.19
433.844	89.19
434.066	89.19
434.287	88.19
434.509	89.19
434.731	101.19
434.953	98.19
435.175	98.19
435.397	82.19
435.618	98.19
435.84	86.19
436.062	116.19
436.284	127.19
436.505	98.19
436.727	112.19
436.949	96.19
437.17	94.19
437.392	74.19
437.614	93.19
437.835	100.19
438.057	127.19
438.278	106.19
438.5	108.19
438.721	133.19
438.943	87.19
439.165	84.19
439.386	94.19
439.608	97.19
439.829	113.19
440.05	140.19
440.272	152.19
440.493	113.19
440.715	106.19
440.936	85.19
441.158	95.19
441.379	93.19
441.6	94.19
441.822	92.19
442.043	94.19
442.264	117.19
442.486	95.19
442.707	96.19
442.928	102.19
443.149	128.19
443.371	127.19
443.592	114.19
443.813	109.19
444.034	114.19
444.255	91.19
444.476	95.19
444.698	83.19
444.919	87.19
445.14	131.19
445.361	115.19
445.582	122.19
445.803	134.19
446.024	155.19
446.245	138.19
446.466	113.19
446.687	87.19
446.908	89.19
447.129	89.19
447.35	84.19
447.571	86.19
447.792	96.19
448.013	101.19
448.234	105.19
448.455	101.19
448.675	130.19
448.896	118.19
449.117	101.19
449.338	103.19
449.559	144.19
449.779	140.19
450	93.19
450.221	96.19
450.442	87.19
450.662	107.19
450.883	106.19
451.104	110.19
451.324	90.19
451.545	91.19
451.766	90.19
451.986	86.19
452.207	87.19
452.428	94.19
452.648	101.19
452.869	119.19
453.089	119.19
453.31	126.19
453.53	85.19
453.751	94.19
453.971	112.19
454.192	114.19
454.412	82.19
454.633	103.19
454.853	86.19
455.073	96.19
455.294	98.19
455.514	91.19
455.734	82.19
455.955	87.19
456.175	87.19
456.395	79.19
456.616	91.19
456.836	94.19
457.056	98.19
457.276	73.19
457.497	100.19
457.717	75.19
457.937	80.19
458.157	84.19
458.377	83.19
458.598	110.19
458.818	129.19
459.038	147.19
459.258	125.19
459.478	85.19
459.698	84.19
459.918	94.19
460.138	78.19
460.358	97.19
460.578	101.19
460.798	79.19
461.018	94.19
461.238	81.19
461.458	90.19
461.678	85.19
461.898	89.19
462.118	99.19
462.338	84.19
462.558	84.19
462.777	88.19
462.997	98.19
463.217	83.19
463.437	81.19
463.657	83.19
463.876	96.19
464.096	91.19
464.316	79.19
464.536	88.19
464.755	96.19
464.975	93.19
465.195	150.19
465.414	159.19
465.634	86.19
465.854	77.19
466.073	82.19
466.293	88.19
466.512	89.19
466.732	75.19
466.951	88.19
467.171	97.19
467.391	112.19
467.61	95.19
467.829	92.19
468.049	94.19
468.268	81.19
468.488	79.19
468.707	91.19
468.927	88.19
469.146	86.19
469.365	90.19
469.585	85.19
469.804	83.19
470.023	89.19
470.243	91.19
470.462	102.19
470.681	111.19
470.901	87.19
471.12	106.19
471.339	83.19
471.558	78.19
471.777	84.19
471.997	82.19
472.216	100.19
472.435	107.19
472.654	90.19
472.873	95.19
473.092	85.19
473.311	81.19
473.53	87.19
473.749	93.19
473.968	102.19
474.187	121.19
474.406	97.19
474.625	95.19
474.844	97.19
475.063	101.19
475.282	90.19
475.501	81.19
475.72	77.19
475.939	97.19
476.158	72.19
476.377	95.19
476.596	87.19
476.814	95.19
477.033	95.19
477.252	93.19
477.471	81.19
477.69	83.19
477.908	87.19
478.127	83.19
478.346	85.19
478.564	89.19
478.783	97.19
479.002	106.19
479.22	88.19
479.439	93.19
479.658	111.19
479.876	95.19
480.095	89.19
480.313	87.19
480.532	98.19
480.751	101.19
480.969	104.19
481.188	125.19
481.406	101.19
481.624	94.19
481.843	95.19
482.061	81.19
482.28	74.19
482.498	89.19
482.717	89.19
482.935	96.19
483.153	97.19
483.372	90.19
483.59	100.19
483.808	90.19
484.027	93.19
484.245	90.19
484.463	97.19
484.681	103.19
484.9	110.19
485.118	98.19
485.336	89.19
485.554	93.19
485.772	110.19
485.99	107.19
486.209	101.19
486.427	95.19
486.645	125.19
486.863	119.19
487.081	94.19
487.299	91.19
487.517	98.19
487.735	101.19
487.953	98.19
488.171	83.19
488.389	98.19
488.607	105.19
488.825	83.19
489.043	75.19
489.261	79.19
489.479	82.19
489.696	90.19
489.914	88.19
490.132	88.19
490.35	89.19
490.568	81.19
490.786	89.19
491.003	87.19
491.221	103.19
491.439	91.19
491.657	94.19
491.874	97.19
492.092	85.19
492.31	81.19
492.527	81.19
492.745	89.19
492.963	88.19
493.18	92.19
493.398	90.19
493.615	107.19
493.833	95.19
494.05	86.19
494.268	101.19
494.485	111.19
494.703	88.19
494.92	85.19
495.138	101.19
495.355	94.19
495.573	86.19
495.79	91.19
496.008	95.19
496.225	91.19
496.442	90.19
496.66	97.19
496.877	93.19
497.094	96.19
497.312	98.19
497.529	97.19
497.746	86.19
497.963	98.19
498.181	90.19
498.398	101.19
498.615	115.19
498.832	94.19
499.049	99.19
499.267	98.19
499.484	84.19
499.701	89.19
499.918	114.19
500.135	92.19
500.352	93.19
500.569	96.19
500.786	88.19
501.003	90.19
501.22	107.19
501.437	98.19
501.654	93.19
501.871	110.19
502.088	95.19
502.305	102.19
502.522	101.19
502.739	97.19
502.956	94.19
503.172	112.19
503.389	89.19
503.606	105.19
503.823	98.19
504.04	87.19
504.256	87.19
504.473	92.19
504.69	93.19
504.907	96.19
505.123	94.19
505.34	83.19
505.557	99.19
505.773	102.19
505.99	91.19
506.207	91.19
506.423	91.19
506.64	91.19
506.856	80.19
507.073	87.19
507.289	99.19
507.506	98.19
507.722	113.19
507.939	108.19
508.155	88.19
508.372	84.19
508.588	107.19
508.805	108.19
509.021	92.19
509.238	99.19
509.454	80.19
509.67	99.19
509.887	117.19
510.103	123.19
510.319	217.19
510.536	768.19
510.752	2401.19
510.968	649.19
511.184	157.19
511.401	118.19
511.617	98.19
511.833	97.19
512.049	88.19
512.265	97.19
512.481	85.19
512.698	106.19
512.914	115.19
513.13	106.19
513.346	97.19
513.562	93.19
513.778	98.19
513.994	88.19
514.21	96.19
514.426	110.19
514.642	131.19
514.858	146.19
515.074	181.19
