Data from Uncirc_1988_H10_HRD10591_00098.txt Node
Date: Wed Jan 03 12:04:24 EST 2024
User: Yrep
Spectrometer: HR+D1059
Trigger mode: 1
Integration Time (sec): 1.000000E-1
Scans to average: 1
Electric dark correction enabled: true
Nonlinearity correction enabled: false
Boxcar width: 0
XAxis mode: Wavelengths
Number of Pixels in Spectrum: 2048
>>>>>Begin Spectral Data<<<<<
223.165	-14.44
223.4	-14.44
223.635	-14.44
223.869	-18.44
224.104	-23.44
224.338	-23.44
224.573	-9.44
224.808	-3.44
225.042	-12.44
225.277	-4.44
225.511	4.56
225.746	-3.44
225.98	2.56
226.215	-1.44
226.449	16.56
226.683	31.56
226.918	22.56
227.152	36.56
227.387	32.56
227.621	40.56
227.856	38.56
228.09	47.56
228.324	43.56
228.559	55.56
228.793	54.56
229.027	60.56
229.262	69.56
229.496	72.56
229.73	87.56
229.964	93.56
230.199	92.56
230.433	72.56
230.667	87.56
230.901	84.56
231.136	83.56
231.37	92.56
231.604	77.56
231.838	65.56
232.072	68.56
232.306	87.56
232.541	77.56
232.775	87.56
233.009	85.56
233.243	79.56
233.477	78.56
233.711	89.56
233.945	83.56
234.179	82.56
234.413	73.56
234.647	81.56
234.881	85.56
235.115	82.56
235.349	72.56
235.583	62.56
235.817	86.56
236.051	88.56
236.285	83.56
236.519	85.56
236.753	82.56
236.987	77.56
237.221	76.56
237.455	94.56
237.689	78.56
237.922	73.56
238.156	74.56
238.39	75.56
238.624	59.56
238.858	80.56
239.091	79.56
239.325	65.56
239.559	83.56
239.793	64.56
240.027	67.56
240.26	73.56
240.494	69.56
240.728	61.56
240.961	61.56
241.195	77.56
241.429	90.56
241.662	79.56
241.896	66.56
242.13	71.56
242.363	79.56
242.597	65.56
242.83	80.56
243.064	72.56
243.298	66.56
243.531	59.56
243.765	88.56
243.998	87.56
244.232	79.56
244.465	86.56
244.699	83.56
244.932	78.56
245.166	71.56
245.399	74.56
245.633	75.56
245.866	75.56
246.099	76.56
246.333	72.56
246.566	80.56
246.8	76.56
247.033	80.56
247.266	71.56
247.5	88.56
247.733	67.56
247.966	83.56
248.2	85.56
248.433	83.56
248.666	77.56
248.899	78.56
249.133	80.56
249.366	118.56
249.599	112.56
249.832	97.56
250.066	85.56
250.299	84.56
250.532	67.56
250.765	60.56
250.998	83.56
251.231	75.56
251.465	84.56
251.698	84.56
251.931	71.56
252.164	81.56
252.397	72.56
252.63	78.56
252.863	86.56
253.096	64.56
253.329	86.56
253.562	70.56
253.795	91.56
254.028	88.56
254.261	72.56
254.494	83.56
254.727	77.56
254.96	88.56
255.193	80.56
255.426	83.56
255.659	78.56
255.892	86.56
256.124	67.56
256.357	91.56
256.59	88.56
256.823	83.56
257.056	86.56
257.289	96.56
257.521	104.56
257.754	80.56
257.987	90.56
258.22	82.56
258.452	84.56
258.685	82.56
258.918	77.56
259.151	80.56
259.383	93.56
259.616	65.56
259.849	77.56
260.081	97.56
260.314	79.56
260.547	101.56
260.779	86.56
261.012	82.56
261.244	88.56
261.477	89.56
261.71	91.56
261.942	108.56
262.175	123.56
262.407	95.56
262.64	84.56
262.872	76.56
263.105	87.56
263.337	78.56
263.57	79.56
263.802	82.56
264.035	77.56
264.267	75.56
264.499	93.56
264.732	87.56
264.964	80.56
265.197	82.56
265.429	91.56
265.661	87.56
265.894	103.56
266.126	76.56
266.358	97.56
266.591	95.56
266.823	78.56
267.055	76.56
267.287	73.56
267.52	72.56
267.752	84.56
267.984	87.56
268.216	94.56
268.448	76.56
268.681	76.56
268.913	70.56
269.145	79.56
269.377	95.56
269.609	94.56
269.841	95.56
270.073	85.56
270.306	78.56
270.538	85.56
270.77	87.56
271.002	90.56
271.234	90.56
271.466	87.56
271.698	83.56
271.93	99.56
272.162	78.56
272.394	88.56
272.626	76.56
272.858	78.56
273.09	72.56
273.322	85.56
273.553	81.56
273.785	86.56
274.017	83.56
274.249	97.56
274.481	81.56
274.713	91.56
274.945	99.56
275.176	86.56
275.408	84.56
275.64	92.56
275.872	86.56
276.104	89.56
276.335	78.56
276.567	96.56
276.799	117.56
277.031	119.56
277.262	75.56
277.494	86.56
277.726	67.56
277.957	85.56
278.189	87.56
278.421	87.56
278.652	80.56
278.884	77.56
279.115	91.56
279.347	85.56
279.579	89.56
279.81	86.56
280.042	87.56
280.273	96.56
280.505	94.56
280.736	81.56
280.968	83.56
281.199	84.56
281.431	84.56
281.662	93.56
281.894	87.56
282.125	108.56
282.356	130.56
282.588	152.56
282.819	119.56
283.051	105.56
283.282	87.56
283.513	89.56
283.745	94.56
283.976	89.56
284.207	94.56
284.439	87.56
284.67	92.56
284.901	79.56
285.132	83.56
285.364	75.56
285.595	88.56
285.826	81.56
286.057	81.56
286.288	80.56
286.52	88.56
286.751	79.56
286.982	72.56
287.213	87.56
287.444	90.56
287.675	84.56
287.906	80.56
288.138	85.56
288.369	98.56
288.6	83.56
288.831	87.56
289.062	84.56
289.293	85.56
289.524	85.56
289.755	94.56
289.986	93.56
290.217	107.56
290.448	98.56
290.679	87.56
290.91	98.56
291.141	89.56
291.371	107.56
291.602	72.56
291.833	88.56
292.064	81.56
292.295	102.56
292.526	102.56
292.757	84.56
292.987	103.56
293.218	101.56
293.449	86.56
293.68	85.56
293.91	82.56
294.141	93.56
294.372	95.56
294.603	100.56
294.833	94.56
295.064	83.56
295.295	85.56
295.525	68.56
295.756	99.56
295.987	105.56
296.217	148.56
296.448	144.56
296.679	95.56
296.909	105.56
297.14	88.56
297.37	94.56
297.601	83.56
297.831	95.56
298.062	98.56
298.292	84.56
298.523	93.56
298.753	92.56
298.984	105.56
299.214	83.56
299.445	104.56
299.675	90.56
299.905	95.56
300.136	92.56
300.366	85.56
300.597	90.56
300.827	85.56
301.057	97.56
301.288	113.56
301.518	100.56
301.748	88.56
301.979	100.56
302.209	90.56
302.439	103.56
302.669	86.56
302.9	100.56
303.13	85.56
303.36	113.56
303.59	113.56
303.82	106.56
304.051	85.56
304.281	88.56
304.511	90.56
304.741	91.56
304.971	84.56
305.201	94.56
305.431	86.56
305.661	84.56
305.891	108.56
306.121	120.56
306.352	101.56
306.582	120.56
306.812	93.56
307.042	109.56
307.272	88.56
307.502	105.56
307.731	100.56
307.961	92.56
308.191	95.56
308.421	89.56
308.651	87.56
308.881	113.56
309.111	109.56
309.341	101.56
309.571	103.56
309.8	101.56
310.03	108.56
310.26	90.56
310.49	92.56
310.72	112.56
310.949	109.56
311.179	85.56
311.409	96.56
311.639	113.56
311.868	95.56
312.098	96.56
312.328	94.56
312.557	105.56
312.787	122.56
313.017	115.56
313.246	93.56
313.476	92.56
313.706	104.56
313.935	106.56
314.165	106.56
314.394	99.56
314.624	99.56
314.853	111.56
315.083	90.56
315.312	80.56
315.542	84.56
315.771	103.56
316.001	97.56
316.23	111.56
316.46	93.56
316.689	80.56
316.919	104.56
317.148	111.56
317.377	100.56
317.607	103.56
317.836	83.56
318.065	99.56
318.295	94.56
318.524	92.56
318.753	99.56
318.983	88.56
319.212	98.56
319.441	115.56
319.67	109.56
319.9	95.56
320.129	93.56
320.358	85.56
320.587	85.56
320.816	97.56
321.046	109.56
321.275	107.56
321.504	101.56
321.733	100.56
321.962	108.56
322.191	110.56
322.42	95.56
322.649	103.56
322.878	131.56
323.108	123.56
323.337	142.56
323.566	139.56
323.795	176.56
324.024	242.56
324.253	507.56
324.482	1068.56
324.71	2276.56
324.939	3087.56
325.168	1075.56
325.397	298.56
325.626	165.56
325.855	127.56
326.084	137.56
326.313	145.56
326.542	178.56
326.77	269.56
326.999	563.56
327.228	1210.56
327.457	2284.56
327.686	1849.56
327.914	460.56
328.143	246.56
328.372	198.56
328.6	149.56
328.829	127.56
329.058	144.56
329.287	144.56
329.515	131.56
329.744	108.56
329.972	136.56
330.201	117.56
330.43	175.56
330.658	173.56
330.887	168.56
331.115	139.56
331.344	94.56
331.572	107.56
331.801	109.56
332.03	113.56
332.258	103.56
332.486	100.56
332.715	75.56
332.943	86.56
333.172	94.56
333.4	121.56
333.629	96.56
333.857	135.56
334.085	121.56
334.314	133.56
334.542	179.56
334.771	182.56
334.999	119.56
335.227	95.56
335.455	100.56
335.684	94.56
335.912	86.56
336.14	99.56
336.369	104.56
336.597	102.56
336.825	95.56
337.053	102.56
337.281	103.56
337.51	101.56
337.738	92.56
337.966	104.56
338.194	113.56
338.422	95.56
338.65	97.56
338.878	94.56
339.106	91.56
339.334	82.56
339.562	87.56
339.79	87.56
340.018	94.56
340.246	94.56
340.474	96.56
340.702	88.56
340.93	98.56
341.158	86.56
341.386	82.56
341.614	93.56
341.842	88.56
342.07	87.56
342.298	88.56
342.526	102.56
342.754	96.56
342.981	89.56
343.209	83.56
343.437	114.56
343.665	72.56
343.893	95.56
344.12	95.56
344.348	91.56
344.576	84.56
344.804	89.56
345.031	95.56
345.259	102.56
345.487	91.56
345.714	86.56
345.942	88.56
346.17	87.56
346.397	86.56
346.625	97.56
346.853	90.56
347.08	104.56
347.308	96.56
347.535	101.56
347.763	99.56
347.99	99.56
348.218	102.56
348.445	112.56
348.673	117.56
348.9	94.56
349.128	87.56
349.355	97.56
349.583	99.56
349.81	88.56
350.037	108.56
350.265	99.56
350.492	96.56
350.72	100.56
350.947	104.56
351.174	106.56
351.402	126.56
351.629	105.56
351.856	100.56
352.083	113.56
352.311	112.56
352.538	104.56
352.765	112.56
352.992	102.56
353.22	105.56
353.447	86.56
353.674	117.56
353.901	80.56
354.128	87.56
354.355	98.56
354.583	111.56
354.81	116.56
355.037	88.56
355.264	100.56
355.491	92.56
355.718	87.56
355.945	85.56
356.172	91.56
356.399	97.56
356.626	92.56
356.853	102.56
357.08	97.56
357.307	89.56
357.534	92.56
357.761	98.56
357.988	79.56
358.215	75.56
358.441	99.56
358.668	107.56
358.895	87.56
359.122	84.56
359.349	91.56
359.576	88.56
359.802	108.56
360.029	126.56
360.256	118.56
360.483	112.56
360.709	86.56
360.936	88.56
361.163	97.56
361.39	95.56
361.616	91.56
361.843	104.56
362.07	88.56
362.296	90.56
362.523	81.56
362.749	91.56
362.976	97.56
363.203	91.56
363.429	91.56
363.656	107.56
363.882	80.56
364.109	102.56
364.335	85.56
364.562	80.56
364.788	85.56
365.015	103.56
365.241	93.56
365.468	118.56
365.694	100.56
365.92	96.56
366.147	102.56
366.373	84.56
366.599	105.56
366.826	92.56
367.052	99.56
367.278	100.56
367.505	90.56
367.731	85.56
367.957	93.56
368.184	92.56
368.41	104.56
368.636	125.56
368.862	117.56
369.089	96.56
369.315	94.56
369.541	87.56
369.767	84.56
369.993	88.56
370.219	98.56
370.445	91.56
370.672	99.56
370.898	92.56
371.124	89.56
371.35	86.56
371.576	101.56
371.802	84.56
372.028	84.56
372.254	94.56
372.48	86.56
372.706	80.56
372.932	86.56
373.158	87.56
373.384	98.56
373.61	90.56
373.835	98.56
374.061	92.56
374.287	94.56
374.513	99.56
374.739	86.56
374.965	82.56
375.191	87.56
375.416	78.56
375.642	88.56
375.868	88.56
376.094	92.56
376.319	79.56
376.545	84.56
376.771	92.56
376.997	87.56
377.222	85.56
377.448	89.56
377.674	88.56
377.899	95.56
378.125	90.56
378.35	93.56
378.576	86.56
378.802	101.56
379.027	81.56
379.253	79.56
379.478	95.56
379.704	91.56
379.929	94.56
380.155	97.56
380.38	100.56
380.606	75.56
380.831	85.56
381.057	97.56
381.282	91.56
381.507	104.56
381.733	101.56
381.958	93.56
382.184	97.56
382.409	92.56
382.634	117.56
382.86	92.56
383.085	93.56
383.31	87.56
383.535	95.56
383.761	107.56
383.986	95.56
384.211	100.56
384.436	106.56
384.662	96.56
384.887	92.56
385.112	91.56
385.337	95.56
385.562	95.56
385.787	106.56
386.013	118.56
386.238	113.56
386.463	114.56
386.688	100.56
386.913	103.56
387.138	92.56
387.363	94.56
387.588	111.56
387.813	110.56
388.038	93.56
388.263	104.56
388.488	104.56
388.713	94.56
388.938	88.56
389.163	92.56
389.387	91.56
389.612	73.56
389.837	70.56
390.062	81.56
390.287	93.56
390.512	74.56
390.736	83.56
390.961	99.56
391.186	88.56
391.411	92.56
391.636	80.56
391.86	94.56
392.085	102.56
392.31	84.56
392.534	73.56
392.759	97.56
392.984	77.56
393.208	94.56
393.433	79.56
393.658	76.56
393.882	84.56
394.107	84.56
394.331	85.56
394.556	94.56
394.78	94.56
395.005	89.56
395.229	80.56
395.454	93.56
395.678	77.56
395.903	77.56
396.127	95.56
396.352	89.56
396.576	100.56
396.801	102.56
397.025	78.56
397.249	75.56
397.474	89.56
397.698	86.56
397.922	91.56
398.147	104.56
398.371	85.56
398.595	97.56
398.82	88.56
399.044	78.56
399.268	87.56
399.492	83.56
399.717	88.56
399.941	84.56
400.165	88.56
400.389	84.56
400.613	83.56
400.837	94.56
401.062	76.56
401.286	89.56
401.51	92.56
401.734	91.56
401.958	96.56
402.182	140.56
402.406	169.56
402.63	130.56
402.854	103.56
403.078	96.56
403.302	80.56
403.526	85.56
403.75	86.56
403.974	72.56
404.198	97.56
404.422	85.56
404.645	87.56
404.869	107.56
405.093	103.56
405.317	97.56
405.541	105.56
405.765	103.56
405.988	133.56
406.212	197.56
406.436	283.56
406.66	167.56
406.883	116.56
407.107	91.56
407.331	99.56
407.555	101.56
407.778	85.56
408.002	93.56
408.226	95.56
408.449	87.56
408.673	79.56
408.896	78.56
409.12	105.56
409.344	88.56
409.567	91.56
409.791	86.56
410.014	103.56
410.238	95.56
410.461	91.56
410.685	97.56
410.908	101.56
411.132	111.56
411.355	104.56
411.578	81.56
411.802	82.56
412.025	87.56
412.249	87.56
412.472	94.56
412.695	102.56
412.919	99.56
413.142	88.56
413.365	92.56
413.589	95.56
413.812	89.56
414.035	92.56
414.258	83.56
414.482	88.56
414.705	81.56
414.928	95.56
415.151	88.56
415.374	102.56
415.597	89.56
415.821	84.56
416.044	90.56
416.267	88.56
416.49	79.56
416.713	90.56
416.936	85.56
417.159	82.56
417.382	82.56
417.605	90.56
417.828	102.56
418.051	92.56
418.274	88.56
418.497	68.56
418.72	89.56
418.943	76.56
419.166	89.56
419.389	96.56
419.611	84.56
419.834	81.56
420.057	101.56
420.28	90.56
420.503	80.56
420.726	83.56
420.948	87.56
421.171	103.56
421.394	87.56
421.617	81.56
421.839	100.56
422.062	94.56
422.285	89.56
422.507	113.56
422.73	116.56
422.953	91.56
423.175	79.56
423.398	91.56
423.621	94.56
423.843	86.56
424.066	93.56
424.288	97.56
424.511	106.56
424.733	105.56
424.956	111.56
425.178	98.56
425.401	115.56
425.623	105.56
425.846	82.56
426.068	96.56
426.291	105.56
426.513	94.56
426.735	85.56
426.958	88.56
427.18	119.56
427.402	170.56
427.625	211.56
427.847	147.56
428.069	125.56
428.292	102.56
428.514	89.56
428.736	76.56
428.958	90.56
429.181	66.56
429.403	81.56
429.625	87.56
429.847	100.56
430.069	91.56
430.292	93.56
430.514	81.56
430.736	100.56
430.958	75.56
431.18	85.56
431.402	78.56
431.624	97.56
431.846	78.56
432.068	87.56
432.29	87.56
432.512	72.56
432.734	91.56
432.956	80.56
433.178	97.56
433.4	93.56
433.622	97.56
433.844	104.56
434.066	102.56
434.287	106.56
434.509	64.56
434.731	95.56
434.953	80.56
435.175	90.56
435.397	94.56
435.618	94.56
435.84	108.56
436.062	132.56
436.284	130.56
436.505	112.56
436.727	114.56
436.949	86.56
437.17	69.56
437.392	81.56
437.614	97.56
437.835	114.56
438.057	134.56
438.278	129.56
438.5	112.56
438.721	152.56
438.943	118.56
439.165	85.56
439.386	79.56
439.608	100.56
439.829	116.56
440.05	145.56
440.272	178.56
440.493	111.56
440.715	96.56
440.936	99.56
441.158	80.56
441.379	91.56
441.6	91.56
441.822	92.56
442.043	98.56
442.264	109.56
442.486	110.56
442.707	104.56
442.928	129.56
443.149	148.56
443.371	139.56
443.592	124.56
443.813	123.56
444.034	123.56
444.255	98.56
444.476	86.56
444.698	89.56
444.919	95.56
445.14	123.56
445.361	149.56
445.582	128.56
445.803	165.56
446.024	176.56
446.245	164.56
446.466	117.56
446.687	110.56
446.908	93.56
447.129	95.56
447.35	93.56
447.571	101.56
447.792	108.56
448.013	114.56
448.234	116.56
448.455	101.56
448.675	128.56
448.896	143.56
449.117	108.56
449.338	104.56
449.559	164.56
449.779	165.56
450	100.56
450.221	90.56
450.442	84.56
450.662	104.56
450.883	113.56
451.104	125.56
451.324	91.56
451.545	100.56
451.766	82.56
451.986	79.56
452.207	88.56
452.428	89.56
452.648	125.56
452.869	135.56
453.089	133.56
453.31	140.56
453.53	87.56
453.751	87.56
453.971	107.56
454.192	129.56
454.412	106.56
454.633	83.56
454.853	82.56
455.073	76.56
455.294	87.56
455.514	95.56
455.734	101.56
455.955	86.56
456.175	81.56
456.395	75.56
456.616	92.56
456.836	91.56
457.056	77.56
457.276	86.56
457.497	95.56
457.717	80.56
457.937	90.56
458.157	92.56
458.377	114.56
458.598	119.56
458.818	167.56
459.038	211.56
459.258	124.56
459.478	108.56
459.698	91.56
459.918	72.56
460.138	89.56
460.358	79.56
460.578	92.56
460.798	91.56
461.018	96.56
461.238	75.56
461.458	86.56
461.678	91.56
461.898	92.56
462.118	78.56
462.338	86.56
462.558	91.56
462.777	83.56
462.997	71.56
463.217	87.56
463.437	93.56
463.657	77.56
463.876	73.56
464.096	85.56
464.316	103.56
464.536	102.56
464.755	101.56
464.975	114.56
465.195	205.56
465.414	191.56
465.634	99.56
465.854	102.56
466.073	88.56
466.293	97.56
466.512	89.56
466.732	96.56
466.951	89.56
467.171	85.56
467.391	93.56
467.61	102.56
467.829	102.56
468.049	108.56
468.268	130.56
468.488	95.56
468.707	73.56
468.927	85.56
469.146	66.56
469.365	93.56
469.585	88.56
469.804	107.56
470.023	86.56
470.243	81.56
470.462	108.56
470.681	116.56
470.901	101.56
471.12	89.56
471.339	84.56
471.558	95.56
471.777	88.56
471.997	97.56
472.216	141.56
472.435	214.56
472.654	118.56
472.873	93.56
473.092	79.56
473.311	83.56
473.53	100.56
473.749	83.56
473.968	87.56
474.187	106.56
474.406	102.56
474.625	104.56
474.844	79.56
475.063	87.56
475.282	81.56
475.501	82.56
475.72	79.56
475.939	78.56
476.158	79.56
476.377	86.56
476.596	86.56
476.814	101.56
477.033	102.56
477.252	85.56
477.471	90.56
477.69	96.56
477.908	96.56
478.127	93.56
478.346	86.56
478.564	103.56
478.783	94.56
479.002	95.56
479.22	94.56
479.439	107.56
479.658	110.56
479.876	108.56
480.095	97.56
480.313	94.56
480.532	91.56
480.751	104.56
480.969	148.56
481.188	295.56
481.406	222.56
481.624	111.56
481.843	76.56
482.061	94.56
482.28	88.56
482.498	83.56
482.717	102.56
482.935	88.56
483.153	93.56
483.372	90.56
483.59	84.56
483.808	82.56
484.027	97.56
484.245	95.56
484.463	109.56
484.681	100.56
484.9	89.56
485.118	107.56
485.336	85.56
485.554	96.56
485.772	88.56
485.99	101.56
486.209	104.56
486.427	112.56
486.645	119.56
486.863	110.56
487.081	102.56
487.299	99.56
487.517	93.56
487.735	100.56
487.953	91.56
488.171	90.56
488.389	99.56
488.607	105.56
488.825	99.56
489.043	83.56
489.261	89.56
489.479	92.56
489.696	81.56
489.914	83.56
490.132	99.56
490.35	89.56
490.568	81.56
490.786	86.56
491.003	92.56
491.221	90.56
491.439	90.56
491.657	83.56
491.874	80.56
492.092	88.56
492.31	92.56
492.527	102.56
492.745	91.56
492.963	90.56
493.18	108.56
493.398	86.56
493.615	91.56
493.833	103.56
494.05	100.56
494.268	79.56
494.485	100.56
494.703	85.56
494.92	84.56
495.138	98.56
495.355	87.56
495.573	94.56
495.79	70.56
496.008	96.56
496.225	90.56
496.442	87.56
496.66	103.56
496.877	97.56
497.094	92.56
497.312	87.56
497.529	93.56
497.746	88.56
497.963	104.56
498.181	86.56
498.398	99.56
498.615	120.56
498.832	96.56
499.049	83.56
499.267	93.56
499.484	93.56
499.701	97.56
499.918	93.56
500.135	95.56
500.352	86.56
500.569	87.56
500.786	96.56
501.003	84.56
501.22	85.56
501.437	93.56
501.654	88.56
501.871	120.56
502.088	96.56
502.305	102.56
502.522	93.56
502.739	87.56
502.956	101.56
503.172	73.56
503.389	107.56
503.606	96.56
503.823	107.56
504.04	103.56
504.256	91.56
504.473	100.56
504.69	104.56
504.907	93.56
505.123	98.56
505.34	105.56
505.557	95.56
505.773	91.56
505.99	96.56
506.207	78.56
506.423	77.56
506.64	84.56
506.856	91.56
507.073	97.56
507.289	100.56
507.506	89.56
507.722	131.56
507.939	121.56
508.155	100.56
508.372	92.56
508.588	92.56
508.805	97.56
509.021	94.56
509.238	110.56
509.454	104.56
509.67	107.56
509.887	100.56
510.103	129.56
510.319	242.56
510.536	933.56
510.752	3103.56
510.968	821.56
511.184	170.56
511.401	124.56
511.617	109.56
511.833	96.56
512.049	93.56
512.265	93.56
512.481	81.56
512.698	94.56
512.914	87.56
513.13	88.56
513.346	75.56
513.562	95.56
513.778	107.56
513.994	98.56
514.21	110.56
514.426	129.56
