Data from 237_2_HRD10591_00035.txt Node
Date: Mon Jan 19 14:11:48 EST 2026
User: Yrep
Spectrometer: HR+D1059
Trigger mode: 1
Integration Time (sec): 1.000000E-1
Scans to average: 1
Electric dark correction enabled: true
Nonlinearity correction enabled: false
Boxcar width: 0
XAxis mode: Wavelengths
Number of Pixels in Spectrum: 2048
>>>>>Begin Spectral Data<<<<<
223.165	-16.25
223.4	-16.25
223.635	-16.25
223.869	-20.25
224.104	-23.25
224.338	-17.25
224.573	-17.25
224.808	-9.25
225.042	-15.25
225.277	-11.25
225.511	6.75
225.746	10.75
225.98	-6.25
226.215	0.75
226.449	28.75
226.683	21.75
226.918	30.75
227.152	36.75
227.387	27.75
227.621	31.75
227.856	48.75
228.09	38.75
228.324	47.75
228.559	41.75
228.793	69.75
229.027	64.75
229.262	75.75
229.496	69.75
229.73	61.75
229.964	78.75
230.199	65.75
230.433	76.75
230.667	65.75
230.901	67.75
231.136	77.75
231.37	83.75
231.604	77.75
231.838	76.75
232.072	85.75
232.306	82.75
232.541	81.75
232.775	69.75
233.009	70.75
233.243	77.75
233.477	92.75
233.711	81.75
233.945	97.75
234.179	75.75
234.413	69.75
234.647	65.75
234.881	76.75
235.115	76.75
235.349	74.75
235.583	79.75
235.817	68.75
236.051	78.75
236.285	64.75
236.519	86.75
236.753	73.75
236.987	77.75
237.221	95.75
237.455	66.75
237.689	79.75
237.922	66.75
238.156	73.75
238.39	68.75
238.624	74.75
238.858	83.75
239.091	73.75
239.325	68.75
239.559	78.75
239.793	77.75
240.027	74.75
240.26	63.75
240.494	69.75
240.728	67.75
240.961	71.75
241.195	80.75
241.429	73.75
241.662	78.75
241.896	74.75
242.13	74.75
242.363	58.75
242.597	69.75
242.83	73.75
243.064	74.75
243.298	80.75
243.531	76.75
243.765	71.75
243.998	77.75
244.232	64.75
244.465	71.75
244.699	68.75
244.932	73.75
245.166	72.75
245.399	73.75
245.633	81.75
245.866	81.75
246.099	82.75
246.333	56.75
246.566	72.75
246.8	82.75
247.033	74.75
247.266	72.75
247.5	96.75
247.733	76.75
247.966	72.75
248.2	77.75
248.433	73.75
248.666	68.75
248.899	81.75
249.133	72.75
249.366	79.75
249.599	75.75
249.832	72.75
250.066	84.75
250.299	83.75
250.532	89.75
250.765	69.75
250.998	69.75
251.231	61.75
251.465	76.75
251.698	77.75
251.931	70.75
252.164	71.75
252.397	76.75
252.63	67.75
252.863	60.75
253.096	71.75
253.329	78.75
253.562	65.75
253.795	72.75
254.028	68.75
254.261	79.75
254.494	88.75
254.727	69.75
254.96	69.75
255.193	62.75
255.426	62.75
255.659	79.75
255.892	73.75
256.124	74.75
256.357	77.75
256.59	68.75
256.823	79.75
257.056	74.75
257.289	78.75
257.521	79.75
257.754	78.75
257.987	78.75
258.22	70.75
258.452	73.75
258.685	79.75
258.918	66.75
259.151	69.75
259.383	68.75
259.616	79.75
259.849	70.75
260.081	75.75
260.314	71.75
260.547	75.75
260.779	99.75
261.012	79.75
261.244	84.75
261.477	80.75
261.71	76.75
261.942	86.75
262.175	92.75
262.407	80.75
262.64	92.75
262.872	87.75
263.105	73.75
263.337	85.75
263.57	79.75
263.802	70.75
264.035	75.75
264.267	67.75
264.499	76.75
264.732	73.75
264.964	68.75
265.197	81.75
265.429	73.75
265.661	75.75
265.894	89.75
266.126	69.75
266.358	90.75
266.591	80.75
266.823	72.75
267.055	74.75
267.287	85.75
267.52	89.75
267.752	68.75
267.984	86.75
268.216	74.75
268.448	85.75
268.681	85.75
268.913	82.75
269.145	87.75
269.377	86.75
269.609	74.75
269.841	86.75
270.073	80.75
270.306	78.75
270.538	86.75
270.77	74.75
271.002	85.75
271.234	73.75
271.466	78.75
271.698	70.75
271.93	65.75
272.162	83.75
272.394	68.75
272.626	85.75
272.858	87.75
273.09	74.75
273.322	76.75
273.553	73.75
273.785	82.75
274.017	86.75
274.249	88.75
274.481	85.75
274.713	82.75
274.945	74.75
275.176	86.75
275.408	76.75
275.64	69.75
275.872	74.75
276.104	81.75
276.335	76.75
276.567	60.75
276.799	77.75
277.031	65.75
277.262	78.75
277.494	83.75
277.726	76.75
277.957	84.75
278.189	76.75
278.421	72.75
278.652	79.75
278.884	81.75
279.115	76.75
279.347	87.75
279.579	73.75
279.81	79.75
280.042	71.75
280.273	87.75
280.505	73.75
280.736	82.75
280.968	71.75
281.199	71.75
281.431	72.75
281.662	77.75
281.894	86.75
282.125	84.75
282.356	95.75
282.588	75.75
282.819	64.75
283.051	69.75
283.282	85.75
283.513	90.75
283.745	86.75
283.976	94.75
284.207	89.75
284.439	79.75
284.67	85.75
284.901	89.75
285.132	79.75
285.364	92.75
285.595	73.75
285.826	81.75
286.057	76.75
286.288	75.75
286.52	63.75
286.751	78.75
286.982	88.75
287.213	56.75
287.444	72.75
287.675	81.75
287.906	79.75
288.138	80.75
288.369	81.75
288.6	68.75
288.831	67.75
289.062	72.75
289.293	85.75
289.524	79.75
289.755	92.75
289.986	80.75
290.217	83.75
290.448	71.75
290.679	63.75
290.91	78.75
291.141	72.75
291.371	69.75
291.602	67.75
291.833	78.75
292.064	85.75
292.295	87.75
292.526	90.75
292.757	82.75
292.987	78.75
293.218	76.75
293.449	68.75
293.68	91.75
293.91	76.75
294.141	82.75
294.372	70.75
294.603	80.75
294.833	77.75
295.064	79.75
295.295	82.75
295.525	70.75
295.756	73.75
295.987	87.75
296.217	75.75
296.448	69.75
296.679	94.75
296.909	85.75
297.14	81.75
297.37	87.75
297.601	82.75
297.831	79.75
298.062	86.75
298.292	74.75
298.523	65.75
298.753	80.75
298.984	64.75
299.214	99.75
299.445	70.75
299.675	83.75
299.905	80.75
300.136	85.75
300.366	70.75
300.597	91.75
300.827	81.75
301.057	74.75
301.288	100.75
301.518	61.75
301.748	78.75
301.979	88.75
302.209	73.75
302.439	59.75
302.669	83.75
302.9	82.75
303.13	75.75
303.36	93.75
303.59	79.75
303.82	73.75
304.051	80.75
304.281	99.75
304.511	87.75
304.741	87.75
304.971	71.75
305.201	72.75
305.431	80.75
305.661	79.75
305.891	100.75
306.121	81.75
306.352	80.75
306.582	79.75
306.812	85.75
307.042	81.75
307.272	90.75
307.502	75.75
307.731	84.75
307.961	73.75
308.191	84.75
308.421	74.75
308.651	85.75
308.881	84.75
309.111	74.75
309.341	79.75
309.571	93.75
309.8	95.75
310.03	73.75
310.26	90.75
310.49	86.75
310.72	78.75
310.949	81.75
311.179	101.75
311.409	77.75
311.639	74.75
311.868	91.75
312.098	86.75
312.328	75.75
312.557	79.75
312.787	77.75
313.017	81.75
313.246	95.75
313.476	75.75
313.706	87.75
313.935	69.75
314.165	74.75
314.394	81.75
314.624	77.75
314.853	79.75
315.083	71.75
315.312	84.75
315.542	89.75
315.771	77.75
316.001	77.75
316.23	84.75
316.46	79.75
316.689	77.75
316.919	89.75
317.148	78.75
317.377	81.75
317.607	75.75
317.836	83.75
318.065	91.75
318.295	80.75
318.524	67.75
318.753	55.75
318.983	74.75
319.212	71.75
319.441	83.75
319.67	76.75
319.9	83.75
320.129	72.75
320.358	76.75
320.587	76.75
320.816	81.75
321.046	83.75
321.275	67.75
321.504	81.75
321.733	87.75
321.962	66.75
322.191	82.75
322.42	77.75
322.649	76.75
322.878	77.75
323.108	87.75
323.337	88.75
323.566	80.75
323.795	68.75
324.024	71.75
324.253	91.75
324.482	87.75
324.71	67.75
324.939	67.75
325.168	72.75
325.397	73.75
325.626	67.75
325.855	78.75
326.084	94.75
326.313	89.75
326.542	78.75
326.77	82.75
326.999	84.75
327.228	69.75
327.457	69.75
327.686	82.75
327.914	78.75
328.143	81.75
328.372	78.75
328.6	85.75
328.829	73.75
329.058	97.75
329.287	77.75
329.515	79.75
329.744	82.75
329.972	95.75
330.201	84.75
330.43	78.75
330.658	85.75
330.887	80.75
331.115	82.75
331.344	92.75
331.572	96.75
331.801	85.75
332.03	93.75
332.258	81.75
332.486	91.75
332.715	74.75
332.943	69.75
333.172	97.75
333.4	87.75
333.629	72.75
333.857	83.75
334.085	84.75
334.314	84.75
334.542	83.75
334.771	84.75
334.999	65.75
335.227	79.75
335.455	76.75
335.684	81.75
335.912	91.75
336.14	88.75
336.369	87.75
336.597	76.75
336.825	81.75
337.053	61.75
337.281	84.75
337.51	81.75
337.738	75.75
337.966	66.75
338.194	88.75
338.422	93.75
338.65	80.75
338.878	71.75
339.106	75.75
339.334	83.75
339.562	76.75
339.79	84.75
340.018	64.75
340.246	85.75
340.474	77.75
340.702	79.75
340.93	70.75
341.158	80.75
341.386	63.75
341.614	77.75
341.842	68.75
342.07	66.75
342.298	80.75
342.526	77.75
342.754	75.75
342.981	92.75
343.209	89.75
343.437	96.75
343.665	72.75
343.893	82.75
344.12	80.75
344.348	83.75
344.576	73.75
344.804	80.75
345.031	80.75
345.259	79.75
345.487	83.75
345.714	84.75
345.942	63.75
346.17	66.75
346.397	81.75
346.625	71.75
346.853	81.75
347.08	89.75
347.308	83.75
347.535	83.75
347.763	84.75
347.99	71.75
348.218	80.75
348.445	76.75
348.673	79.75
348.9	75.75
349.128	82.75
349.355	81.75
349.583	71.75
349.81	90.75
350.037	81.75
350.265	74.75
350.492	75.75
350.72	86.75
350.947	78.75
351.174	79.75
351.402	77.75
351.629	72.75
351.856	87.75
352.083	73.75
352.311	80.75
352.538	91.75
352.765	80.75
352.992	92.75
353.22	80.75
353.447	87.75
353.674	85.75
353.901	81.75
354.128	87.75
354.355	97.75
354.583	63.75
354.81	72.75
355.037	80.75
355.264	71.75
355.491	74.75
355.718	64.75
355.945	78.75
356.172	76.75
356.399	83.75
356.626	78.75
356.853	86.75
357.08	78.75
357.307	86.75
357.534	86.75
357.761	89.75
357.988	84.75
358.215	70.75
358.441	99.75
358.668	68.75
358.895	72.75
359.122	77.75
359.349	70.75
359.576	76.75
359.802	72.75
360.029	87.75
360.256	77.75
360.483	76.75
360.709	80.75
360.936	82.75
361.163	80.75
361.39	80.75
361.616	87.75
361.843	98.75
362.07	87.75
362.296	79.75
362.523	76.75
362.749	83.75
362.976	87.75
363.203	90.75
363.429	79.75
363.656	79.75
363.882	76.75
364.109	98.75
364.335	87.75
364.562	88.75
364.788	76.75
365.015	94.75
365.241	68.75
365.468	79.75
365.694	79.75
365.92	90.75
366.147	95.75
366.373	72.75
366.599	74.75
366.826	68.75
367.052	81.75
367.278	88.75
367.505	76.75
367.731	82.75
367.957	83.75
368.184	68.75
368.41	79.75
368.636	80.75
368.862	95.75
369.089	87.75
369.315	73.75
369.541	72.75
369.767	78.75
369.993	93.75
370.219	71.75
370.445	79.75
370.672	83.75
370.898	74.75
371.124	68.75
371.35	59.75
371.576	79.75
371.802	69.75
372.028	85.75
372.254	88.75
372.48	73.75
372.706	73.75
372.932	78.75
373.158	70.75
373.384	65.75
373.61	90.75
373.835	81.75
374.061	73.75
374.287	82.75
374.513	86.75
374.739	72.75
374.965	81.75
375.191	74.75
375.416	79.75
375.642	80.75
375.868	79.75
376.094	93.75
376.319	70.75
376.545	76.75
376.771	81.75
376.997	79.75
377.222	65.75
377.448	88.75
377.674	84.75
377.899	74.75
378.125	87.75
378.35	84.75
378.576	73.75
378.802	84.75
379.027	92.75
379.253	78.75
379.478	81.75
379.704	87.75
379.929	78.75
380.155	84.75
380.38	71.75
380.606	84.75
380.831	75.75
381.057	70.75
381.282	75.75
381.507	82.75
381.733	86.75
381.958	75.75
382.184	82.75
382.409	65.75
382.634	72.75
382.86	95.75
383.085	77.75
383.31	88.75
383.535	73.75
383.761	76.75
383.986	74.75
384.211	79.75
384.436	78.75
384.662	72.75
384.887	75.75
385.112	72.75
385.337	72.75
385.562	84.75
385.787	85.75
386.013	79.75
386.238	65.75
386.463	84.75
386.688	80.75
386.913	62.75
387.138	69.75
387.363	83.75
387.588	83.75
387.813	87.75
388.038	82.75
388.263	82.75
388.488	84.75
388.713	86.75
388.938	72.75
389.163	71.75
389.387	72.75
389.612	81.75
389.837	83.75
390.062	77.75
390.287	80.75
390.512	79.75
390.736	74.75
390.961	85.75
391.186	83.75
391.411	74.75
391.636	79.75
391.86	81.75
392.085	84.75
392.31	66.75
392.534	86.75
392.759	88.75
392.984	97.75
393.208	111.75
393.433	128.75
393.658	115.75
393.882	84.75
394.107	78.75
394.331	97.75
394.556	92.75
394.78	75.75
395.005	73.75
395.229	90.75
395.454	74.75
395.678	80.75
395.903	74.75
396.127	96.75
396.352	82.75
396.576	102.75
396.801	117.75
397.025	136.75
397.249	78.75
397.474	83.75
397.698	70.75
397.922	83.75
398.147	85.75
398.371	81.75
398.595	75.75
398.82	80.75
399.044	71.75
399.268	76.75
399.492	79.75
399.717	86.75
399.941	71.75
400.165	78.75
400.389	70.75
400.613	87.75
400.837	78.75
401.062	77.75
401.286	84.75
401.51	73.75
401.734	91.75
401.958	83.75
402.182	81.75
402.406	79.75
402.63	65.75
402.854	82.75
403.078	62.75
403.302	81.75
403.526	79.75
403.75	75.75
403.974	88.75
404.198	76.75
404.422	71.75
404.645	85.75
404.869	72.75
405.093	72.75
405.317	72.75
405.541	82.75
405.765	74.75
405.988	74.75
406.212	70.75
406.436	69.75
406.66	85.75
406.883	83.75
407.107	90.75
407.331	89.75
407.555	77.75
407.778	94.75
408.002	77.75
408.226	84.75
408.449	77.75
408.673	73.75
408.896	84.75
409.12	80.75
409.344	75.75
409.567	77.75
409.791	87.75
410.014	76.75
410.238	74.75
410.461	88.75
410.685	87.75
410.908	81.75
411.132	80.75
411.355	81.75
411.578	85.75
411.802	66.75
412.025	77.75
412.249	95.75
412.472	79.75
412.695	78.75
412.919	65.75
413.142	80.75
413.365	87.75
413.589	82.75
413.812	76.75
414.035	76.75
414.258	79.75
414.482	83.75
414.705	64.75
414.928	71.75
415.151	86.75
415.374	76.75
415.597	79.75
415.821	74.75
416.044	63.75
416.267	79.75
416.49	72.75
416.713	77.75
416.936	73.75
417.159	84.75
417.382	87.75
417.605	89.75
417.828	72.75
418.051	84.75
418.274	85.75
418.497	78.75
418.72	75.75
418.943	73.75
419.166	86.75
419.389	94.75
419.611	71.75
419.834	72.75
420.057	83.75
420.28	87.75
420.503	80.75
420.726	79.75
420.948	79.75
421.171	73.75
421.394	64.75
421.617	95.75
421.839	87.75
422.062	77.75
422.285	95.75
422.507	124.75
422.73	167.75
422.953	159.75
423.175	93.75
423.398	79.75
423.621	86.75
423.843	67.75
424.066	75.75
424.288	72.75
424.511	83.75
424.733	75.75
424.956	86.75
425.178	72.75
425.401	68.75
425.623	70.75
425.846	82.75
426.068	77.75
426.291	78.75
426.513	72.75
426.735	95.75
426.958	96.75
427.18	84.75
427.402	85.75
427.625	95.75
427.847	69.75
428.069	96.75
428.292	93.75
428.514	89.75
428.736	85.75
428.958	79.75
429.181	85.75
429.403	86.75
429.625	72.75
429.847	82.75
430.069	85.75
430.292	92.75
430.514	88.75
430.736	85.75
430.958	93.75
431.18	73.75
431.402	71.75
431.624	71.75
431.846	84.75
432.068	97.75
432.29	77.75
432.512	83.75
432.734	81.75
432.956	85.75
433.178	78.75
433.4	87.75
433.622	90.75
433.844	84.75
434.066	91.75
434.287	88.75
434.509	69.75
434.731	74.75
434.953	77.75
435.175	80.75
435.397	75.75
435.618	68.75
435.84	87.75
436.062	75.75
436.284	84.75
436.505	74.75
436.727	94.75
436.949	84.75
437.17	65.75
437.392	83.75
437.614	73.75
437.835	78.75
438.057	78.75
438.278	88.75
438.5	64.75
438.721	81.75
438.943	83.75
439.165	87.75
439.386	84.75
439.608	82.75
439.829	94.75
440.05	70.75
440.272	74.75
440.493	71.75
440.715	77.75
440.936	67.75
441.158	76.75
441.379	75.75
441.6	71.75
441.822	84.75
442.043	82.75
442.264	87.75
442.486	77.75
442.707	96.75
442.928	79.75
443.149	88.75
443.371	94.75
443.592	100.75
443.813	90.75
444.034	85.75
444.255	74.75
444.476	88.75
444.698	85.75
444.919	92.75
445.14	165.75
445.361	125.75
445.582	119.75
445.803	88.75
446.024	88.75
446.245	93.75
446.466	66.75
446.687	84.75
446.908	85.75
447.129	97.75
447.35	93.75
447.571	80.75
447.792	81.75
448.013	76.75
448.234	75.75
448.455	68.75
448.675	75.75
448.896	80.75
449.117	88.75
449.338	73.75
449.559	81.75
449.779	57.75
450	80.75
450.221	71.75
450.442	73.75
450.662	71.75
450.883	87.75
451.104	71.75
451.324	87.75
451.545	77.75
451.766	78.75
451.986	77.75
452.207	81.75
452.428	91.75
452.648	86.75
452.869	70.75
453.089	92.75
453.31	74.75
453.53	76.75
453.751	84.75
453.971	79.75
454.192	57.75
454.412	78.75
454.633	100.75
454.853	76.75
455.073	77.75
455.294	92.75
455.514	81.75
455.734	79.75
455.955	77.75
456.175	76.75
456.395	81.75
456.616	77.75
456.836	79.75
457.056	73.75
457.276	86.75
457.497	77.75
457.717	78.75
457.937	82.75
458.157	90.75
458.377	70.75
458.598	79.75
458.818	82.75
459.038	88.75
459.258	85.75
459.478	71.75
459.698	64.75
459.918	85.75
460.138	73.75
460.358	76.75
460.578	96.75
460.798	84.75
461.018	98.75
461.238	74.75
461.458	76.75
461.678	87.75
461.898	79.75
462.118	78.75
462.338	70.75
462.558	67.75
462.777	82.75
462.997	77.75
463.217	80.75
463.437	76.75
463.657	81.75
463.876	75.75
464.096	79.75
464.316	76.75
464.536	81.75
464.755	82.75
464.975	72.75
465.195	74.75
465.414	79.75
465.634	82.75
465.854	75.75
466.073	86.75
466.293	70.75
466.512	82.75
466.732	72.75
466.951	70.75
467.171	76.75
467.391	68.75
467.61	76.75
467.829	72.75
468.049	73.75
468.268	84.75
468.488	79.75
468.707	83.75
468.927	70.75
469.146	66.75
469.365	79.75
469.585	70.75
469.804	69.75
470.023	76.75
470.243	67.75
470.462	72.75
470.681	88.75
470.901	81.75
471.12	79.75
471.339	86.75
471.558	79.75
471.777	81.75
471.997	86.75
472.216	66.75
472.435	71.75
472.654	67.75
472.873	80.75
473.092	87.75
473.311	85.75
473.53	77.75
473.749	70.75
473.968	83.75
474.187	71.75
474.406	86.75
474.625	76.75
474.844	81.75
475.063	78.75
475.282	82.75
475.501	79.75
475.72	86.75
475.939	72.75
476.158	78.75
476.377	77.75
476.596	79.75
476.814	91.75
477.033	74.75
477.252	98.75
477.471	80.75
477.69	55.75
477.908	92.75
478.127	85.75
478.346	75.75
478.564	77.75
478.783	79.75
479.002	85.75
479.22	78.75
479.439	77.75
479.658	77.75
479.876	94.75
480.095	64.75
480.313	63.75
480.532	80.75
480.751	75.75
480.969	77.75
481.188	76.75
481.406	95.75
481.624	91.75
481.843	82.75
482.061	76.75
482.28	85.75
482.498	75.75
482.717	70.75
482.935	78.75
483.153	77.75
483.372	92.75
483.59	87.75
483.808	87.75
484.027	93.75
484.245	75.75
484.463	84.75
484.681	87.75
484.9	84.75
485.118	80.75
485.336	79.75
485.554	83.75
485.772	101.75
485.99	76.75
486.209	82.75
486.427	84.75
486.645	80.75
486.863	83.75
487.081	85.75
487.299	78.75
487.517	95.75
487.735	80.75
487.953	81.75
488.171	71.75
488.389	69.75
488.607	77.75
488.825	65.75
489.043	99.75
489.261	75.75
489.479	81.75
489.696	80.75
489.914	85.75
490.132	92.75
490.35	83.75
490.568	91.75
490.786	72.75
491.003	95.75
491.221	89.75
491.439	83.75
491.657	74.75
491.874	80.75
492.092	91.75
492.31	73.75
492.527	70.75
492.745	70.75
492.963	81.75
493.18	88.75
493.398	90.75
493.615	81.75
493.833	90.75
494.05	73.75
494.268	89.75
494.485	73.75
494.703	79.75
494.92	77.75
495.138	76.75
495.355	100.75
495.573	72.75
495.79	78.75
496.008	73.75
496.225	68.75
496.442	71.75
496.66	79.75
496.877	87.75
497.094	85.75
497.312	63.75
497.529	91.75
497.746	83.75
497.963	73.75
498.181	81.75
498.398	84.75
498.615	89.75
498.832	89.75
499.049	82.75
499.267	84.75
499.484	77.75
499.701	86.75
499.918	73.75
500.135	72.75
500.352	72.75
500.569	82.75
500.786	103.75
501.003	68.75
501.22	77.75
501.437	91.75
501.654	79.75
501.871	78.75
502.088	78.75
502.305	76.75
502.522	83.75
502.739	78.75
502.956	82.75
503.172	92.75
503.389	88.75
503.606	93.75
503.823	78.75
504.04	95.75
504.256	83.75
504.473	78.75
504.69	73.75
504.907	84.75
505.123	85.75
505.34	79.75
505.557	77.75
505.773	88.75
505.99	80.75
506.207	81.75
506.423	83.75
506.64	75.75
506.856	92.75
507.073	82.75
507.289	85.75
507.506	84.75
507.722	84.75
507.939	82.75
508.155	74.75
508.372	79.75
508.588	81.75
508.805	88.75
509.021	67.75
509.238	83.75
509.454	73.75
509.67	87.75
509.887	77.75
510.103	75.75
510.319	88.75
510.536	83.75
510.752	64.75
510.968	79.75
511.184	74.75
511.401	73.75
511.617	79.75
511.833	81.75
512.049	74.75
512.265	73.75
512.481	74.75
512.698	73.75
512.914	79.75
513.13	74.75
513.346	80.75
513.562	85.75
513.778	77.75
513.994	65.75
514.21	76.75
514.426	85.75
514.642	88.75
514.858	87.75
515.074	93.75
515.29	80.75
515.506	81.75
515.721	81.75
515.937	77.75
516.153	75.75
516.369	79.75
516.585	78.75
516.801	88.75
517.016	94.75
517.232	64.75
517.448	81.75
517.664	81.75
517.879	69.75
518.095	68.75
518.311	73.75
518.527	79.75
518.742	86.75
518.958	75.75
519.173	86.75
519.389	91.75
519.605	76.75
519.82	79.75
520.036	83.75
