Data from 237_2_HRD10591_00019.txt Node
Date: Mon Jan 19 14:11:40 EST 2026
User: Yrep
Spectrometer: HR+D1059
Trigger mode: 1
Integration Time (sec): 1.000000E-1
Scans to average: 1
Electric dark correction enabled: true
Nonlinearity correction enabled: false
Boxcar width: 0
XAxis mode: Wavelengths
Number of Pixels in Spectrum: 2048
>>>>>Begin Spectral Data<<<<<
223.165	-25.25
223.4	-25.25
223.635	-25.25
223.869	-16.25
224.104	-26.25
224.338	-12.25
224.573	-16.25
224.808	-26.25
225.042	-10.25
225.277	-5.25
225.511	-0.25
225.746	4.75
225.98	6.75
226.215	20.75
226.449	16.75
226.683	31.75
226.918	30.75
227.152	26.75
227.387	43.75
227.621	32.75
227.856	53.75
228.09	40.75
228.324	52.75
228.559	61.75
228.793	59.75
229.027	58.75
229.262	54.75
229.496	72.75
229.73	61.75
229.964	70.75
230.199	75.75
230.433	62.75
230.667	66.75
230.901	71.75
231.136	84.75
231.37	74.75
231.604	78.75
231.838	91.75
232.072	79.75
232.306	75.75
232.541	78.75
232.775	71.75
233.009	100.75
233.243	75.75
233.477	68.75
233.711	90.75
233.945	84.75
234.179	75.75
234.413	84.75
234.647	70.75
234.881	86.75
235.115	78.75
235.349	84.75
235.583	79.75
235.817	79.75
236.051	60.75
236.285	86.75
236.519	79.75
236.753	86.75
236.987	86.75
237.221	77.75
237.455	57.75
237.689	68.75
237.922	77.75
238.156	88.75
238.39	89.75
238.624	74.75
238.858	76.75
239.091	79.75
239.325	72.75
239.559	72.75
239.793	73.75
240.027	91.75
240.26	75.75
240.494	77.75
240.728	71.75
240.961	73.75
241.195	76.75
241.429	68.75
241.662	67.75
241.896	75.75
242.13	73.75
242.363	67.75
242.597	85.75
242.83	77.75
243.064	74.75
243.298	76.75
243.531	78.75
243.765	86.75
243.998	86.75
244.232	83.75
244.465	72.75
244.699	80.75
244.932	85.75
245.166	75.75
245.399	81.75
245.633	64.75
245.866	83.75
246.099	72.75
246.333	80.75
246.566	93.75
246.8	79.75
247.033	80.75
247.266	72.75
247.5	82.75
247.733	67.75
247.966	86.75
248.2	75.75
248.433	82.75
248.666	83.75
248.899	80.75
249.133	93.75
249.366	84.75
249.599	82.75
249.832	81.75
250.066	100.75
250.299	75.75
250.532	88.75
250.765	76.75
250.998	89.75
251.231	79.75
251.465	93.75
251.698	85.75
251.931	95.75
252.164	90.75
252.397	89.75
252.63	94.75
252.863	86.75
253.096	73.75
253.329	98.75
253.562	87.75
253.795	96.75
254.028	84.75
254.261	71.75
254.494	84.75
254.727	96.75
254.96	89.75
255.193	81.75
255.426	77.75
255.659	85.75
255.892	84.75
256.124	94.75
256.357	69.75
256.59	95.75
256.823	78.75
257.056	79.75
257.289	81.75
257.521	76.75
257.754	73.75
257.987	84.75
258.22	77.75
258.452	79.75
258.685	77.75
258.918	84.75
259.151	84.75
259.383	78.75
259.616	88.75
259.849	72.75
260.081	62.75
260.314	77.75
260.547	75.75
260.779	76.75
261.012	79.75
261.244	71.75
261.477	94.75
261.71	83.75
261.942	86.75
262.175	81.75
262.407	75.75
262.64	84.75
262.872	84.75
263.105	75.75
263.337	84.75
263.57	68.75
263.802	81.75
264.035	90.75
264.267	79.75
264.499	84.75
264.732	84.75
264.964	92.75
265.197	90.75
265.429	88.75
265.661	90.75
265.894	86.75
266.126	93.75
266.358	89.75
266.591	82.75
266.823	86.75
267.055	79.75
267.287	72.75
267.52	71.75
267.752	76.75
267.984	65.75
268.216	86.75
268.448	83.75
268.681	78.75
268.913	93.75
269.145	92.75
269.377	79.75
269.609	85.75
269.841	67.75
270.073	73.75
270.306	77.75
270.538	82.75
270.77	79.75
271.002	71.75
271.234	94.75
271.466	91.75
271.698	68.75
271.93	76.75
272.162	80.75
272.394	83.75
272.626	87.75
272.858	83.75
273.09	98.75
273.322	78.75
273.553	83.75
273.785	78.75
274.017	97.75
274.249	83.75
274.481	83.75
274.713	82.75
274.945	76.75
275.176	95.75
275.408	90.75
275.64	78.75
275.872	96.75
276.104	86.75
276.335	78.75
276.567	93.75
276.799	86.75
277.031	79.75
277.262	80.75
277.494	85.75
277.726	83.75
277.957	78.75
278.189	98.75
278.421	81.75
278.652	83.75
278.884	90.75
279.115	96.75
279.347	101.75
279.579	100.75
279.81	78.75
280.042	90.75
280.273	98.75
280.505	89.75
280.736	89.75
280.968	70.75
281.199	71.75
281.431	86.75
281.662	82.75
281.894	93.75
282.125	85.75
282.356	82.75
282.588	89.75
282.819	89.75
283.051	90.75
283.282	91.75
283.513	100.75
283.745	84.75
283.976	91.75
284.207	98.75
284.439	74.75
284.67	84.75
284.901	101.75
285.132	93.75
285.364	119.75
285.595	98.75
285.826	94.75
286.057	100.75
286.288	76.75
286.52	82.75
286.751	83.75
286.982	92.75
287.213	92.75
287.444	85.75
287.675	82.75
287.906	87.75
288.138	99.75
288.369	90.75
288.6	93.75
288.831	74.75
289.062	92.75
289.293	70.75
289.524	77.75
289.755	82.75
289.986	92.75
290.217	92.75
290.448	86.75
290.679	78.75
290.91	89.75
291.141	81.75
291.371	85.75
291.602	73.75
291.833	85.75
292.064	77.75
292.295	89.75
292.526	104.75
292.757	89.75
292.987	80.75
293.218	85.75
293.449	101.75
293.68	90.75
293.91	104.75
294.141	99.75
294.372	100.75
294.603	87.75
294.833	74.75
295.064	71.75
295.295	86.75
295.525	84.75
295.756	89.75
295.987	97.75
296.217	73.75
296.448	106.75
296.679	85.75
296.909	100.75
297.14	99.75
297.37	89.75
297.601	82.75
297.831	98.75
298.062	83.75
298.292	89.75
298.523	80.75
298.753	86.75
298.984	85.75
299.214	108.75
299.445	116.75
299.675	99.75
299.905	97.75
300.136	90.75
300.366	97.75
300.597	107.75
300.827	94.75
301.057	91.75
301.288	86.75
301.518	86.75
301.748	84.75
301.979	99.75
302.209	97.75
302.439	81.75
302.669	99.75
302.9	105.75
303.13	97.75
303.36	90.75
303.59	97.75
303.82	75.75
304.051	84.75
304.281	90.75
304.511	90.75
304.741	99.75
304.971	94.75
305.201	108.75
305.431	92.75
305.661	81.75
305.891	100.75
306.121	99.75
306.352	90.75
306.582	103.75
306.812	77.75
307.042	82.75
307.272	84.75
307.502	92.75
307.731	97.75
307.961	94.75
308.191	101.75
308.421	104.75
308.651	92.75
308.881	101.75
309.111	97.75
309.341	115.75
309.571	108.75
309.8	102.75
310.03	96.75
310.26	105.75
310.49	89.75
310.72	100.75
310.949	89.75
311.179	85.75
311.409	86.75
311.639	94.75
311.868	88.75
312.098	71.75
312.328	83.75
312.557	75.75
312.787	104.75
313.017	91.75
313.246	94.75
313.476	90.75
313.706	91.75
313.935	94.75
314.165	92.75
314.394	85.75
314.624	94.75
314.853	94.75
315.083	109.75
315.312	101.75
315.542	91.75
315.771	120.75
316.001	96.75
316.23	98.75
316.46	88.75
316.689	106.75
316.919	82.75
317.148	95.75
317.377	106.75
317.607	108.75
317.836	101.75
318.065	133.75
318.295	121.75
318.524	84.75
318.753	82.75
318.983	97.75
319.212	90.75
319.441	89.75
319.67	80.75
319.9	73.75
320.129	96.75
320.358	90.75
320.587	84.75
320.816	88.75
321.046	92.75
321.275	76.75
321.504	86.75
321.733	102.75
321.962	93.75
322.191	94.75
322.42	97.75
322.649	106.75
322.878	88.75
323.108	84.75
323.337	89.75
323.566	92.75
323.795	86.75
324.024	100.75
324.253	96.75
324.482	95.75
324.71	89.75
324.939	86.75
325.168	85.75
325.397	91.75
325.626	94.75
325.855	92.75
326.084	108.75
326.313	98.75
326.542	91.75
326.77	91.75
326.999	77.75
327.228	84.75
327.457	102.75
327.686	96.75
327.914	101.75
328.143	85.75
328.372	79.75
328.6	82.75
328.829	100.75
329.058	84.75
329.287	85.75
329.515	93.75
329.744	100.75
329.972	84.75
330.201	96.75
330.43	111.75
330.658	94.75
330.887	98.75
331.115	78.75
331.344	96.75
331.572	102.75
331.801	92.75
332.03	103.75
332.258	85.75
332.486	85.75
332.715	82.75
332.943	71.75
333.172	102.75
333.4	97.75
333.629	85.75
333.857	90.75
334.085	99.75
334.314	100.75
334.542	106.75
334.771	103.75
334.999	117.75
335.227	114.75
335.455	97.75
335.684	88.75
335.912	105.75
336.14	118.75
336.369	105.75
336.597	102.75
336.825	91.75
337.053	92.75
337.281	90.75
337.51	93.75
337.738	101.75
337.966	98.75
338.194	90.75
338.422	88.75
338.65	96.75
338.878	92.75
339.106	91.75
339.334	77.75
339.562	78.75
339.79	91.75
340.018	84.75
340.246	90.75
340.474	84.75
340.702	96.75
340.93	92.75
341.158	96.75
341.386	88.75
341.614	93.75
341.842	96.75
342.07	82.75
342.298	94.75
342.526	90.75
342.754	90.75
342.981	106.75
343.209	95.75
343.437	92.75
343.665	104.75
343.893	99.75
344.12	113.75
344.348	107.75
344.576	109.75
344.804	89.75
345.031	78.75
345.259	98.75
345.487	100.75
345.714	96.75
345.942	89.75
346.17	83.75
346.397	95.75
346.625	86.75
346.853	80.75
347.08	96.75
347.308	88.75
347.535	95.75
347.763	105.75
347.99	80.75
348.218	95.75
348.445	90.75
348.673	104.75
348.9	86.75
349.128	100.75
349.355	99.75
349.583	87.75
349.81	97.75
350.037	105.75
350.265	91.75
350.492	89.75
350.72	97.75
350.947	89.75
351.174	103.75
351.402	88.75
351.629	89.75
351.856	85.75
352.083	96.75
352.311	91.75
352.538	76.75
352.765	100.75
352.992	101.75
353.22	90.75
353.447	94.75
353.674	77.75
353.901	89.75
354.128	92.75
354.355	92.75
354.583	92.75
354.81	83.75
355.037	92.75
355.264	104.75
355.491	100.75
355.718	85.75
355.945	109.75
356.172	84.75
356.399	85.75
356.626	93.75
356.853	106.75
357.08	95.75
357.307	112.75
357.534	78.75
357.761	99.75
357.988	110.75
358.215	116.75
358.441	107.75
358.668	119.75
358.895	103.75
359.122	95.75
359.349	98.75
359.576	90.75
359.802	84.75
360.029	88.75
360.256	100.75
360.483	92.75
360.709	86.75
360.936	104.75
361.163	97.75
361.39	104.75
361.616	92.75
361.843	95.75
362.07	118.75
362.296	105.75
362.523	136.75
362.749	129.75
362.976	165.75
363.203	197.75
363.429	148.75
363.656	110.75
363.882	121.75
364.109	160.75
364.335	200.75
364.562	220.75
364.788	131.75
365.015	107.75
365.241	100.75
365.468	95.75
365.694	99.75
365.92	86.75
366.147	104.75
366.373	89.75
366.599	93.75
366.826	93.75
367.052	102.75
367.278	98.75
367.505	97.75
367.731	97.75
367.957	76.75
368.184	92.75
368.41	98.75
368.636	98.75
368.862	81.75
369.089	84.75
369.315	96.75
369.541	106.75
369.767	96.75
369.993	99.75
370.219	102.75
370.445	106.75
370.672	129.75
370.898	115.75
371.124	102.75
371.35	96.75
371.576	101.75
371.802	88.75
372.028	114.75
372.254	124.75
372.48	98.75
372.706	95.75
372.932	90.75
373.158	119.75
373.384	118.75
373.61	155.75
373.835	159.75
374.061	128.75
374.287	128.75
374.513	97.75
374.739	132.75
374.965	121.75
375.191	104.75
375.416	112.75
375.642	105.75
375.868	103.75
376.094	105.75
376.319	104.75
376.545	107.75
376.771	97.75
376.997	86.75
377.222	100.75
377.448	81.75
377.674	96.75
377.899	96.75
378.125	101.75
378.35	86.75
378.576	96.75
378.802	102.75
379.027	99.75
379.253	91.75
379.478	99.75
379.704	94.75
379.929	97.75
380.155	82.75
380.38	91.75
380.606	102.75
380.831	83.75
381.057	102.75
381.282	98.75
381.507	108.75
381.733	112.75
381.958	114.75
382.184	109.75
382.409	112.75
382.634	136.75
382.86	118.75
383.085	118.75
383.31	130.75
383.535	148.75
383.761	138.75
383.986	149.75
384.211	132.75
384.436	104.75
384.662	92.75
384.887	98.75
385.112	107.75
385.337	103.75
385.562	99.75
385.787	115.75
386.013	128.75
386.238	125.75
386.463	104.75
386.688	120.75
386.913	106.75
387.138	112.75
387.363	114.75
387.588	125.75
387.813	115.75
388.038	104.75
388.263	116.75
388.488	117.75
388.713	108.75
388.938	105.75
389.163	97.75
389.387	103.75
389.612	96.75
389.837	100.75
390.062	110.75
390.287	105.75
390.512	105.75
390.736	105.75
390.961	107.75
391.186	93.75
391.411	95.75
391.636	97.75
391.86	105.75
392.085	106.75
392.31	132.75
392.534	141.75
392.759	198.75
392.984	308.75
393.208	603.75
393.433	950.75
393.658	655.75
393.882	262.75
394.107	173.75
394.331	168.75
394.556	182.75
394.78	144.75
395.005	126.75
395.229	111.75
395.454	136.75
395.678	159.75
395.903	173.75
396.127	227.75
396.352	291.75
396.576	358.75
396.801	632.75
397.025	740.75
397.249	366.75
397.474	203.75
397.698	146.75
397.922	107.75
398.147	112.75
398.371	105.75
398.595	114.75
398.82	90.75
399.044	109.75
399.268	96.75
399.492	114.75
399.717	98.75
399.941	106.75
400.165	82.75
400.389	93.75
400.613	99.75
400.837	93.75
401.062	91.75
401.286	89.75
401.51	103.75
401.734	84.75
401.958	92.75
402.182	101.75
402.406	100.75
402.63	105.75
402.854	88.75
403.078	116.75
403.302	100.75
403.526	100.75
403.75	98.75
403.974	114.75
404.198	101.75
404.422	141.75
404.645	144.75
404.869	132.75
405.093	117.75
405.317	88.75
405.541	88.75
405.765	94.75
405.988	106.75
406.212	104.75
406.436	104.75
406.66	96.75
406.883	95.75
407.107	98.75
407.331	105.75
407.555	131.75
407.778	177.75
408.002	164.75
408.226	114.75
408.449	106.75
408.673	91.75
408.896	93.75
409.12	104.75
409.344	117.75
409.567	133.75
409.791	123.75
410.014	126.75
410.238	110.75
410.461	120.75
410.685	108.75
410.908	88.75
411.132	102.75
411.355	96.75
411.578	93.75
411.802	91.75
412.025	94.75
412.249	100.75
412.472	85.75
412.695	100.75
412.919	110.75
413.142	98.75
413.365	103.75
413.589	97.75
413.812	90.75
414.035	98.75
414.258	100.75
414.482	80.75
414.705	98.75
414.928	101.75
415.151	81.75
415.374	89.75
415.597	96.75
415.821	95.75
416.044	86.75
416.267	103.75
416.49	86.75
416.713	95.75
416.936	97.75
417.159	84.75
417.382	78.75
417.605	86.75
417.828	94.75
418.051	97.75
418.274	88.75
418.497	96.75
418.72	84.75
418.943	96.75
419.166	86.75
419.389	72.75
419.611	92.75
419.834	94.75
420.057	104.75
420.28	100.75
420.503	118.75
420.726	105.75
420.948	116.75
421.171	119.75
421.394	137.75
421.617	163.75
421.839	181.75
422.062	184.75
422.285	283.75
422.507	548.75
422.73	896.75
422.953	802.75
423.175	357.75
423.398	176.75
423.621	132.75
423.843	129.75
424.066	125.75
424.288	120.75
424.511	119.75
424.733	105.75
424.956	91.75
425.178	89.75
425.401	83.75
425.623	99.75
425.846	97.75
426.068	98.75
426.291	90.75
426.513	104.75
426.735	83.75
426.958	110.75
427.18	97.75
427.402	115.75
427.625	96.75
427.847	100.75
428.069	123.75
428.292	201.75
428.514	240.75
428.736	162.75
428.958	184.75
429.181	201.75
429.403	136.75
429.625	133.75
429.847	183.75
430.069	271.75
430.292	350.75
430.514	334.75
430.736	231.75
430.958	244.75
431.18	142.75
431.402	106.75
431.624	136.75
431.846	195.75
432.068	212.75
432.29	132.75
432.512	106.75
432.734	99.75
432.956	80.75
433.178	85.75
433.4	90.75
433.622	88.75
433.844	77.75
434.066	72.75
434.287	96.75
434.509	86.75
434.731	81.75
434.953	86.75
435.175	87.75
435.397	95.75
435.618	112.75
435.84	113.75
436.062	102.75
436.284	78.75
436.505	107.75
436.727	93.75
436.949	83.75
437.17	86.75
437.392	89.75
437.614	93.75
437.835	92.75
438.057	100.75
438.278	98.75
438.5	114.75
438.721	80.75
438.943	92.75
439.165	96.75
439.386	88.75
439.608	90.75
439.829	76.75
440.05	96.75
440.272	96.75
440.493	103.75
440.715	104.75
440.936	101.75
441.158	96.75
441.379	97.75
441.6	93.75
441.822	95.75
442.043	93.75
442.264	148.75
442.486	216.75
442.707	322.75
442.928	197.75
443.149	154.75
443.371	274.75
443.592	524.75
443.813	442.75
444.034	179.75
444.255	117.75
444.476	107.75
444.698	111.75
444.919	134.75
445.14	261.75
445.361	383.75
445.582	644.75
445.803	525.75
446.024	185.75
446.245	118.75
446.466	107.75
446.687	92.75
446.908	88.75
447.129	91.75
447.35	84.75
447.571	81.75
447.792	79.75
448.013	94.75
448.234	84.75
448.455	95.75
448.675	96.75
448.896	90.75
449.117	99.75
449.338	86.75
449.559	100.75
449.779	91.75
450	106.75
450.221	91.75
450.442	90.75
450.662	99.75
450.883	86.75
451.104	94.75
451.324	98.75
451.545	95.75
451.766	91.75
451.986	93.75
452.207	91.75
452.428	104.75
452.648	106.75
452.869	129.75
453.089	114.75
453.31	107.75
453.53	93.75
453.751	109.75
453.971	100.75
454.192	91.75
454.412	84.75
454.633	89.75
454.853	104.75
455.073	94.75
455.294	93.75
455.514	121.75
455.734	100.75
455.955	90.75
456.175	83.75
456.395	93.75
456.616	98.75
456.836	80.75
457.056	99.75
457.276	89.75
457.497	112.75
457.717	118.75
457.937	161.75
458.157	200.75
458.377	197.75
458.598	184.75
458.818	198.75
459.038	124.75
459.258	108.75
459.478	84.75
459.698	87.75
459.918	93.75
460.138	87.75
460.358	100.75
460.578	120.75
460.798	155.75
461.018	146.75
461.238	96.75
461.458	92.75
461.678	78.75
461.898	88.75
462.118	85.75
462.338	86.75
462.558	97.75
462.777	87.75
462.997	80.75
463.217	91.75
463.437	68.75
463.657	96.75
463.876	87.75
464.096	78.75
464.316	99.75
464.536	72.75
464.755	84.75
464.975	86.75
465.195	84.75
465.414	82.75
465.634	72.75
465.854	97.75
466.073	90.75
466.293	94.75
466.512	90.75
466.732	85.75
466.951	95.75
467.171	92.75
467.391	88.75
467.61	83.75
467.829	92.75
468.049	89.75
468.268	100.75
468.488	94.75
468.707	100.75
468.927	75.75
469.146	87.75
469.365	108.75
469.585	84.75
469.804	96.75
470.023	82.75
470.243	85.75
470.462	88.75
470.681	108.75
470.901	99.75
471.12	86.75
471.339	79.75
471.558	84.75
471.777	77.75
471.997	102.75
472.216	87.75
472.435	90.75
472.654	81.75
472.873	92.75
473.092	90.75
473.311	97.75
473.53	103.75
473.749	87.75
473.968	72.75
474.187	88.75
474.406	88.75
474.625	96.75
474.844	101.75
475.063	92.75
475.282	85.75
475.501	83.75
475.72	85.75
475.939	78.75
476.158	105.75
476.377	96.75
476.596	101.75
476.814	92.75
477.033	86.75
477.252	86.75
477.471	96.75
477.69	77.75
477.908	82.75
478.127	98.75
478.346	102.75
478.564	100.75
478.783	101.75
479.002	89.75
479.22	94.75
479.439	89.75
479.658	76.75
479.876	96.75
480.095	82.75
480.313	99.75
480.532	89.75
480.751	104.75
480.969	99.75
481.188	104.75
481.406	107.75
481.624	106.75
481.843	85.75
482.061	94.75
482.28	96.75
482.498	97.75
482.717	97.75
482.935	95.75
483.153	91.75
483.372	105.75
483.59	117.75
483.808	93.75
484.027	105.75
484.245	101.75
484.463	92.75
484.681	106.75
484.9	112.75
485.118	87.75
485.336	98.75
485.554	81.75
485.772	94.75
485.99	99.75
486.209	93.75
486.427	98.75
486.645	84.75
486.863	114.75
487.081	107.75
487.299	93.75
487.517	123.75
487.735	164.75
487.953	310.75
488.171	234.75
488.389	116.75
488.607	82.75
488.825	84.75
489.043	98.75
489.261	94.75
489.479	102.75
489.696	89.75
489.914	96.75
490.132	96.75
490.35	91.75
490.568	84.75
490.786	97.75
491.003	88.75
491.221	90.75
491.439	92.75
491.657	98.75
491.874	91.75
492.092	87.75
492.31	98.75
492.527	84.75
492.745	90.75
492.963	106.75
493.18	93.75
493.398	98.75
493.615	90.75
493.833	89.75
494.05	94.75
494.268	89.75
494.485	93.75
494.703	68.75
494.92	86.75
495.138	85.75
495.355	90.75
495.573	93.75
495.79	104.75
496.008	107.75
496.225	103.75
496.442	96.75
496.66	101.75
496.877	93.75
497.094	101.75
497.312	95.75
497.529	82.75
497.746	102.75
497.963	91.75
498.181	110.75
498.398	117.75
498.615	106.75
498.832	89.75
499.049	103.75
499.267	107.75
499.484	97.75
499.701	88.75
499.918	100.75
500.135	105.75
500.352	94.75
500.569	99.75
500.786	107.75
501.003	107.75
501.22	99.75
501.437	92.75
501.654	114.75
501.871	96.75
502.088	97.75
502.305	107.75
502.522	95.75
502.739	103.75
502.956	100.75
503.172	96.75
503.389	104.75
503.606	96.75
503.823	117.75
504.04	131.75
504.256	202.75
504.473	203.75
504.69	114.75
504.907	96.75
505.123	98.75
505.34	89.75
505.557	86.75
505.773	82.75
505.99	90.75
506.207	100.75
506.423	89.75
506.64	97.75
506.856	89.75
507.073	78.75
507.289	94.75
507.506	86.75
507.722	68.75
507.939	89.75
508.155	86.75
508.372	97.75
508.588	89.75
508.805	102.75
509.021	97.75
509.238	91.75
509.454	91.75
509.67	88.75
509.887	82.75
510.103	88.75
510.319	93.75
510.536	88.75
510.752	81.75
510.968	96.75
511.184	89.75
511.401	85.75
511.617	101.75
511.833	84.75
512.049	82.75
512.265	103.75
512.481	108.75
512.698	93.75
512.914	88.75
513.13	86.75
513.346	92.75
513.562	83.75
513.778	93.75
513.994	87.75
514.21	97.75
514.426	105.75
