Data from 237_2_HRD10591_00042.txt Node
Date: Mon Jan 19 14:11:51 EST 2026
User: Yrep
Spectrometer: HR+D1059
Trigger mode: 1
Integration Time (sec): 1.000000E-1
Scans to average: 1
Electric dark correction enabled: true
Nonlinearity correction enabled: false
Boxcar width: 0
XAxis mode: Wavelengths
Number of Pixels in Spectrum: 2048
>>>>>Begin Spectral Data<<<<<
223.165	-12.31
223.4	-12.31
223.635	-12.31
223.869	-16.31
224.104	-17.31
224.338	-14.31
224.573	-26.31
224.808	-19.31
225.042	-13.31
225.277	-3.31
225.511	-10.31
225.746	12.69
225.98	15.69
226.215	12.69
226.449	23.69
226.683	21.69
226.918	23.69
227.152	22.69
227.387	36.69
227.621	34.69
227.856	47.69
228.09	35.69
228.324	51.69
228.559	58.69
228.793	57.69
229.027	55.69
229.262	59.69
229.496	72.69
229.73	52.69
229.964	65.69
230.199	74.69
230.433	88.69
230.667	79.69
230.901	73.69
231.136	98.69
231.37	80.69
231.604	86.69
231.838	76.69
232.072	73.69
232.306	87.69
232.541	70.69
232.775	87.69
233.009	72.69
233.243	88.69
233.477	70.69
233.711	86.69
233.945	75.69
234.179	94.69
234.413	86.69
234.647	71.69
234.881	86.69
235.115	78.69
235.349	84.69
235.583	64.69
235.817	86.69
236.051	58.69
236.285	75.69
236.519	74.69
236.753	71.69
236.987	63.69
237.221	73.69
237.455	60.69
237.689	78.69
237.922	72.69
238.156	71.69
238.39	64.69
238.624	70.69
238.858	75.69
239.091	86.69
239.325	58.69
239.559	80.69
239.793	68.69
240.027	75.69
240.26	76.69
240.494	75.69
240.728	79.69
240.961	90.69
241.195	83.69
241.429	73.69
241.662	81.69
241.896	73.69
242.13	75.69
242.363	79.69
242.597	84.69
242.83	81.69
243.064	68.69
243.298	84.69
243.531	75.69
243.765	72.69
243.998	82.69
244.232	82.69
244.465	71.69
244.699	92.69
244.932	57.69
245.166	71.69
245.399	77.69
245.633	68.69
245.866	66.69
246.099	71.69
246.333	70.69
246.566	77.69
246.8	84.69
247.033	72.69
247.266	80.69
247.5	75.69
247.733	78.69
247.966	84.69
248.2	78.69
248.433	86.69
248.666	91.69
248.899	86.69
249.133	82.69
249.366	73.69
249.599	76.69
249.832	77.69
250.066	72.69
250.299	80.69
250.532	78.69
250.765	81.69
250.998	75.69
251.231	78.69
251.465	75.69
251.698	96.69
251.931	77.69
252.164	78.69
252.397	83.69
252.63	76.69
252.863	79.69
253.096	81.69
253.329	70.69
253.562	82.69
253.795	70.69
254.028	80.69
254.261	74.69
254.494	77.69
254.727	90.69
254.96	74.69
255.193	73.69
255.426	67.69
255.659	88.69
255.892	81.69
256.124	64.69
256.357	70.69
256.59	77.69
256.823	81.69
257.056	65.69
257.289	79.69
257.521	76.69
257.754	88.69
257.987	75.69
258.22	75.69
258.452	79.69
258.685	60.69
258.918	70.69
259.151	63.69
259.383	89.69
259.616	79.69
259.849	73.69
260.081	84.69
260.314	79.69
260.547	79.69
260.779	83.69
261.012	70.69
261.244	78.69
261.477	93.69
261.71	75.69
261.942	87.69
262.175	80.69
262.407	68.69
262.64	80.69
262.872	71.69
263.105	88.69
263.337	78.69
263.57	76.69
263.802	74.69
264.035	88.69
264.267	88.69
264.499	74.69
264.732	71.69
264.964	94.69
265.197	80.69
265.429	80.69
265.661	86.69
265.894	74.69
266.126	94.69
266.358	81.69
266.591	97.69
266.823	80.69
267.055	89.69
267.287	71.69
267.52	61.69
267.752	70.69
267.984	79.69
268.216	63.69
268.448	75.69
268.681	58.69
268.913	77.69
269.145	68.69
269.377	81.69
269.609	90.69
269.841	72.69
270.073	81.69
270.306	96.69
270.538	88.69
270.77	79.69
271.002	67.69
271.234	93.69
271.466	70.69
271.698	67.69
271.93	84.69
272.162	87.69
272.394	86.69
272.626	87.69
272.858	82.69
273.09	87.69
273.322	84.69
273.553	70.69
273.785	84.69
274.017	90.69
274.249	88.69
274.481	94.69
274.713	85.69
274.945	72.69
275.176	92.69
275.408	77.69
275.64	92.69
275.872	83.69
276.104	82.69
276.335	88.69
276.567	76.69
276.799	67.69
277.031	85.69
277.262	82.69
277.494	89.69
277.726	76.69
277.957	94.69
278.189	76.69
278.421	78.69
278.652	92.69
278.884	83.69
279.115	71.69
279.347	88.69
279.579	93.69
279.81	83.69
280.042	91.69
280.273	83.69
280.505	91.69
280.736	77.69
280.968	85.69
281.199	81.69
281.431	85.69
281.662	84.69
281.894	70.69
282.125	95.69
282.356	110.69
282.588	80.69
282.819	76.69
283.051	94.69
283.282	93.69
283.513	86.69
283.745	83.69
283.976	88.69
284.207	86.69
284.439	80.69
284.67	83.69
284.901	94.69
285.132	84.69
285.364	83.69
285.595	83.69
285.826	81.69
286.057	88.69
286.288	91.69
286.52	83.69
286.751	87.69
286.982	86.69
287.213	76.69
287.444	86.69
287.675	70.69
287.906	86.69
288.138	94.69
288.369	97.69
288.6	85.69
288.831	67.69
289.062	76.69
289.293	99.69
289.524	77.69
289.755	82.69
289.986	76.69
290.217	77.69
290.448	95.69
290.679	84.69
290.91	85.69
291.141	76.69
291.371	81.69
291.602	71.69
291.833	67.69
292.064	86.69
292.295	86.69
292.526	84.69
292.757	81.69
292.987	74.69
293.218	90.69
293.449	90.69
293.68	90.69
293.91	79.69
294.141	94.69
294.372	74.69
294.603	81.69
294.833	87.69
295.064	85.69
295.295	87.69
295.525	73.69
295.756	68.69
295.987	76.69
296.217	79.69
296.448	71.69
296.679	79.69
296.909	92.69
297.14	86.69
297.37	90.69
297.601	72.69
297.831	76.69
298.062	86.69
298.292	94.69
298.523	84.69
298.753	89.69
298.984	83.69
299.214	93.69
299.445	94.69
299.675	96.69
299.905	90.69
300.136	90.69
300.366	106.69
300.597	99.69
300.827	92.69
301.057	79.69
301.288	105.69
301.518	88.69
301.748	81.69
301.979	91.69
302.209	85.69
302.439	93.69
302.669	73.69
302.9	84.69
303.13	82.69
303.36	77.69
303.59	77.69
303.82	83.69
304.051	86.69
304.281	75.69
304.511	71.69
304.741	74.69
304.971	81.69
305.201	70.69
305.431	78.69
305.661	88.69
305.891	69.69
306.121	91.69
306.352	78.69
306.582	89.69
306.812	97.69
307.042	85.69
307.272	85.69
307.502	92.69
307.731	102.69
307.961	74.69
308.191	92.69
308.421	94.69
308.651	96.69
308.881	108.69
309.111	103.69
309.341	99.69
309.571	94.69
309.8	89.69
310.03	80.69
310.26	94.69
310.49	75.69
310.72	76.69
310.949	80.69
311.179	77.69
311.409	87.69
311.639	100.69
311.868	90.69
312.098	83.69
312.328	86.69
312.557	86.69
312.787	80.69
313.017	97.69
313.246	95.69
313.476	76.69
313.706	83.69
313.935	92.69
314.165	85.69
314.394	89.69
314.624	89.69
314.853	89.69
315.083	91.69
315.312	82.69
315.542	89.69
315.771	86.69
316.001	87.69
316.23	98.69
316.46	82.69
316.689	75.69
316.919	90.69
317.148	89.69
317.377	78.69
317.607	85.69
317.836	92.69
318.065	103.69
318.295	82.69
318.524	90.69
318.753	91.69
318.983	80.69
319.212	78.69
319.441	91.69
319.67	83.69
319.9	75.69
320.129	78.69
320.358	75.69
320.587	83.69
320.816	92.69
321.046	76.69
321.275	88.69
321.504	88.69
321.733	90.69
321.962	88.69
322.191	86.69
322.42	100.69
322.649	96.69
322.878	89.69
323.108	85.69
323.337	90.69
323.566	90.69
323.795	88.69
324.024	102.69
324.253	101.69
324.482	98.69
324.71	103.69
324.939	103.69
325.168	87.69
325.397	82.69
325.626	87.69
325.855	86.69
326.084	99.69
326.313	97.69
326.542	95.69
326.77	92.69
326.999	86.69
327.228	76.69
327.457	79.69
327.686	94.69
327.914	83.69
328.143	82.69
328.372	90.69
328.6	79.69
328.829	88.69
329.058	75.69
329.287	66.69
329.515	84.69
329.744	86.69
329.972	77.69
330.201	80.69
330.43	72.69
330.658	78.69
330.887	83.69
331.115	71.69
331.344	86.69
331.572	62.69
331.801	83.69
332.03	86.69
332.258	78.69
332.486	81.69
332.715	84.69
332.943	84.69
333.172	81.69
333.4	78.69
333.629	91.69
333.857	85.69
334.085	99.69
334.314	89.69
334.542	92.69
334.771	97.69
334.999	88.69
335.227	79.69
335.455	87.69
335.684	106.69
335.912	93.69
336.14	88.69
336.369	96.69
336.597	87.69
336.825	89.69
337.053	89.69
337.281	90.69
337.51	83.69
337.738	86.69
337.966	93.69
338.194	90.69
338.422	89.69
338.65	80.69
338.878	97.69
339.106	82.69
339.334	95.69
339.562	90.69
339.79	89.69
340.018	88.69
340.246	81.69
340.474	82.69
340.702	90.69
340.93	85.69
341.158	75.69
341.386	84.69
341.614	98.69
341.842	82.69
342.07	77.69
342.298	82.69
342.526	90.69
342.754	87.69
342.981	78.69
343.209	86.69
343.437	76.69
343.665	86.69
343.893	82.69
344.12	74.69
344.348	100.69
344.576	88.69
344.804	78.69
345.031	88.69
345.259	79.69
345.487	87.69
345.714	85.69
345.942	82.69
346.17	87.69
346.397	82.69
346.625	88.69
346.853	91.69
347.08	88.69
347.308	99.69
347.535	81.69
347.763	88.69
347.99	80.69
348.218	79.69
348.445	81.69
348.673	79.69
348.9	96.69
349.128	88.69
349.355	82.69
349.583	84.69
349.81	91.69
350.037	81.69
350.265	81.69
350.492	91.69
350.72	84.69
350.947	75.69
351.174	82.69
351.402	83.69
351.629	83.69
351.856	91.69
352.083	71.69
352.311	101.69
352.538	98.69
352.765	84.69
352.992	76.69
353.22	83.69
353.447	89.69
353.674	80.69
353.901	80.69
354.128	80.69
354.355	75.69
354.583	85.69
354.81	94.69
355.037	95.69
355.264	85.69
355.491	74.69
355.718	107.69
355.945	83.69
356.172	77.69
356.399	92.69
356.626	90.69
356.853	88.69
357.08	86.69
357.307	83.69
357.534	77.69
357.761	87.69
357.988	92.69
358.215	96.69
358.441	97.69
358.668	84.69
358.895	94.69
359.122	108.69
359.349	84.69
359.576	74.69
359.802	78.69
360.029	72.69
360.256	70.69
360.483	87.69
360.709	80.69
360.936	96.69
361.163	93.69
361.39	89.69
361.616	109.69
361.843	88.69
362.07	94.69
362.296	87.69
362.523	96.69
362.749	99.69
362.976	122.69
363.203	128.69
363.429	100.69
363.656	91.69
363.882	106.69
364.109	111.69
364.335	144.69
364.562	151.69
364.788	134.69
365.015	111.69
365.241	86.69
365.468	99.69
365.694	84.69
365.92	91.69
366.147	86.69
366.373	81.69
366.599	87.69
366.826	96.69
367.052	88.69
367.278	84.69
367.505	88.69
367.731	92.69
367.957	86.69
368.184	79.69
368.41	76.69
368.636	85.69
368.862	96.69
369.089	96.69
369.315	94.69
369.541	79.69
369.767	76.69
369.993	72.69
370.219	84.69
370.445	96.69
370.672	94.69
370.898	87.69
371.124	94.69
371.35	84.69
371.576	87.69
371.802	94.69
372.028	92.69
372.254	92.69
372.48	81.69
372.706	96.69
372.932	90.69
373.158	80.69
373.384	120.69
373.61	116.69
373.835	126.69
374.061	98.69
374.287	94.69
374.513	99.69
374.739	86.69
374.965	86.69
375.191	89.69
375.416	93.69
375.642	98.69
375.868	82.69
376.094	92.69
376.319	93.69
376.545	88.69
376.771	99.69
376.997	95.69
377.222	83.69
377.448	83.69
377.674	89.69
377.899	81.69
378.125	94.69
378.35	92.69
378.576	82.69
378.802	87.69
379.027	79.69
379.253	82.69
379.478	101.69
379.704	82.69
379.929	93.69
380.155	103.69
380.38	82.69
380.606	87.69
380.831	93.69
381.057	103.69
381.282	88.69
381.507	96.69
381.733	102.69
381.958	93.69
382.184	105.69
382.409	80.69
382.634	91.69
382.86	103.69
383.085	98.69
383.31	106.69
383.535	105.69
383.761	95.69
383.986	101.69
384.211	97.69
384.436	94.69
384.662	99.69
384.887	94.69
385.112	82.69
385.337	84.69
385.562	84.69
385.787	106.69
386.013	110.69
386.238	107.69
386.463	86.69
386.688	95.69
386.913	109.69
387.138	98.69
387.363	86.69
387.588	103.69
387.813	96.69
388.038	87.69
388.263	100.69
388.488	101.69
388.713	88.69
388.938	86.69
389.163	99.69
389.387	76.69
389.612	96.69
389.837	89.69
390.062	83.69
390.287	91.69
390.512	96.69
390.736	89.69
390.961	86.69
391.186	90.69
391.411	86.69
391.636	91.69
391.86	90.69
392.085	81.69
392.31	94.69
392.534	99.69
392.759	137.69
392.984	190.69
393.208	342.69
393.433	519.69
393.658	401.69
393.882	160.69
394.107	128.69
394.331	106.69
394.556	133.69
394.78	106.69
395.005	102.69
395.229	101.69
395.454	103.69
395.678	104.69
395.903	121.69
396.127	158.69
396.352	190.69
396.576	208.69
396.801	330.69
397.025	400.69
397.249	202.69
397.474	136.69
397.698	107.69
397.922	93.69
398.147	99.69
398.371	90.69
398.595	96.69
398.82	94.69
399.044	93.69
399.268	86.69
399.492	83.69
399.717	89.69
399.941	82.69
400.165	99.69
400.389	94.69
400.613	84.69
400.837	78.69
401.062	88.69
401.286	89.69
401.51	95.69
401.734	86.69
401.958	86.69
402.182	96.69
402.406	77.69
402.63	88.69
402.854	81.69
403.078	89.69
403.302	93.69
403.526	94.69
403.75	103.69
403.974	92.69
404.198	83.69
404.422	101.69
404.645	104.69
404.869	94.69
405.093	85.69
405.317	86.69
405.541	88.69
405.765	75.69
405.988	92.69
406.212	84.69
406.436	97.69
406.66	85.69
406.883	80.69
407.107	84.69
407.331	102.69
407.555	102.69
407.778	126.69
408.002	116.69
408.226	97.69
408.449	78.69
408.673	84.69
408.896	83.69
409.12	78.69
409.344	94.69
409.567	104.69
409.791	110.69
410.014	101.69
410.238	106.69
410.461	96.69
410.685	88.69
410.908	98.69
411.132	94.69
411.355	96.69
411.578	90.69
411.802	80.69
412.025	88.69
412.249	76.69
412.472	62.69
412.695	85.69
412.919	84.69
413.142	98.69
413.365	93.69
413.589	95.69
413.812	106.69
414.035	86.69
414.258	87.69
414.482	88.69
414.705	85.69
414.928	90.69
415.151	92.69
415.374	72.69
415.597	86.69
415.821	71.69
416.044	71.69
416.267	84.69
416.49	93.69
416.713	94.69
416.936	83.69
417.159	88.69
417.382	66.69
417.605	85.69
417.828	92.69
418.051	96.69
418.274	72.69
418.497	85.69
418.72	99.69
418.943	82.69
419.166	94.69
419.389	88.69
419.611	94.69
419.834	87.69
420.057	93.69
420.28	94.69
420.503	90.69
420.726	98.69
420.948	87.69
421.171	96.69
421.394	101.69
421.617	119.69
421.839	123.69
422.062	140.69
422.285	199.69
422.507	376.69
422.73	584.69
422.953	523.69
423.175	246.69
423.398	145.69
423.621	109.69
423.843	94.69
424.066	99.69
424.288	88.69
424.511	113.69
424.733	92.69
424.956	83.69
425.178	69.69
425.401	103.69
425.623	92.69
425.846	78.69
426.068	92.69
426.291	78.69
426.513	88.69
426.735	88.69
426.958	91.69
427.18	100.69
427.402	99.69
427.625	104.69
427.847	88.69
428.069	102.69
428.292	142.69
428.514	163.69
428.736	123.69
428.958	155.69
429.181	160.69
429.403	96.69
429.625	94.69
429.847	132.69
430.069	170.69
430.292	229.69
430.514	200.69
430.736	151.69
430.958	139.69
431.18	122.69
431.402	100.69
431.624	105.69
431.846	130.69
432.068	168.69
432.29	115.69
432.512	102.69
432.734	94.69
432.956	72.69
433.178	79.69
433.4	84.69
433.622	83.69
433.844	90.69
434.066	76.69
434.287	97.69
434.509	80.69
434.731	93.69
434.953	80.69
435.175	76.69
435.397	101.69
435.618	99.69
435.84	87.69
436.062	96.69
436.284	70.69
436.505	83.69
436.727	81.69
436.949	88.69
437.17	67.69
437.392	71.69
437.614	75.69
437.835	85.69
438.057	90.69
438.278	94.69
438.5	91.69
438.721	86.69
438.943	79.69
439.165	82.69
439.386	82.69
439.608	82.69
439.829	97.69
440.05	82.69
440.272	91.69
440.493	103.69
440.715	86.69
440.936	90.69
441.158	97.69
441.379	91.69
441.6	87.69
441.822	95.69
442.043	89.69
442.264	93.69
442.486	163.69
442.707	211.69
442.928	141.69
443.149	110.69
443.371	176.69
443.592	314.69
443.813	278.69
444.034	104.69
444.255	97.69
444.476	94.69
444.698	77.69
444.919	103.69
445.14	174.69
445.361	246.69
445.582	380.69
445.803	312.69
446.024	138.69
446.245	86.69
446.466	84.69
446.687	82.69
446.908	92.69
447.129	91.69
447.35	84.69
447.571	77.69
447.792	87.69
448.013	79.69
448.234	88.69
448.455	77.69
448.675	83.69
448.896	89.69
449.117	75.69
449.338	91.69
449.559	88.69
449.779	79.69
450	84.69
450.221	80.69
450.442	96.69
450.662	81.69
450.883	98.69
451.104	87.69
451.324	71.69
451.545	84.69
451.766	77.69
451.986	86.69
452.207	72.69
452.428	89.69
452.648	108.69
452.869	117.69
453.089	96.69
453.31	100.69
453.53	99.69
453.751	97.69
453.971	89.69
454.192	89.69
454.412	83.69
454.633	87.69
454.853	77.69
455.073	86.69
455.294	81.69
455.514	83.69
455.734	66.69
455.955	91.69
456.175	80.69
456.395	66.69
456.616	85.69
456.836	71.69
457.056	89.69
457.276	69.69
457.497	97.69
457.717	100.69
457.937	117.69
458.157	124.69
458.377	128.69
458.598	129.69
458.818	148.69
459.038	108.69
459.258	98.69
459.478	83.69
459.698	76.69
459.918	74.69
460.138	77.69
460.358	93.69
460.578	87.69
460.798	121.69
461.018	129.69
461.238	98.69
461.458	90.69
461.678	92.69
461.898	91.69
462.118	90.69
462.338	68.69
462.558	84.69
462.777	94.69
462.997	88.69
463.217	75.69
463.437	82.69
463.657	78.69
463.876	80.69
464.096	84.69
464.316	98.69
464.536	80.69
464.755	82.69
464.975	90.69
465.195	86.69
465.414	89.69
465.634	89.69
465.854	97.69
466.073	68.69
466.293	65.69
466.512	90.69
466.732	71.69
466.951	80.69
467.171	73.69
467.391	75.69
467.61	88.69
467.829	96.69
468.049	94.69
468.268	91.69
468.488	87.69
468.707	99.69
468.927	83.69
469.146	86.69
469.365	85.69
469.585	90.69
469.804	82.69
470.023	93.69
470.243	81.69
470.462	87.69
470.681	86.69
470.901	80.69
471.12	90.69
471.339	87.69
471.558	87.69
471.777	88.69
471.997	81.69
472.216	89.69
472.435	79.69
472.654	82.69
472.873	97.69
473.092	82.69
473.311	87.69
473.53	83.69
473.749	80.69
473.968	84.69
474.187	88.69
474.406	92.69
474.625	82.69
474.844	75.69
475.063	88.69
475.282	87.69
475.501	89.69
475.72	92.69
475.939	91.69
476.158	91.69
476.377	74.69
476.596	83.69
476.814	112.69
477.033	90.69
477.252	84.69
477.471	76.69
477.69	99.69
477.908	92.69
478.127	104.69
478.346	85.69
478.564	88.69
478.783	71.69
479.002	82.69
479.22	84.69
479.439	75.69
479.658	80.69
479.876	66.69
480.095	91.69
480.313	78.69
480.532	83.69
480.751	94.69
480.969	86.69
481.188	77.69
481.406	101.69
481.624	91.69
481.843	76.69
482.061	80.69
482.28	74.69
482.498	87.69
482.717	89.69
482.935	82.69
483.153	91.69
483.372	94.69
483.59	87.69
483.808	104.69
484.027	95.69
484.245	84.69
484.463	82.69
484.681	80.69
484.9	94.69
485.118	92.69
485.336	91.69
485.554	100.69
485.772	82.69
485.99	86.69
486.209	86.69
486.427	90.69
486.645	88.69
486.863	95.69
487.081	88.69
487.299	94.69
487.517	89.69
487.735	116.69
487.953	209.69
488.171	163.69
488.389	90.69
488.607	82.69
488.825	99.69
489.043	88.69
489.261	87.69
489.479	100.69
489.696	78.69
489.914	83.69
490.132	94.69
490.35	95.69
490.568	86.69
490.786	84.69
491.003	92.69
491.221	72.69
491.439	90.69
491.657	91.69
491.874	96.69
492.092	74.69
492.31	91.69
492.527	90.69
492.745	94.69
492.963	89.69
493.18	93.69
493.398	83.69
493.615	81.69
493.833	84.69
494.05	76.69
494.268	78.69
494.485	99.69
494.703	84.69
494.92	91.69
495.138	73.69
495.355	90.69
495.573	107.69
495.79	89.69
496.008	72.69
496.225	78.69
496.442	89.69
496.66	88.69
496.877	82.69
497.094	107.69
497.312	74.69
497.529	83.69
497.746	84.69
497.963	98.69
498.181	92.69
498.398	107.69
498.615	82.69
498.832	67.69
499.049	81.69
499.267	106.69
499.484	96.69
499.701	101.69
499.918	97.69
500.135	101.69
500.352	90.69
500.569	104.69
500.786	110.69
501.003	98.69
501.22	84.69
501.437	102.69
501.654	89.69
501.871	85.69
502.088	82.69
502.305	95.69
502.522	98.69
502.739	103.69
502.956	85.69
503.172	86.69
503.389	77.69
503.606	94.69
503.823	87.69
504.04	107.69
504.256	144.69
504.473	161.69
504.69	90.69
504.907	96.69
505.123	81.69
505.34	66.69
505.557	87.69
505.773	92.69
505.99	79.69
506.207	91.69
506.423	84.69
506.64	89.69
506.856	92.69
507.073	84.69
507.289	103.69
507.506	100.69
507.722	93.69
507.939	83.69
508.155	58.69
508.372	76.69
508.588	79.69
508.805	78.69
509.021	82.69
509.238	82.69
509.454	80.69
509.67	94.69
509.887	87.69
510.103	90.69
510.319	92.69
510.536	103.69
510.752	90.69
510.968	80.69
511.184	90.69
511.401	77.69
511.617	73.69
511.833	88.69
512.049	69.69
512.265	90.69
512.481	83.69
512.698	99.69
512.914	72.69
513.13	76.69
513.346	83.69
513.562	90.69
513.778	74.69
513.994	75.69
514.21	89.69
514.426	77.69
514.642	84.69
514.858	86.69
515.074	86.69
515.29	78.69
515.506	85.69
515.721	82.69
515.937	90.69
516.153	84.69
516.369	83.69
516.585	89.69
516.801	95.69
517.016	83.69
517.232	98.69
517.448	88.69
517.664	91.69
517.879	92.69
