Data from 237_2_HRD10591_00002.txt Node
Date: Mon Jan 19 14:11:31 EST 2026
User: Yrep
Spectrometer: HR+D1059
Trigger mode: 1
Integration Time (sec): 1.000000E-1
Scans to average: 1
Electric dark correction enabled: true
Nonlinearity correction enabled: false
Boxcar width: 0
XAxis mode: Wavelengths
Number of Pixels in Spectrum: 2048
>>>>>Begin Spectral Data<<<<<
223.165	-18.56
223.4	-18.56
223.635	-18.56
223.869	-14.56
224.104	-15.56
224.338	-12.56
224.573	-12.56
224.808	3.44
225.042	-11.56
225.277	-23.56
225.511	3.44
225.746	11.44
225.98	-0.56
226.215	12.44
226.449	14.44
226.683	1.44
226.918	20.44
227.152	42.44
227.387	36.44
227.621	32.44
227.856	44.44
228.09	40.44
228.324	48.44
228.559	45.44
228.793	53.44
229.027	64.44
229.262	60.44
229.496	55.44
229.73	70.44
229.964	51.44
230.199	76.44
230.433	59.44
230.667	65.44
230.901	71.44
231.136	70.44
231.37	72.44
231.604	67.44
231.838	78.44
232.072	58.44
232.306	76.44
232.541	73.44
232.775	63.44
233.009	77.44
233.243	86.44
233.477	81.44
233.711	78.44
233.945	77.44
234.179	72.44
234.413	78.44
234.647	76.44
234.881	88.44
235.115	82.44
235.349	78.44
235.583	67.44
235.817	67.44
236.051	68.44
236.285	69.44
236.519	90.44
236.753	60.44
236.987	84.44
237.221	64.44
237.455	82.44
237.689	72.44
237.922	70.44
238.156	72.44
238.39	72.44
238.624	71.44
238.858	73.44
239.091	52.44
239.325	78.44
239.559	76.44
239.793	69.44
240.027	68.44
240.26	85.44
240.494	60.44
240.728	70.44
240.961	76.44
241.195	69.44
241.429	78.44
241.662	72.44
241.896	68.44
242.13	72.44
242.363	78.44
242.597	66.44
242.83	65.44
243.064	73.44
243.298	70.44
243.531	70.44
243.765	72.44
243.998	58.44
244.232	78.44
244.465	72.44
244.699	73.44
244.932	67.44
245.166	77.44
245.399	66.44
245.633	84.44
245.866	75.44
246.099	72.44
246.333	76.44
246.566	65.44
246.8	72.44
247.033	75.44
247.266	67.44
247.5	71.44
247.733	71.44
247.966	81.44
248.2	72.44
248.433	78.44
248.666	84.44
248.899	76.44
249.133	67.44
249.366	81.44
249.599	68.44
249.832	78.44
250.066	64.44
250.299	64.44
250.532	82.44
250.765	69.44
250.998	86.44
251.231	69.44
251.465	79.44
251.698	78.44
251.931	84.44
252.164	85.44
252.397	72.44
252.63	88.44
252.863	80.44
253.096	75.44
253.329	80.44
253.562	71.44
253.795	76.44
254.028	76.44
254.261	84.44
254.494	78.44
254.727	67.44
254.96	72.44
255.193	77.44
255.426	76.44
255.659	75.44
255.892	70.44
256.124	79.44
256.357	61.44
256.59	86.44
256.823	83.44
257.056	78.44
257.289	77.44
257.521	60.44
257.754	78.44
257.987	90.44
258.22	72.44
258.452	76.44
258.685	71.44
258.918	92.44
259.151	60.44
259.383	70.44
259.616	78.44
259.849	64.44
260.081	74.44
260.314	86.44
260.547	75.44
260.779	86.44
261.012	82.44
261.244	79.44
261.477	90.44
261.71	72.44
261.942	78.44
262.175	96.44
262.407	82.44
262.64	66.44
262.872	80.44
263.105	82.44
263.337	72.44
263.57	71.44
263.802	77.44
264.035	83.44
264.267	78.44
264.499	82.44
264.732	78.44
264.964	63.44
265.197	82.44
265.429	70.44
265.661	71.44
265.894	78.44
266.126	84.44
266.358	91.44
266.591	68.44
266.823	70.44
267.055	79.44
267.287	59.44
267.52	73.44
267.752	56.44
267.984	79.44
268.216	74.44
268.448	82.44
268.681	91.44
268.913	80.44
269.145	88.44
269.377	76.44
269.609	83.44
269.841	79.44
270.073	77.44
270.306	73.44
270.538	76.44
270.77	90.44
271.002	78.44
271.234	81.44
271.466	85.44
271.698	82.44
271.93	77.44
272.162	82.44
272.394	74.44
272.626	77.44
272.858	85.44
273.09	65.44
273.322	76.44
273.553	74.44
273.785	67.44
274.017	66.44
274.249	81.44
274.481	84.44
274.713	73.44
274.945	87.44
275.176	79.44
275.408	82.44
275.64	83.44
275.872	85.44
276.104	79.44
276.335	71.44
276.567	65.44
276.799	78.44
277.031	84.44
277.262	85.44
277.494	81.44
277.726	79.44
277.957	87.44
278.189	83.44
278.421	73.44
278.652	75.44
278.884	81.44
279.115	82.44
279.347	67.44
279.579	71.44
279.81	76.44
280.042	79.44
280.273	83.44
280.505	70.44
280.736	90.44
280.968	72.44
281.199	91.44
281.431	78.44
281.662	74.44
281.894	72.44
282.125	72.44
282.356	78.44
282.588	72.44
282.819	78.44
283.051	96.44
283.282	77.44
283.513	82.44
283.745	80.44
283.976	74.44
284.207	86.44
284.439	77.44
284.67	92.44
284.901	74.44
285.132	83.44
285.364	75.44
285.595	97.44
285.826	82.44
286.057	71.44
286.288	72.44
286.52	90.44
286.751	90.44
286.982	79.44
287.213	75.44
287.444	88.44
287.675	90.44
287.906	100.44
288.138	96.44
288.369	94.44
288.6	81.44
288.831	84.44
289.062	93.44
289.293	75.44
289.524	90.44
289.755	81.44
289.986	62.44
290.217	85.44
290.448	78.44
290.679	98.44
290.91	74.44
291.141	83.44
291.371	101.44
291.602	81.44
291.833	76.44
292.064	84.44
292.295	83.44
292.526	80.44
292.757	100.44
292.987	96.44
293.218	92.44
293.449	70.44
293.68	87.44
293.91	77.44
294.141	91.44
294.372	64.44
294.603	84.44
294.833	92.44
295.064	80.44
295.295	79.44
295.525	78.44
295.756	98.44
295.987	63.44
296.217	78.44
296.448	76.44
296.679	78.44
296.909	88.44
297.14	91.44
297.37	80.44
297.601	66.44
297.831	72.44
298.062	71.44
298.292	72.44
298.523	71.44
298.753	85.44
298.984	81.44
299.214	91.44
299.445	76.44
299.675	80.44
299.905	87.44
300.136	80.44
300.366	86.44
300.597	71.44
300.827	77.44
301.057	87.44
301.288	78.44
301.518	78.44
301.748	65.44
301.979	95.44
302.209	70.44
302.439	68.44
302.669	86.44
302.9	84.44
303.13	86.44
303.36	83.44
303.59	73.44
303.82	95.44
304.051	74.44
304.281	76.44
304.511	83.44
304.741	80.44
304.971	72.44
305.201	81.44
305.431	77.44
305.661	83.44
305.891	90.44
306.121	75.44
306.352	85.44
306.582	90.44
306.812	75.44
307.042	88.44
307.272	86.44
307.502	86.44
307.731	87.44
307.961	86.44
308.191	80.44
308.421	76.44
308.651	84.44
308.881	87.44
309.111	85.44
309.341	108.44
309.571	75.44
309.8	73.44
310.03	84.44
310.26	84.44
310.49	64.44
310.72	74.44
310.949	62.44
311.179	82.44
311.409	75.44
311.639	81.44
311.868	90.44
312.098	87.44
312.328	79.44
312.557	84.44
312.787	68.44
313.017	84.44
313.246	72.44
313.476	70.44
313.706	72.44
313.935	75.44
314.165	81.44
314.394	78.44
314.624	96.44
314.853	87.44
315.083	78.44
315.312	94.44
315.542	90.44
315.771	79.44
316.001	79.44
316.23	83.44
316.46	71.44
316.689	75.44
316.919	71.44
317.148	70.44
317.377	74.44
317.607	84.44
317.836	82.44
318.065	73.44
318.295	69.44
318.524	78.44
318.753	76.44
318.983	90.44
319.212	88.44
319.441	84.44
319.67	76.44
319.9	92.44
320.129	73.44
320.358	72.44
320.587	67.44
320.816	75.44
321.046	74.44
321.275	75.44
321.504	84.44
321.733	87.44
321.962	78.44
322.191	73.44
322.42	83.44
322.649	82.44
322.878	75.44
323.108	76.44
323.337	80.44
323.566	77.44
323.795	80.44
324.024	86.44
324.253	80.44
324.482	83.44
324.71	82.44
324.939	92.44
325.168	74.44
325.397	72.44
325.626	94.44
325.855	78.44
326.084	82.44
326.313	82.44
326.542	90.44
326.77	90.44
326.999	91.44
327.228	73.44
327.457	75.44
327.686	88.44
327.914	78.44
328.143	95.44
328.372	87.44
328.6	79.44
328.829	82.44
329.058	94.44
329.287	89.44
329.515	84.44
329.744	90.44
329.972	84.44
330.201	82.44
330.43	86.44
330.658	87.44
330.887	81.44
331.115	82.44
331.344	74.44
331.572	83.44
331.801	84.44
332.03	86.44
332.258	94.44
332.486	94.44
332.715	85.44
332.943	76.44
333.172	78.44
333.4	78.44
333.629	71.44
333.857	78.44
334.085	68.44
334.314	96.44
334.542	81.44
334.771	92.44
334.999	79.44
335.227	94.44
335.455	87.44
335.684	92.44
335.912	93.44
336.14	87.44
336.369	91.44
336.597	93.44
336.825	87.44
337.053	77.44
337.281	95.44
337.51	76.44
337.738	90.44
337.966	81.44
338.194	76.44
338.422	87.44
338.65	86.44
338.878	91.44
339.106	78.44
339.334	76.44
339.562	70.44
339.79	82.44
340.018	78.44
340.246	77.44
340.474	74.44
340.702	86.44
340.93	88.44
341.158	76.44
341.386	84.44
341.614	76.44
341.842	88.44
342.07	82.44
342.298	73.44
342.526	75.44
342.754	86.44
342.981	76.44
343.209	93.44
343.437	97.44
343.665	81.44
343.893	80.44
344.12	78.44
344.348	80.44
344.576	99.44
344.804	90.44
345.031	92.44
345.259	73.44
345.487	71.44
345.714	69.44
345.942	85.44
346.17	93.44
346.397	94.44
346.625	66.44
346.853	87.44
347.08	77.44
347.308	73.44
347.535	76.44
347.763	63.44
347.99	79.44
348.218	76.44
348.445	71.44
348.673	85.44
348.9	85.44
349.128	83.44
349.355	87.44
349.583	81.44
349.81	78.44
350.037	86.44
350.265	72.44
350.492	90.44
350.72	80.44
350.947	89.44
351.174	80.44
351.402	80.44
351.629	80.44
351.856	84.44
352.083	82.44
352.311	102.44
352.538	88.44
352.765	87.44
352.992	78.44
353.22	78.44
353.447	87.44
353.674	73.44
353.901	78.44
354.128	79.44
354.355	78.44
354.583	80.44
354.81	91.44
355.037	80.44
355.264	70.44
355.491	79.44
355.718	85.44
355.945	92.44
356.172	74.44
356.399	79.44
356.626	68.44
356.853	79.44
357.08	99.44
357.307	80.44
357.534	90.44
357.761	95.44
357.988	84.44
358.215	86.44
358.441	77.44
358.668	92.44
358.895	94.44
359.122	83.44
359.349	79.44
359.576	85.44
359.802	79.44
360.029	82.44
360.256	78.44
360.483	72.44
360.709	91.44
360.936	73.44
361.163	87.44
361.39	93.44
361.616	92.44
361.843	77.44
362.07	80.44
362.296	79.44
362.523	103.44
362.749	100.44
362.976	95.44
363.203	109.44
363.429	95.44
363.656	83.44
363.882	83.44
364.109	112.44
364.335	119.44
364.562	118.44
364.788	107.44
365.015	86.44
365.241	78.44
365.468	83.44
365.694	74.44
365.92	68.44
366.147	80.44
366.373	76.44
366.599	89.44
366.826	74.44
367.052	83.44
367.278	101.44
367.505	78.44
367.731	95.44
367.957	91.44
368.184	88.44
368.41	80.44
368.636	67.44
368.862	82.44
369.089	79.44
369.315	77.44
369.541	79.44
369.767	88.44
369.993	78.44
370.219	69.44
370.445	84.44
370.672	83.44
370.898	91.44
371.124	91.44
371.35	75.44
371.576	91.44
371.802	75.44
372.028	90.44
372.254	83.44
372.48	82.44
372.706	79.44
372.932	87.44
373.158	83.44
373.384	82.44
373.61	94.44
373.835	99.44
374.061	83.44
374.287	80.44
374.513	82.44
374.739	100.44
374.965	98.44
375.191	92.44
375.416	85.44
375.642	95.44
375.868	84.44
376.094	87.44
376.319	84.44
376.545	86.44
376.771	71.44
376.997	78.44
377.222	86.44
377.448	77.44
377.674	87.44
377.899	79.44
378.125	93.44
378.35	76.44
378.576	74.44
378.802	54.44
379.027	94.44
379.253	88.44
379.478	77.44
379.704	69.44
379.929	104.44
380.155	90.44
380.38	82.44
380.606	75.44
380.831	70.44
381.057	76.44
381.282	87.44
381.507	81.44
381.733	90.44
381.958	90.44
382.184	99.44
382.409	79.44
382.634	78.44
382.86	88.44
383.085	77.44
383.31	87.44
383.535	97.44
383.761	86.44
383.986	92.44
384.211	83.44
384.436	96.44
384.662	88.44
384.887	88.44
385.112	74.44
385.337	96.44
385.562	96.44
385.787	89.44
386.013	67.44
386.238	99.44
386.463	90.44
386.688	95.44
386.913	70.44
387.138	88.44
387.363	78.44
387.588	90.44
387.813	94.44
388.038	94.44
388.263	78.44
388.488	80.44
388.713	94.44
388.938	95.44
389.163	87.44
389.387	91.44
389.612	78.44
389.837	100.44
390.062	79.44
390.287	82.44
390.512	97.44
390.736	79.44
390.961	86.44
391.186	85.44
391.411	87.44
391.636	87.44
391.86	81.44
392.085	92.44
392.31	86.44
392.534	97.44
392.759	96.44
392.984	120.44
393.208	203.44
393.433	272.44
393.658	216.44
393.882	110.44
394.107	101.44
394.331	100.44
394.556	109.44
394.78	102.44
395.005	100.44
395.229	96.44
395.454	94.44
395.678	102.44
395.903	107.44
396.127	127.44
396.352	124.44
396.576	131.44
396.801	195.44
397.025	224.44
397.249	155.44
397.474	114.44
397.698	101.44
397.922	101.44
398.147	84.44
398.371	77.44
398.595	82.44
398.82	93.44
399.044	96.44
399.268	95.44
399.492	80.44
399.717	92.44
399.941	91.44
400.165	76.44
400.389	66.44
400.613	94.44
400.837	77.44
401.062	80.44
401.286	78.44
401.51	84.44
401.734	69.44
401.958	84.44
402.182	81.44
402.406	74.44
402.63	85.44
402.854	76.44
403.078	88.44
403.302	81.44
403.526	90.44
403.75	94.44
403.974	69.44
404.198	95.44
404.422	94.44
404.645	100.44
404.869	95.44
405.093	94.44
405.317	78.44
405.541	75.44
405.765	85.44
405.988	86.44
406.212	94.44
406.436	67.44
406.66	86.44
406.883	82.44
407.107	87.44
407.331	83.44
407.555	91.44
407.778	85.44
408.002	80.44
408.226	79.44
408.449	68.44
408.673	74.44
408.896	87.44
409.12	95.44
409.344	84.44
409.567	95.44
409.791	85.44
410.014	89.44
410.238	84.44
410.461	76.44
410.685	87.44
410.908	86.44
411.132	83.44
411.355	83.44
411.578	95.44
411.802	75.44
412.025	73.44
412.249	77.44
412.472	87.44
412.695	82.44
412.919	80.44
413.142	89.44
413.365	69.44
413.589	73.44
413.812	78.44
414.035	68.44
414.258	78.44
414.482	75.44
414.705	89.44
414.928	72.44
415.151	82.44
415.374	87.44
415.597	87.44
415.821	88.44
416.044	78.44
416.267	83.44
416.49	70.44
416.713	88.44
416.936	82.44
417.159	88.44
417.382	63.44
417.605	72.44
417.828	88.44
418.051	71.44
418.274	88.44
418.497	81.44
418.72	82.44
418.943	84.44
419.166	70.44
419.389	80.44
419.611	85.44
419.834	92.44
420.057	74.44
420.28	87.44
420.503	80.44
420.726	81.44
420.948	86.44
421.171	99.44
421.394	97.44
421.617	97.44
421.839	108.44
422.062	107.44
422.285	155.44
422.507	272.44
422.73	403.44
422.953	366.44
423.175	185.44
423.398	120.44
423.621	91.44
423.843	85.44
424.066	89.44
424.288	91.44
424.511	82.44
424.733	76.44
424.956	86.44
425.178	79.44
425.401	72.44
425.623	64.44
425.846	78.44
426.068	66.44
426.291	80.44
426.513	84.44
426.735	96.44
426.958	76.44
427.18	84.44
427.402	93.44
427.625	73.44
427.847	79.44
428.069	93.44
428.292	115.44
428.514	138.44
428.736	106.44
428.958	127.44
429.181	140.44
429.403	72.44
429.625	106.44
429.847	102.44
430.069	129.44
430.292	172.44
430.514	165.44
430.736	116.44
430.958	136.44
431.18	99.44
431.402	106.44
431.624	87.44
431.846	118.44
432.068	135.44
432.29	95.44
432.512	100.44
432.734	76.44
432.956	79.44
433.178	77.44
433.4	85.44
433.622	75.44
433.844	80.44
434.066	66.44
434.287	78.44
434.509	67.44
434.731	85.44
434.953	74.44
435.175	87.44
435.397	96.44
435.618	81.44
435.84	92.44
436.062	73.44
436.284	80.44
436.505	72.44
436.727	83.44
436.949	86.44
437.17	78.44
437.392	76.44
437.614	85.44
437.835	62.44
438.057	80.44
438.278	93.44
438.5	94.44
438.721	83.44
438.943	87.44
439.165	62.44
439.386	83.44
439.608	72.44
439.829	66.44
440.05	69.44
440.272	86.44
440.493	80.44
440.715	86.44
440.936	97.44
441.158	88.44
441.379	73.44
441.6	70.44
441.822	80.44
442.043	90.44
442.264	90.44
442.486	119.44
442.707	154.44
442.928	108.44
443.149	98.44
443.371	135.44
443.592	238.44
443.813	194.44
444.034	99.44
444.255	79.44
444.476	78.44
444.698	81.44
444.919	84.44
445.14	204.44
445.361	210.44
445.582	264.44
445.803	234.44
446.024	110.44
446.245	93.44
446.466	79.44
446.687	84.44
446.908	73.44
447.129	77.44
447.35	88.44
447.571	88.44
447.792	81.44
448.013	58.44
448.234	85.44
448.455	85.44
448.675	81.44
448.896	77.44
449.117	73.44
449.338	86.44
449.559	76.44
449.779	76.44
450	83.44
450.221	71.44
450.442	72.44
450.662	79.44
450.883	73.44
451.104	84.44
451.324	86.44
451.545	76.44
451.766	70.44
451.986	83.44
452.207	70.44
452.428	54.44
452.648	85.44
452.869	83.44
453.089	81.44
453.31	78.44
453.53	94.44
453.751	81.44
453.971	84.44
454.192	85.44
454.412	83.44
454.633	82.44
454.853	87.44
455.073	78.44
455.294	80.44
455.514	98.44
455.734	88.44
455.955	69.44
456.175	87.44
456.395	75.44
456.616	72.44
456.836	75.44
457.056	61.44
457.276	86.44
457.497	72.44
457.717	89.44
457.937	79.44
458.157	100.44
458.377	104.44
458.598	91.44
458.818	129.44
459.038	84.44
459.258	78.44
459.478	88.44
459.698	82.44
459.918	85.44
460.138	77.44
460.358	73.44
460.578	85.44
460.798	108.44
461.018	119.44
461.238	73.44
461.458	95.44
461.678	93.44
461.898	79.44
462.118	88.44
462.338	85.44
462.558	77.44
462.777	79.44
462.997	78.44
463.217	76.44
463.437	71.44
463.657	72.44
463.876	73.44
464.096	70.44
464.316	66.44
464.536	66.44
464.755	87.44
464.975	67.44
465.195	78.44
465.414	76.44
465.634	79.44
465.854	83.44
466.073	88.44
466.293	76.44
466.512	78.44
466.732	78.44
466.951	86.44
467.171	83.44
467.391	87.44
467.61	77.44
467.829	73.44
468.049	91.44
468.268	79.44
468.488	76.44
468.707	85.44
468.927	74.44
469.146	71.44
469.365	83.44
469.585	79.44
469.804	73.44
470.023	78.44
470.243	77.44
470.462	88.44
470.681	70.44
470.901	73.44
471.12	95.44
471.339	96.44
471.558	76.44
471.777	81.44
471.997	70.44
472.216	68.44
472.435	73.44
472.654	80.44
472.873	80.44
473.092	83.44
473.311	85.44
473.53	87.44
473.749	62.44
473.968	82.44
474.187	91.44
474.406	76.44
474.625	80.44
474.844	78.44
475.063	83.44
475.282	72.44
475.501	70.44
475.72	78.44
475.939	76.44
476.158	78.44
476.377	78.44
476.596	90.44
476.814	70.44
477.033	89.44
477.252	75.44
477.471	82.44
477.69	67.44
477.908	73.44
478.127	87.44
478.346	74.44
478.564	92.44
478.783	81.44
479.002	91.44
479.22	84.44
479.439	77.44
479.658	83.44
479.876	78.44
480.095	76.44
480.313	88.44
480.532	75.44
480.751	70.44
480.969	94.44
481.188	83.44
481.406	82.44
481.624	86.44
481.843	79.44
482.061	68.44
482.28	82.44
482.498	78.44
482.717	70.44
482.935	93.44
483.153	88.44
483.372	82.44
483.59	99.44
483.808	92.44
484.027	80.44
484.245	96.44
484.463	86.44
484.681	75.44
484.9	78.44
485.118	87.44
485.336	78.44
485.554	79.44
485.772	85.44
485.99	89.44
486.209	82.44
486.427	87.44
486.645	71.44
486.863	99.44
487.081	93.44
487.299	82.44
487.517	92.44
487.735	103.44
487.953	142.44
488.171	119.44
488.389	93.44
488.607	85.44
488.825	86.44
489.043	92.44
489.261	83.44
489.479	76.44
489.696	76.44
489.914	82.44
490.132	72.44
490.35	82.44
490.568	89.44
490.786	99.44
491.003	94.44
491.221	75.44
491.439	71.44
491.657	82.44
491.874	70.44
492.092	64.44
492.31	92.44
492.527	80.44
492.745	90.44
492.963	87.44
493.18	99.44
493.398	82.44
493.615	85.44
493.833	82.44
494.05	87.44
494.268	86.44
494.485	69.44
494.703	94.44
494.92	98.44
495.138	79.44
495.355	90.44
495.573	83.44
495.79	82.44
496.008	73.44
496.225	73.44
496.442	83.44
496.66	86.44
496.877	81.44
497.094	89.44
497.312	91.44
497.529	89.44
497.746	83.44
497.963	69.44
498.181	97.44
498.398	87.44
498.615	89.44
498.832	90.44
499.049	94.44
499.267	108.44
499.484	98.44
499.701	84.44
499.918	87.44
500.135	98.44
500.352	89.44
500.569	85.44
500.786	95.44
501.003	91.44
501.22	91.44
501.437	70.44
501.654	86.44
501.871	85.44
502.088	88.44
502.305	84.44
502.522	84.44
502.739	85.44
502.956	84.44
503.172	82.44
503.389	81.44
503.606	91.44
503.823	81.44
504.04	106.44
504.256	123.44
504.473	125.44
504.69	86.44
504.907	84.44
505.123	94.44
505.34	82.44
505.557	76.44
505.773	89.44
505.99	78.44
506.207	85.44
506.423	85.44
506.64	69.44
506.856	80.44
507.073	82.44
507.289	82.44
507.506	89.44
507.722	69.44
507.939	80.44
508.155	85.44
508.372	93.44
508.588	80.44
508.805	80.44
509.021	78.44
509.238	81.44
509.454	95.44
509.67	73.44
509.887	75.44
510.103	94.44
510.319	80.44
510.536	82.44
510.752	78.44
510.968	64.44
511.184	88.44
511.401	91.44
511.617	82.44
511.833	70.44
512.049	74.44
512.265	87.44
512.481	91.44
512.698	83.44
512.914	86.44
513.13	88.44
513.346	82.44
513.562	84.44
513.778	75.44
513.994	96.44
514.21	67.44
514.426	78.44
514.642	76.44
514.858	84.44
515.074	73.44
515.29	80.44
515.506	78.44
515.721	94.44
515.937	82.44
516.153	81.44
516.369	87.44
516.585	87.44
516.801	88.44
517.016	76.44
517.232	98.44
517.448	87.44
517.664	85.44
517.879	86.44
518.095	84.44
518.311	84.44
518.527	101.44
518.742	97.44
518.958	122.44
