Data from 237_2_HRD10591_00028.txt Node
Date: Mon Jan 19 14:11:44 EST 2026
User: Yrep
Spectrometer: HR+D1059
Trigger mode: 1
Integration Time (sec): 1.000000E-1
Scans to average: 1
Electric dark correction enabled: true
Nonlinearity correction enabled: false
Boxcar width: 0
XAxis mode: Wavelengths
Number of Pixels in Spectrum: 2048
>>>>>Begin Spectral Data<<<<<
223.165	0.69
223.4	0.69
223.635	0.69
223.869	-26.31
224.104	-16.31
224.338	-16.31
224.573	-10.31
224.808	-17.31
225.042	-7.31
225.277	-11.31
225.511	-0.31
225.746	1.69
225.98	21.69
226.215	4.69
226.449	16.69
226.683	12.69
226.918	17.69
227.152	29.69
227.387	38.69
227.621	30.69
227.856	36.69
228.09	45.69
228.324	53.69
228.559	47.69
228.793	59.69
229.027	63.69
229.262	51.69
229.496	55.69
229.73	78.69
229.964	79.69
230.199	60.69
230.433	61.69
230.667	72.69
230.901	88.69
231.136	70.69
231.37	66.69
231.604	80.69
231.838	79.69
232.072	79.69
232.306	78.69
232.541	84.69
232.775	84.69
233.009	82.69
233.243	71.69
233.477	71.69
233.711	75.69
233.945	69.69
234.179	79.69
234.413	70.69
234.647	80.69
234.881	83.69
235.115	72.69
235.349	75.69
235.583	63.69
235.817	73.69
236.051	69.69
236.285	76.69
236.519	93.69
236.753	71.69
236.987	71.69
237.221	80.69
237.455	70.69
237.689	88.69
237.922	72.69
238.156	66.69
238.39	66.69
238.624	64.69
238.858	75.69
239.091	87.69
239.325	79.69
239.559	81.69
239.793	76.69
240.027	81.69
240.26	79.69
240.494	75.69
240.728	61.69
240.961	68.69
241.195	62.69
241.429	71.69
241.662	67.69
241.896	67.69
242.13	75.69
242.363	72.69
242.597	63.69
242.83	62.69
243.064	67.69
243.298	83.69
243.531	64.69
243.765	64.69
243.998	66.69
244.232	75.69
244.465	65.69
244.699	79.69
244.932	59.69
245.166	78.69
245.399	65.69
245.633	81.69
245.866	88.69
246.099	81.69
246.333	67.69
246.566	73.69
246.8	63.69
247.033	70.69
247.266	72.69
247.5	81.69
247.733	59.69
247.966	87.69
248.2	63.69
248.433	56.69
248.666	61.69
248.899	95.69
249.133	78.69
249.366	83.69
249.599	81.69
249.832	83.69
250.066	77.69
250.299	81.69
250.532	67.69
250.765	79.69
250.998	80.69
251.231	76.69
251.465	83.69
251.698	62.69
251.931	81.69
252.164	76.69
252.397	72.69
252.63	67.69
252.863	78.69
253.096	71.69
253.329	76.69
253.562	75.69
253.795	73.69
254.028	77.69
254.261	73.69
254.494	73.69
254.727	89.69
254.96	66.69
255.193	56.69
255.426	82.69
255.659	83.69
255.892	72.69
256.124	73.69
256.357	80.69
256.59	76.69
256.823	87.69
257.056	76.69
257.289	72.69
257.521	73.69
257.754	74.69
257.987	83.69
258.22	87.69
258.452	74.69
258.685	84.69
258.918	90.69
259.151	75.69
259.383	79.69
259.616	75.69
259.849	77.69
260.081	77.69
260.314	82.69
260.547	77.69
260.779	79.69
261.012	78.69
261.244	70.69
261.477	72.69
261.71	82.69
261.942	93.69
262.175	67.69
262.407	74.69
262.64	88.69
262.872	76.69
263.105	74.69
263.337	78.69
263.57	73.69
263.802	65.69
264.035	84.69
264.267	85.69
264.499	79.69
264.732	78.69
264.964	75.69
265.197	74.69
265.429	68.69
265.661	76.69
265.894	81.69
266.126	77.69
266.358	80.69
266.591	74.69
266.823	96.69
267.055	69.69
267.287	80.69
267.52	71.69
267.752	86.69
267.984	85.69
268.216	69.69
268.448	75.69
268.681	75.69
268.913	75.69
269.145	91.69
269.377	71.69
269.609	73.69
269.841	75.69
270.073	83.69
270.306	99.69
270.538	91.69
270.77	82.69
271.002	83.69
271.234	68.69
271.466	89.69
271.698	73.69
271.93	84.69
272.162	75.69
272.394	76.69
272.626	65.69
272.858	73.69
273.09	87.69
273.322	65.69
273.553	80.69
273.785	77.69
274.017	77.69
274.249	83.69
274.481	94.69
274.713	81.69
274.945	77.69
275.176	76.69
275.408	78.69
275.64	69.69
275.872	74.69
276.104	89.69
276.335	63.69
276.567	89.69
276.799	99.69
277.031	90.69
277.262	82.69
277.494	88.69
277.726	91.69
277.957	91.69
278.189	86.69
278.421	87.69
278.652	94.69
278.884	75.69
279.115	88.69
279.347	72.69
279.579	91.69
279.81	82.69
280.042	73.69
280.273	86.69
280.505	83.69
280.736	90.69
280.968	85.69
281.199	79.69
281.431	83.69
281.662	72.69
281.894	81.69
282.125	78.69
282.356	77.69
282.588	80.69
282.819	74.69
283.051	80.69
283.282	81.69
283.513	89.69
283.745	78.69
283.976	79.69
284.207	74.69
284.439	87.69
284.67	82.69
284.901	93.69
285.132	75.69
285.364	91.69
285.595	85.69
285.826	80.69
286.057	74.69
286.288	98.69
286.52	76.69
286.751	83.69
286.982	87.69
287.213	76.69
287.444	81.69
287.675	89.69
287.906	92.69
288.138	79.69
288.369	79.69
288.6	82.69
288.831	90.69
289.062	77.69
289.293	75.69
289.524	81.69
289.755	71.69
289.986	93.69
290.217	95.69
290.448	66.69
290.679	79.69
290.91	91.69
291.141	67.69
291.371	71.69
291.602	98.69
291.833	90.69
292.064	78.69
292.295	82.69
292.526	82.69
292.757	82.69
292.987	84.69
293.218	82.69
293.449	68.69
293.68	76.69
293.91	84.69
294.141	74.69
294.372	86.69
294.603	78.69
294.833	70.69
295.064	80.69
295.295	78.69
295.525	84.69
295.756	84.69
295.987	92.69
296.217	93.69
296.448	78.69
296.679	89.69
296.909	86.69
297.14	95.69
297.37	83.69
297.601	87.69
297.831	84.69
298.062	79.69
298.292	73.69
298.523	83.69
298.753	79.69
298.984	87.69
299.214	77.69
299.445	77.69
299.675	85.69
299.905	77.69
300.136	75.69
300.366	86.69
300.597	77.69
300.827	82.69
301.057	84.69
301.288	82.69
301.518	89.69
301.748	82.69
301.979	97.69
302.209	72.69
302.439	83.69
302.669	84.69
302.9	81.69
303.13	72.69
303.36	77.69
303.59	79.69
303.82	69.69
304.051	77.69
304.281	85.69
304.511	97.69
304.741	73.69
304.971	88.69
305.201	67.69
305.431	100.69
305.661	79.69
305.891	89.69
306.121	87.69
306.352	84.69
306.582	83.69
306.812	80.69
307.042	71.69
307.272	69.69
307.502	76.69
307.731	83.69
307.961	88.69
308.191	94.69
308.421	87.69
308.651	80.69
308.881	78.69
309.111	83.69
309.341	88.69
309.571	86.69
309.8	85.69
310.03	76.69
310.26	82.69
310.49	77.69
310.72	96.69
310.949	77.69
311.179	71.69
311.409	80.69
311.639	84.69
311.868	78.69
312.098	79.69
312.328	85.69
312.557	86.69
312.787	77.69
313.017	77.69
313.246	81.69
313.476	73.69
313.706	82.69
313.935	100.69
314.165	88.69
314.394	84.69
314.624	86.69
314.853	92.69
315.083	72.69
315.312	90.69
315.542	73.69
315.771	72.69
316.001	91.69
316.23	89.69
316.46	88.69
316.689	89.69
316.919	78.69
317.148	79.69
317.377	91.69
317.607	79.69
317.836	96.69
318.065	87.69
318.295	85.69
318.524	79.69
318.753	78.69
318.983	95.69
319.212	97.69
319.441	86.69
319.67	79.69
319.9	80.69
320.129	81.69
320.358	85.69
320.587	81.69
320.816	60.69
321.046	83.69
321.275	88.69
321.504	92.69
321.733	95.69
321.962	81.69
322.191	65.69
322.42	78.69
322.649	85.69
322.878	81.69
323.108	98.69
323.337	84.69
323.566	91.69
323.795	84.69
324.024	71.69
324.253	67.69
324.482	83.69
324.71	76.69
324.939	89.69
325.168	85.69
325.397	86.69
325.626	82.69
325.855	84.69
326.084	84.69
326.313	97.69
326.542	87.69
326.77	62.69
326.999	95.69
327.228	83.69
327.457	80.69
327.686	99.69
327.914	74.69
328.143	88.69
328.372	85.69
328.6	89.69
328.829	83.69
329.058	72.69
329.287	91.69
329.515	77.69
329.744	95.69
329.972	63.69
330.201	72.69
330.43	74.69
330.658	81.69
330.887	83.69
331.115	79.69
331.344	91.69
331.572	87.69
331.801	79.69
332.03	94.69
332.258	71.69
332.486	83.69
332.715	89.69
332.943	79.69
333.172	91.69
333.4	76.69
333.629	73.69
333.857	87.69
334.085	73.69
334.314	80.69
334.542	71.69
334.771	87.69
334.999	99.69
335.227	91.69
335.455	87.69
335.684	90.69
335.912	83.69
336.14	84.69
336.369	84.69
336.597	91.69
336.825	96.69
337.053	86.69
337.281	90.69
337.51	76.69
337.738	83.69
337.966	74.69
338.194	82.69
338.422	80.69
338.65	91.69
338.878	79.69
339.106	83.69
339.334	78.69
339.562	83.69
339.79	91.69
340.018	83.69
340.246	66.69
340.474	69.69
340.702	75.69
340.93	73.69
341.158	77.69
341.386	77.69
341.614	67.69
341.842	72.69
342.07	82.69
342.298	87.69
342.526	82.69
342.754	71.69
342.981	77.69
343.209	81.69
343.437	100.69
343.665	80.69
343.893	72.69
344.12	79.69
344.348	87.69
344.576	82.69
344.804	91.69
345.031	78.69
345.259	87.69
345.487	86.69
345.714	71.69
345.942	91.69
346.17	80.69
346.397	81.69
346.625	84.69
346.853	72.69
347.08	81.69
347.308	87.69
347.535	88.69
347.763	69.69
347.99	80.69
348.218	93.69
348.445	80.69
348.673	89.69
348.9	82.69
349.128	88.69
349.355	83.69
349.583	80.69
349.81	73.69
350.037	87.69
350.265	82.69
350.492	76.69
350.72	85.69
350.947	93.69
351.174	88.69
351.402	96.69
351.629	85.69
351.856	81.69
352.083	92.69
352.311	82.69
352.538	79.69
352.765	83.69
352.992	92.69
353.22	82.69
353.447	87.69
353.674	72.69
353.901	92.69
354.128	83.69
354.355	88.69
354.583	84.69
354.81	77.69
355.037	70.69
355.264	77.69
355.491	93.69
355.718	78.69
355.945	93.69
356.172	77.69
356.399	83.69
356.626	72.69
356.853	87.69
357.08	69.69
357.307	87.69
357.534	73.69
357.761	70.69
357.988	93.69
358.215	89.69
358.441	74.69
358.668	92.69
358.895	84.69
359.122	74.69
359.349	72.69
359.576	87.69
359.802	78.69
360.029	79.69
360.256	87.69
360.483	77.69
360.709	79.69
360.936	85.69
361.163	86.69
361.39	79.69
361.616	78.69
361.843	85.69
362.07	81.69
362.296	87.69
362.523	87.69
362.749	105.69
362.976	89.69
363.203	97.69
363.429	81.69
363.656	85.69
363.882	94.69
364.109	102.69
364.335	101.69
364.562	90.69
364.788	112.69
365.015	95.69
365.241	81.69
365.468	100.69
365.694	75.69
365.92	91.69
366.147	85.69
366.373	83.69
366.599	92.69
366.826	75.69
367.052	82.69
367.278	79.69
367.505	81.69
367.731	85.69
367.957	88.69
368.184	77.69
368.41	88.69
368.636	93.69
368.862	72.69
369.089	86.69
369.315	78.69
369.541	71.69
369.767	94.69
369.993	71.69
370.219	70.69
370.445	93.69
370.672	83.69
370.898	96.69
371.124	88.69
371.35	74.69
371.576	77.69
371.802	80.69
372.028	91.69
372.254	92.69
372.48	84.69
372.706	74.69
372.932	86.69
373.158	100.69
373.384	97.69
373.61	97.69
373.835	81.69
374.061	73.69
374.287	80.69
374.513	80.69
374.739	94.69
374.965	91.69
375.191	100.69
375.416	85.69
375.642	92.69
375.868	73.69
376.094	88.69
376.319	89.69
376.545	88.69
376.771	83.69
376.997	73.69
377.222	77.69
377.448	74.69
377.674	72.69
377.899	91.69
378.125	82.69
378.35	85.69
378.576	79.69
378.802	74.69
379.027	77.69
379.253	73.69
379.478	93.69
379.704	79.69
379.929	81.69
380.155	77.69
380.38	87.69
380.606	80.69
380.831	76.69
381.057	91.69
381.282	85.69
381.507	76.69
381.733	87.69
381.958	93.69
382.184	93.69
382.409	66.69
382.634	75.69
382.86	110.69
383.085	97.69
383.31	83.69
383.535	87.69
383.761	87.69
383.986	73.69
384.211	74.69
384.436	82.69
384.662	86.69
384.887	91.69
385.112	95.69
385.337	83.69
385.562	93.69
385.787	91.69
386.013	78.69
386.238	84.69
386.463	95.69
386.688	110.69
386.913	86.69
387.138	86.69
387.363	99.69
387.588	82.69
387.813	86.69
388.038	87.69
388.263	77.69
388.488	89.69
388.713	93.69
388.938	84.69
389.163	85.69
389.387	87.69
389.612	90.69
389.837	87.69
390.062	88.69
390.287	70.69
390.512	97.69
390.736	91.69
390.961	84.69
391.186	68.69
391.411	81.69
391.636	73.69
391.86	86.69
392.085	98.69
392.31	94.69
392.534	85.69
392.759	95.69
392.984	111.69
393.208	173.69
393.433	226.69
393.658	197.69
393.882	108.69
394.107	94.69
394.331	97.69
394.556	112.69
394.78	96.69
395.005	97.69
395.229	79.69
395.454	101.69
395.678	89.69
395.903	90.69
396.127	113.69
396.352	113.69
396.576	132.69
396.801	176.69
397.025	193.69
397.249	112.69
397.474	87.69
397.698	76.69
397.922	85.69
398.147	101.69
398.371	89.69
398.595	90.69
398.82	80.69
399.044	72.69
399.268	78.69
399.492	63.69
399.717	63.69
399.941	81.69
400.165	82.69
400.389	79.69
400.613	71.69
400.837	62.69
401.062	83.69
401.286	77.69
401.51	78.69
401.734	86.69
401.958	74.69
402.182	75.69
402.406	86.69
402.63	67.69
402.854	80.69
403.078	87.69
403.302	93.69
403.526	77.69
403.75	82.69
403.974	97.69
404.198	93.69
404.422	80.69
404.645	85.69
404.869	92.69
405.093	80.69
405.317	81.69
405.541	81.69
405.765	94.69
405.988	79.69
406.212	95.69
406.436	95.69
406.66	81.69
406.883	84.69
407.107	70.69
407.331	69.69
407.555	79.69
407.778	90.69
408.002	87.69
408.226	83.69
408.449	81.69
408.673	78.69
408.896	81.69
409.12	78.69
409.344	75.69
409.567	95.69
409.791	100.69
410.014	88.69
410.238	78.69
410.461	90.69
410.685	81.69
410.908	84.69
411.132	73.69
411.355	73.69
411.578	71.69
411.802	77.69
412.025	91.69
412.249	80.69
412.472	80.69
412.695	96.69
412.919	83.69
413.142	83.69
413.365	74.69
413.589	72.69
413.812	75.69
414.035	68.69
414.258	80.69
414.482	93.69
414.705	72.69
414.928	79.69
415.151	86.69
415.374	83.69
415.597	79.69
415.821	72.69
416.044	79.69
416.267	74.69
416.49	87.69
416.713	82.69
416.936	72.69
417.159	85.69
417.382	83.69
417.605	99.69
417.828	94.69
418.051	77.69
418.274	79.69
418.497	86.69
418.72	63.69
418.943	76.69
419.166	71.69
419.389	71.69
419.611	87.69
419.834	92.69
420.057	72.69
420.28	64.69
420.503	89.69
420.726	81.69
420.948	93.69
421.171	73.69
421.394	65.69
421.617	92.69
421.839	101.69
422.062	112.69
422.285	113.69
422.507	190.69
422.73	300.69
422.953	248.69
423.175	143.69
423.398	111.69
423.621	103.69
423.843	99.69
424.066	79.69
424.288	81.69
424.511	89.69
424.733	77.69
424.956	67.69
425.178	71.69
425.401	78.69
425.623	83.69
425.846	82.69
426.068	103.69
426.291	80.69
426.513	79.69
426.735	95.69
426.958	74.69
427.18	87.69
427.402	92.69
427.625	93.69
427.847	83.69
428.069	90.69
428.292	105.69
428.514	115.69
428.736	101.69
428.958	111.69
429.181	96.69
429.403	77.69
429.625	88.69
429.847	102.69
430.069	121.69
430.292	132.69
430.514	120.69
430.736	114.69
430.958	108.69
431.18	91.69
431.402	71.69
431.624	81.69
431.846	95.69
432.068	90.69
432.29	96.69
432.512	86.69
432.734	74.69
432.956	85.69
433.178	83.69
433.4	67.69
433.622	82.69
433.844	73.69
434.066	73.69
434.287	84.69
434.509	80.69
434.731	76.69
434.953	80.69
435.175	70.69
435.397	86.69
435.618	77.69
435.84	87.69
436.062	74.69
436.284	82.69
436.505	77.69
436.727	86.69
436.949	73.69
437.17	79.69
437.392	65.69
437.614	87.69
437.835	65.69
438.057	72.69
438.278	81.69
438.5	93.69
438.721	79.69
438.943	85.69
439.165	85.69
439.386	70.69
439.608	71.69
439.829	91.69
440.05	76.69
440.272	75.69
440.493	94.69
440.715	88.69
440.936	88.69
441.158	80.69
441.379	71.69
441.6	79.69
441.822	87.69
442.043	92.69
442.264	84.69
442.486	104.69
442.707	138.69
442.928	113.69
443.149	93.69
443.371	107.69
443.592	158.69
443.813	158.69
444.034	93.69
444.255	91.69
444.476	81.69
444.698	78.69
444.919	102.69
445.14	181.69
445.361	159.69
445.582	203.69
445.803	168.69
446.024	100.69
446.245	90.69
446.466	93.69
446.687	80.69
446.908	79.69
447.129	82.69
447.35	58.69
447.571	73.69
447.792	72.69
448.013	78.69
448.234	79.69
448.455	75.69
448.675	87.69
448.896	78.69
449.117	101.69
449.338	90.69
449.559	79.69
449.779	66.69
450	85.69
450.221	83.69
450.442	80.69
450.662	87.69
450.883	88.69
451.104	73.69
451.324	71.69
451.545	63.69
451.766	84.69
451.986	82.69
452.207	79.69
452.428	72.69
452.648	91.69
452.869	92.69
453.089	75.69
453.31	78.69
453.53	91.69
453.751	82.69
453.971	79.69
454.192	71.69
454.412	79.69
454.633	87.69
454.853	89.69
455.073	86.69
455.294	86.69
455.514	72.69
455.734	83.69
455.955	87.69
456.175	79.69
456.395	76.69
456.616	70.69
456.836	83.69
457.056	65.69
457.276	86.69
457.497	67.69
457.717	85.69
457.937	88.69
458.157	100.69
458.377	94.69
458.598	100.69
458.818	102.69
459.038	96.69
459.258	88.69
459.478	78.69
459.698	85.69
459.918	91.69
460.138	82.69
460.358	78.69
460.578	86.69
460.798	94.69
461.018	100.69
461.238	95.69
461.458	83.69
461.678	69.69
461.898	89.69
462.118	83.69
462.338	68.69
462.558	75.69
462.777	75.69
462.997	79.69
463.217	79.69
463.437	86.69
463.657	80.69
463.876	71.69
464.096	74.69
464.316	77.69
464.536	77.69
464.755	77.69
464.975	71.69
465.195	79.69
465.414	83.69
465.634	87.69
465.854	76.69
466.073	85.69
466.293	84.69
466.512	74.69
466.732	68.69
466.951	77.69
467.171	79.69
467.391	84.69
467.61	85.69
467.829	89.69
468.049	71.69
468.268	79.69
468.488	84.69
468.707	77.69
468.927	78.69
469.146	81.69
469.365	85.69
469.585	57.69
469.804	80.69
470.023	79.69
470.243	72.69
470.462	82.69
470.681	73.69
470.901	87.69
471.12	94.69
471.339	80.69
471.558	89.69
471.777	82.69
471.997	70.69
472.216	93.69
472.435	84.69
472.654	83.69
472.873	74.69
473.092	92.69
473.311	84.69
473.53	82.69
473.749	71.69
473.968	81.69
474.187	64.69
474.406	59.69
474.625	103.69
474.844	84.69
475.063	75.69
475.282	73.69
475.501	81.69
475.72	80.69
475.939	85.69
476.158	81.69
476.377	71.69
476.596	90.69
476.814	81.69
477.033	65.69
477.252	85.69
477.471	77.69
477.69	68.69
477.908	71.69
478.127	80.69
478.346	91.69
478.564	88.69
478.783	79.69
479.002	73.69
479.22	80.69
479.439	81.69
479.658	92.69
479.876	91.69
480.095	69.69
480.313	89.69
480.532	83.69
480.751	85.69
480.969	80.69
481.188	79.69
481.406	84.69
481.624	89.69
481.843	90.69
482.061	85.69
482.28	86.69
482.498	95.69
482.717	75.69
482.935	100.69
483.153	82.69
483.372	67.69
483.59	63.69
483.808	69.69
484.027	85.69
484.245	80.69
484.463	94.69
484.681	95.69
484.9	87.69
485.118	94.69
485.336	78.69
485.554	67.69
485.772	61.69
485.99	81.69
486.209	78.69
486.427	73.69
486.645	81.69
486.863	84.69
487.081	71.69
487.299	78.69
487.517	94.69
487.735	100.69
487.953	129.69
488.171	112.69
488.389	91.69
488.607	83.69
488.825	88.69
489.043	71.69
489.261	75.69
489.479	101.69
489.696	85.69
489.914	61.69
490.132	87.69
490.35	85.69
490.568	78.69
490.786	94.69
491.003	93.69
491.221	79.69
491.439	77.69
491.657	80.69
491.874	80.69
492.092	81.69
492.31	81.69
492.527	69.69
492.745	74.69
492.963	81.69
493.18	88.69
493.398	87.69
493.615	77.69
493.833	77.69
494.05	88.69
494.268	79.69
494.485	84.69
494.703	79.69
494.92	87.69
495.138	89.69
495.355	77.69
495.573	79.69
495.79	83.69
496.008	89.69
496.225	84.69
496.442	86.69
496.66	69.69
496.877	79.69
497.094	99.69
497.312	86.69
497.529	81.69
497.746	83.69
497.963	84.69
498.181	89.69
498.398	82.69
498.615	80.69
498.832	71.69
499.049	92.69
499.267	91.69
499.484	82.69
499.701	84.69
499.918	83.69
500.135	84.69
500.352	72.69
500.569	77.69
500.786	73.69
501.003	90.69
501.22	93.69
501.437	96.69
501.654	74.69
501.871	92.69
502.088	85.69
502.305	82.69
502.522	84.69
502.739	96.69
502.956	72.69
503.172	86.69
503.389	83.69
503.606	85.69
503.823	79.69
504.04	89.69
504.256	105.69
504.473	109.69
504.69	84.69
504.907	93.69
505.123	80.69
505.34	75.69
505.557	82.69
505.773	89.69
505.99	75.69
506.207	81.69
506.423	88.69
506.64	96.69
506.856	77.69
507.073	86.69
507.289	88.69
507.506	72.69
507.722	87.69
507.939	82.69
508.155	74.69
508.372	87.69
508.588	87.69
508.805	83.69
509.021	88.69
509.238	74.69
509.454	81.69
509.67	69.69
509.887	85.69
510.103	99.69
510.319	77.69
510.536	87.69
510.752	87.69
510.968	77.69
511.184	88.69
511.401	68.69
511.617	74.69
511.833	79.69
512.049	92.69
512.265	95.69
512.481	85.69
512.698	93.69
512.914	87.69
513.13	91.69
513.346	87.69
513.562	79.69
513.778	77.69
513.994	78.69
514.21	83.69
514.426	87.69
514.642	102.69
514.858	91.69
515.074	82.69
515.29	86.69
515.506	86.69
515.721	70.69
515.937	97.69
516.153	89.69
516.369	79.69
516.585	79.69
516.801	83.69
517.016	90.69
517.232	78.69
517.448	81.69
517.664	82.69
517.879	87.69
518.095	81.69
518.311	84.69
518.527	91.69
518.742	91.69
518.958	123.69
519.173	118.69
519.389	92.69
