Data from 237_2_HRD10591_00010.txt Node
Date: Mon Jan 19 14:11:35 EST 2026
User: Yrep
Spectrometer: HR+D1059
Trigger mode: 1
Integration Time (sec): 1.000000E-1
Scans to average: 1
Electric dark correction enabled: true
Nonlinearity correction enabled: false
Boxcar width: 0
XAxis mode: Wavelengths
Number of Pixels in Spectrum: 2048
>>>>>Begin Spectral Data<<<<<
223.165	-21.19
223.4	-21.19
223.635	-21.19
223.869	-23.19
224.104	-24.19
224.338	-17.19
224.573	-5.19
224.808	-23.19
225.042	-9.19
225.277	-10.19
225.511	4.81
225.746	3.81
225.98	11.81
226.215	10.81
226.449	14.81
226.683	24.81
226.918	28.81
227.152	33.81
227.387	28.81
227.621	38.81
227.856	40.81
228.09	54.81
228.324	50.81
228.559	66.81
228.793	57.81
229.027	59.81
229.262	73.81
229.496	64.81
229.73	66.81
229.964	67.81
230.199	78.81
230.433	73.81
230.667	71.81
230.901	73.81
231.136	79.81
231.37	101.81
231.604	73.81
231.838	83.81
232.072	89.81
232.306	80.81
232.541	84.81
232.775	63.81
233.009	72.81
233.243	83.81
233.477	79.81
233.711	75.81
233.945	67.81
234.179	91.81
234.413	81.81
234.647	92.81
234.881	73.81
235.115	69.81
235.349	77.81
235.583	88.81
235.817	74.81
236.051	71.81
236.285	73.81
236.519	64.81
236.753	64.81
236.987	75.81
237.221	73.81
237.455	73.81
237.689	88.81
237.922	77.81
238.156	71.81
238.39	84.81
238.624	75.81
238.858	85.81
239.091	83.81
239.325	74.81
239.559	81.81
239.793	85.81
240.027	71.81
240.26	74.81
240.494	86.81
240.728	89.81
240.961	91.81
241.195	71.81
241.429	87.81
241.662	71.81
241.896	88.81
242.13	69.81
242.363	76.81
242.597	71.81
242.83	81.81
243.064	69.81
243.298	78.81
243.531	80.81
243.765	76.81
243.998	87.81
244.232	74.81
244.465	83.81
244.699	73.81
244.932	94.81
245.166	74.81
245.399	90.81
245.633	75.81
245.866	86.81
246.099	72.81
246.333	53.81
246.566	74.81
246.8	86.81
247.033	80.81
247.266	69.81
247.5	71.81
247.733	73.81
247.966	81.81
248.2	75.81
248.433	74.81
248.666	80.81
248.899	82.81
249.133	64.81
249.366	83.81
249.599	85.81
249.832	67.81
250.066	76.81
250.299	74.81
250.532	79.81
250.765	70.81
250.998	74.81
251.231	91.81
251.465	85.81
251.698	67.81
251.931	82.81
252.164	79.81
252.397	72.81
252.63	76.81
252.863	88.81
253.096	88.81
253.329	72.81
253.562	78.81
253.795	77.81
254.028	77.81
254.261	70.81
254.494	68.81
254.727	97.81
254.96	83.81
255.193	81.81
255.426	75.81
255.659	81.81
255.892	75.81
256.124	71.81
256.357	84.81
256.59	90.81
256.823	79.81
257.056	92.81
257.289	83.81
257.521	94.81
257.754	97.81
257.987	71.81
258.22	65.81
258.452	90.81
258.685	71.81
258.918	77.81
259.151	79.81
259.383	89.81
259.616	74.81
259.849	81.81
260.081	67.81
260.314	83.81
260.547	74.81
260.779	73.81
261.012	74.81
261.244	69.81
261.477	71.81
261.71	73.81
261.942	72.81
262.175	73.81
262.407	99.81
262.64	85.81
262.872	85.81
263.105	81.81
263.337	89.81
263.57	91.81
263.802	80.81
264.035	90.81
264.267	85.81
264.499	90.81
264.732	79.81
264.964	84.81
265.197	77.81
265.429	72.81
265.661	85.81
265.894	82.81
266.126	85.81
266.358	77.81
266.591	74.81
266.823	93.81
267.055	80.81
267.287	92.81
267.52	89.81
267.752	76.81
267.984	83.81
268.216	86.81
268.448	84.81
268.681	83.81
268.913	84.81
269.145	81.81
269.377	75.81
269.609	80.81
269.841	71.81
270.073	77.81
270.306	82.81
270.538	72.81
270.77	73.81
271.002	79.81
271.234	89.81
271.466	78.81
271.698	73.81
271.93	65.81
272.162	93.81
272.394	73.81
272.626	79.81
272.858	96.81
273.09	85.81
273.322	82.81
273.553	93.81
273.785	81.81
274.017	84.81
274.249	81.81
274.481	94.81
274.713	79.81
274.945	85.81
275.176	83.81
275.408	84.81
275.64	101.81
275.872	69.81
276.104	80.81
276.335	93.81
276.567	81.81
276.799	85.81
277.031	87.81
277.262	82.81
277.494	93.81
277.726	82.81
277.957	81.81
278.189	88.81
278.421	77.81
278.652	83.81
278.884	91.81
279.115	81.81
279.347	73.81
279.579	91.81
279.81	83.81
280.042	94.81
280.273	97.81
280.505	97.81
280.736	75.81
280.968	83.81
281.199	83.81
281.431	89.81
281.662	90.81
281.894	84.81
282.125	95.81
282.356	95.81
282.588	81.81
282.819	73.81
283.051	76.81
283.282	81.81
283.513	85.81
283.745	94.81
283.976	86.81
284.207	80.81
284.439	89.81
284.67	85.81
284.901	83.81
285.132	90.81
285.364	86.81
285.595	93.81
285.826	88.81
286.057	79.81
286.288	81.81
286.52	75.81
286.751	73.81
286.982	91.81
287.213	84.81
287.444	75.81
287.675	74.81
287.906	82.81
288.138	86.81
288.369	77.81
288.6	81.81
288.831	76.81
289.062	80.81
289.293	83.81
289.524	82.81
289.755	79.81
289.986	84.81
290.217	81.81
290.448	71.81
290.679	91.81
290.91	82.81
291.141	88.81
291.371	73.81
291.602	90.81
291.833	81.81
292.064	88.81
292.295	74.81
292.526	93.81
292.757	83.81
292.987	75.81
293.218	81.81
293.449	79.81
293.68	80.81
293.91	87.81
294.141	87.81
294.372	77.81
294.603	86.81
294.833	73.81
295.064	92.81
295.295	82.81
295.525	85.81
295.756	79.81
295.987	72.81
296.217	88.81
296.448	86.81
296.679	83.81
296.909	85.81
297.14	85.81
297.37	75.81
297.601	83.81
297.831	73.81
298.062	94.81
298.292	92.81
298.523	84.81
298.753	95.81
298.984	86.81
299.214	90.81
299.445	98.81
299.675	85.81
299.905	82.81
300.136	93.81
300.366	87.81
300.597	85.81
300.827	108.81
301.057	83.81
301.288	89.81
301.518	85.81
301.748	79.81
301.979	98.81
302.209	88.81
302.439	87.81
302.669	91.81
302.9	86.81
303.13	114.81
303.36	92.81
303.59	89.81
303.82	89.81
304.051	89.81
304.281	79.81
304.511	85.81
304.741	95.81
304.971	83.81
305.201	78.81
305.431	89.81
305.661	85.81
305.891	88.81
306.121	90.81
306.352	82.81
306.582	84.81
306.812	90.81
307.042	78.81
307.272	92.81
307.502	92.81
307.731	88.81
307.961	88.81
308.191	90.81
308.421	73.81
308.651	96.81
308.881	93.81
309.111	86.81
309.341	91.81
309.571	95.81
309.8	88.81
310.03	81.81
310.26	70.81
310.49	80.81
310.72	77.81
310.949	97.81
311.179	86.81
311.409	79.81
311.639	97.81
311.868	79.81
312.098	93.81
312.328	64.81
312.557	87.81
312.787	73.81
313.017	84.81
313.246	87.81
313.476	73.81
313.706	99.81
313.935	69.81
314.165	82.81
314.394	101.81
314.624	78.81
314.853	93.81
315.083	79.81
315.312	85.81
315.542	82.81
315.771	93.81
316.001	91.81
316.23	96.81
316.46	74.81
316.689	81.81
316.919	87.81
317.148	91.81
317.377	98.81
317.607	87.81
317.836	81.81
318.065	83.81
318.295	82.81
318.524	73.81
318.753	93.81
318.983	94.81
319.212	89.81
319.441	76.81
319.67	84.81
319.9	91.81
320.129	86.81
320.358	76.81
320.587	76.81
320.816	79.81
321.046	97.81
321.275	92.81
321.504	76.81
321.733	97.81
321.962	89.81
322.191	73.81
322.42	80.81
322.649	97.81
322.878	83.81
323.108	92.81
323.337	66.81
323.566	80.81
323.795	88.81
324.024	83.81
324.253	79.81
324.482	76.81
324.71	88.81
324.939	80.81
325.168	83.81
325.397	73.81
325.626	82.81
325.855	74.81
326.084	82.81
326.313	89.81
326.542	79.81
326.77	85.81
326.999	89.81
327.228	86.81
327.457	90.81
327.686	90.81
327.914	79.81
328.143	85.81
328.372	83.81
328.6	82.81
328.829	78.81
329.058	83.81
329.287	86.81
329.515	87.81
329.744	79.81
329.972	85.81
330.201	82.81
330.43	93.81
330.658	98.81
330.887	73.81
331.115	80.81
331.344	68.81
331.572	97.81
331.801	98.81
332.03	87.81
332.258	85.81
332.486	94.81
332.715	67.81
332.943	81.81
333.172	88.81
333.4	79.81
333.629	76.81
333.857	87.81
334.085	96.81
334.314	77.81
334.542	86.81
334.771	89.81
334.999	83.81
335.227	84.81
335.455	82.81
335.684	96.81
335.912	81.81
336.14	90.81
336.369	100.81
336.597	92.81
336.825	81.81
337.053	90.81
337.281	88.81
337.51	94.81
337.738	84.81
337.966	97.81
338.194	95.81
338.422	77.81
338.65	86.81
338.878	83.81
339.106	85.81
339.334	88.81
339.562	76.81
339.79	85.81
340.018	85.81
340.246	86.81
340.474	74.81
340.702	94.81
340.93	71.81
341.158	87.81
341.386	98.81
341.614	76.81
341.842	86.81
342.07	74.81
342.298	83.81
342.526	99.81
342.754	84.81
342.981	85.81
343.209	84.81
343.437	96.81
343.665	85.81
343.893	86.81
344.12	96.81
344.348	86.81
344.576	93.81
344.804	77.81
345.031	86.81
345.259	87.81
345.487	76.81
345.714	86.81
345.942	89.81
346.17	86.81
346.397	63.81
346.625	85.81
346.853	95.81
347.08	87.81
347.308	88.81
347.535	78.81
347.763	97.81
347.99	88.81
348.218	70.81
348.445	76.81
348.673	85.81
348.9	91.81
349.128	82.81
349.355	88.81
349.583	76.81
349.81	85.81
350.037	82.81
350.265	83.81
350.492	82.81
350.72	76.81
350.947	89.81
351.174	82.81
351.402	74.81
351.629	74.81
351.856	90.81
352.083	82.81
352.311	82.81
352.538	66.81
352.765	84.81
352.992	82.81
353.22	82.81
353.447	74.81
353.674	88.81
353.901	82.81
354.128	76.81
354.355	89.81
354.583	88.81
354.81	99.81
355.037	91.81
355.264	87.81
355.491	74.81
355.718	74.81
355.945	85.81
356.172	87.81
356.399	82.81
356.626	85.81
356.853	81.81
357.08	95.81
357.307	86.81
357.534	75.81
357.761	110.81
357.988	99.81
358.215	104.81
358.441	96.81
358.668	88.81
358.895	89.81
359.122	85.81
359.349	85.81
359.576	95.81
359.802	100.81
360.029	79.81
360.256	79.81
360.483	85.81
360.709	86.81
360.936	89.81
361.163	76.81
361.39	86.81
361.616	91.81
361.843	93.81
362.07	102.81
362.296	87.81
362.523	105.81
362.749	102.81
362.976	118.81
363.203	99.81
363.429	83.81
363.656	105.81
363.882	73.81
364.109	96.81
364.335	124.81
364.562	136.81
364.788	101.81
365.015	92.81
365.241	86.81
365.468	93.81
365.694	94.81
365.92	79.81
366.147	91.81
366.373	84.81
366.599	86.81
366.826	78.81
367.052	79.81
367.278	93.81
367.505	93.81
367.731	92.81
367.957	79.81
368.184	83.81
368.41	93.81
368.636	88.81
368.862	75.81
369.089	85.81
369.315	98.81
369.541	85.81
369.767	97.81
369.993	87.81
370.219	89.81
370.445	83.81
370.672	93.81
370.898	102.81
371.124	85.81
371.35	86.81
371.576	87.81
371.802	93.81
372.028	80.81
372.254	91.81
372.48	89.81
372.706	94.81
372.932	94.81
373.158	91.81
373.384	105.81
373.61	94.81
373.835	111.81
374.061	99.81
374.287	88.81
374.513	75.81
374.739	88.81
374.965	106.81
375.191	102.81
375.416	95.81
375.642	93.81
375.868	94.81
376.094	79.81
376.319	97.81
376.545	90.81
376.771	100.81
376.997	70.81
377.222	81.81
377.448	87.81
377.674	75.81
377.899	77.81
378.125	87.81
378.35	93.81
378.576	78.81
378.802	82.81
379.027	76.81
379.253	74.81
379.478	77.81
379.704	101.81
379.929	102.81
380.155	67.81
380.38	79.81
380.606	93.81
380.831	88.81
381.057	81.81
381.282	80.81
381.507	87.81
381.733	88.81
381.958	97.81
382.184	96.81
382.409	81.81
382.634	111.81
382.86	99.81
383.085	99.81
383.31	91.81
383.535	96.81
383.761	109.81
383.986	103.81
384.211	96.81
384.436	90.81
384.662	77.81
384.887	91.81
385.112	72.81
385.337	81.81
385.562	86.81
385.787	105.81
386.013	93.81
386.238	111.81
386.463	101.81
386.688	98.81
386.913	84.81
387.138	87.81
387.363	80.81
387.588	88.81
387.813	100.81
388.038	103.81
388.263	74.81
388.488	91.81
388.713	86.81
388.938	81.81
389.163	78.81
389.387	95.81
389.612	90.81
389.837	91.81
390.062	78.81
390.287	95.81
390.512	98.81
390.736	89.81
390.961	86.81
391.186	75.81
391.411	72.81
391.636	89.81
391.86	82.81
392.085	86.81
392.31	85.81
392.534	105.81
392.759	95.81
392.984	136.81
393.208	217.81
393.433	299.81
393.658	245.81
393.882	125.81
394.107	118.81
394.331	126.81
394.556	122.81
394.78	101.81
395.005	87.81
395.229	89.81
395.454	97.81
395.678	101.81
395.903	116.81
396.127	125.81
396.352	150.81
396.576	140.81
396.801	223.81
397.025	248.81
397.249	149.81
397.474	116.81
397.698	91.81
397.922	88.81
398.147	87.81
398.371	83.81
398.595	95.81
398.82	71.81
399.044	71.81
399.268	86.81
399.492	86.81
399.717	85.81
399.941	94.81
400.165	94.81
400.389	74.81
400.613	71.81
400.837	75.81
401.062	109.81
401.286	95.81
401.51	82.81
401.734	80.81
401.958	84.81
402.182	78.81
402.406	68.81
402.63	91.81
402.854	95.81
403.078	80.81
403.302	89.81
403.526	89.81
403.75	84.81
403.974	70.81
404.198	70.81
404.422	91.81
404.645	92.81
404.869	89.81
405.093	88.81
405.317	78.81
405.541	80.81
405.765	79.81
405.988	81.81
406.212	79.81
406.436	78.81
406.66	85.81
406.883	73.81
407.107	83.81
407.331	79.81
407.555	93.81
407.778	106.81
408.002	111.81
408.226	98.81
408.449	89.81
408.673	81.81
408.896	75.81
409.12	81.81
409.344	97.81
409.567	96.81
409.791	97.81
410.014	98.81
410.238	105.81
410.461	84.81
410.685	87.81
410.908	67.81
411.132	87.81
411.355	66.81
411.578	78.81
411.802	95.81
412.025	98.81
412.249	81.81
412.472	65.81
412.695	87.81
412.919	79.81
413.142	88.81
413.365	81.81
413.589	79.81
413.812	83.81
414.035	95.81
414.258	78.81
414.482	89.81
414.705	94.81
414.928	92.81
415.151	81.81
415.374	90.81
415.597	88.81
415.821	82.81
416.044	86.81
416.267	81.81
416.49	90.81
416.713	74.81
416.936	84.81
417.159	78.81
417.382	87.81
417.605	84.81
417.828	86.81
418.051	85.81
418.274	88.81
418.497	83.81
418.72	85.81
418.943	84.81
419.166	75.81
419.389	77.81
419.611	87.81
419.834	68.81
420.057	88.81
420.28	89.81
420.503	82.81
420.726	92.81
420.948	80.81
421.171	98.81
421.394	98.81
421.617	130.81
421.839	122.81
422.062	104.81
422.285	155.81
422.507	271.81
422.73	399.81
422.953	366.81
423.175	175.81
423.398	131.81
423.621	104.81
423.843	81.81
424.066	88.81
424.288	105.81
424.511	85.81
424.733	87.81
424.956	98.81
425.178	85.81
425.401	89.81
425.623	83.81
425.846	100.81
426.068	102.81
426.291	90.81
426.513	87.81
426.735	90.81
426.958	75.81
427.18	90.81
427.402	98.81
427.625	96.81
427.847	78.81
428.069	94.81
428.292	113.81
428.514	138.81
428.736	104.81
428.958	115.81
429.181	135.81
429.403	98.81
429.625	91.81
429.847	125.81
430.069	140.81
430.292	164.81
430.514	172.81
430.736	134.81
430.958	118.81
431.18	110.81
431.402	100.81
431.624	104.81
431.846	115.81
432.068	127.81
432.29	90.81
432.512	91.81
432.734	91.81
432.956	90.81
433.178	81.81
433.4	80.81
433.622	81.81
433.844	73.81
434.066	82.81
434.287	77.81
434.509	79.81
434.731	68.81
434.953	84.81
435.175	84.81
435.397	75.81
435.618	91.81
435.84	83.81
436.062	89.81
436.284	70.81
436.505	89.81
436.727	81.81
436.949	87.81
437.17	79.81
437.392	81.81
437.614	80.81
437.835	88.81
438.057	86.81
438.278	81.81
438.5	90.81
438.721	83.81
438.943	93.81
439.165	79.81
439.386	80.81
439.608	89.81
439.829	94.81
440.05	97.81
440.272	81.81
440.493	89.81
440.715	77.81
440.936	88.81
441.158	101.81
441.379	78.81
441.6	93.81
441.822	91.81
442.043	95.81
442.264	97.81
442.486	125.81
442.707	153.81
442.928	127.81
443.149	107.81
443.371	150.81
443.592	213.81
443.813	217.81
444.034	107.81
444.255	90.81
444.476	88.81
444.698	85.81
444.919	101.81
445.14	217.81
445.361	189.81
445.582	289.81
445.803	245.81
446.024	114.81
446.245	101.81
446.466	71.81
446.687	72.81
446.908	88.81
447.129	91.81
447.35	89.81
447.571	69.81
447.792	96.81
448.013	87.81
448.234	74.81
448.455	75.81
448.675	73.81
448.896	87.81
449.117	93.81
449.338	76.81
449.559	82.81
449.779	79.81
450	84.81
450.221	70.81
450.442	75.81
450.662	82.81
450.883	81.81
451.104	75.81
451.324	75.81
451.545	94.81
451.766	90.81
451.986	68.81
452.207	89.81
452.428	92.81
452.648	109.81
452.869	93.81
453.089	89.81
453.31	89.81
453.53	106.81
453.751	91.81
453.971	100.81
454.192	87.81
454.412	81.81
454.633	81.81
454.853	99.81
455.073	82.81
455.294	70.81
455.514	96.81
455.734	81.81
455.955	75.81
456.175	93.81
456.395	83.81
456.616	81.81
456.836	81.81
457.056	102.81
457.276	63.81
457.497	91.81
457.717	85.81
457.937	97.81
458.157	113.81
458.377	111.81
458.598	117.81
458.818	121.81
459.038	97.81
459.258	85.81
459.478	76.81
459.698	81.81
459.918	88.81
460.138	85.81
460.358	87.81
460.578	89.81
460.798	107.81
461.018	103.81
461.238	91.81
461.458	83.81
461.678	86.81
461.898	75.81
462.118	79.81
462.338	80.81
462.558	94.81
462.777	81.81
462.997	84.81
463.217	68.81
463.437	87.81
463.657	86.81
463.876	90.81
464.096	81.81
464.316	78.81
464.536	86.81
464.755	84.81
464.975	85.81
465.195	82.81
465.414	88.81
465.634	78.81
465.854	82.81
466.073	83.81
466.293	82.81
466.512	76.81
466.732	87.81
466.951	69.81
467.171	84.81
467.391	79.81
467.61	90.81
467.829	91.81
468.049	85.81
468.268	99.81
468.488	73.81
468.707	61.81
468.927	84.81
469.146	81.81
469.365	87.81
469.585	90.81
469.804	71.81
470.023	85.81
470.243	90.81
470.462	76.81
470.681	88.81
470.901	86.81
471.12	81.81
471.339	82.81
471.558	86.81
471.777	76.81
471.997	89.81
472.216	99.81
472.435	81.81
472.654	74.81
472.873	99.81
473.092	76.81
473.311	93.81
473.53	76.81
473.749	95.81
473.968	81.81
474.187	87.81
474.406	86.81
474.625	95.81
474.844	91.81
475.063	58.81
475.282	71.81
475.501	87.81
475.72	87.81
475.939	83.81
476.158	94.81
476.377	65.81
476.596	87.81
476.814	81.81
477.033	86.81
477.252	87.81
477.471	93.81
477.69	88.81
477.908	82.81
478.127	87.81
478.346	72.81
478.564	101.81
478.783	75.81
479.002	79.81
479.22	94.81
479.439	93.81
479.658	85.81
479.876	94.81
480.095	75.81
480.313	101.81
480.532	83.81
480.751	89.81
480.969	81.81
481.188	72.81
481.406	76.81
481.624	91.81
481.843	89.81
482.061	86.81
482.28	80.81
482.498	95.81
482.717	62.81
482.935	87.81
483.153	79.81
483.372	76.81
483.59	86.81
483.808	96.81
484.027	90.81
484.245	75.81
484.463	89.81
484.681	81.81
484.9	88.81
485.118	88.81
485.336	87.81
485.554	85.81
485.772	82.81
485.99	81.81
486.209	98.81
486.427	83.81
486.645	76.81
486.863	90.81
487.081	95.81
487.299	104.81
487.517	100.81
487.735	121.81
487.953	183.81
488.171	133.81
488.389	81.81
488.607	80.81
488.825	81.81
489.043	78.81
489.261	85.81
489.479	89.81
489.696	85.81
489.914	84.81
490.132	93.81
490.35	77.81
490.568	88.81
490.786	89.81
491.003	87.81
491.221	93.81
491.439	89.81
491.657	93.81
491.874	79.81
492.092	89.81
492.31	90.81
492.527	95.81
492.745	102.81
492.963	94.81
493.18	89.81
493.398	72.81
493.615	97.81
493.833	89.81
494.05	81.81
494.268	77.81
494.485	88.81
494.703	79.81
494.92	76.81
495.138	82.81
495.355	78.81
495.573	91.81
495.79	87.81
496.008	74.81
496.225	79.81
496.442	89.81
496.66	96.81
496.877	102.81
497.094	94.81
497.312	89.81
497.529	82.81
497.746	83.81
497.963	99.81
498.181	102.81
498.398	89.81
498.615	89.81
498.832	99.81
499.049	87.81
499.267	96.81
499.484	107.81
499.701	87.81
499.918	80.81
500.135	96.81
500.352	87.81
500.569	79.81
500.786	86.81
501.003	84.81
501.22	64.81
501.437	95.81
501.654	95.81
501.871	88.81
502.088	89.81
502.305	81.81
502.522	90.81
502.739	85.81
502.956	101.81
503.172	82.81
503.389	94.81
503.606	99.81
503.823	91.81
504.04	102.81
504.256	126.81
504.473	127.81
504.69	85.81
504.907	95.81
505.123	87.81
505.34	90.81
505.557	88.81
505.773	88.81
505.99	74.81
506.207	106.81
506.423	95.81
506.64	97.81
506.856	92.81
507.073	88.81
507.289	94.81
507.506	81.81
507.722	73.81
507.939	85.81
508.155	98.81
508.372	83.81
508.588	63.81
508.805	75.81
509.021	81.81
509.238	81.81
509.454	88.81
509.67	84.81
509.887	97.81
510.103	87.81
510.319	86.81
510.536	82.81
510.752	68.81
510.968	86.81
511.184	89.81
511.401	85.81
511.617	87.81
511.833	81.81
512.049	84.81
512.265	85.81
512.481	91.81
512.698	81.81
512.914	83.81
513.13	82.81
513.346	81.81
513.562	71.81
513.778	85.81
513.994	84.81
514.21	81.81
514.426	91.81
514.642	85.81
514.858	81.81
515.074	87.81
515.29	80.81
515.506	82.81
515.721	76.81
515.937	102.81
516.153	87.81
516.369	89.81
516.585	85.81
516.801	85.81
517.016	92.81
517.232	75.81
517.448	104.81
517.664	105.81
517.879	78.81
518.095	83.81
518.311	96.81
518.527	102.81
