Data from 237_2_HRD10591_00016.txt Node
Date: Mon Jan 19 14:11:38 EST 2026
User: Yrep
Spectrometer: HR+D1059
Trigger mode: 1
Integration Time (sec): 1.000000E-1
Scans to average: 1
Electric dark correction enabled: true
Nonlinearity correction enabled: false
Boxcar width: 0
XAxis mode: Wavelengths
Number of Pixels in Spectrum: 2048
>>>>>Begin Spectral Data<<<<<
223.165	-18.81
223.4	-18.81
223.635	-18.81
223.869	-13.81
224.104	-15.81
224.338	-8.81
224.573	-21.81
224.808	-11.81
225.042	6.19
225.277	-20.81
225.511	2.19
225.746	3.19
225.98	11.19
226.215	3.19
226.449	11.19
226.683	18.19
226.918	29.19
227.152	27.19
227.387	30.19
227.621	43.19
227.856	43.19
228.09	46.19
228.324	33.19
228.559	59.19
228.793	58.19
229.027	65.19
229.262	72.19
229.496	56.19
229.73	56.19
229.964	85.19
230.199	62.19
230.433	70.19
230.667	87.19
230.901	74.19
231.136	80.19
231.37	89.19
231.604	67.19
231.838	78.19
232.072	91.19
232.306	68.19
232.541	81.19
232.775	75.19
233.009	74.19
233.243	94.19
233.477	84.19
233.711	84.19
233.945	62.19
234.179	90.19
234.413	81.19
234.647	89.19
234.881	72.19
235.115	73.19
235.349	105.19
235.583	87.19
235.817	102.19
236.051	80.19
236.285	81.19
236.519	87.19
236.753	81.19
236.987	77.19
237.221	82.19
237.455	84.19
237.689	93.19
237.922	77.19
238.156	70.19
238.39	71.19
238.624	82.19
238.858	73.19
239.091	93.19
239.325	78.19
239.559	81.19
239.793	80.19
240.027	86.19
240.26	86.19
240.494	84.19
240.728	80.19
240.961	77.19
241.195	81.19
241.429	74.19
241.662	75.19
241.896	89.19
242.13	80.19
242.363	69.19
242.597	69.19
242.83	86.19
243.064	72.19
243.298	78.19
243.531	82.19
243.765	87.19
243.998	83.19
244.232	79.19
244.465	74.19
244.699	82.19
244.932	75.19
245.166	78.19
245.399	85.19
245.633	81.19
245.866	69.19
246.099	83.19
246.333	90.19
246.566	78.19
246.8	80.19
247.033	77.19
247.266	73.19
247.5	79.19
247.733	76.19
247.966	76.19
248.2	89.19
248.433	79.19
248.666	75.19
248.899	82.19
249.133	86.19
249.366	82.19
249.599	74.19
249.832	82.19
250.066	82.19
250.299	84.19
250.532	76.19
250.765	83.19
250.998	85.19
251.231	88.19
251.465	85.19
251.698	85.19
251.931	75.19
252.164	98.19
252.397	69.19
252.63	86.19
252.863	69.19
253.096	85.19
253.329	72.19
253.562	87.19
253.795	79.19
254.028	94.19
254.261	83.19
254.494	88.19
254.727	77.19
254.96	83.19
255.193	93.19
255.426	70.19
255.659	81.19
255.892	86.19
256.124	69.19
256.357	91.19
256.59	79.19
256.823	98.19
257.056	77.19
257.289	91.19
257.521	81.19
257.754	78.19
257.987	80.19
258.22	86.19
258.452	93.19
258.685	79.19
258.918	77.19
259.151	86.19
259.383	93.19
259.616	86.19
259.849	87.19
260.081	90.19
260.314	66.19
260.547	88.19
260.779	71.19
261.012	76.19
261.244	86.19
261.477	83.19
261.71	93.19
261.942	87.19
262.175	83.19
262.407	81.19
262.64	88.19
262.872	81.19
263.105	74.19
263.337	84.19
263.57	82.19
263.802	67.19
264.035	78.19
264.267	77.19
264.499	83.19
264.732	83.19
264.964	82.19
265.197	77.19
265.429	77.19
265.661	89.19
265.894	75.19
266.126	79.19
266.358	97.19
266.591	83.19
266.823	84.19
267.055	78.19
267.287	74.19
267.52	88.19
267.752	71.19
267.984	90.19
268.216	86.19
268.448	93.19
268.681	82.19
268.913	89.19
269.145	85.19
269.377	86.19
269.609	76.19
269.841	67.19
270.073	84.19
270.306	73.19
270.538	72.19
270.77	87.19
271.002	79.19
271.234	81.19
271.466	83.19
271.698	99.19
271.93	89.19
272.162	93.19
272.394	94.19
272.626	85.19
272.858	81.19
273.09	68.19
273.322	77.19
273.553	92.19
273.785	84.19
274.017	75.19
274.249	92.19
274.481	79.19
274.713	81.19
274.945	85.19
275.176	73.19
275.408	88.19
275.64	94.19
275.872	89.19
276.104	93.19
276.335	87.19
276.567	96.19
276.799	90.19
277.031	82.19
277.262	89.19
277.494	81.19
277.726	91.19
277.957	99.19
278.189	87.19
278.421	74.19
278.652	95.19
278.884	113.19
279.115	85.19
279.347	96.19
279.579	93.19
279.81	86.19
280.042	81.19
280.273	95.19
280.505	97.19
280.736	85.19
280.968	75.19
281.199	78.19
281.431	71.19
281.662	82.19
281.894	86.19
282.125	84.19
282.356	84.19
282.588	68.19
282.819	80.19
283.051	74.19
283.282	76.19
283.513	97.19
283.745	74.19
283.976	90.19
284.207	95.19
284.439	69.19
284.67	97.19
284.901	88.19
285.132	85.19
285.364	83.19
285.595	100.19
285.826	87.19
286.057	84.19
286.288	87.19
286.52	79.19
286.751	79.19
286.982	85.19
287.213	83.19
287.444	90.19
287.675	85.19
287.906	96.19
288.138	101.19
288.369	103.19
288.6	101.19
288.831	78.19
289.062	92.19
289.293	91.19
289.524	75.19
289.755	85.19
289.986	90.19
290.217	91.19
290.448	84.19
290.679	87.19
290.91	94.19
291.141	99.19
291.371	93.19
291.602	94.19
291.833	80.19
292.064	78.19
292.295	80.19
292.526	99.19
292.757	92.19
292.987	89.19
293.218	84.19
293.449	86.19
293.68	85.19
293.91	91.19
294.141	96.19
294.372	83.19
294.603	90.19
294.833	86.19
295.064	94.19
295.295	88.19
295.525	92.19
295.756	100.19
295.987	88.19
296.217	75.19
296.448	86.19
296.679	95.19
296.909	81.19
297.14	97.19
297.37	94.19
297.601	87.19
297.831	72.19
298.062	92.19
298.292	82.19
298.523	108.19
298.753	81.19
298.984	102.19
299.214	87.19
299.445	98.19
299.675	85.19
299.905	103.19
300.136	98.19
300.366	98.19
300.597	71.19
300.827	89.19
301.057	105.19
301.288	90.19
301.518	82.19
301.748	90.19
301.979	117.19
302.209	84.19
302.439	85.19
302.669	97.19
302.9	85.19
303.13	86.19
303.36	86.19
303.59	86.19
303.82	89.19
304.051	87.19
304.281	84.19
304.511	89.19
304.741	90.19
304.971	92.19
305.201	80.19
305.431	98.19
305.661	85.19
305.891	79.19
306.121	89.19
306.352	97.19
306.582	97.19
306.812	90.19
307.042	84.19
307.272	101.19
307.502	80.19
307.731	98.19
307.961	90.19
308.191	105.19
308.421	101.19
308.651	77.19
308.881	88.19
309.111	91.19
309.341	93.19
309.571	101.19
309.8	84.19
310.03	100.19
310.26	94.19
310.49	89.19
310.72	84.19
310.949	75.19
311.179	73.19
311.409	79.19
311.639	93.19
311.868	90.19
312.098	88.19
312.328	91.19
312.557	76.19
312.787	97.19
313.017	87.19
313.246	78.19
313.476	98.19
313.706	79.19
313.935	83.19
314.165	86.19
314.394	87.19
314.624	94.19
314.853	96.19
315.083	94.19
315.312	95.19
315.542	87.19
315.771	90.19
316.001	97.19
316.23	100.19
316.46	96.19
316.689	82.19
316.919	88.19
317.148	85.19
317.377	95.19
317.607	94.19
317.836	117.19
318.065	115.19
318.295	99.19
318.524	101.19
318.753	94.19
318.983	88.19
319.212	98.19
319.441	91.19
319.67	87.19
319.9	77.19
320.129	83.19
320.358	97.19
320.587	96.19
320.816	99.19
321.046	74.19
321.275	93.19
321.504	95.19
321.733	80.19
321.962	100.19
322.191	93.19
322.42	86.19
322.649	93.19
322.878	96.19
323.108	84.19
323.337	89.19
323.566	90.19
323.795	99.19
324.024	83.19
324.253	98.19
324.482	83.19
324.71	80.19
324.939	97.19
325.168	73.19
325.397	89.19
325.626	76.19
325.855	91.19
326.084	88.19
326.313	93.19
326.542	73.19
326.77	80.19
326.999	74.19
327.228	93.19
327.457	93.19
327.686	86.19
327.914	85.19
328.143	90.19
328.372	81.19
328.6	82.19
328.829	87.19
329.058	82.19
329.287	84.19
329.515	91.19
329.744	90.19
329.972	83.19
330.201	106.19
330.43	103.19
330.658	83.19
330.887	87.19
331.115	108.19
331.344	92.19
331.572	83.19
331.801	74.19
332.03	88.19
332.258	83.19
332.486	91.19
332.715	91.19
332.943	76.19
333.172	83.19
333.4	93.19
333.629	103.19
333.857	88.19
334.085	92.19
334.314	109.19
334.542	96.19
334.771	79.19
334.999	100.19
335.227	103.19
335.455	99.19
335.684	109.19
335.912	98.19
336.14	97.19
336.369	109.19
336.597	86.19
336.825	102.19
337.053	105.19
337.281	97.19
337.51	93.19
337.738	91.19
337.966	88.19
338.194	97.19
338.422	69.19
338.65	84.19
338.878	103.19
339.106	91.19
339.334	80.19
339.562	100.19
339.79	78.19
340.018	92.19
340.246	87.19
340.474	91.19
340.702	92.19
340.93	92.19
341.158	93.19
341.386	91.19
341.614	101.19
341.842	97.19
342.07	77.19
342.298	80.19
342.526	99.19
342.754	81.19
342.981	96.19
343.209	78.19
343.437	102.19
343.665	87.19
343.893	102.19
344.12	97.19
344.348	104.19
344.576	79.19
344.804	94.19
345.031	107.19
345.259	84.19
345.487	93.19
345.714	76.19
345.942	81.19
346.17	75.19
346.397	87.19
346.625	95.19
346.853	87.19
347.08	80.19
347.308	86.19
347.535	80.19
347.763	102.19
347.99	87.19
348.218	87.19
348.445	84.19
348.673	94.19
348.9	94.19
349.128	102.19
349.355	101.19
349.583	87.19
349.81	87.19
350.037	96.19
350.265	100.19
350.492	92.19
350.72	97.19
350.947	107.19
351.174	95.19
351.402	81.19
351.629	89.19
351.856	95.19
352.083	72.19
352.311	94.19
352.538	83.19
352.765	85.19
352.992	92.19
353.22	80.19
353.447	85.19
353.674	86.19
353.901	63.19
354.128	97.19
354.355	87.19
354.583	94.19
354.81	83.19
355.037	89.19
355.264	88.19
355.491	86.19
355.718	90.19
355.945	90.19
356.172	83.19
356.399	101.19
356.626	93.19
356.853	105.19
357.08	100.19
357.307	95.19
357.534	99.19
357.761	91.19
357.988	107.19
358.215	111.19
358.441	85.19
358.668	90.19
358.895	91.19
359.122	87.19
359.349	82.19
359.576	86.19
359.802	89.19
360.029	76.19
360.256	91.19
360.483	85.19
360.709	89.19
360.936	88.19
361.163	96.19
361.39	91.19
361.616	96.19
361.843	110.19
362.07	99.19
362.296	99.19
362.523	99.19
362.749	109.19
362.976	117.19
363.203	138.19
363.429	116.19
363.656	91.19
363.882	102.19
364.109	132.19
364.335	157.19
364.562	156.19
364.788	113.19
365.015	108.19
365.241	85.19
365.468	100.19
365.694	95.19
365.92	105.19
366.147	91.19
366.373	99.19
366.599	92.19
366.826	101.19
367.052	89.19
367.278	98.19
367.505	80.19
367.731	101.19
367.957	92.19
368.184	86.19
368.41	92.19
368.636	90.19
368.862	102.19
369.089	70.19
369.315	87.19
369.541	102.19
369.767	109.19
369.993	89.19
370.219	85.19
370.445	107.19
370.672	114.19
370.898	105.19
371.124	95.19
371.35	100.19
371.576	100.19
371.802	100.19
372.028	109.19
372.254	117.19
372.48	105.19
372.706	104.19
372.932	91.19
373.158	94.19
373.384	100.19
373.61	130.19
373.835	142.19
374.061	100.19
374.287	97.19
374.513	99.19
374.739	118.19
374.965	131.19
375.191	106.19
375.416	96.19
375.642	95.19
375.868	105.19
376.094	99.19
376.319	103.19
376.545	90.19
376.771	94.19
376.997	102.19
377.222	91.19
377.448	86.19
377.674	96.19
377.899	78.19
378.125	77.19
378.35	108.19
378.576	101.19
378.802	90.19
379.027	86.19
379.253	86.19
379.478	100.19
379.704	80.19
379.929	91.19
380.155	92.19
380.38	80.19
380.606	83.19
380.831	77.19
381.057	94.19
381.282	92.19
381.507	106.19
381.733	108.19
381.958	90.19
382.184	94.19
382.409	113.19
382.634	105.19
382.86	110.19
383.085	104.19
383.31	110.19
383.535	115.19
383.761	117.19
383.986	125.19
384.211	97.19
384.436	100.19
384.662	109.19
384.887	87.19
385.112	93.19
385.337	106.19
385.562	103.19
385.787	105.19
386.013	98.19
386.238	104.19
386.463	104.19
386.688	110.19
386.913	98.19
387.138	96.19
387.363	122.19
387.588	123.19
387.813	102.19
388.038	108.19
388.263	101.19
388.488	111.19
388.713	97.19
388.938	89.19
389.163	101.19
389.387	91.19
389.612	103.19
389.837	103.19
390.062	94.19
390.287	77.19
390.512	99.19
390.736	113.19
390.961	91.19
391.186	83.19
391.411	101.19
391.636	87.19
391.86	100.19
392.085	101.19
392.31	117.19
392.534	122.19
392.759	156.19
392.984	231.19
393.208	419.19
393.433	668.19
393.658	497.19
393.882	187.19
394.107	144.19
394.331	148.19
394.556	158.19
394.78	113.19
395.005	102.19
395.229	97.19
395.454	105.19
395.678	130.19
395.903	147.19
396.127	182.19
396.352	211.19
396.576	265.19
396.801	440.19
397.025	531.19
397.249	259.19
397.474	155.19
397.698	121.19
397.922	97.19
398.147	106.19
398.371	104.19
398.595	102.19
398.82	93.19
399.044	97.19
399.268	86.19
399.492	79.19
399.717	105.19
399.941	99.19
400.165	97.19
400.389	104.19
400.613	87.19
400.837	95.19
401.062	98.19
401.286	109.19
401.51	96.19
401.734	90.19
401.958	71.19
402.182	98.19
402.406	99.19
402.63	103.19
402.854	93.19
403.078	90.19
403.302	102.19
403.526	98.19
403.75	84.19
403.974	101.19
404.198	92.19
404.422	123.19
404.645	109.19
404.869	110.19
405.093	105.19
405.317	78.19
405.541	97.19
405.765	94.19
405.988	86.19
406.212	89.19
406.436	107.19
406.66	107.19
406.883	94.19
407.107	91.19
407.331	94.19
407.555	115.19
407.778	147.19
408.002	145.19
408.226	108.19
408.449	86.19
408.673	76.19
408.896	85.19
409.12	90.19
409.344	110.19
409.567	100.19
409.791	105.19
410.014	101.19
410.238	97.19
410.461	96.19
410.685	100.19
410.908	86.19
411.132	93.19
411.355	109.19
411.578	88.19
411.802	92.19
412.025	94.19
412.249	78.19
412.472	90.19
412.695	83.19
412.919	92.19
413.142	97.19
413.365	85.19
413.589	81.19
413.812	78.19
414.035	93.19
414.258	96.19
414.482	97.19
414.705	87.19
414.928	82.19
415.151	81.19
415.374	82.19
415.597	85.19
415.821	95.19
416.044	75.19
416.267	83.19
416.49	91.19
416.713	91.19
416.936	91.19
417.159	97.19
417.382	92.19
417.605	102.19
417.828	85.19
418.051	86.19
418.274	95.19
418.497	99.19
418.72	95.19
418.943	88.19
419.166	90.19
419.389	95.19
419.611	90.19
419.834	100.19
420.057	94.19
420.28	109.19
420.503	104.19
420.726	96.19
420.948	87.19
421.171	95.19
421.394	105.19
421.617	152.19
421.839	146.19
422.062	158.19
422.285	189.19
422.507	416.19
422.73	674.19
422.953	592.19
423.175	259.19
423.398	157.19
423.621	110.19
423.843	119.19
424.066	110.19
424.288	89.19
424.511	105.19
424.733	97.19
424.956	90.19
425.178	106.19
425.401	95.19
425.623	100.19
425.846	98.19
426.068	98.19
426.291	76.19
426.513	78.19
426.735	88.19
426.958	96.19
427.18	104.19
427.402	91.19
427.625	100.19
427.847	109.19
428.069	116.19
428.292	162.19
428.514	189.19
428.736	131.19
428.958	155.19
429.181	187.19
429.403	123.19
429.625	125.19
429.847	151.19
430.069	219.19
430.292	250.19
430.514	229.19
430.736	184.19
430.958	186.19
431.18	118.19
431.402	92.19
431.624	114.19
431.846	150.19
432.068	168.19
432.29	105.19
432.512	105.19
432.734	102.19
432.956	93.19
433.178	87.19
433.4	77.19
433.622	96.19
433.844	81.19
434.066	85.19
434.287	88.19
434.509	88.19
434.731	81.19
434.953	94.19
435.175	86.19
435.397	98.19
435.618	101.19
435.84	98.19
436.062	85.19
436.284	95.19
436.505	87.19
436.727	93.19
436.949	80.19
437.17	84.19
437.392	87.19
437.614	91.19
437.835	87.19
438.057	90.19
438.278	87.19
438.5	105.19
438.721	93.19
438.943	99.19
439.165	82.19
439.386	89.19
439.608	85.19
439.829	84.19
440.05	100.19
440.272	89.19
440.493	90.19
440.715	112.19
440.936	97.19
441.158	97.19
441.379	90.19
441.6	93.19
441.822	98.19
442.043	105.19
442.264	119.19
442.486	167.19
442.707	222.19
442.928	160.19
443.149	158.19
443.371	197.19
443.592	377.19
443.813	326.19
444.034	137.19
444.255	93.19
444.476	103.19
444.698	106.19
444.919	107.19
445.14	225.19
445.361	276.19
445.582	433.19
445.803	369.19
446.024	160.19
446.245	105.19
446.466	82.19
446.687	84.19
446.908	102.19
447.129	87.19
447.35	84.19
447.571	97.19
447.792	99.19
448.013	93.19
448.234	87.19
448.455	89.19
448.675	78.19
448.896	84.19
449.117	90.19
449.338	88.19
449.559	107.19
449.779	92.19
450	88.19
450.221	91.19
450.442	81.19
450.662	86.19
450.883	86.19
451.104	85.19
451.324	90.19
451.545	99.19
451.766	81.19
451.986	86.19
452.207	93.19
452.428	87.19
452.648	100.19
452.869	113.19
453.089	96.19
453.31	82.19
453.53	107.19
453.751	91.19
453.971	85.19
454.192	88.19
454.412	80.19
454.633	89.19
454.853	79.19
455.073	87.19
455.294	84.19
455.514	94.19
455.734	79.19
455.955	75.19
456.175	94.19
456.395	86.19
456.616	90.19
456.836	74.19
457.056	94.19
457.276	97.19
457.497	92.19
457.717	105.19
457.937	125.19
458.157	141.19
458.377	149.19
458.598	149.19
458.818	146.19
459.038	104.19
459.258	89.19
459.478	86.19
459.698	84.19
459.918	102.19
460.138	77.19
460.358	101.19
460.578	102.19
460.798	138.19
461.018	139.19
461.238	87.19
461.458	81.19
461.678	90.19
461.898	95.19
462.118	94.19
462.338	84.19
462.558	80.19
462.777	80.19
462.997	90.19
463.217	88.19
463.437	86.19
463.657	92.19
463.876	98.19
464.096	92.19
464.316	83.19
464.536	74.19
464.755	85.19
464.975	92.19
465.195	91.19
465.414	96.19
465.634	86.19
465.854	95.19
466.073	96.19
466.293	83.19
466.512	70.19
466.732	79.19
466.951	107.19
467.171	96.19
467.391	77.19
467.61	83.19
467.829	83.19
468.049	88.19
468.268	89.19
468.488	108.19
468.707	97.19
468.927	103.19
469.146	103.19
469.365	91.19
469.585	78.19
469.804	91.19
470.023	95.19
470.243	107.19
470.462	107.19
470.681	79.19
470.901	87.19
471.12	82.19
471.339	83.19
471.558	83.19
471.777	91.19
471.997	87.19
472.216	92.19
472.435	79.19
472.654	91.19
472.873	78.19
473.092	89.19
473.311	93.19
473.53	99.19
473.749	79.19
473.968	96.19
474.187	93.19
474.406	77.19
474.625	84.19
474.844	85.19
475.063	92.19
475.282	76.19
475.501	89.19
475.72	97.19
475.939	87.19
476.158	79.19
476.377	87.19
476.596	82.19
476.814	85.19
477.033	91.19
477.252	87.19
477.471	97.19
477.69	91.19
477.908	89.19
478.127	78.19
478.346	93.19
478.564	86.19
478.783	99.19
479.002	77.19
479.22	85.19
479.439	77.19
479.658	79.19
479.876	88.19
480.095	89.19
480.313	82.19
480.532	93.19
480.751	93.19
480.969	81.19
481.188	88.19
481.406	103.19
481.624	101.19
481.843	91.19
482.061	104.19
482.28	84.19
482.498	79.19
482.717	89.19
482.935	78.19
483.153	76.19
483.372	87.19
483.59	91.19
483.808	74.19
484.027	93.19
484.245	83.19
484.463	90.19
484.681	94.19
484.9	92.19
485.118	100.19
485.336	84.19
485.554	86.19
485.772	100.19
485.99	87.19
486.209	94.19
486.427	88.19
486.645	90.19
486.863	101.19
487.081	95.19
487.299	78.19
487.517	109.19
487.735	141.19
487.953	213.19
488.171	171.19
488.389	105.19
488.607	101.19
488.825	82.19
489.043	98.19
489.261	102.19
489.479	93.19
489.696	89.19
489.914	96.19
490.132	87.19
490.35	77.19
490.568	78.19
490.786	92.19
491.003	93.19
491.221	93.19
491.439	84.19
491.657	87.19
491.874	105.19
492.092	88.19
492.31	83.19
492.527	95.19
492.745	85.19
492.963	99.19
493.18	85.19
493.398	89.19
493.615	104.19
493.833	100.19
494.05	92.19
494.268	90.19
494.485	102.19
494.703	87.19
494.92	97.19
495.138	97.19
495.355	107.19
495.573	98.19
495.79	97.19
496.008	89.19
496.225	75.19
496.442	101.19
496.66	90.19
496.877	113.19
497.094	75.19
497.312	105.19
497.529	89.19
497.746	98.19
497.963	105.19
498.181	107.19
498.398	108.19
498.615	97.19
498.832	97.19
499.049	95.19
499.267	109.19
499.484	100.19
499.701	99.19
499.918	87.19
500.135	100.19
500.352	94.19
500.569	83.19
500.786	99.19
501.003	98.19
501.22	98.19
501.437	107.19
501.654	90.19
501.871	93.19
502.088	84.19
502.305	87.19
502.522	84.19
502.739	88.19
502.956	85.19
503.172	83.19
503.389	101.19
503.606	100.19
503.823	109.19
504.04	108.19
504.256	155.19
504.473	161.19
504.69	99.19
504.907	102.19
505.123	93.19
505.34	81.19
505.557	96.19
505.773	94.19
505.99	95.19
506.207	88.19
506.423	74.19
506.64	89.19
506.856	91.19
507.073	93.19
507.289	98.19
507.506	92.19
507.722	79.19
507.939	100.19
508.155	87.19
508.372	94.19
508.588	79.19
508.805	86.19
509.021	87.19
509.238	82.19
509.454	94.19
509.67	83.19
509.887	85.19
510.103	87.19
510.319	85.19
510.536	89.19
510.752	74.19
510.968	90.19
511.184	85.19
511.401	90.19
511.617	93.19
511.833	101.19
512.049	102.19
512.265	87.19
512.481	101.19
512.698	103.19
512.914	82.19
513.13	89.19
513.346	95.19
513.562	80.19
513.778	88.19
513.994	92.19
514.21	89.19
514.426	101.19
514.642	75.19
514.858	85.19
515.074	87.19
515.29	88.19
515.506	98.19
515.721	80.19
515.937	92.19
