Data from 237_2_HRD10591_00006.txt Node
Date: Mon Jan 19 14:11:33 EST 2026
User: Yrep
Spectrometer: HR+D1059
Trigger mode: 1
Integration Time (sec): 1.000000E-1
Scans to average: 1
Electric dark correction enabled: true
Nonlinearity correction enabled: false
Boxcar width: 0
XAxis mode: Wavelengths
Number of Pixels in Spectrum: 2048
>>>>>Begin Spectral Data<<<<<
223.165	-23.44
223.4	-23.44
223.635	-23.44
223.869	-19.44
224.104	-4.44
224.338	-5.44
224.573	-15.44
224.808	-14.44
225.042	-11.44
225.277	-6.44
225.511	1.56
225.746	14.56
225.98	0.56
226.215	5.56
226.449	18.56
226.683	9.56
226.918	24.56
227.152	25.56
227.387	29.56
227.621	30.56
227.856	45.56
228.09	30.56
228.324	39.56
228.559	48.56
228.793	69.56
229.027	59.56
229.262	55.56
229.496	60.56
229.73	57.56
229.964	77.56
230.199	69.56
230.433	72.56
230.667	69.56
230.901	66.56
231.136	72.56
231.37	70.56
231.604	75.56
231.838	78.56
232.072	80.56
232.306	72.56
232.541	82.56
232.775	77.56
233.009	80.56
233.243	75.56
233.477	103.56
233.711	84.56
233.945	78.56
234.179	88.56
234.413	76.56
234.647	84.56
234.881	73.56
235.115	57.56
235.349	70.56
235.583	88.56
235.817	81.56
236.051	80.56
236.285	78.56
236.519	58.56
236.753	79.56
236.987	85.56
237.221	65.56
237.455	73.56
237.689	74.56
237.922	69.56
238.156	85.56
238.39	85.56
238.624	82.56
238.858	87.56
239.091	69.56
239.325	69.56
239.559	82.56
239.793	73.56
240.027	69.56
240.26	73.56
240.494	88.56
240.728	76.56
240.961	69.56
241.195	75.56
241.429	83.56
241.662	63.56
241.896	67.56
242.13	65.56
242.363	72.56
242.597	85.56
242.83	70.56
243.064	67.56
243.298	65.56
243.531	78.56
243.765	67.56
243.998	77.56
244.232	66.56
244.465	81.56
244.699	75.56
244.932	79.56
245.166	87.56
245.399	72.56
245.633	77.56
245.866	79.56
246.099	69.56
246.333	82.56
246.566	73.56
246.8	73.56
247.033	82.56
247.266	79.56
247.5	71.56
247.733	68.56
247.966	73.56
248.2	86.56
248.433	74.56
248.666	74.56
248.899	83.56
249.133	83.56
249.366	78.56
249.599	79.56
249.832	75.56
250.066	97.56
250.299	86.56
250.532	85.56
250.765	72.56
250.998	76.56
251.231	67.56
251.465	83.56
251.698	71.56
251.931	79.56
252.164	88.56
252.397	71.56
252.63	69.56
252.863	75.56
253.096	73.56
253.329	87.56
253.562	74.56
253.795	72.56
254.028	80.56
254.261	70.56
254.494	82.56
254.727	75.56
254.96	81.56
255.193	87.56
255.426	88.56
255.659	82.56
255.892	75.56
256.124	89.56
256.357	75.56
256.59	73.56
256.823	73.56
257.056	84.56
257.289	88.56
257.521	81.56
257.754	87.56
257.987	84.56
258.22	67.56
258.452	75.56
258.685	74.56
258.918	78.56
259.151	64.56
259.383	73.56
259.616	68.56
259.849	81.56
260.081	77.56
260.314	90.56
260.547	67.56
260.779	76.56
261.012	79.56
261.244	76.56
261.477	83.56
261.71	77.56
261.942	76.56
262.175	90.56
262.407	79.56
262.64	89.56
262.872	78.56
263.105	72.56
263.337	71.56
263.57	82.56
263.802	88.56
264.035	84.56
264.267	91.56
264.499	87.56
264.732	74.56
264.964	78.56
265.197	88.56
265.429	88.56
265.661	69.56
265.894	88.56
266.126	87.56
266.358	97.56
266.591	89.56
266.823	81.56
267.055	64.56
267.287	71.56
267.52	72.56
267.752	73.56
267.984	79.56
268.216	75.56
268.448	79.56
268.681	67.56
268.913	80.56
269.145	70.56
269.377	74.56
269.609	90.56
269.841	65.56
270.073	83.56
270.306	86.56
270.538	98.56
270.77	90.56
271.002	78.56
271.234	61.56
271.466	86.56
271.698	80.56
271.93	81.56
272.162	92.56
272.394	80.56
272.626	85.56
272.858	78.56
273.09	87.56
273.322	82.56
273.553	94.56
273.785	97.56
274.017	75.56
274.249	83.56
274.481	91.56
274.713	81.56
274.945	74.56
275.176	91.56
275.408	86.56
275.64	94.56
275.872	89.56
276.104	76.56
276.335	83.56
276.567	79.56
276.799	69.56
277.031	82.56
277.262	80.56
277.494	78.56
277.726	99.56
277.957	89.56
278.189	82.56
278.421	83.56
278.652	89.56
278.884	74.56
279.115	79.56
279.347	87.56
279.579	89.56
279.81	105.56
280.042	101.56
280.273	76.56
280.505	87.56
280.736	87.56
280.968	82.56
281.199	81.56
281.431	88.56
281.662	76.56
281.894	76.56
282.125	81.56
282.356	82.56
282.588	83.56
282.819	93.56
283.051	93.56
283.282	95.56
283.513	85.56
283.745	75.56
283.976	84.56
284.207	84.56
284.439	83.56
284.67	85.56
284.901	86.56
285.132	95.56
285.364	91.56
285.595	97.56
285.826	85.56
286.057	85.56
286.288	90.56
286.52	67.56
286.751	79.56
286.982	79.56
287.213	81.56
287.444	101.56
287.675	86.56
287.906	76.56
288.138	97.56
288.369	94.56
288.6	82.56
288.831	79.56
289.062	78.56
289.293	86.56
289.524	81.56
289.755	82.56
289.986	89.56
290.217	92.56
290.448	61.56
290.679	83.56
290.91	83.56
291.141	84.56
291.371	79.56
291.602	94.56
291.833	71.56
292.064	71.56
292.295	93.56
292.526	90.56
292.757	68.56
292.987	86.56
293.218	85.56
293.449	93.56
293.68	91.56
293.91	83.56
294.141	87.56
294.372	79.56
294.603	71.56
294.833	84.56
295.064	78.56
295.295	89.56
295.525	90.56
295.756	95.56
295.987	60.56
296.217	90.56
296.448	85.56
296.679	96.56
296.909	98.56
297.14	82.56
297.37	101.56
297.601	99.56
297.831	71.56
298.062	82.56
298.292	83.56
298.523	97.56
298.753	78.56
298.984	97.56
299.214	87.56
299.445	85.56
299.675	102.56
299.905	95.56
300.136	102.56
300.366	103.56
300.597	91.56
300.827	101.56
301.057	103.56
301.288	94.56
301.518	71.56
301.748	90.56
301.979	113.56
302.209	102.56
302.439	94.56
302.669	78.56
302.9	76.56
303.13	84.56
303.36	95.56
303.59	91.56
303.82	90.56
304.051	76.56
304.281	87.56
304.511	81.56
304.741	72.56
304.971	83.56
305.201	83.56
305.431	81.56
305.661	83.56
305.891	95.56
306.121	88.56
306.352	75.56
306.582	83.56
306.812	98.56
307.042	82.56
307.272	95.56
307.502	89.56
307.731	89.56
307.961	96.56
308.191	107.56
308.421	106.56
308.651	105.56
308.881	102.56
309.111	115.56
309.341	138.56
309.571	103.56
309.8	97.56
310.03	102.56
310.26	100.56
310.49	88.56
310.72	91.56
310.949	87.56
311.179	85.56
311.409	94.56
311.639	75.56
311.868	77.56
312.098	88.56
312.328	82.56
312.557	80.56
312.787	76.56
313.017	69.56
313.246	88.56
313.476	80.56
313.706	85.56
313.935	90.56
314.165	104.56
314.394	78.56
314.624	75.56
314.853	83.56
315.083	87.56
315.312	72.56
315.542	87.56
315.771	103.56
316.001	93.56
316.23	109.56
316.46	92.56
316.689	81.56
316.919	81.56
317.148	88.56
317.377	84.56
317.607	100.56
317.836	122.56
318.065	121.56
318.295	111.56
318.524	101.56
318.753	89.56
318.983	82.56
319.212	78.56
319.441	93.56
319.67	81.56
319.9	91.56
320.129	94.56
320.358	104.56
320.587	84.56
320.816	71.56
321.046	85.56
321.275	91.56
321.504	89.56
321.733	99.56
321.962	103.56
322.191	116.56
322.42	99.56
322.649	101.56
322.878	87.56
323.108	100.56
323.337	91.56
323.566	93.56
323.795	88.56
324.024	93.56
324.253	99.56
324.482	97.56
324.71	88.56
324.939	79.56
325.168	98.56
325.397	98.56
325.626	94.56
325.855	77.56
326.084	76.56
326.313	78.56
326.542	74.56
326.77	90.56
326.999	91.56
327.228	85.56
327.457	101.56
327.686	85.56
327.914	98.56
328.143	79.56
328.372	86.56
328.6	79.56
328.829	82.56
329.058	89.56
329.287	96.56
329.515	90.56
329.744	95.56
329.972	91.56
330.201	94.56
330.43	91.56
330.658	79.56
330.887	94.56
331.115	93.56
331.344	99.56
331.572	95.56
331.801	86.56
332.03	87.56
332.258	84.56
332.486	90.56
332.715	79.56
332.943	84.56
333.172	63.56
333.4	101.56
333.629	81.56
333.857	96.56
334.085	104.56
334.314	84.56
334.542	102.56
334.771	101.56
334.999	130.56
335.227	109.56
335.455	98.56
335.684	101.56
335.912	104.56
336.14	126.56
336.369	119.56
336.597	100.56
336.825	78.56
337.053	91.56
337.281	90.56
337.51	77.56
337.738	93.56
337.966	86.56
338.194	90.56
338.422	87.56
338.65	89.56
338.878	81.56
339.106	109.56
339.334	95.56
339.562	85.56
339.79	75.56
340.018	83.56
340.246	79.56
340.474	81.56
340.702	88.56
340.93	97.56
341.158	95.56
341.386	84.56
341.614	84.56
341.842	88.56
342.07	101.56
342.298	83.56
342.526	89.56
342.754	82.56
342.981	94.56
343.209	84.56
343.437	98.56
343.665	75.56
343.893	105.56
344.12	108.56
344.348	111.56
344.576	89.56
344.804	88.56
345.031	88.56
345.259	89.56
345.487	90.56
345.714	89.56
345.942	85.56
346.17	89.56
346.397	95.56
346.625	79.56
346.853	98.56
347.08	87.56
347.308	91.56
347.535	96.56
347.763	111.56
347.99	86.56
348.218	97.56
348.445	87.56
348.673	89.56
348.9	105.56
349.128	104.56
349.355	89.56
349.583	81.56
349.81	88.56
350.037	86.56
350.265	94.56
350.492	88.56
350.72	93.56
350.947	97.56
351.174	93.56
351.402	99.56
351.629	83.56
351.856	81.56
352.083	81.56
352.311	91.56
352.538	82.56
352.765	93.56
352.992	97.56
353.22	82.56
353.447	90.56
353.674	90.56
353.901	74.56
354.128	68.56
354.355	101.56
354.583	97.56
354.81	101.56
355.037	102.56
355.264	89.56
355.491	88.56
355.718	93.56
355.945	85.56
356.172	91.56
356.399	89.56
356.626	90.56
356.853	104.56
357.08	111.56
357.307	99.56
357.534	99.56
357.761	92.56
357.988	122.56
358.215	121.56
358.441	104.56
358.668	93.56
358.895	102.56
359.122	98.56
359.349	98.56
359.576	86.56
359.802	83.56
360.029	88.56
360.256	94.56
360.483	87.56
360.709	98.56
360.936	99.56
361.163	91.56
361.39	90.56
361.616	97.56
361.843	92.56
362.07	127.56
362.296	121.56
362.523	145.56
362.749	144.56
362.976	190.56
363.203	194.56
363.429	160.56
363.656	123.56
363.882	122.56
364.109	167.56
364.335	219.56
364.562	237.56
364.788	181.56
365.015	112.56
365.241	95.56
365.468	97.56
365.694	94.56
365.92	92.56
366.147	81.56
366.373	76.56
366.599	87.56
366.826	87.56
367.052	86.56
367.278	84.56
367.505	105.56
367.731	95.56
367.957	94.56
368.184	88.56
368.41	99.56
368.636	98.56
368.862	100.56
369.089	94.56
369.315	80.56
369.541	68.56
369.767	100.56
369.993	67.56
370.219	90.56
370.445	115.56
370.672	121.56
370.898	123.56
371.124	97.56
371.35	83.56
371.576	93.56
371.802	97.56
372.028	117.56
372.254	121.56
372.48	114.56
372.706	117.56
372.932	107.56
373.158	121.56
373.384	130.56
373.61	148.56
373.835	180.56
374.061	126.56
374.287	116.56
374.513	133.56
374.739	147.56
374.965	136.56
375.191	111.56
375.416	114.56
375.642	119.56
375.868	112.56
376.094	111.56
376.319	107.56
376.545	112.56
376.771	101.56
376.997	97.56
377.222	97.56
377.448	78.56
377.674	81.56
377.899	79.56
378.125	87.56
378.35	75.56
378.576	92.56
378.802	88.56
379.027	94.56
379.253	102.56
379.478	101.56
379.704	94.56
379.929	96.56
380.155	93.56
380.38	87.56
380.606	93.56
380.831	93.56
381.057	88.56
381.282	91.56
381.507	113.56
381.733	105.56
381.958	111.56
382.184	125.56
382.409	121.56
382.634	126.56
382.86	127.56
383.085	127.56
383.31	132.56
383.535	129.56
383.761	131.56
383.986	137.56
384.211	134.56
384.436	96.56
384.662	98.56
384.887	97.56
385.112	106.56
385.337	105.56
385.562	101.56
385.787	118.56
386.013	134.56
386.238	127.56
386.463	104.56
386.688	111.56
386.913	107.56
387.138	121.56
387.363	117.56
387.588	124.56
387.813	132.56
388.038	117.56
388.263	122.56
388.488	117.56
388.713	128.56
388.938	101.56
389.163	92.56
389.387	112.56
389.612	89.56
389.837	109.56
390.062	104.56
390.287	109.56
390.512	88.56
390.736	106.56
390.961	99.56
391.186	95.56
391.411	116.56
391.636	115.56
391.86	119.56
392.085	131.56
392.31	129.56
392.534	143.56
392.759	195.56
392.984	341.56
393.208	685.56
393.433	1064.56
393.658	787.56
393.882	289.56
394.107	186.56
394.331	180.56
394.556	191.56
394.78	161.56
395.005	131.56
395.229	127.56
395.454	143.56
395.678	152.56
395.903	216.56
396.127	270.56
396.352	331.56
396.576	389.56
396.801	679.56
397.025	832.56
397.249	397.56
397.474	200.56
397.698	139.56
397.922	118.56
398.147	98.56
398.371	110.56
398.595	89.56
398.82	93.56
399.044	94.56
399.268	101.56
399.492	86.56
399.717	117.56
399.941	100.56
400.165	96.56
400.389	90.56
400.613	102.56
400.837	86.56
401.062	87.56
401.286	92.56
401.51	94.56
401.734	86.56
401.958	97.56
402.182	89.56
402.406	89.56
402.63	93.56
402.854	96.56
403.078	88.56
403.302	96.56
403.526	115.56
403.75	91.56
403.974	103.56
404.198	126.56
404.422	135.56
404.645	191.56
404.869	147.56
405.093	105.56
405.317	95.56
405.541	102.56
405.765	93.56
405.988	92.56
406.212	99.56
406.436	82.56
406.66	102.56
406.883	107.56
407.107	101.56
407.331	127.56
407.555	137.56
407.778	162.56
408.002	168.56
408.226	92.56
408.449	88.56
408.673	93.56
408.896	96.56
409.12	101.56
409.344	119.56
409.567	111.56
409.791	130.56
410.014	143.56
410.238	112.56
410.461	97.56
410.685	97.56
410.908	86.56
411.132	100.56
411.355	102.56
411.578	90.56
411.802	90.56
412.025	88.56
412.249	82.56
412.472	90.56
412.695	90.56
412.919	93.56
413.142	88.56
413.365	93.56
413.589	91.56
413.812	76.56
414.035	107.56
414.258	84.56
414.482	77.56
414.705	86.56
414.928	99.56
415.151	102.56
415.374	89.56
415.597	95.56
415.821	98.56
416.044	90.56
416.267	90.56
416.49	87.56
416.713	91.56
416.936	87.56
417.159	85.56
417.382	98.56
417.605	81.56
417.828	84.56
418.051	90.56
418.274	92.56
418.497	86.56
418.72	95.56
418.943	92.56
419.166	91.56
419.389	98.56
419.611	82.56
419.834	90.56
420.057	96.56
420.28	105.56
420.503	94.56
420.726	96.56
420.948	113.56
421.171	115.56
421.394	142.56
421.617	185.56
421.839	193.56
422.062	203.56
422.285	309.56
422.507	649.56
422.73	1123.56
422.953	960.56
423.175	434.56
423.398	227.56
423.621	152.56
423.843	133.56
424.066	120.56
424.288	111.56
424.511	103.56
424.733	98.56
424.956	113.56
425.178	93.56
425.401	94.56
425.623	97.56
425.846	85.56
426.068	95.56
426.291	102.56
426.513	91.56
426.735	100.56
426.958	94.56
427.18	102.56
427.402	116.56
427.625	116.56
427.847	117.56
428.069	150.56
428.292	230.56
428.514	270.56
428.736	184.56
428.958	241.56
429.181	237.56
429.403	148.56
429.625	131.56
429.847	213.56
430.069	331.56
430.292	410.56
430.514	384.56
430.736	264.56
430.958	286.56
431.18	156.56
431.402	104.56
431.624	135.56
431.846	214.56
432.068	264.56
432.29	131.56
432.512	105.56
432.734	93.56
432.956	74.56
433.178	98.56
433.4	79.56
433.622	71.56
433.844	82.56
434.066	84.56
434.287	87.56
434.509	76.56
434.731	94.56
434.953	90.56
435.175	90.56
435.397	95.56
435.618	114.56
435.84	113.56
436.062	86.56
436.284	92.56
436.505	93.56
436.727	83.56
436.949	81.56
437.17	76.56
437.392	82.56
437.614	86.56
437.835	86.56
438.057	99.56
438.278	120.56
438.5	121.56
438.721	96.56
438.943	90.56
439.165	83.56
439.386	84.56
439.608	81.56
439.829	97.56
440.05	86.56
440.272	92.56
440.493	103.56
440.715	109.56
440.936	89.56
441.158	96.56
441.379	104.56
441.6	96.56
441.822	113.56
442.043	109.56
442.264	148.56
442.486	268.56
442.707	368.56
442.928	211.56
443.149	160.56
443.371	328.56
443.592	656.56
443.813	558.56
444.034	169.56
444.255	101.56
444.476	103.56
444.698	97.56
444.919	123.56
445.14	268.56
445.361	417.56
445.582	809.56
445.803	682.56
446.024	220.56
446.245	129.56
446.466	109.56
446.687	95.56
446.908	90.56
447.129	89.56
447.35	77.56
447.571	83.56
447.792	86.56
448.013	83.56
448.234	88.56
448.455	93.56
448.675	84.56
448.896	77.56
449.117	95.56
449.338	98.56
449.559	80.56
449.779	94.56
450	94.56
450.221	99.56
450.442	97.56
450.662	86.56
450.883	93.56
451.104	91.56
451.324	97.56
451.545	89.56
451.766	86.56
451.986	88.56
452.207	93.56
452.428	112.56
452.648	110.56
452.869	151.56
453.089	114.56
453.31	100.56
453.53	99.56
453.751	99.56
453.971	91.56
454.192	89.56
454.412	90.56
454.633	94.56
454.853	79.56
455.073	73.56
455.294	105.56
455.514	123.56
455.734	94.56
455.955	81.56
456.175	103.56
456.395	76.56
456.616	75.56
456.836	81.56
457.056	94.56
457.276	102.56
457.497	92.56
457.717	93.56
457.937	172.56
458.157	190.56
458.377	212.56
458.598	213.56
458.818	209.56
459.038	127.56
459.258	97.56
459.478	84.56
459.698	83.56
459.918	90.56
460.138	89.56
460.358	94.56
460.578	124.56
460.798	181.56
461.018	180.56
461.238	98.56
461.458	89.56
461.678	87.56
461.898	69.56
462.118	88.56
462.338	91.56
462.558	106.56
462.777	88.56
462.997	94.56
463.217	84.56
463.437	87.56
463.657	74.56
463.876	85.56
464.096	94.56
464.316	83.56
464.536	79.56
464.755	86.56
464.975	89.56
465.195	91.56
465.414	84.56
465.634	81.56
465.854	83.56
466.073	76.56
466.293	89.56
466.512	82.56
466.732	83.56
466.951	94.56
467.171	87.56
467.391	90.56
467.61	79.56
467.829	90.56
468.049	93.56
468.268	89.56
468.488	105.56
468.707	114.56
468.927	99.56
469.146	78.56
469.365	81.56
469.585	82.56
469.804	89.56
470.023	85.56
470.243	75.56
470.462	79.56
470.681	82.56
470.901	81.56
471.12	79.56
471.339	81.56
471.558	80.56
471.777	82.56
471.997	104.56
472.216	75.56
472.435	88.56
472.654	85.56
472.873	89.56
473.092	86.56
473.311	87.56
473.53	73.56
473.749	85.56
473.968	90.56
474.187	85.56
474.406	98.56
474.625	93.56
474.844	88.56
475.063	80.56
475.282	76.56
475.501	90.56
475.72	86.56
475.939	89.56
476.158	85.56
476.377	81.56
476.596	96.56
476.814	93.56
477.033	92.56
477.252	102.56
477.471	85.56
477.69	93.56
477.908	101.56
478.127	80.56
478.346	97.56
478.564	82.56
478.783	96.56
479.002	86.56
479.22	90.56
479.439	85.56
479.658	87.56
479.876	81.56
480.095	98.56
480.313	81.56
480.532	85.56
480.751	83.56
480.969	78.56
481.188	90.56
481.406	96.56
481.624	96.56
481.843	91.56
482.061	95.56
482.28	98.56
482.498	95.56
482.717	90.56
482.935	106.56
483.153	97.56
483.372	101.56
483.59	91.56
483.808	85.56
484.027	88.56
484.245	84.56
484.463	102.56
484.681	104.56
484.9	83.56
485.118	89.56
485.336	100.56
485.554	88.56
485.772	94.56
485.99	88.56
486.209	77.56
486.427	89.56
486.645	90.56
486.863	98.56
487.081	103.56
487.299	105.56
487.517	119.56
487.735	164.56
487.953	358.56
488.171	268.56
488.389	137.56
488.607	95.56
488.825	103.56
489.043	90.56
489.261	104.56
489.479	110.56
489.696	99.56
489.914	97.56
490.132	93.56
490.35	94.56
490.568	112.56
490.786	97.56
491.003	104.56
491.221	95.56
491.439	103.56
491.657	87.56
491.874	95.56
492.092	103.56
492.31	101.56
492.527	77.56
492.745	96.56
492.963	91.56
493.18	103.56
493.398	100.56
493.615	101.56
493.833	82.56
494.05	93.56
494.268	99.56
494.485	77.56
494.703	94.56
494.92	91.56
495.138	78.56
495.355	92.56
495.573	98.56
495.79	121.56
496.008	106.56
496.225	96.56
496.442	103.56
496.66	113.56
496.877	87.56
497.094	94.56
497.312	95.56
497.529	87.56
497.746	106.56
497.963	92.56
498.181	92.56
498.398	120.56
498.615	97.56
498.832	97.56
499.049	91.56
499.267	123.56
499.484	113.56
499.701	95.56
499.918	96.56
500.135	115.56
500.352	100.56
500.569	87.56
500.786	106.56
501.003	113.56
501.22	102.56
501.437	104.56
501.654	99.56
501.871	103.56
502.088	84.56
502.305	84.56
502.522	94.56
502.739	106.56
502.956	93.56
503.172	90.56
503.389	111.56
503.606	89.56
503.823	122.56
504.04	149.56
504.256	222.56
504.473	237.56
504.69	146.56
504.907	89.56
505.123	83.56
505.34	95.56
505.557	83.56
505.773	99.56
505.99	87.56
506.207	82.56
506.423	90.56
506.64	95.56
506.856	92.56
507.073	98.56
507.289	78.56
507.506	74.56
507.722	92.56
507.939	86.56
508.155	80.56
508.372	105.56
508.588	91.56
508.805	89.56
509.021	80.56
509.238	89.56
509.454	90.56
509.67	89.56
509.887	83.56
510.103	88.56
510.319	96.56
510.536	88.56
510.752	93.56
510.968	79.56
511.184	80.56
511.401	100.56
511.617	106.56
511.833	83.56
512.049	93.56
512.265	79.56
512.481	97.56
512.698	94.56
512.914	88.56
513.13	83.56
513.346	85.56
513.562	99.56
513.778	105.56
513.994	111.56
514.21	91.56
514.426	81.56
514.642	87.56
514.858	78.56
515.074	100.56
515.29	98.56
