Data from 237_2_HRD10591_00014.txt Node
Date: Mon Jan 19 14:11:37 EST 2026
User: Yrep
Spectrometer: HR+D1059
Trigger mode: 1
Integration Time (sec): 1.000000E-1
Scans to average: 1
Electric dark correction enabled: true
Nonlinearity correction enabled: false
Boxcar width: 0
XAxis mode: Wavelengths
Number of Pixels in Spectrum: 2048
>>>>>Begin Spectral Data<<<<<
223.165	-29.31
223.4	-29.31
223.635	-29.31
223.869	-7.31
224.104	-14.31
224.338	-7.31
224.573	-11.31
224.808	-15.31
225.042	-0.31
225.277	-12.31
225.511	-6.31
225.746	0.69
225.98	7.69
226.215	7.69
226.449	17.69
226.683	19.69
226.918	29.69
227.152	20.69
227.387	30.69
227.621	36.69
227.856	36.69
228.09	53.69
228.324	48.69
228.559	60.69
228.793	64.69
229.027	64.69
229.262	73.69
229.496	70.69
229.73	72.69
229.964	65.69
230.199	84.69
230.433	84.69
230.667	75.69
230.901	67.69
231.136	77.69
231.37	73.69
231.604	87.69
231.838	79.69
232.072	78.69
232.306	93.69
232.541	81.69
232.775	75.69
233.009	63.69
233.243	84.69
233.477	74.69
233.711	92.69
233.945	86.69
234.179	74.69
234.413	78.69
234.647	69.69
234.881	77.69
235.115	84.69
235.349	68.69
235.583	96.69
235.817	75.69
236.051	70.69
236.285	80.69
236.519	79.69
236.753	72.69
236.987	67.69
237.221	66.69
237.455	84.69
237.689	84.69
237.922	80.69
238.156	86.69
238.39	73.69
238.624	71.69
238.858	86.69
239.091	78.69
239.325	82.69
239.559	87.69
239.793	83.69
240.027	75.69
240.26	64.69
240.494	73.69
240.728	73.69
240.961	78.69
241.195	69.69
241.429	68.69
241.662	77.69
241.896	70.69
242.13	67.69
242.363	60.69
242.597	67.69
242.83	71.69
243.064	76.69
243.298	78.69
243.531	84.69
243.765	91.69
243.998	67.69
244.232	77.69
244.465	83.69
244.699	80.69
244.932	77.69
245.166	73.69
245.399	84.69
245.633	75.69
245.866	89.69
246.099	77.69
246.333	85.69
246.566	77.69
246.8	86.69
247.033	86.69
247.266	80.69
247.5	83.69
247.733	90.69
247.966	79.69
248.2	83.69
248.433	84.69
248.666	88.69
248.899	80.69
249.133	73.69
249.366	64.69
249.599	86.69
249.832	87.69
250.066	71.69
250.299	91.69
250.532	85.69
250.765	93.69
250.998	87.69
251.231	75.69
251.465	66.69
251.698	88.69
251.931	82.69
252.164	83.69
252.397	73.69
252.63	76.69
252.863	86.69
253.096	76.69
253.329	82.69
253.562	89.69
253.795	71.69
254.028	94.69
254.261	84.69
254.494	65.69
254.727	98.69
254.96	93.69
255.193	75.69
255.426	81.69
255.659	81.69
255.892	67.69
256.124	81.69
256.357	83.69
256.59	87.69
256.823	85.69
257.056	90.69
257.289	81.69
257.521	95.69
257.754	87.69
257.987	81.69
258.22	89.69
258.452	91.69
258.685	73.69
258.918	81.69
259.151	78.69
259.383	84.69
259.616	68.69
259.849	77.69
260.081	86.69
260.314	92.69
260.547	91.69
260.779	77.69
261.012	85.69
261.244	88.69
261.477	100.69
261.71	85.69
261.942	74.69
262.175	86.69
262.407	89.69
262.64	87.69
262.872	74.69
263.105	76.69
263.337	89.69
263.57	89.69
263.802	88.69
264.035	88.69
264.267	91.69
264.499	68.69
264.732	95.69
264.964	79.69
265.197	81.69
265.429	87.69
265.661	83.69
265.894	87.69
266.126	87.69
266.358	74.69
266.591	81.69
266.823	91.69
267.055	104.69
267.287	81.69
267.52	71.69
267.752	90.69
267.984	85.69
268.216	68.69
268.448	85.69
268.681	85.69
268.913	75.69
269.145	81.69
269.377	82.69
269.609	82.69
269.841	90.69
270.073	86.69
270.306	76.69
270.538	70.69
270.77	70.69
271.002	88.69
271.234	84.69
271.466	88.69
271.698	94.69
271.93	84.69
272.162	93.69
272.394	82.69
272.626	82.69
272.858	84.69
273.09	86.69
273.322	75.69
273.553	83.69
273.785	87.69
274.017	81.69
274.249	85.69
274.481	83.69
274.713	69.69
274.945	87.69
275.176	82.69
275.408	90.69
275.64	81.69
275.872	80.69
276.104	93.69
276.335	87.69
276.567	77.69
276.799	89.69
277.031	75.69
277.262	63.69
277.494	89.69
277.726	79.69
277.957	98.69
278.189	89.69
278.421	90.69
278.652	71.69
278.884	79.69
279.115	83.69
279.347	104.69
279.579	83.69
279.81	97.69
280.042	86.69
280.273	85.69
280.505	82.69
280.736	78.69
280.968	88.69
281.199	76.69
281.431	83.69
281.662	73.69
281.894	78.69
282.125	91.69
282.356	102.69
282.588	72.69
282.819	86.69
283.051	81.69
283.282	98.69
283.513	77.69
283.745	83.69
283.976	80.69
284.207	97.69
284.439	97.69
284.67	87.69
284.901	88.69
285.132	99.69
285.364	101.69
285.595	83.69
285.826	87.69
286.057	80.69
286.288	93.69
286.52	77.69
286.751	78.69
286.982	83.69
287.213	90.69
287.444	95.69
287.675	82.69
287.906	85.69
288.138	106.69
288.369	92.69
288.6	82.69
288.831	74.69
289.062	95.69
289.293	75.69
289.524	92.69
289.755	88.69
289.986	81.69
290.217	81.69
290.448	84.69
290.679	91.69
290.91	82.69
291.141	86.69
291.371	73.69
291.602	86.69
291.833	87.69
292.064	95.69
292.295	88.69
292.526	73.69
292.757	96.69
292.987	90.69
293.218	85.69
293.449	100.69
293.68	84.69
293.91	89.69
294.141	74.69
294.372	84.69
294.603	82.69
294.833	81.69
295.064	73.69
295.295	80.69
295.525	96.69
295.756	81.69
295.987	83.69
296.217	91.69
296.448	99.69
296.679	102.69
296.909	91.69
297.14	106.69
297.37	80.69
297.601	83.69
297.831	81.69
298.062	84.69
298.292	84.69
298.523	81.69
298.753	85.69
298.984	83.69
299.214	89.69
299.445	80.69
299.675	103.69
299.905	91.69
300.136	100.69
300.366	98.69
300.597	101.69
300.827	107.69
301.057	105.69
301.288	85.69
301.518	87.69
301.748	87.69
301.979	107.69
302.209	96.69
302.439	90.69
302.669	99.69
302.9	100.69
303.13	80.69
303.36	92.69
303.59	87.69
303.82	99.69
304.051	93.69
304.281	85.69
304.511	100.69
304.741	92.69
304.971	73.69
305.201	98.69
305.431	89.69
305.661	89.69
305.891	97.69
306.121	84.69
306.352	84.69
306.582	87.69
306.812	98.69
307.042	88.69
307.272	87.69
307.502	83.69
307.731	92.69
307.961	101.69
308.191	107.69
308.421	122.69
308.651	79.69
308.881	93.69
309.111	103.69
309.341	111.69
309.571	98.69
309.8	102.69
310.03	98.69
310.26	97.69
310.49	90.69
310.72	81.69
310.949	81.69
311.179	100.69
311.409	89.69
311.639	81.69
311.868	106.69
312.098	92.69
312.328	73.69
312.557	99.69
312.787	86.69
313.017	83.69
313.246	104.69
313.476	78.69
313.706	92.69
313.935	89.69
314.165	88.69
314.394	89.69
314.624	89.69
314.853	92.69
315.083	81.69
315.312	100.69
315.542	83.69
315.771	83.69
316.001	96.69
316.23	95.69
316.46	78.69
316.689	71.69
316.919	83.69
317.148	83.69
317.377	95.69
317.607	91.69
317.836	117.69
318.065	111.69
318.295	126.69
318.524	81.69
318.753	97.69
318.983	89.69
319.212	88.69
319.441	95.69
319.67	97.69
319.9	91.69
320.129	90.69
320.358	78.69
320.587	81.69
320.816	96.69
321.046	88.69
321.275	100.69
321.504	104.69
321.733	108.69
321.962	83.69
322.191	94.69
322.42	89.69
322.649	83.69
322.878	98.69
323.108	86.69
323.337	92.69
323.566	89.69
323.795	103.69
324.024	99.69
324.253	96.69
324.482	102.69
324.71	93.69
324.939	103.69
325.168	95.69
325.397	81.69
325.626	97.69
325.855	88.69
326.084	89.69
326.313	84.69
326.542	79.69
326.77	97.69
326.999	83.69
327.228	84.69
327.457	103.69
327.686	97.69
327.914	75.69
328.143	91.69
328.372	82.69
328.6	83.69
328.829	90.69
329.058	87.69
329.287	94.69
329.515	83.69
329.744	97.69
329.972	101.69
330.201	88.69
330.43	93.69
330.658	86.69
330.887	91.69
331.115	82.69
331.344	81.69
331.572	76.69
331.801	83.69
332.03	85.69
332.258	91.69
332.486	97.69
332.715	91.69
332.943	86.69
333.172	78.69
333.4	100.69
333.629	76.69
333.857	94.69
334.085	95.69
334.314	115.69
334.542	106.69
334.771	96.69
334.999	111.69
335.227	107.69
335.455	99.69
335.684	95.69
335.912	93.69
336.14	118.69
336.369	115.69
336.597	96.69
336.825	85.69
337.053	93.69
337.281	81.69
337.51	101.69
337.738	83.69
337.966	92.69
338.194	95.69
338.422	83.69
338.65	77.69
338.878	79.69
339.106	89.69
339.334	101.69
339.562	95.69
339.79	99.69
340.018	85.69
340.246	89.69
340.474	95.69
340.702	73.69
340.93	80.69
341.158	71.69
341.386	85.69
341.614	84.69
341.842	89.69
342.07	84.69
342.298	90.69
342.526	83.69
342.754	82.69
342.981	80.69
343.209	81.69
343.437	94.69
343.665	75.69
343.893	96.69
344.12	103.69
344.348	102.69
344.576	97.69
344.804	90.69
345.031	81.69
345.259	95.69
345.487	83.69
345.714	84.69
345.942	94.69
346.17	95.69
346.397	97.69
346.625	90.69
346.853	92.69
347.08	86.69
347.308	96.69
347.535	101.69
347.763	91.69
347.99	89.69
348.218	97.69
348.445	79.69
348.673	98.69
348.9	88.69
349.128	97.69
349.355	90.69
349.583	95.69
349.81	68.69
350.037	84.69
350.265	94.69
350.492	73.69
350.72	106.69
350.947	94.69
351.174	76.69
351.402	81.69
351.629	89.69
351.856	96.69
352.083	82.69
352.311	91.69
352.538	99.69
352.765	87.69
352.992	97.69
353.22	100.69
353.447	92.69
353.674	89.69
353.901	96.69
354.128	88.69
354.355	82.69
354.583	90.69
354.81	97.69
355.037	89.69
355.264	98.69
355.491	108.69
355.718	91.69
355.945	68.69
356.172	96.69
356.399	113.69
356.626	98.69
356.853	109.69
357.08	99.69
357.307	97.69
357.534	95.69
357.761	106.69
357.988	113.69
358.215	117.69
358.441	105.69
358.668	109.69
358.895	102.69
359.122	97.69
359.349	90.69
359.576	106.69
359.802	92.69
360.029	86.69
360.256	92.69
360.483	96.69
360.709	107.69
360.936	111.69
361.163	99.69
361.39	96.69
361.616	99.69
361.843	99.69
362.07	128.69
362.296	123.69
362.523	126.69
362.749	141.69
362.976	169.69
363.203	193.69
363.429	143.69
363.656	107.69
363.882	121.69
364.109	147.69
364.335	219.69
364.562	211.69
364.788	161.69
365.015	111.69
365.241	84.69
365.468	93.69
365.694	89.69
365.92	97.69
366.147	87.69
366.373	95.69
366.599	75.69
366.826	87.69
367.052	88.69
367.278	89.69
367.505	93.69
367.731	107.69
367.957	99.69
368.184	93.69
368.41	97.69
368.636	90.69
368.862	90.69
369.089	87.69
369.315	84.69
369.541	115.69
369.767	96.69
369.993	85.69
370.219	104.69
370.445	103.69
370.672	123.69
370.898	106.69
371.124	95.69
371.35	96.69
371.576	86.69
371.802	101.69
372.028	113.69
372.254	119.69
372.48	107.69
372.706	99.69
372.932	100.69
373.158	113.69
373.384	129.69
373.61	137.69
373.835	152.69
374.061	114.69
374.287	110.69
374.513	129.69
374.739	128.69
374.965	128.69
375.191	116.69
375.416	104.69
375.642	107.69
375.868	100.69
376.094	119.69
376.319	115.69
376.545	113.69
376.771	108.69
376.997	89.69
377.222	94.69
377.448	85.69
377.674	91.69
377.899	80.69
378.125	84.69
378.35	98.69
378.576	105.69
378.802	96.69
379.027	102.69
379.253	102.69
379.478	96.69
379.704	96.69
379.929	92.69
380.155	91.69
380.38	83.69
380.606	96.69
380.831	94.69
381.057	98.69
381.282	105.69
381.507	96.69
381.733	121.69
381.958	119.69
382.184	117.69
382.409	132.69
382.634	131.69
382.86	130.69
383.085	129.69
383.31	111.69
383.535	125.69
383.761	114.69
383.986	119.69
384.211	123.69
384.436	107.69
384.662	101.69
384.887	84.69
385.112	85.69
385.337	103.69
385.562	116.69
385.787	124.69
386.013	114.69
386.238	128.69
386.463	113.69
386.688	101.69
386.913	119.69
387.138	105.69
387.363	101.69
387.588	104.69
387.813	121.69
388.038	128.69
388.263	120.69
388.488	124.69
388.713	116.69
388.938	103.69
389.163	94.69
389.387	86.69
389.612	97.69
389.837	108.69
390.062	92.69
390.287	103.69
390.512	121.69
390.736	97.69
390.961	88.69
391.186	113.69
391.411	106.69
391.636	102.69
391.86	122.69
392.085	107.69
392.31	126.69
392.534	138.69
392.759	166.69
392.984	316.69
393.208	615.69
393.433	960.69
393.658	703.69
393.882	267.69
394.107	171.69
394.331	179.69
394.556	204.69
394.78	146.69
395.005	125.69
395.229	111.69
395.454	127.69
395.678	151.69
395.903	177.69
396.127	228.69
396.352	287.69
396.576	364.69
396.801	641.69
397.025	733.69
397.249	362.69
397.474	169.69
397.698	146.69
397.922	119.69
398.147	97.69
398.371	91.69
398.595	106.69
398.82	102.69
399.044	111.69
399.268	95.69
399.492	91.69
399.717	87.69
399.941	99.69
400.165	105.69
400.389	88.69
400.613	96.69
400.837	83.69
401.062	103.69
401.286	84.69
401.51	75.69
401.734	81.69
401.958	95.69
402.182	97.69
402.406	96.69
402.63	96.69
402.854	104.69
403.078	104.69
403.302	94.69
403.526	96.69
403.75	83.69
403.974	88.69
404.198	102.69
404.422	117.69
404.645	135.69
404.869	116.69
405.093	105.69
405.317	95.69
405.541	101.69
405.765	98.69
405.988	91.69
406.212	94.69
406.436	82.69
406.66	108.69
406.883	84.69
407.107	91.69
407.331	102.69
407.555	111.69
407.778	175.69
408.002	155.69
408.226	98.69
408.449	96.69
408.673	100.69
408.896	117.69
409.12	98.69
409.344	120.69
409.567	123.69
409.791	134.69
410.014	133.69
410.238	121.69
410.461	96.69
410.685	98.69
410.908	98.69
411.132	100.69
411.355	113.69
411.578	79.69
411.802	92.69
412.025	100.69
412.249	92.69
412.472	89.69
412.695	89.69
412.919	105.69
413.142	92.69
413.365	86.69
413.589	91.69
413.812	101.69
414.035	95.69
414.258	83.69
414.482	87.69
414.705	95.69
414.928	102.69
415.151	83.69
415.374	92.69
415.597	90.69
415.821	84.69
416.044	79.69
416.267	100.69
416.49	83.69
416.713	85.69
416.936	90.69
417.159	102.69
417.382	91.69
417.605	94.69
417.828	85.69
418.051	91.69
418.274	90.69
418.497	95.69
418.72	83.69
418.943	87.69
419.166	101.69
419.389	89.69
419.611	97.69
419.834	92.69
420.057	86.69
420.28	96.69
420.503	115.69
420.726	100.69
420.948	108.69
421.171	120.69
421.394	132.69
421.617	182.69
421.839	191.69
422.062	206.69
422.285	279.69
422.507	613.69
422.73	1063.69
422.953	939.69
423.175	395.69
423.398	223.69
423.621	149.69
423.843	133.69
424.066	120.69
424.288	129.69
424.511	113.69
424.733	116.69
424.956	108.69
425.178	106.69
425.401	89.69
425.623	115.69
425.846	101.69
426.068	102.69
426.291	88.69
426.513	101.69
426.735	90.69
426.958	99.69
427.18	104.69
427.402	103.69
427.625	106.69
427.847	108.69
428.069	126.69
428.292	212.69
428.514	257.69
428.736	171.69
428.958	223.69
429.181	227.69
429.403	145.69
429.625	134.69
429.847	209.69
430.069	323.69
430.292	385.69
430.514	338.69
430.736	233.69
430.958	263.69
431.18	144.69
431.402	103.69
431.624	120.69
431.846	197.69
432.068	243.69
432.29	126.69
432.512	119.69
432.734	98.69
432.956	89.69
433.178	83.69
433.4	89.69
433.622	89.69
433.844	83.69
434.066	90.69
434.287	87.69
434.509	82.69
434.731	91.69
434.953	99.69
435.175	79.69
435.397	94.69
435.618	111.69
435.84	107.69
436.062	97.69
436.284	104.69
436.505	100.69
436.727	97.69
436.949	81.69
437.17	89.69
437.392	84.69
437.614	93.69
437.835	89.69
438.057	104.69
438.278	93.69
438.5	113.69
438.721	96.69
438.943	87.69
439.165	95.69
439.386	92.69
439.608	89.69
439.829	90.69
440.05	105.69
440.272	97.69
440.493	95.69
440.715	101.69
440.936	89.69
441.158	103.69
441.379	86.69
441.6	95.69
441.822	95.69
442.043	107.69
442.264	143.69
442.486	230.69
442.707	343.69
442.928	194.69
443.149	166.69
443.371	289.69
443.592	581.69
443.813	489.69
444.034	173.69
444.255	122.69
444.476	99.69
444.698	100.69
444.919	136.69
445.14	259.69
445.361	382.69
445.582	708.69
445.803	579.69
446.024	193.69
446.245	123.69
446.466	100.69
446.687	95.69
446.908	93.69
447.129	93.69
447.35	64.69
447.571	98.69
447.792	96.69
448.013	101.69
448.234	107.69
448.455	81.69
448.675	89.69
448.896	80.69
449.117	80.69
449.338	87.69
449.559	91.69
449.779	89.69
450	101.69
450.221	83.69
450.442	85.69
450.662	99.69
450.883	85.69
451.104	92.69
451.324	93.69
451.545	81.69
451.766	89.69
451.986	78.69
452.207	100.69
452.428	93.69
452.648	120.69
452.869	139.69
453.089	105.69
453.31	111.69
453.53	103.69
453.751	108.69
453.971	85.69
454.192	89.69
454.412	90.69
454.633	89.69
454.853	87.69
455.073	88.69
455.294	79.69
455.514	100.69
455.734	108.69
455.955	89.69
456.175	84.69
456.395	93.69
456.616	88.69
456.836	94.69
457.056	93.69
457.276	89.69
457.497	96.69
457.717	105.69
457.937	146.69
458.157	205.69
458.377	196.69
458.598	186.69
458.818	209.69
459.038	106.69
459.258	86.69
459.478	98.69
459.698	92.69
459.918	99.69
460.138	96.69
460.358	75.69
460.578	113.69
460.798	171.69
461.018	160.69
461.238	108.69
461.458	74.69
461.678	98.69
461.898	87.69
462.118	93.69
462.338	84.69
462.558	72.69
462.777	77.69
462.997	81.69
463.217	90.69
463.437	78.69
463.657	92.69
463.876	94.69
464.096	95.69
464.316	74.69
464.536	97.69
464.755	89.69
464.975	74.69
465.195	96.69
465.414	96.69
465.634	97.69
465.854	88.69
466.073	82.69
466.293	88.69
466.512	83.69
466.732	86.69
466.951	88.69
467.171	72.69
467.391	87.69
467.61	106.69
467.829	82.69
468.049	105.69
468.268	81.69
468.488	107.69
468.707	111.69
468.927	101.69
469.146	102.69
469.365	97.69
469.585	77.69
469.804	84.69
470.023	91.69
470.243	99.69
470.462	83.69
470.681	84.69
470.901	84.69
471.12	72.69
471.339	87.69
471.558	89.69
471.777	93.69
471.997	96.69
472.216	107.69
472.435	103.69
472.654	101.69
472.873	100.69
473.092	93.69
473.311	98.69
473.53	89.69
473.749	90.69
473.968	113.69
474.187	99.69
474.406	104.69
474.625	105.69
474.844	100.69
475.063	93.69
475.282	78.69
475.501	96.69
475.72	97.69
475.939	82.69
476.158	81.69
476.377	89.69
476.596	83.69
476.814	81.69
477.033	97.69
477.252	85.69
477.471	84.69
477.69	85.69
477.908	72.69
478.127	88.69
478.346	88.69
478.564	82.69
478.783	87.69
479.002	96.69
479.22	101.69
479.439	87.69
479.658	80.69
479.876	80.69
480.095	94.69
480.313	89.69
480.532	104.69
480.751	103.69
480.969	90.69
481.188	103.69
481.406	95.69
481.624	91.69
481.843	75.69
482.061	72.69
482.28	95.69
482.498	85.69
482.717	90.69
482.935	103.69
483.153	111.69
483.372	102.69
483.59	100.69
483.808	93.69
484.027	101.69
484.245	105.69
484.463	101.69
484.681	102.69
484.9	102.69
485.118	93.69
485.336	93.69
485.554	97.69
485.772	91.69
485.99	98.69
486.209	93.69
486.427	83.69
486.645	84.69
486.863	110.69
487.081	106.69
487.299	113.69
487.517	128.69
487.735	177.69
487.953	326.69
488.171	236.69
488.389	109.69
488.607	89.69
488.825	96.69
489.043	102.69
489.261	96.69
489.479	100.69
489.696	90.69
489.914	89.69
490.132	118.69
490.35	96.69
490.568	90.69
490.786	91.69
491.003	90.69
491.221	98.69
491.439	95.69
491.657	98.69
491.874	93.69
492.092	98.69
492.31	92.69
492.527	93.69
492.745	88.69
492.963	115.69
493.18	91.69
493.398	112.69
493.615	116.69
493.833	83.69
494.05	84.69
494.268	89.69
494.485	100.69
494.703	96.69
494.92	107.69
495.138	102.69
495.355	93.69
495.573	90.69
495.79	95.69
496.008	88.69
496.225	94.69
496.442	89.69
496.66	95.69
496.877	102.69
497.094	106.69
497.312	89.69
497.529	94.69
497.746	97.69
497.963	102.69
498.181	103.69
498.398	114.69
498.615	105.69
498.832	95.69
499.049	94.69
499.267	114.69
499.484	95.69
499.701	111.69
499.918	104.69
500.135	101.69
500.352	100.69
500.569	107.69
500.786	97.69
501.003	96.69
501.22	94.69
501.437	100.69
501.654	101.69
501.871	106.69
502.088	99.69
502.305	95.69
502.522	92.69
502.739	95.69
502.956	95.69
503.172	105.69
503.389	87.69
503.606	111.69
503.823	122.69
504.04	128.69
504.256	235.69
504.473	209.69
504.69	111.69
504.907	109.69
505.123	100.69
505.34	101.69
505.557	107.69
505.773	93.69
505.99	90.69
506.207	85.69
506.423	107.69
506.64	95.69
506.856	100.69
507.073	92.69
507.289	80.69
507.506	96.69
507.722	103.69
507.939	96.69
508.155	86.69
508.372	78.69
508.588	93.69
508.805	101.69
509.021	86.69
509.238	89.69
509.454	87.69
509.67	89.69
509.887	83.69
510.103	87.69
510.319	97.69
510.536	91.69
510.752	92.69
510.968	90.69
511.184	91.69
511.401	90.69
511.617	90.69
511.833	93.69
512.049	89.69
512.265	101.69
512.481	90.69
512.698	88.69
512.914	97.69
513.13	98.69
513.346	96.69
513.562	86.69
513.778	83.69
513.994	88.69
514.21	86.69
514.426	83.69
514.642	81.69
514.858	95.69
