Data from 237_2_HRD10591_00013.txt Node
Date: Mon Jan 19 14:11:37 EST 2026
User: Yrep
Spectrometer: HR+D1059
Trigger mode: 1
Integration Time (sec): 1.000000E-1
Scans to average: 1
Electric dark correction enabled: true
Nonlinearity correction enabled: false
Boxcar width: 0
XAxis mode: Wavelengths
Number of Pixels in Spectrum: 2048
>>>>>Begin Spectral Data<<<<<
223.165	-22.44
223.4	-22.44
223.635	-22.44
223.869	-21.44
224.104	-20.44
224.338	-6.44
224.573	-17.44
224.808	-11.44
225.042	-15.44
225.277	-2.44
225.511	7.56
225.746	8.56
225.98	10.56
226.215	-6.44
226.449	14.56
226.683	21.56
226.918	35.56
227.152	25.56
227.387	38.56
227.621	30.56
227.856	49.56
228.09	52.56
228.324	50.56
228.559	69.56
228.793	54.56
229.027	74.56
229.262	66.56
229.496	66.56
229.73	76.56
229.964	70.56
230.199	75.56
230.433	96.56
230.667	85.56
230.901	82.56
231.136	91.56
231.37	92.56
231.604	81.56
231.838	83.56
232.072	78.56
232.306	82.56
232.541	78.56
232.775	84.56
233.009	88.56
233.243	78.56
233.477	90.56
233.711	84.56
233.945	83.56
234.179	74.56
234.413	80.56
234.647	64.56
234.881	77.56
235.115	74.56
235.349	69.56
235.583	82.56
235.817	83.56
236.051	75.56
236.285	62.56
236.519	82.56
236.753	90.56
236.987	89.56
237.221	72.56
237.455	84.56
237.689	75.56
237.922	82.56
238.156	78.56
238.39	70.56
238.624	79.56
238.858	98.56
239.091	86.56
239.325	70.56
239.559	94.56
239.793	70.56
240.027	79.56
240.26	83.56
240.494	77.56
240.728	84.56
240.961	74.56
241.195	72.56
241.429	89.56
241.662	85.56
241.896	89.56
242.13	72.56
242.363	68.56
242.597	72.56
242.83	81.56
243.064	82.56
243.298	75.56
243.531	100.56
243.765	61.56
243.998	77.56
244.232	69.56
244.465	82.56
244.699	70.56
244.932	82.56
245.166	65.56
245.399	78.56
245.633	96.56
245.866	84.56
246.099	74.56
246.333	79.56
246.566	86.56
246.8	84.56
247.033	79.56
247.266	77.56
247.5	76.56
247.733	84.56
247.966	83.56
248.2	83.56
248.433	89.56
248.666	66.56
248.899	65.56
249.133	69.56
249.366	86.56
249.599	101.56
249.832	94.56
250.066	84.56
250.299	85.56
250.532	76.56
250.765	66.56
250.998	87.56
251.231	84.56
251.465	77.56
251.698	84.56
251.931	95.56
252.164	94.56
252.397	88.56
252.63	92.56
252.863	81.56
253.096	84.56
253.329	87.56
253.562	73.56
253.795	66.56
254.028	84.56
254.261	87.56
254.494	90.56
254.727	71.56
254.96	86.56
255.193	84.56
255.426	90.56
255.659	78.56
255.892	76.56
256.124	81.56
256.357	77.56
256.59	94.56
256.823	84.56
257.056	74.56
257.289	64.56
257.521	77.56
257.754	93.56
257.987	75.56
258.22	76.56
258.452	92.56
258.685	90.56
258.918	90.56
259.151	93.56
259.383	84.56
259.616	81.56
259.849	88.56
260.081	93.56
260.314	94.56
260.547	84.56
260.779	85.56
261.012	107.56
261.244	84.56
261.477	86.56
261.71	78.56
261.942	88.56
262.175	85.56
262.407	82.56
262.64	84.56
262.872	85.56
263.105	90.56
263.337	86.56
263.57	77.56
263.802	92.56
264.035	90.56
264.267	80.56
264.499	78.56
264.732	86.56
264.964	84.56
265.197	68.56
265.429	86.56
265.661	73.56
265.894	95.56
266.126	90.56
266.358	84.56
266.591	91.56
266.823	81.56
267.055	74.56
267.287	88.56
267.52	75.56
267.752	79.56
267.984	79.56
268.216	69.56
268.448	76.56
268.681	94.56
268.913	87.56
269.145	86.56
269.377	94.56
269.609	80.56
269.841	95.56
270.073	89.56
270.306	78.56
270.538	82.56
270.77	96.56
271.002	86.56
271.234	71.56
271.466	87.56
271.698	90.56
271.93	80.56
272.162	96.56
272.394	91.56
272.626	91.56
272.858	93.56
273.09	90.56
273.322	83.56
273.553	96.56
273.785	94.56
274.017	100.56
274.249	82.56
274.481	91.56
274.713	91.56
274.945	78.56
275.176	107.56
275.408	85.56
275.64	98.56
275.872	80.56
276.104	85.56
276.335	84.56
276.567	81.56
276.799	88.56
277.031	92.56
277.262	92.56
277.494	72.56
277.726	86.56
277.957	86.56
278.189	86.56
278.421	95.56
278.652	84.56
278.884	92.56
279.115	94.56
279.347	80.56
279.579	88.56
279.81	96.56
280.042	89.56
280.273	82.56
280.505	96.56
280.736	78.56
280.968	86.56
281.199	88.56
281.431	76.56
281.662	85.56
281.894	84.56
282.125	96.56
282.356	84.56
282.588	92.56
282.819	93.56
283.051	88.56
283.282	80.56
283.513	89.56
283.745	91.56
283.976	80.56
284.207	97.56
284.439	85.56
284.67	92.56
284.901	82.56
285.132	94.56
285.364	98.56
285.595	97.56
285.826	96.56
286.057	93.56
286.288	90.56
286.52	89.56
286.751	84.56
286.982	83.56
287.213	85.56
287.444	80.56
287.675	84.56
287.906	103.56
288.138	100.56
288.369	94.56
288.6	104.56
288.831	77.56
289.062	75.56
289.293	84.56
289.524	88.56
289.755	85.56
289.986	98.56
290.217	92.56
290.448	100.56
290.679	98.56
290.91	101.56
291.141	94.56
291.371	102.56
291.602	103.56
291.833	98.56
292.064	108.56
292.295	90.56
292.526	87.56
292.757	87.56
292.987	94.56
293.218	86.56
293.449	97.56
293.68	96.56
293.91	92.56
294.141	94.56
294.372	106.56
294.603	74.56
294.833	104.56
295.064	83.56
295.295	84.56
295.525	87.56
295.756	100.56
295.987	76.56
296.217	94.56
296.448	86.56
296.679	95.56
296.909	89.56
297.14	103.56
297.37	95.56
297.601	103.56
297.831	81.56
298.062	89.56
298.292	82.56
298.523	111.56
298.753	79.56
298.984	102.56
299.214	83.56
299.445	85.56
299.675	102.56
299.905	94.56
300.136	96.56
300.366	96.56
300.597	93.56
300.827	93.56
301.057	111.56
301.288	90.56
301.518	94.56
301.748	87.56
301.979	98.56
302.209	90.56
302.439	90.56
302.669	86.56
302.9	96.56
303.13	74.56
303.36	94.56
303.59	95.56
303.82	80.56
304.051	93.56
304.281	89.56
304.511	99.56
304.741	94.56
304.971	99.56
305.201	74.56
305.431	72.56
305.661	81.56
305.891	88.56
306.121	74.56
306.352	89.56
306.582	100.56
306.812	92.56
307.042	70.56
307.272	89.56
307.502	97.56
307.731	93.56
307.961	105.56
308.191	101.56
308.421	110.56
308.651	98.56
308.881	104.56
309.111	104.56
309.341	109.56
309.571	103.56
309.8	97.56
310.03	109.56
310.26	86.56
310.49	86.56
310.72	85.56
310.949	89.56
311.179	94.56
311.409	85.56
311.639	92.56
311.868	96.56
312.098	95.56
312.328	98.56
312.557	92.56
312.787	92.56
313.017	83.56
313.246	92.56
313.476	91.56
313.706	83.56
313.935	92.56
314.165	90.56
314.394	96.56
314.624	91.56
314.853	92.56
315.083	92.56
315.312	88.56
315.542	95.56
315.771	82.56
316.001	101.56
316.23	96.56
316.46	96.56
316.689	91.56
316.919	76.56
317.148	97.56
317.377	96.56
317.607	104.56
317.836	112.56
318.065	103.56
318.295	87.56
318.524	105.56
318.753	82.56
318.983	96.56
319.212	87.56
319.441	87.56
319.67	96.56
319.9	99.56
320.129	100.56
320.358	85.56
320.587	83.56
320.816	100.56
321.046	96.56
321.275	92.56
321.504	89.56
321.733	82.56
321.962	94.56
322.191	94.56
322.42	102.56
322.649	93.56
322.878	95.56
323.108	90.56
323.337	97.56
323.566	84.56
323.795	91.56
324.024	85.56
324.253	86.56
324.482	90.56
324.71	92.56
324.939	102.56
325.168	84.56
325.397	84.56
325.626	79.56
325.855	84.56
326.084	87.56
326.313	123.56
326.542	101.56
326.77	90.56
326.999	79.56
327.228	88.56
327.457	97.56
327.686	107.56
327.914	94.56
328.143	84.56
328.372	81.56
328.6	96.56
328.829	81.56
329.058	85.56
329.287	76.56
329.515	93.56
329.744	100.56
329.972	98.56
330.201	83.56
330.43	102.56
330.658	92.56
330.887	93.56
331.115	93.56
331.344	89.56
331.572	89.56
331.801	95.56
332.03	84.56
332.258	96.56
332.486	81.56
332.715	92.56
332.943	79.56
333.172	92.56
333.4	92.56
333.629	93.56
333.857	85.56
334.085	99.56
334.314	99.56
334.542	103.56
334.771	107.56
334.999	116.56
335.227	112.56
335.455	109.56
335.684	105.56
335.912	116.56
336.14	110.56
336.369	120.56
336.597	92.56
336.825	109.56
337.053	85.56
337.281	99.56
337.51	90.56
337.738	98.56
337.966	109.56
338.194	91.56
338.422	95.56
338.65	82.56
338.878	98.56
339.106	82.56
339.334	107.56
339.562	81.56
339.79	90.56
340.018	81.56
340.246	76.56
340.474	93.56
340.702	103.56
340.93	96.56
341.158	81.56
341.386	104.56
341.614	102.56
341.842	96.56
342.07	100.56
342.298	88.56
342.526	85.56
342.754	96.56
342.981	95.56
343.209	93.56
343.437	117.56
343.665	87.56
343.893	86.56
344.12	101.56
344.348	104.56
344.576	86.56
344.804	100.56
345.031	92.56
345.259	103.56
345.487	95.56
345.714	97.56
345.942	93.56
346.17	89.56
346.397	94.56
346.625	102.56
346.853	90.56
347.08	93.56
347.308	102.56
347.535	108.56
347.763	102.56
347.99	107.56
348.218	89.56
348.445	85.56
348.673	102.56
348.9	100.56
349.128	107.56
349.355	77.56
349.583	92.56
349.81	90.56
350.037	92.56
350.265	98.56
350.492	84.56
350.72	97.56
350.947	74.56
351.174	104.56
351.402	84.56
351.629	87.56
351.856	86.56
352.083	98.56
352.311	94.56
352.538	98.56
352.765	96.56
352.992	96.56
353.22	83.56
353.447	101.56
353.674	92.56
353.901	92.56
354.128	93.56
354.355	102.56
354.583	104.56
354.81	92.56
355.037	103.56
355.264	93.56
355.491	95.56
355.718	90.56
355.945	85.56
356.172	96.56
356.399	94.56
356.626	99.56
356.853	103.56
357.08	121.56
357.307	99.56
357.534	102.56
357.761	112.56
357.988	106.56
358.215	120.56
358.441	104.56
358.668	100.56
358.895	106.56
359.122	81.56
359.349	93.56
359.576	93.56
359.802	88.56
360.029	93.56
360.256	88.56
360.483	100.56
360.709	104.56
360.936	102.56
361.163	97.56
361.39	100.56
361.616	100.56
361.843	87.56
362.07	114.56
362.296	118.56
362.523	137.56
362.749	141.56
362.976	147.56
363.203	176.56
363.429	140.56
363.656	117.56
363.882	118.56
364.109	152.56
364.335	173.56
364.562	210.56
364.788	141.56
365.015	115.56
365.241	96.56
365.468	91.56
365.694	101.56
365.92	101.56
366.147	96.56
366.373	87.56
366.599	88.56
366.826	89.56
367.052	87.56
367.278	93.56
367.505	96.56
367.731	103.56
367.957	77.56
368.184	92.56
368.41	85.56
368.636	84.56
368.862	101.56
369.089	99.56
369.315	73.56
369.541	91.56
369.767	90.56
369.993	106.56
370.219	85.56
370.445	92.56
370.672	103.56
370.898	93.56
371.124	84.56
371.35	87.56
371.576	100.56
371.802	104.56
372.028	109.56
372.254	104.56
372.48	82.56
372.706	93.56
372.932	97.56
373.158	114.56
373.384	132.56
373.61	141.56
373.835	133.56
374.061	109.56
374.287	98.56
374.513	116.56
374.739	101.56
374.965	114.56
375.191	109.56
375.416	98.56
375.642	112.56
375.868	102.56
376.094	90.56
376.319	100.56
376.545	112.56
376.771	92.56
376.997	88.56
377.222	80.56
377.448	92.56
377.674	100.56
377.899	82.56
378.125	84.56
378.35	84.56
378.576	84.56
378.802	82.56
379.027	86.56
379.253	101.56
379.478	105.56
379.704	83.56
379.929	98.56
380.155	102.56
380.38	91.56
380.606	90.56
380.831	100.56
381.057	92.56
381.282	103.56
381.507	101.56
381.733	106.56
381.958	101.56
382.184	115.56
382.409	108.56
382.634	92.56
382.86	106.56
383.085	109.56
383.31	107.56
383.535	119.56
383.761	114.56
383.986	110.56
384.211	105.56
384.436	89.56
384.662	87.56
384.887	93.56
385.112	89.56
385.337	98.56
385.562	116.56
385.787	94.56
386.013	126.56
386.238	115.56
386.463	97.56
386.688	114.56
386.913	94.56
387.138	105.56
387.363	109.56
387.588	109.56
387.813	113.56
388.038	113.56
388.263	115.56
388.488	100.56
388.713	101.56
388.938	104.56
389.163	106.56
389.387	96.56
389.612	88.56
389.837	104.56
390.062	95.56
390.287	107.56
390.512	102.56
390.736	99.56
390.961	101.56
391.186	100.56
391.411	86.56
391.636	107.56
391.86	100.56
392.085	112.56
392.31	108.56
392.534	133.56
392.759	144.56
392.984	228.56
393.208	410.56
393.433	586.56
393.658	457.56
393.882	197.56
394.107	140.56
394.331	152.56
394.556	181.56
394.78	136.56
395.005	118.56
395.229	124.56
395.454	115.56
395.678	129.56
395.903	160.56
396.127	206.56
396.352	228.56
396.576	240.56
396.801	403.56
397.025	472.56
397.249	251.56
397.474	166.56
397.698	124.56
397.922	114.56
398.147	100.56
398.371	99.56
398.595	109.56
398.82	91.56
399.044	77.56
399.268	80.56
399.492	93.56
399.717	90.56
399.941	98.56
400.165	93.56
400.389	86.56
400.613	89.56
400.837	90.56
401.062	79.56
401.286	83.56
401.51	79.56
401.734	104.56
401.958	97.56
402.182	84.56
402.406	98.56
402.63	101.56
402.854	87.56
403.078	95.56
403.302	106.56
403.526	79.56
403.75	98.56
403.974	98.56
404.198	108.56
404.422	144.56
404.645	137.56
404.869	132.56
405.093	100.56
405.317	96.56
405.541	88.56
405.765	84.56
405.988	93.56
406.212	98.56
406.436	91.56
406.66	100.56
406.883	86.56
407.107	103.56
407.331	104.56
407.555	102.56
407.778	142.56
408.002	152.56
408.226	121.56
408.449	96.56
408.673	107.56
408.896	108.56
409.12	109.56
409.344	115.56
409.567	104.56
409.791	129.56
410.014	114.56
410.238	115.56
410.461	98.56
410.685	102.56
410.908	88.56
411.132	98.56
411.355	86.56
411.578	96.56
411.802	79.56
412.025	99.56
412.249	94.56
412.472	72.56
412.695	90.56
412.919	100.56
413.142	107.56
413.365	85.56
413.589	92.56
413.812	98.56
414.035	96.56
414.258	100.56
414.482	101.56
414.705	88.56
414.928	100.56
415.151	95.56
415.374	103.56
415.597	94.56
415.821	90.56
416.044	94.56
416.267	92.56
416.49	89.56
416.713	96.56
416.936	84.56
417.159	76.56
417.382	96.56
417.605	82.56
417.828	89.56
418.051	84.56
418.274	105.56
418.497	83.56
418.72	94.56
418.943	93.56
419.166	106.56
419.389	94.56
419.611	91.56
419.834	97.56
420.057	100.56
420.28	102.56
420.503	86.56
420.726	109.56
420.948	109.56
421.171	104.56
421.394	131.56
421.617	156.56
421.839	167.56
422.062	173.56
422.285	278.56
422.507	507.56
422.73	812.56
422.953	733.56
423.175	370.56
423.398	190.56
423.621	153.56
423.843	135.56
424.066	129.56
424.288	102.56
424.511	102.56
424.733	116.56
424.956	120.56
425.178	106.56
425.401	99.56
425.623	92.56
425.846	107.56
426.068	86.56
426.291	94.56
426.513	99.56
426.735	102.56
426.958	105.56
427.18	97.56
427.402	121.56
427.625	106.56
427.847	102.56
428.069	114.56
428.292	188.56
428.514	206.56
428.736	147.56
428.958	186.56
429.181	196.56
429.403	122.56
429.625	105.56
429.847	170.56
430.069	267.56
430.292	310.56
430.514	262.56
430.736	205.56
430.958	212.56
431.18	123.56
431.402	113.56
431.624	116.56
431.846	158.56
432.068	211.56
432.29	118.56
432.512	113.56
432.734	97.56
432.956	98.56
433.178	88.56
433.4	90.56
433.622	83.56
433.844	93.56
434.066	89.56
434.287	98.56
434.509	94.56
434.731	89.56
434.953	85.56
435.175	103.56
435.397	104.56
435.618	108.56
435.84	122.56
436.062	93.56
436.284	86.56
436.505	94.56
436.727	91.56
436.949	80.56
437.17	84.56
437.392	93.56
437.614	78.56
437.835	83.56
438.057	82.56
438.278	98.56
438.5	110.56
438.721	100.56
438.943	91.56
439.165	84.56
439.386	92.56
439.608	95.56
439.829	96.56
440.05	102.56
440.272	97.56
440.493	92.56
440.715	118.56
440.936	88.56
441.158	88.56
441.379	84.56
441.6	88.56
441.822	93.56
442.043	99.56
442.264	124.56
442.486	186.56
442.707	308.56
442.928	174.56
443.149	152.56
443.371	247.56
443.592	433.56
443.813	371.56
444.034	154.56
444.255	102.56
444.476	87.56
444.698	110.56
444.919	112.56
445.14	220.56
445.361	312.56
445.582	539.56
445.803	456.56
446.024	173.56
446.245	108.56
446.466	101.56
446.687	105.56
446.908	104.56
447.129	88.56
447.35	113.56
447.571	92.56
447.792	86.56
448.013	94.56
448.234	83.56
448.455	92.56
448.675	88.56
448.896	100.56
449.117	95.56
449.338	86.56
449.559	88.56
449.779	88.56
450	82.56
450.221	89.56
450.442	101.56
450.662	86.56
450.883	101.56
451.104	104.56
451.324	87.56
451.545	85.56
451.766	75.56
451.986	90.56
452.207	80.56
452.428	83.56
452.648	109.56
452.869	156.56
453.089	99.56
453.31	96.56
453.53	111.56
453.751	112.56
453.971	86.56
454.192	78.56
454.412	84.56
454.633	96.56
454.853	108.56
455.073	90.56
455.294	96.56
455.514	96.56
455.734	96.56
455.955	85.56
456.175	97.56
456.395	90.56
456.616	88.56
456.836	90.56
457.056	101.56
457.276	97.56
457.497	89.56
457.717	112.56
457.937	148.56
458.157	173.56
458.377	182.56
458.598	156.56
458.818	191.56
459.038	121.56
459.258	97.56
459.478	90.56
459.698	84.56
459.918	75.56
460.138	88.56
460.358	102.56
460.578	122.56
460.798	150.56
461.018	154.56
461.238	93.56
461.458	91.56
461.678	104.56
461.898	104.56
462.118	94.56
462.338	89.56
462.558	96.56
462.777	98.56
462.997	87.56
463.217	90.56
463.437	97.56
463.657	94.56
463.876	67.56
464.096	99.56
464.316	90.56
464.536	77.56
464.755	94.56
464.975	97.56
465.195	94.56
465.414	85.56
465.634	85.56
465.854	84.56
466.073	92.56
466.293	86.56
466.512	84.56
466.732	87.56
466.951	97.56
467.171	94.56
467.391	93.56
467.61	76.56
467.829	92.56
468.049	98.56
468.268	95.56
468.488	112.56
468.707	102.56
468.927	94.56
469.146	92.56
469.365	98.56
469.585	89.56
469.804	98.56
470.023	92.56
470.243	96.56
470.462	98.56
470.681	82.56
470.901	88.56
471.12	108.56
471.339	92.56
471.558	87.56
471.777	82.56
471.997	92.56
472.216	88.56
472.435	98.56
472.654	98.56
472.873	74.56
473.092	81.56
473.311	102.56
473.53	99.56
473.749	96.56
473.968	102.56
474.187	86.56
474.406	89.56
474.625	99.56
474.844	98.56
475.063	100.56
475.282	85.56
475.501	88.56
475.72	104.56
475.939	83.56
476.158	81.56
476.377	92.56
476.596	84.56
476.814	79.56
477.033	96.56
477.252	87.56
477.471	92.56
477.69	91.56
477.908	93.56
478.127	94.56
478.346	112.56
478.564	90.56
478.783	87.56
479.002	97.56
479.22	99.56
479.439	85.56
479.658	88.56
479.876	80.56
480.095	73.56
480.313	81.56
480.532	81.56
480.751	96.56
480.969	106.56
481.188	99.56
481.406	114.56
481.624	98.56
481.843	80.56
482.061	114.56
482.28	105.56
482.498	100.56
482.717	97.56
482.935	90.56
483.153	112.56
483.372	89.56
483.59	96.56
483.808	98.56
484.027	98.56
484.245	109.56
484.463	116.56
484.681	114.56
484.9	92.56
485.118	96.56
485.336	96.56
485.554	85.56
485.772	93.56
485.99	97.56
486.209	93.56
486.427	85.56
486.645	98.56
486.863	105.56
487.081	104.56
487.299	95.56
487.517	106.56
487.735	168.56
487.953	298.56
488.171	228.56
488.389	105.56
488.607	90.56
488.825	97.56
489.043	101.56
489.261	101.56
489.479	85.56
489.696	92.56
489.914	93.56
490.132	100.56
490.35	84.56
490.568	91.56
490.786	91.56
491.003	110.56
491.221	92.56
491.439	81.56
491.657	84.56
491.874	90.56
492.092	100.56
492.31	98.56
492.527	78.56
492.745	102.56
492.963	100.56
493.18	95.56
493.398	108.56
493.615	110.56
493.833	89.56
494.05	89.56
494.268	105.56
494.485	100.56
494.703	96.56
494.92	86.56
495.138	96.56
495.355	106.56
495.573	99.56
495.79	87.56
496.008	100.56
496.225	98.56
496.442	107.56
496.66	106.56
496.877	94.56
497.094	104.56
497.312	91.56
497.529	84.56
497.746	89.56
497.963	88.56
498.181	100.56
498.398	125.56
498.615	99.56
498.832	97.56
499.049	96.56
499.267	131.56
499.484	108.56
499.701	102.56
499.918	96.56
500.135	117.56
500.352	108.56
500.569	99.56
500.786	87.56
501.003	108.56
501.22	92.56
501.437	93.56
501.654	100.56
501.871	90.56
502.088	93.56
502.305	95.56
502.522	96.56
502.739	91.56
502.956	93.56
503.172	101.56
503.389	86.56
503.606	100.56
503.823	120.56
504.04	132.56
504.256	192.56
504.473	212.56
504.69	113.56
504.907	106.56
505.123	101.56
505.34	88.56
505.557	88.56
505.773	92.56
505.99	90.56
506.207	88.56
506.423	82.56
506.64	89.56
506.856	86.56
507.073	86.56
507.289	77.56
507.506	75.56
507.722	88.56
507.939	85.56
508.155	86.56
508.372	78.56
508.588	85.56
508.805	91.56
509.021	102.56
509.238	112.56
509.454	85.56
509.67	87.56
509.887	88.56
510.103	97.56
510.319	88.56
510.536	85.56
510.752	96.56
510.968	100.56
511.184	87.56
511.401	87.56
511.617	90.56
511.833	82.56
512.049	88.56
512.265	99.56
512.481	92.56
512.698	90.56
512.914	100.56
513.13	73.56
513.346	85.56
513.562	88.56
513.778	90.56
513.994	81.56
514.21	86.56
514.426	104.56
514.642	101.56
