Data from 237_2_HRD10591_00044.txt Node
Date: Mon Jan 19 14:11:52 EST 2026
User: Yrep
Spectrometer: HR+D1059
Trigger mode: 1
Integration Time (sec): 1.000000E-1
Scans to average: 1
Electric dark correction enabled: true
Nonlinearity correction enabled: false
Boxcar width: 0
XAxis mode: Wavelengths
Number of Pixels in Spectrum: 2048
>>>>>Begin Spectral Data<<<<<
223.165	-14
223.4	-14
223.635	-14
223.869	-13
224.104	-4
224.338	-17
224.573	-20
224.808	-4
225.042	-13
225.277	-16
225.511	1
225.746	-2
225.98	1
226.215	6
226.449	20
226.683	17
226.918	24
227.152	34
227.387	21
227.621	44
227.856	60
228.09	51
228.324	51
228.559	64
228.793	55
229.027	56
229.262	73
229.496	70
229.73	80
229.964	81
230.199	84
230.433	88
230.667	79
230.901	80
231.136	75
231.37	65
231.604	88
231.838	89
232.072	89
232.306	85
232.541	69
232.775	78
233.009	85
233.243	77
233.477	66
233.711	78
233.945	81
234.179	62
234.413	88
234.647	76
234.881	85
235.115	89
235.349	81
235.583	87
235.817	78
236.051	67
236.285	82
236.519	85
236.753	78
236.987	85
237.221	100
237.455	81
237.689	74
237.922	74
238.156	80
238.39	79
238.624	81
238.858	87
239.091	86
239.325	79
239.559	76
239.793	81
240.027	79
240.26	85
240.494	75
240.728	80
240.961	76
241.195	72
241.429	77
241.662	93
241.896	84
242.13	62
242.363	73
242.597	93
242.83	87
243.064	70
243.298	80
243.531	94
243.765	93
243.998	83
244.232	79
244.465	69
244.699	76
244.932	87
245.166	92
245.399	79
245.633	78
245.866	93
246.099	85
246.333	98
246.566	93
246.8	86
247.033	94
247.266	91
247.5	87
247.733	90
247.966	74
248.2	69
248.433	86
248.666	76
248.899	79
249.133	80
249.366	82
249.599	71
249.832	91
250.066	88
250.299	88
250.532	95
250.765	81
250.998	100
251.231	91
251.465	79
251.698	74
251.931	88
252.164	82
252.397	71
252.63	89
252.863	71
253.096	89
253.329	94
253.562	90
253.795	88
254.028	90
254.261	89
254.494	85
254.727	70
254.96	76
255.193	78
255.426	69
255.659	87
255.892	80
256.124	88
256.357	85
256.59	77
256.823	60
257.056	99
257.289	71
257.521	85
257.754	87
257.987	81
258.22	92
258.452	85
258.685	96
258.918	94
259.151	80
259.383	90
259.616	90
259.849	88
260.081	81
260.314	79
260.547	85
260.779	76
261.012	71
261.244	76
261.477	92
261.71	82
261.942	74
262.175	77
262.407	82
262.64	100
262.872	91
263.105	81
263.337	86
263.57	76
263.802	86
264.035	88
264.267	81
264.499	89
264.732	88
264.964	79
265.197	88
265.429	88
265.661	95
265.894	94
266.126	78
266.358	89
266.591	92
266.823	82
267.055	88
267.287	85
267.52	82
267.752	75
267.984	93
268.216	93
268.448	79
268.681	97
268.913	94
269.145	88
269.377	92
269.609	85
269.841	82
270.073	96
270.306	87
270.538	101
270.77	79
271.002	86
271.234	80
271.466	79
271.698	89
271.93	75
272.162	76
272.394	89
272.626	87
272.858	89
273.09	78
273.322	91
273.553	89
273.785	91
274.017	81
274.249	82
274.481	87
274.713	85
274.945	91
275.176	85
275.408	89
275.64	86
275.872	80
276.104	83
276.335	92
276.567	84
276.799	87
277.031	94
277.262	94
277.494	90
277.726	79
277.957	84
278.189	90
278.421	88
278.652	85
278.884	104
279.115	97
279.347	97
279.579	93
279.81	93
280.042	93
280.273	88
280.505	87
280.736	91
280.968	80
281.199	99
281.431	91
281.662	89
281.894	90
282.125	82
282.356	78
282.588	86
282.819	75
283.051	88
283.282	95
283.513	94
283.745	100
283.976	88
284.207	89
284.439	81
284.67	91
284.901	87
285.132	98
285.364	91
285.595	103
285.826	77
286.057	107
286.288	86
286.52	88
286.751	82
286.982	98
287.213	83
287.444	81
287.675	87
287.906	92
288.138	85
288.369	92
288.6	81
288.831	92
289.062	79
289.293	79
289.524	85
289.755	89
289.986	87
290.217	92
290.448	91
290.679	80
290.91	100
291.141	91
291.371	91
291.602	94
291.833	86
292.064	98
292.295	76
292.526	87
292.757	89
292.987	89
293.218	91
293.449	88
293.68	88
293.91	82
294.141	88
294.372	97
294.603	97
294.833	78
295.064	89
295.295	77
295.525	91
295.756	84
295.987	89
296.217	86
296.448	86
296.679	93
296.909	89
297.14	87
297.37	93
297.601	91
297.831	96
298.062	74
298.292	97
298.523	91
298.753	88
298.984	93
299.214	91
299.445	86
299.675	85
299.905	88
300.136	94
300.366	104
300.597	95
300.827	90
301.057	93
301.288	92
301.518	91
301.748	92
301.979	99
302.209	95
302.439	92
302.669	84
302.9	80
303.13	88
303.36	86
303.59	91
303.82	93
304.051	89
304.281	86
304.511	108
304.741	79
304.971	84
305.201	87
305.431	91
305.661	85
305.891	103
306.121	99
306.352	92
306.582	87
306.812	96
307.042	102
307.272	90
307.502	98
307.731	84
307.961	95
308.191	95
308.421	99
308.651	92
308.881	86
309.111	100
309.341	89
309.571	101
309.8	87
310.03	91
310.26	85
310.49	103
310.72	82
310.949	94
311.179	87
311.409	91
311.639	95
311.868	98
312.098	87
312.328	101
312.557	87
312.787	79
313.017	95
313.246	96
313.476	94
313.706	86
313.935	96
314.165	88
314.394	82
314.624	91
314.853	101
315.083	101
315.312	97
315.542	86
315.771	81
316.001	107
316.23	98
316.46	87
316.689	81
316.919	101
317.148	87
317.377	103
317.607	90
317.836	87
318.065	83
318.295	96
318.524	89
318.753	84
318.983	82
319.212	93
319.441	89
319.67	92
319.9	92
320.129	94
320.358	87
320.587	76
320.816	77
321.046	86
321.275	87
321.504	79
321.733	89
321.962	89
322.191	92
322.42	105
322.649	93
322.878	91
323.108	84
323.337	93
323.566	90
323.795	85
324.024	94
324.253	103
324.482	87
324.71	100
324.939	110
325.168	105
325.397	98
325.626	93
325.855	91
326.084	74
326.313	97
326.542	89
326.77	100
326.999	89
327.228	94
327.457	79
327.686	85
327.914	91
328.143	84
328.372	73
328.6	81
328.829	92
329.058	97
329.287	94
329.515	101
329.744	94
329.972	92
330.201	89
330.43	88
330.658	79
330.887	75
331.115	87
331.344	95
331.572	79
331.801	96
332.03	87
332.258	104
332.486	95
332.715	91
332.943	103
333.172	86
333.4	86
333.629	92
333.857	96
334.085	98
334.314	94
334.542	86
334.771	74
334.999	90
335.227	101
335.455	101
335.684	95
335.912	99
336.14	112
336.369	97
336.597	98
336.825	89
337.053	97
337.281	95
337.51	94
337.738	96
337.966	91
338.194	77
338.422	77
338.65	101
338.878	95
339.106	100
339.334	75
339.562	94
339.79	97
340.018	100
340.246	82
340.474	89
340.702	101
340.93	89
341.158	103
341.386	103
341.614	92
341.842	84
342.07	88
342.298	73
342.526	81
342.754	86
342.981	79
343.209	79
343.437	107
343.665	96
343.893	78
344.12	91
344.348	84
344.576	107
344.804	92
345.031	85
345.259	92
345.487	93
345.714	84
345.942	87
346.17	92
346.397	85
346.625	92
346.853	84
347.08	90
347.308	102
347.535	101
347.763	101
347.99	99
348.218	96
348.445	99
348.673	97
348.9	87
349.128	99
349.355	90
349.583	82
349.81	103
350.037	93
350.265	99
350.492	86
350.72	91
350.947	99
351.174	94
351.402	92
351.629	85
351.856	95
352.083	95
352.311	90
352.538	86
352.765	104
352.992	98
353.22	97
353.447	91
353.674	85
353.901	88
354.128	93
354.355	86
354.583	93
354.81	88
355.037	97
355.264	96
355.491	109
355.718	91
355.945	101
356.172	91
356.399	99
356.626	101
356.853	81
357.08	86
357.307	81
357.534	99
357.761	93
357.988	92
358.215	113
358.441	105
358.668	89
358.895	88
359.122	101
359.349	88
359.576	115
359.802	103
360.029	99
360.256	100
360.483	87
360.709	91
360.936	103
361.163	107
361.39	85
361.616	101
361.843	98
362.07	95
362.296	102
362.523	116
362.749	107
362.976	144
363.203	136
363.429	113
363.656	95
363.882	98
364.109	120
364.335	150
364.562	161
364.788	132
365.015	105
365.241	77
365.468	85
365.694	100
365.92	94
366.147	101
366.373	95
366.599	85
366.826	98
367.052	95
367.278	95
367.505	99
367.731	95
367.957	96
368.184	85
368.41	87
368.636	84
368.862	88
369.089	105
369.315	94
369.541	97
369.767	88
369.993	79
370.219	96
370.445	85
370.672	105
370.898	103
371.124	87
371.35	88
371.576	91
371.802	93
372.028	103
372.254	105
372.48	99
372.706	104
372.932	87
373.158	93
373.384	117
373.61	140
373.835	122
374.061	96
374.287	107
374.513	115
374.739	123
374.965	107
375.191	109
375.416	90
375.642	95
375.868	100
376.094	99
376.319	92
376.545	87
376.771	99
376.997	85
377.222	89
377.448	87
377.674	95
377.899	81
378.125	95
378.35	84
378.576	94
378.802	101
379.027	101
379.253	96
379.478	80
379.704	93
379.929	94
380.155	102
380.38	96
380.606	96
380.831	87
381.057	101
381.282	106
381.507	102
381.733	105
381.958	95
382.184	102
382.409	117
382.634	122
382.86	99
383.085	110
383.31	105
383.535	107
383.761	105
383.986	102
384.211	105
384.436	102
384.662	96
384.887	106
385.112	103
385.337	104
385.562	102
385.787	117
386.013	108
386.238	105
386.463	86
386.688	122
386.913	106
387.138	108
387.363	98
387.588	91
387.813	105
388.038	102
388.263	105
388.488	115
388.713	103
388.938	95
389.163	97
389.387	90
389.612	95
389.837	93
390.062	103
390.287	112
390.512	87
390.736	90
390.961	95
391.186	100
391.411	92
391.636	101
391.86	94
392.085	111
392.31	108
392.534	119
392.759	137
392.984	201
393.208	353
393.433	519
393.658	377
393.882	168
394.107	133
394.331	145
394.556	147
394.78	96
395.005	101
395.229	107
395.454	97
395.678	120
395.903	136
396.127	156
396.352	181
396.576	219
396.801	334
397.025	390
397.249	207
397.474	137
397.698	128
397.922	96
398.147	96
398.371	105
398.595	90
398.82	101
399.044	96
399.268	99
399.492	87
399.717	103
399.941	90
400.165	107
400.389	85
400.613	102
400.837	85
401.062	88
401.286	84
401.51	87
401.734	98
401.958	95
402.182	109
402.406	93
402.63	94
402.854	75
403.078	106
403.302	102
403.526	105
403.75	98
403.974	108
404.198	92
404.422	112
404.645	119
404.869	103
405.093	97
405.317	94
405.541	88
405.765	84
405.988	95
406.212	90
406.436	91
406.66	93
406.883	90
407.107	96
407.331	81
407.555	111
407.778	136
408.002	141
408.226	95
408.449	86
408.673	79
408.896	97
409.12	85
409.344	97
409.567	113
409.791	124
410.014	118
410.238	99
410.461	100
410.685	83
410.908	76
411.132	88
411.355	99
411.578	85
411.802	95
412.025	95
412.249	90
412.472	83
412.695	73
412.919	79
413.142	89
413.365	80
413.589	99
413.812	83
414.035	98
414.258	85
414.482	96
414.705	86
414.928	90
415.151	89
415.374	92
415.597	78
415.821	91
416.044	95
416.267	95
416.49	102
416.713	89
416.936	74
417.159	95
417.382	83
417.605	102
417.828	95
418.051	103
418.274	92
418.497	87
418.72	95
418.943	87
419.166	100
419.389	81
419.611	81
419.834	94
420.057	93
420.28	108
420.503	112
420.726	97
420.948	101
421.171	101
421.394	105
421.617	144
421.839	137
422.062	139
422.285	181
422.507	341
422.73	521
422.953	452
423.175	234
423.398	140
423.621	125
423.843	96
424.066	108
424.288	99
424.511	101
424.733	100
424.956	92
425.178	87
425.401	94
425.623	98
425.846	103
426.068	100
426.291	83
426.513	92
426.735	90
426.958	96
427.18	85
427.402	102
427.625	110
427.847	94
428.069	115
428.292	143
428.514	162
428.736	123
428.958	142
429.181	137
429.403	110
429.625	109
429.847	149
430.069	185
430.292	222
430.514	199
430.736	149
430.958	163
431.18	114
431.402	89
431.624	93
431.846	140
432.068	165
432.29	115
432.512	107
432.734	95
432.956	89
433.178	94
433.4	84
433.622	91
433.844	88
434.066	99
434.287	90
434.509	86
434.731	85
434.953	87
435.175	80
435.397	87
435.618	113
435.84	99
436.062	101
436.284	79
436.505	94
436.727	89
436.949	89
437.17	81
437.392	79
437.614	77
437.835	95
438.057	90
438.278	113
438.5	102
438.721	109
438.943	87
439.165	104
439.386	73
439.608	83
439.829	91
440.05	90
440.272	99
440.493	96
440.715	95
440.936	93
441.158	97
441.379	107
441.6	91
441.822	97
442.043	84
442.264	107
442.486	159
442.707	203
442.928	122
443.149	119
443.371	196
443.592	296
443.813	271
444.034	144
444.255	88
444.476	104
444.698	102
444.919	102
445.14	217
445.361	226
445.582	383
445.803	320
446.024	147
446.245	111
446.466	85
446.687	100
446.908	99
447.129	95
447.35	91
447.571	101
447.792	100
448.013	94
448.234	88
448.455	88
448.675	93
448.896	95
449.117	100
449.338	80
449.559	88
449.779	93
450	81
450.221	101
450.442	100
450.662	75
450.883	103
451.104	104
451.324	89
451.545	85
451.766	88
451.986	82
452.207	94
452.428	94
452.648	100
452.869	117
453.089	107
453.31	96
453.53	109
453.751	95
453.971	101
454.192	95
454.412	104
454.633	95
454.853	97
455.073	108
455.294	104
455.514	85
455.734	107
455.955	80
456.175	99
456.395	79
456.616	93
456.836	105
457.056	93
457.276	85
457.497	89
457.717	90
457.937	126
458.157	131
458.377	134
458.598	135
458.818	143
459.038	115
459.258	83
459.478	93
459.698	90
459.918	96
460.138	105
460.358	88
460.578	88
460.798	148
461.018	134
461.238	96
461.458	85
461.678	93
461.898	88
462.118	83
462.338	89
462.558	88
462.777	105
462.997	80
463.217	89
463.437	83
463.657	95
463.876	88
464.096	81
464.316	100
464.536	96
464.755	94
464.975	96
465.195	85
465.414	89
465.634	84
465.854	96
466.073	95
466.293	89
466.512	83
466.732	86
466.951	94
467.171	90
467.391	99
467.61	87
467.829	84
468.049	94
468.268	93
468.488	95
468.707	105
468.927	102
469.146	90
469.365	87
469.585	91
469.804	87
470.023	100
470.243	85
470.462	95
470.681	102
470.901	79
471.12	93
471.339	102
471.558	97
471.777	83
471.997	87
472.216	99
472.435	93
472.654	102
472.873	97
473.092	89
473.311	89
473.53	91
473.749	85
473.968	88
474.187	79
474.406	73
474.625	92
474.844	91
475.063	91
475.282	92
475.501	67
475.72	99
475.939	97
476.158	79
476.377	92
476.596	77
476.814	107
477.033	94
477.252	81
477.471	80
477.69	99
477.908	90
478.127	83
478.346	86
478.564	93
478.783	100
479.002	96
479.22	90
479.439	97
479.658	82
479.876	87
480.095	99
480.313	91
480.532	95
480.751	86
480.969	91
481.188	88
481.406	80
481.624	81
481.843	89
482.061	86
482.28	96
482.498	89
482.717	104
482.935	88
483.153	77
483.372	88
483.59	87
483.808	91
484.027	82
484.245	100
484.463	79
484.681	99
484.9	96
485.118	76
485.336	88
485.554	87
485.772	89
485.99	100
486.209	91
486.427	89
486.645	91
486.863	99
487.081	96
487.299	95
487.517	105
487.735	128
487.953	208
488.171	158
488.389	100
488.607	89
488.825	93
489.043	82
489.261	91
489.479	104
489.696	85
489.914	94
490.132	89
490.35	106
490.568	90
490.786	89
491.003	94
491.221	95
491.439	82
491.657	95
491.874	91
492.092	99
492.31	100
492.527	88
492.745	80
492.963	93
493.18	105
493.398	91
493.615	96
493.833	85
494.05	85
494.268	93
494.485	106
494.703	96
494.92	99
495.138	75
495.355	93
495.573	91
495.79	84
496.008	90
496.225	94
496.442	95
496.66	96
496.877	97
497.094	93
497.312	101
497.529	98
497.746	77
497.963	98
498.181	108
498.398	107
498.615	94
498.832	95
499.049	94
499.267	98
499.484	81
499.701	93
499.918	93
500.135	112
500.352	102
500.569	100
500.786	90
501.003	87
501.22	105
501.437	98
501.654	104
501.871	96
502.088	90
502.305	100
502.522	90
502.739	94
502.956	90
503.172	101
503.389	85
503.606	91
503.823	116
504.04	117
504.256	171
504.473	151
504.69	93
504.907	103
505.123	99
505.34	95
505.557	85
505.773	101
505.99	76
506.207	99
506.423	85
506.64	106
506.856	92
507.073	101
507.289	108
507.506	97
507.722	97
507.939	88
508.155	99
508.372	95
508.588	103
508.805	90
509.021	89
509.238	93
509.454	94
509.67	87
509.887	88
510.103	85
510.319	82
510.536	93
510.752	99
510.968	92
511.184	89
511.401	83
511.617	91
511.833	88
512.049	77
512.265	95
512.481	97
512.698	100
512.914	95
513.13	91
513.346	89
513.562	91
513.778	93
513.994	87
514.21	91
514.426	103
514.642	101
514.858	96
515.074	101
515.29	96
515.506	90
515.721	95
515.937	87
516.153	89
516.369	101
516.585	92
516.801	88
517.016	99
517.232	101
517.448	116
517.664	101
517.879	91
518.095	95
518.311	101
518.527	124
518.742	125
518.958	171
519.173	200
519.389	113
519.605	96
519.82	96
520.036	91
520.251	100
520.467	91
520.682	100
520.898	94
521.113	120
521.329	89
521.544	79
521.76	95
521.975	101
522.19	99
522.406	92
522.621	108
522.836	91
523.052	102
523.267	107
523.482	89
523.698	92
523.913	93
524.128	98
524.343	86
524.559	92
524.774	105
524.989	102
525.204	93
525.419	95
525.634	103
525.849	103
526.064	142
526.28	298
526.495	401
526.71	428
526.925	258
527.14	341
527.355	315
527.57	109
527.785	93
527.999	92
528.214	106
528.429	85
528.644	90
528.859	105
529.074	91
529.289	94
529.503	79
529.718	95
529.933	93
530.148	75
530.363	103
530.577	104
530.792	87
531.007	100
531.221	108
531.436	95
531.651	97
531.865	89
532.08	98
532.295	95
532.509	89
532.724	92
532.938	87
533.153	97
533.367	94
533.582	85
533.796	85
534.011	109
534.225	105
534.44	112
534.654	116
534.868	115
535.083	210
535.297	167
535.511	119
535.726	120
535.94	96
536.154	97
536.369	101
536.583	109
536.797	101
537.011	95
537.225	97
537.44	111
537.654	118
537.868	108
538.082	102
538.296	103
538.51	108
538.724	109
538.938	98
539.153	99
539.367	100
539.581	112
539.795	108
540.009	110
540.222	112
540.436	116
540.65	116
540.864	111
541.078	111
541.292	103
541.506	118
541.72	107
541.934	111
542.147	108
542.361	101
542.575	109
542.789	106
543.002	104
543.216	104
543.43	106
543.644	112
543.857	91
544.071	100
544.285	115
544.498	109
544.712	104
544.925	107
545.139	117
545.352	119
545.566	108
545.779	115
545.993	111
546.206	115
546.42	129
546.633	131
546.847	132
547.06	142
547.274	150
547.487	175
547.7	206
547.914	199
548.127	196
548.34	228
548.554	216
548.767	216
548.98	215
549.193	214
549.407	219
549.62	222
549.833	227
550.046	255
550.259	277
550.473	249
550.686	278
550.899	309
551.112	319
551.325	333
551.538	363
551.751	316
551.964	288
552.177	289
552.39	269
552.603	273
552.816	282
553.029	264
553.242	272
553.455	251
553.667	292
553.88	269
554.093	277
554.306	272
554.519	274
554.732	266
554.944	278
555.157	264
555.37	248
555.583	242
555.795	236
556.008	223
556.221	210
556.433	195
556.646	195
556.859	184
557.071	195
557.284	171
557.496	152
557.709	161
557.921	166
558.134	170
558.346	227
558.559	192
558.771	189
558.984	375
559.196	485
559.409	237
559.621	364
559.833	296
560.046	349
560.258	277
560.47	307
560.683	153
560.895	119
561.107	101
561.32	125
561.532	123
561.744	112
561.956	133
562.168	97
562.381	115
562.593	96
562.805	108
563.017	117
563.229	116
563.441	119
563.653	101
563.865	91
564.077	104
564.289	101
564.501	100
564.713	99
564.925	99
565.137	105
565.349	108
565.561	90
565.773	115
565.985	95
566.197	99
566.408	102
566.62	91
566.832	105
567.044	98
567.255	104
567.467	106
567.679	96
567.891	95
568.102	110
568.314	107
568.526	116
568.737	115
568.949	111
569.161	124
569.372	113
569.584	96
569.795	96
570.007	109
570.218	102
570.43	95
570.641	99
570.853	104
571.064	83
571.276	99
571.487	110
571.698	125
571.91	96
572.121	105
572.333	99
572.544	96
572.755	106
572.966	107
573.178	102
573.389	88
573.6	87
573.811	99
574.023	102
574.234	100
574.445	95
574.656	107
574.867	105
575.078	82
575.289	109
575.501	103
575.712	97
575.923	87
576.134	95
576.345	87
576.556	115
576.767	106
576.978	101
577.188	94
577.399	101
577.61	105
577.821	98
578.032	101
578.243	96
578.454	95
578.665	92
578.875	79
579.086	87
579.297	94
579.508	111
579.718	110
579.929	103
580.14	86
580.35	122
580.561	109
580.772	108
580.982	102
581.193	92
581.403	99
581.614	88
581.825	89
