Data from 237_2_HRD10591_00043.txt Node
Date: Mon Jan 19 14:11:52 EST 2026
User: Yrep
Spectrometer: HR+D1059
Trigger mode: 1
Integration Time (sec): 1.000000E-1
Scans to average: 1
Electric dark correction enabled: true
Nonlinearity correction enabled: false
Boxcar width: 0
XAxis mode: Wavelengths
Number of Pixels in Spectrum: 2048
>>>>>Begin Spectral Data<<<<<
223.165	-6.06
223.4	-6.06
223.635	-6.06
223.869	-38.06
224.104	-23.06
224.338	-12.06
224.573	-16.06
224.808	-11.06
225.042	-9.06
225.277	-6.06
225.511	-1.06
225.746	3.94
225.98	14.94
226.215	12.94
226.449	26.94
226.683	19.94
226.918	9.94
227.152	33.94
227.387	33.94
227.621	54.94
227.856	36.94
228.09	43.94
228.324	61.94
228.559	55.94
228.793	61.94
229.027	56.94
229.262	59.94
229.496	57.94
229.73	72.94
229.964	72.94
230.199	62.94
230.433	71.94
230.667	76.94
230.901	76.94
231.136	74.94
231.37	82.94
231.604	85.94
231.838	90.94
232.072	74.94
232.306	82.94
232.541	86.94
232.775	68.94
233.009	75.94
233.243	74.94
233.477	91.94
233.711	69.94
233.945	89.94
234.179	70.94
234.413	77.94
234.647	90.94
234.881	83.94
235.115	73.94
235.349	75.94
235.583	75.94
235.817	73.94
236.051	77.94
236.285	95.94
236.519	83.94
236.753	76.94
236.987	75.94
237.221	69.94
237.455	82.94
237.689	64.94
237.922	81.94
238.156	68.94
238.39	65.94
238.624	67.94
238.858	79.94
239.091	71.94
239.325	75.94
239.559	72.94
239.793	77.94
240.027	83.94
240.26	63.94
240.494	77.94
240.728	63.94
240.961	72.94
241.195	83.94
241.429	93.94
241.662	79.94
241.896	69.94
242.13	83.94
242.363	71.94
242.597	77.94
242.83	83.94
243.064	82.94
243.298	91.94
243.531	79.94
243.765	71.94
243.998	75.94
244.232	68.94
244.465	80.94
244.699	71.94
244.932	77.94
245.166	70.94
245.399	73.94
245.633	71.94
245.866	84.94
246.099	76.94
246.333	87.94
246.566	85.94
246.8	78.94
247.033	87.94
247.266	73.94
247.5	79.94
247.733	71.94
247.966	77.94
248.2	77.94
248.433	72.94
248.666	80.94
248.899	72.94
249.133	82.94
249.366	86.94
249.599	81.94
249.832	73.94
250.066	85.94
250.299	85.94
250.532	81.94
250.765	84.94
250.998	68.94
251.231	72.94
251.465	69.94
251.698	81.94
251.931	78.94
252.164	82.94
252.397	72.94
252.63	76.94
252.863	66.94
253.096	83.94
253.329	72.94
253.562	67.94
253.795	74.94
254.028	82.94
254.261	72.94
254.494	74.94
254.727	86.94
254.96	80.94
255.193	85.94
255.426	93.94
255.659	70.94
255.892	72.94
256.124	73.94
256.357	74.94
256.59	78.94
256.823	78.94
257.056	87.94
257.289	83.94
257.521	85.94
257.754	78.94
257.987	76.94
258.22	72.94
258.452	76.94
258.685	74.94
258.918	79.94
259.151	82.94
259.383	81.94
259.616	83.94
259.849	72.94
260.081	73.94
260.314	81.94
260.547	81.94
260.779	91.94
261.012	85.94
261.244	78.94
261.477	77.94
261.71	82.94
261.942	67.94
262.175	85.94
262.407	85.94
262.64	80.94
262.872	60.94
263.105	84.94
263.337	76.94
263.57	85.94
263.802	85.94
264.035	79.94
264.267	80.94
264.499	90.94
264.732	86.94
264.964	84.94
265.197	70.94
265.429	81.94
265.661	83.94
265.894	82.94
266.126	80.94
266.358	89.94
266.591	85.94
266.823	85.94
267.055	93.94
267.287	89.94
267.52	80.94
267.752	93.94
267.984	80.94
268.216	90.94
268.448	82.94
268.681	71.94
268.913	90.94
269.145	72.94
269.377	82.94
269.609	87.94
269.841	79.94
270.073	92.94
270.306	85.94
270.538	82.94
270.77	77.94
271.002	103.94
271.234	81.94
271.466	71.94
271.698	90.94
271.93	79.94
272.162	89.94
272.394	82.94
272.626	83.94
272.858	81.94
273.09	76.94
273.322	89.94
273.553	89.94
273.785	78.94
274.017	84.94
274.249	79.94
274.481	82.94
274.713	80.94
274.945	92.94
275.176	87.94
275.408	93.94
275.64	80.94
275.872	79.94
276.104	82.94
276.335	83.94
276.567	96.94
276.799	80.94
277.031	66.94
277.262	86.94
277.494	95.94
277.726	82.94
277.957	80.94
278.189	79.94
278.421	96.94
278.652	85.94
278.884	78.94
279.115	78.94
279.347	79.94
279.579	81.94
279.81	81.94
280.042	86.94
280.273	89.94
280.505	83.94
280.736	86.94
280.968	96.94
281.199	89.94
281.431	77.94
281.662	87.94
281.894	89.94
282.125	79.94
282.356	86.94
282.588	85.94
282.819	87.94
283.051	79.94
283.282	82.94
283.513	86.94
283.745	82.94
283.976	83.94
284.207	82.94
284.439	84.94
284.67	85.94
284.901	74.94
285.132	89.94
285.364	103.94
285.595	79.94
285.826	86.94
286.057	93.94
286.288	71.94
286.52	88.94
286.751	84.94
286.982	72.94
287.213	75.94
287.444	85.94
287.675	91.94
287.906	98.94
288.138	82.94
288.369	91.94
288.6	81.94
288.831	84.94
289.062	109.94
289.293	89.94
289.524	91.94
289.755	82.94
289.986	68.94
290.217	87.94
290.448	88.94
290.679	90.94
290.91	87.94
291.141	87.94
291.371	67.94
291.602	83.94
291.833	78.94
292.064	100.94
292.295	88.94
292.526	80.94
292.757	84.94
292.987	76.94
293.218	89.94
293.449	83.94
293.68	85.94
293.91	77.94
294.141	84.94
294.372	90.94
294.603	88.94
294.833	83.94
295.064	86.94
295.295	79.94
295.525	89.94
295.756	93.94
295.987	75.94
296.217	84.94
296.448	90.94
296.679	96.94
296.909	87.94
297.14	83.94
297.37	93.94
297.601	77.94
297.831	83.94
298.062	82.94
298.292	70.94
298.523	86.94
298.753	96.94
298.984	95.94
299.214	99.94
299.445	95.94
299.675	95.94
299.905	85.94
300.136	73.94
300.366	74.94
300.597	96.94
300.827	101.94
301.057	87.94
301.288	84.94
301.518	90.94
301.748	107.94
301.979	105.94
302.209	86.94
302.439	87.94
302.669	92.94
302.9	89.94
303.13	84.94
303.36	88.94
303.59	84.94
303.82	76.94
304.051	93.94
304.281	93.94
304.511	83.94
304.741	90.94
304.971	78.94
305.201	87.94
305.431	75.94
305.661	94.94
305.891	81.94
306.121	93.94
306.352	75.94
306.582	81.94
306.812	95.94
307.042	81.94
307.272	100.94
307.502	88.94
307.731	96.94
307.961	86.94
308.191	79.94
308.421	87.94
308.651	94.94
308.881	93.94
309.111	102.94
309.341	98.94
309.571	104.94
309.8	89.94
310.03	88.94
310.26	92.94
310.49	82.94
310.72	74.94
310.949	81.94
311.179	76.94
311.409	103.94
311.639	83.94
311.868	77.94
312.098	85.94
312.328	88.94
312.557	84.94
312.787	84.94
313.017	103.94
313.246	71.94
313.476	86.94
313.706	88.94
313.935	75.94
314.165	85.94
314.394	79.94
314.624	85.94
314.853	99.94
315.083	82.94
315.312	66.94
315.542	84.94
315.771	100.94
316.001	90.94
316.23	93.94
316.46	87.94
316.689	88.94
316.919	96.94
317.148	89.94
317.377	82.94
317.607	82.94
317.836	96.94
318.065	95.94
318.295	83.94
318.524	98.94
318.753	89.94
318.983	79.94
319.212	90.94
319.441	86.94
319.67	83.94
319.9	94.94
320.129	86.94
320.358	84.94
320.587	90.94
320.816	82.94
321.046	80.94
321.275	98.94
321.504	78.94
321.733	94.94
321.962	87.94
322.191	97.94
322.42	100.94
322.649	94.94
322.878	100.94
323.108	78.94
323.337	92.94
323.566	90.94
323.795	77.94
324.024	92.94
324.253	82.94
324.482	107.94
324.71	96.94
324.939	100.94
325.168	86.94
325.397	89.94
325.626	86.94
325.855	106.94
326.084	91.94
326.313	83.94
326.542	99.94
326.77	101.94
326.999	89.94
327.228	90.94
327.457	83.94
327.686	75.94
327.914	95.94
328.143	97.94
328.372	96.94
328.6	96.94
328.829	81.94
329.058	94.94
329.287	91.94
329.515	81.94
329.744	82.94
329.972	85.94
330.201	89.94
330.43	95.94
330.658	101.94
330.887	89.94
331.115	85.94
331.344	87.94
331.572	80.94
331.801	97.94
332.03	88.94
332.258	86.94
332.486	74.94
332.715	80.94
332.943	84.94
333.172	90.94
333.4	74.94
333.629	73.94
333.857	77.94
334.085	97.94
334.314	86.94
334.542	103.94
334.771	99.94
334.999	101.94
335.227	95.94
335.455	98.94
335.684	93.94
335.912	82.94
336.14	105.94
336.369	115.94
336.597	94.94
336.825	91.94
337.053	66.94
337.281	90.94
337.51	90.94
337.738	97.94
337.966	81.94
338.194	83.94
338.422	82.94
338.65	88.94
338.878	102.94
339.106	97.94
339.334	97.94
339.562	80.94
339.79	89.94
340.018	97.94
340.246	92.94
340.474	94.94
340.702	89.94
340.93	96.94
341.158	87.94
341.386	90.94
341.614	88.94
341.842	80.94
342.07	75.94
342.298	89.94
342.526	89.94
342.754	79.94
342.981	92.94
343.209	90.94
343.437	105.94
343.665	85.94
343.893	88.94
344.12	92.94
344.348	91.94
344.576	79.94
344.804	72.94
345.031	97.94
345.259	93.94
345.487	89.94
345.714	82.94
345.942	98.94
346.17	85.94
346.397	93.94
346.625	80.94
346.853	96.94
347.08	83.94
347.308	87.94
347.535	91.94
347.763	92.94
347.99	93.94
348.218	95.94
348.445	87.94
348.673	89.94
348.9	97.94
349.128	78.94
349.355	90.94
349.583	79.94
349.81	78.94
350.037	76.94
350.265	85.94
350.492	79.94
350.72	81.94
350.947	79.94
351.174	75.94
351.402	78.94
351.629	84.94
351.856	87.94
352.083	73.94
352.311	84.94
352.538	75.94
352.765	75.94
352.992	95.94
353.22	93.94
353.447	88.94
353.674	104.94
353.901	76.94
354.128	86.94
354.355	75.94
354.583	84.94
354.81	89.94
355.037	79.94
355.264	94.94
355.491	91.94
355.718	76.94
355.945	87.94
356.172	85.94
356.399	84.94
356.626	96.94
356.853	103.94
357.08	87.94
357.307	93.94
357.534	86.94
357.761	91.94
357.988	102.94
358.215	96.94
358.441	91.94
358.668	84.94
358.895	90.94
359.122	76.94
359.349	87.94
359.576	82.94
359.802	72.94
360.029	87.94
360.256	82.94
360.483	94.94
360.709	93.94
360.936	77.94
361.163	84.94
361.39	82.94
361.616	81.94
361.843	89.94
362.07	101.94
362.296	101.94
362.523	100.94
362.749	102.94
362.976	112.94
363.203	127.94
363.429	105.94
363.656	101.94
363.882	84.94
364.109	102.94
364.335	127.94
364.562	159.94
364.788	94.94
365.015	84.94
365.241	94.94
365.468	86.94
365.694	77.94
365.92	89.94
366.147	81.94
366.373	87.94
366.599	93.94
366.826	67.94
367.052	83.94
367.278	89.94
367.505	94.94
367.731	93.94
367.957	79.94
368.184	72.94
368.41	86.94
368.636	104.94
368.862	83.94
369.089	80.94
369.315	83.94
369.541	87.94
369.767	81.94
369.993	78.94
370.219	82.94
370.445	104.94
370.672	91.94
370.898	94.94
371.124	73.94
371.35	87.94
371.576	89.94
371.802	86.94
372.028	95.94
372.254	101.94
372.48	97.94
372.706	101.94
372.932	83.94
373.158	104.94
373.384	110.94
373.61	133.94
373.835	113.94
374.061	106.94
374.287	115.94
374.513	107.94
374.739	103.94
374.965	104.94
375.191	106.94
375.416	90.94
375.642	69.94
375.868	98.94
376.094	101.94
376.319	84.94
376.545	92.94
376.771	85.94
376.997	83.94
377.222	98.94
377.448	76.94
377.674	83.94
377.899	74.94
378.125	86.94
378.35	84.94
378.576	91.94
378.802	76.94
379.027	80.94
379.253	82.94
379.478	79.94
379.704	85.94
379.929	90.94
380.155	89.94
380.38	81.94
380.606	89.94
380.831	78.94
381.057	93.94
381.282	92.94
381.507	87.94
381.733	100.94
381.958	101.94
382.184	97.94
382.409	107.94
382.634	121.94
382.86	96.94
383.085	102.94
383.31	98.94
383.535	100.94
383.761	87.94
383.986	95.94
384.211	84.94
384.436	115.94
384.662	88.94
384.887	89.94
385.112	87.94
385.337	96.94
385.562	93.94
385.787	97.94
386.013	76.94
386.238	92.94
386.463	84.94
386.688	112.94
386.913	78.94
387.138	88.94
387.363	105.94
387.588	104.94
387.813	101.94
388.038	99.94
388.263	108.94
388.488	95.94
388.713	87.94
388.938	109.94
389.163	69.94
389.387	91.94
389.612	90.94
389.837	89.94
390.062	93.94
390.287	90.94
390.512	89.94
390.736	89.94
390.961	82.94
391.186	72.94
391.411	98.94
391.636	85.94
391.86	96.94
392.085	98.94
392.31	97.94
392.534	101.94
392.759	140.94
392.984	181.94
393.208	348.94
393.433	507.94
393.658	394.94
393.882	174.94
394.107	113.94
394.331	119.94
394.556	137.94
394.78	112.94
395.005	101.94
395.229	101.94
395.454	91.94
395.678	111.94
395.903	122.94
396.127	153.94
396.352	189.94
396.576	204.94
396.801	343.94
397.025	417.94
397.249	200.94
397.474	137.94
397.698	97.94
397.922	90.94
398.147	101.94
398.371	81.94
398.595	82.94
398.82	91.94
399.044	94.94
399.268	90.94
399.492	93.94
399.717	81.94
399.941	85.94
400.165	86.94
400.389	90.94
400.613	92.94
400.837	89.94
401.062	82.94
401.286	79.94
401.51	84.94
401.734	83.94
401.958	87.94
402.182	72.94
402.406	93.94
402.63	94.94
402.854	100.94
403.078	84.94
403.302	92.94
403.526	90.94
403.75	83.94
403.974	96.94
404.198	97.94
404.422	79.94
404.645	105.94
404.869	96.94
405.093	85.94
405.317	87.94
405.541	76.94
405.765	77.94
405.988	87.94
406.212	79.94
406.436	83.94
406.66	96.94
406.883	69.94
407.107	100.94
407.331	89.94
407.555	90.94
407.778	134.94
408.002	133.94
408.226	92.94
408.449	75.94
408.673	89.94
408.896	89.94
409.12	94.94
409.344	105.94
409.567	106.94
409.791	93.94
410.014	104.94
410.238	90.94
410.461	87.94
410.685	91.94
410.908	72.94
411.132	103.94
411.355	86.94
411.578	89.94
411.802	89.94
412.025	94.94
412.249	74.94
412.472	85.94
412.695	86.94
412.919	77.94
413.142	93.94
413.365	82.94
413.589	85.94
413.812	91.94
414.035	87.94
414.258	80.94
414.482	95.94
414.705	77.94
414.928	94.94
415.151	88.94
415.374	79.94
415.597	85.94
415.821	83.94
416.044	93.94
416.267	91.94
416.49	71.94
416.713	76.94
416.936	91.94
417.159	91.94
417.382	84.94
417.605	86.94
417.828	93.94
418.051	91.94
418.274	75.94
418.497	104.94
418.72	84.94
418.943	87.94
419.166	82.94
419.389	81.94
419.611	79.94
419.834	94.94
420.057	95.94
420.28	86.94
420.503	91.94
420.726	81.94
420.948	95.94
421.171	100.94
421.394	102.94
421.617	122.94
421.839	129.94
422.062	131.94
422.285	173.94
422.507	315.94
422.73	527.94
422.953	463.94
423.175	219.94
423.398	128.94
423.621	112.94
423.843	98.94
424.066	91.94
424.288	91.94
424.511	89.94
424.733	77.94
424.956	83.94
425.178	96.94
425.401	101.94
425.623	90.94
425.846	90.94
426.068	74.94
426.291	97.94
426.513	81.94
426.735	82.94
426.958	86.94
427.18	78.94
427.402	98.94
427.625	82.94
427.847	79.94
428.069	100.94
428.292	133.94
428.514	153.94
428.736	105.94
428.958	144.94
429.181	139.94
429.403	97.94
429.625	99.94
429.847	132.94
430.069	180.94
430.292	216.94
430.514	191.94
430.736	137.94
430.958	150.94
431.18	115.94
431.402	87.94
431.624	97.94
431.846	149.94
432.068	145.94
432.29	95.94
432.512	93.94
432.734	81.94
432.956	90.94
433.178	89.94
433.4	87.94
433.622	75.94
433.844	86.94
434.066	79.94
434.287	89.94
434.509	65.94
434.731	83.94
434.953	83.94
435.175	90.94
435.397	74.94
435.618	75.94
435.84	90.94
436.062	82.94
436.284	78.94
436.505	88.94
436.727	86.94
436.949	89.94
437.17	69.94
437.392	82.94
437.614	65.94
437.835	66.94
438.057	96.94
438.278	81.94
438.5	87.94
438.721	83.94
438.943	86.94
439.165	89.94
439.386	73.94
439.608	85.94
439.829	80.94
440.05	88.94
440.272	74.94
440.493	88.94
440.715	79.94
440.936	85.94
441.158	90.94
441.379	81.94
441.6	79.94
441.822	92.94
442.043	83.94
442.264	102.94
442.486	130.94
442.707	189.94
442.928	129.94
443.149	121.94
443.371	157.94
443.592	288.94
443.813	246.94
444.034	106.94
444.255	83.94
444.476	70.94
444.698	83.94
444.919	83.94
445.14	180.94
445.361	215.94
445.582	350.94
445.803	273.94
446.024	143.94
446.245	115.94
446.466	96.94
446.687	80.94
446.908	95.94
447.129	82.94
447.35	68.94
447.571	99.94
447.792	96.94
448.013	91.94
448.234	82.94
448.455	84.94
448.675	90.94
448.896	87.94
449.117	79.94
449.338	89.94
449.559	86.94
449.779	80.94
450	89.94
450.221	88.94
450.442	88.94
450.662	87.94
450.883	76.94
451.104	79.94
451.324	93.94
451.545	80.94
451.766	84.94
451.986	87.94
452.207	84.94
452.428	90.94
452.648	96.94
452.869	101.94
453.089	91.94
453.31	86.94
453.53	93.94
453.751	98.94
453.971	92.94
454.192	98.94
454.412	81.94
454.633	84.94
454.853	79.94
455.073	88.94
455.294	70.94
455.514	104.94
455.734	93.94
455.955	91.94
456.175	91.94
456.395	90.94
456.616	81.94
456.836	95.94
457.056	81.94
457.276	76.94
457.497	77.94
457.717	95.94
457.937	117.94
458.157	139.94
458.377	133.94
458.598	129.94
458.818	125.94
459.038	86.94
459.258	71.94
459.478	77.94
459.698	82.94
459.918	87.94
460.138	86.94
460.358	90.94
460.578	102.94
460.798	118.94
461.018	119.94
461.238	77.94
461.458	79.94
461.678	99.94
461.898	86.94
462.118	82.94
462.338	84.94
462.558	88.94
462.777	94.94
462.997	95.94
463.217	78.94
463.437	88.94
463.657	77.94
463.876	83.94
464.096	81.94
464.316	82.94
464.536	82.94
464.755	73.94
464.975	96.94
465.195	85.94
465.414	70.94
465.634	77.94
465.854	81.94
466.073	68.94
466.293	83.94
466.512	75.94
466.732	80.94
466.951	85.94
467.171	84.94
467.391	75.94
467.61	91.94
467.829	88.94
468.049	81.94
468.268	83.94
468.488	94.94
468.707	95.94
468.927	95.94
469.146	70.94
469.365	90.94
469.585	84.94
469.804	73.94
470.023	80.94
470.243	80.94
470.462	78.94
470.681	83.94
470.901	81.94
471.12	76.94
471.339	86.94
471.558	79.94
471.777	79.94
471.997	93.94
472.216	85.94
472.435	76.94
472.654	77.94
472.873	89.94
473.092	85.94
473.311	87.94
473.53	92.94
473.749	75.94
473.968	82.94
474.187	104.94
474.406	76.94
474.625	88.94
474.844	99.94
475.063	82.94
475.282	96.94
475.501	90.94
475.72	93.94
475.939	86.94
476.158	78.94
476.377	81.94
476.596	82.94
476.814	93.94
477.033	85.94
477.252	82.94
477.471	83.94
477.69	86.94
477.908	89.94
478.127	82.94
478.346	83.94
478.564	95.94
478.783	110.94
479.002	96.94
479.22	82.94
479.439	75.94
479.658	75.94
479.876	84.94
480.095	88.94
480.313	86.94
480.532	90.94
480.751	88.94
480.969	88.94
481.188	92.94
481.406	91.94
481.624	85.94
481.843	96.94
482.061	80.94
482.28	89.94
482.498	80.94
482.717	86.94
482.935	96.94
483.153	88.94
483.372	85.94
483.59	89.94
483.808	80.94
484.027	82.94
484.245	87.94
484.463	90.94
484.681	88.94
484.9	85.94
485.118	95.94
485.336	82.94
485.554	86.94
485.772	97.94
485.99	87.94
486.209	83.94
486.427	90.94
486.645	84.94
486.863	73.94
487.081	81.94
487.299	105.94
487.517	96.94
487.735	118.94
487.953	177.94
488.171	141.94
488.389	81.94
488.607	94.94
488.825	91.94
489.043	81.94
489.261	89.94
489.479	87.94
489.696	86.94
489.914	90.94
490.132	78.94
490.35	85.94
490.568	89.94
490.786	75.94
491.003	85.94
491.221	70.94
491.439	85.94
491.657	94.94
491.874	103.94
492.092	84.94
492.31	89.94
492.527	74.94
492.745	89.94
492.963	87.94
493.18	94.94
493.398	87.94
493.615	103.94
493.833	82.94
494.05	90.94
494.268	73.94
494.485	93.94
494.703	87.94
494.92	96.94
495.138	87.94
495.355	91.94
495.573	86.94
495.79	83.94
496.008	86.94
496.225	81.94
496.442	90.94
496.66	93.94
496.877	89.94
497.094	89.94
497.312	67.94
497.529	78.94
497.746	90.94
497.963	85.94
498.181	95.94
498.398	102.94
498.615	111.94
498.832	84.94
499.049	96.94
499.267	94.94
499.484	102.94
499.701	84.94
499.918	96.94
500.135	98.94
500.352	74.94
500.569	84.94
500.786	88.94
501.003	83.94
501.22	91.94
501.437	92.94
501.654	86.94
501.871	85.94
502.088	93.94
502.305	94.94
502.522	93.94
502.739	85.94
502.956	85.94
503.172	98.94
503.389	77.94
503.606	90.94
503.823	96.94
504.04	101.94
504.256	126.94
504.473	153.94
504.69	98.94
504.907	101.94
505.123	97.94
505.34	83.94
505.557	73.94
505.773	83.94
505.99	65.94
506.207	74.94
506.423	92.94
506.64	89.94
506.856	82.94
507.073	95.94
507.289	69.94
507.506	89.94
507.722	85.94
507.939	82.94
508.155	80.94
508.372	90.94
508.588	78.94
508.805	77.94
509.021	91.94
509.238	90.94
509.454	90.94
509.67	106.94
509.887	90.94
510.103	89.94
510.319	89.94
510.536	85.94
510.752	82.94
510.968	95.94
511.184	80.94
511.401	93.94
511.617	79.94
511.833	96.94
512.049	79.94
512.265	84.94
512.481	76.94
512.698	82.94
512.914	77.94
513.13	86.94
513.346	85.94
513.562	91.94
513.778	94.94
513.994	79.94
514.21	88.94
514.426	93.94
514.642	74.94
514.858	103.94
515.074	83.94
515.29	89.94
515.506	92.94
515.721	84.94
515.937	93.94
516.153	91.94
516.369	76.94
516.585	85.94
516.801	96.94
517.016	90.94
517.232	85.94
517.448	107.94
517.664	94.94
517.879	82.94
