Data from 237_2_HRD10591_00018.txt Node
Date: Mon Jan 19 14:11:39 EST 2026
User: Yrep
Spectrometer: HR+D1059
Trigger mode: 1
Integration Time (sec): 1.000000E-1
Scans to average: 1
Electric dark correction enabled: true
Nonlinearity correction enabled: false
Boxcar width: 0
XAxis mode: Wavelengths
Number of Pixels in Spectrum: 2048
>>>>>Begin Spectral Data<<<<<
223.165	-20.94
223.4	-20.94
223.635	-20.94
223.869	-19.94
224.104	-32.94
224.338	-11.94
224.573	-15.94
224.808	-8.94
225.042	-9.94
225.277	-11.94
225.511	2.06
225.746	11.06
225.98	7.06
226.215	17.06
226.449	28.06
226.683	17.06
226.918	16.06
227.152	34.06
227.387	47.06
227.621	53.06
227.856	60.06
228.09	56.06
228.324	57.06
228.559	66.06
228.793	61.06
229.027	69.06
229.262	62.06
229.496	66.06
229.73	79.06
229.964	76.06
230.199	69.06
230.433	78.06
230.667	79.06
230.901	82.06
231.136	84.06
231.37	90.06
231.604	80.06
231.838	84.06
232.072	80.06
232.306	107.06
232.541	86.06
232.775	90.06
233.009	84.06
233.243	92.06
233.477	88.06
233.711	72.06
233.945	76.06
234.179	69.06
234.413	61.06
234.647	89.06
234.881	74.06
235.115	85.06
235.349	68.06
235.583	78.06
235.817	87.06
236.051	88.06
236.285	80.06
236.519	76.06
236.753	70.06
236.987	75.06
237.221	76.06
237.455	92.06
237.689	78.06
237.922	86.06
238.156	79.06
238.39	75.06
238.624	79.06
238.858	70.06
239.091	75.06
239.325	76.06
239.559	83.06
239.793	92.06
240.027	69.06
240.26	68.06
240.494	72.06
240.728	87.06
240.961	91.06
241.195	81.06
241.429	91.06
241.662	92.06
241.896	75.06
242.13	65.06
242.363	83.06
242.597	82.06
242.83	84.06
243.064	72.06
243.298	92.06
243.531	77.06
243.765	86.06
243.998	86.06
244.232	85.06
244.465	100.06
244.699	71.06
244.932	86.06
245.166	75.06
245.399	86.06
245.633	83.06
245.866	87.06
246.099	86.06
246.333	82.06
246.566	78.06
246.8	76.06
247.033	82.06
247.266	76.06
247.5	67.06
247.733	70.06
247.966	85.06
248.2	76.06
248.433	83.06
248.666	82.06
248.899	80.06
249.133	74.06
249.366	78.06
249.599	92.06
249.832	89.06
250.066	90.06
250.299	93.06
250.532	79.06
250.765	91.06
250.998	85.06
251.231	67.06
251.465	61.06
251.698	73.06
251.931	73.06
252.164	86.06
252.397	92.06
252.63	84.06
252.863	93.06
253.096	95.06
253.329	69.06
253.562	70.06
253.795	89.06
254.028	98.06
254.261	82.06
254.494	93.06
254.727	80.06
254.96	90.06
255.193	77.06
255.426	78.06
255.659	85.06
255.892	90.06
256.124	81.06
256.357	78.06
256.59	80.06
256.823	71.06
257.056	101.06
257.289	73.06
257.521	90.06
257.754	74.06
257.987	86.06
258.22	90.06
258.452	79.06
258.685	90.06
258.918	91.06
259.151	78.06
259.383	81.06
259.616	84.06
259.849	86.06
260.081	82.06
260.314	76.06
260.547	80.06
260.779	77.06
261.012	92.06
261.244	79.06
261.477	69.06
261.71	88.06
261.942	81.06
262.175	87.06
262.407	85.06
262.64	99.06
262.872	78.06
263.105	83.06
263.337	88.06
263.57	88.06
263.802	78.06
264.035	82.06
264.267	86.06
264.499	77.06
264.732	86.06
264.964	64.06
265.197	85.06
265.429	86.06
265.661	90.06
265.894	86.06
266.126	90.06
266.358	79.06
266.591	77.06
266.823	74.06
267.055	72.06
267.287	77.06
267.52	92.06
267.752	85.06
267.984	84.06
268.216	107.06
268.448	84.06
268.681	92.06
268.913	93.06
269.145	86.06
269.377	96.06
269.609	74.06
269.841	77.06
270.073	79.06
270.306	84.06
270.538	82.06
270.77	84.06
271.002	95.06
271.234	79.06
271.466	81.06
271.698	71.06
271.93	78.06
272.162	74.06
272.394	89.06
272.626	85.06
272.858	90.06
273.09	88.06
273.322	81.06
273.553	83.06
273.785	76.06
274.017	80.06
274.249	89.06
274.481	82.06
274.713	84.06
274.945	89.06
275.176	83.06
275.408	69.06
275.64	90.06
275.872	72.06
276.104	75.06
276.335	77.06
276.567	77.06
276.799	69.06
277.031	92.06
277.262	101.06
277.494	101.06
277.726	92.06
277.957	88.06
278.189	77.06
278.421	78.06
278.652	81.06
278.884	95.06
279.115	88.06
279.347	78.06
279.579	76.06
279.81	92.06
280.042	87.06
280.273	81.06
280.505	104.06
280.736	89.06
280.968	82.06
281.199	89.06
281.431	80.06
281.662	86.06
281.894	76.06
282.125	80.06
282.356	92.06
282.588	94.06
282.819	79.06
283.051	85.06
283.282	84.06
283.513	89.06
283.745	87.06
283.976	100.06
284.207	92.06
284.439	84.06
284.67	93.06
284.901	82.06
285.132	88.06
285.364	78.06
285.595	108.06
285.826	94.06
286.057	91.06
286.288	86.06
286.52	91.06
286.751	88.06
286.982	88.06
287.213	93.06
287.444	81.06
287.675	96.06
287.906	88.06
288.138	103.06
288.369	82.06
288.6	79.06
288.831	81.06
289.062	94.06
289.293	94.06
289.524	92.06
289.755	81.06
289.986	89.06
290.217	97.06
290.448	78.06
290.679	101.06
290.91	90.06
291.141	72.06
291.371	80.06
291.602	82.06
291.833	85.06
292.064	95.06
292.295	93.06
292.526	86.06
292.757	98.06
292.987	96.06
293.218	76.06
293.449	98.06
293.68	74.06
293.91	70.06
294.141	95.06
294.372	77.06
294.603	80.06
294.833	85.06
295.064	84.06
295.295	73.06
295.525	82.06
295.756	90.06
295.987	88.06
296.217	94.06
296.448	89.06
296.679	82.06
296.909	99.06
297.14	88.06
297.37	100.06
297.601	85.06
297.831	83.06
298.062	82.06
298.292	90.06
298.523	76.06
298.753	77.06
298.984	77.06
299.214	81.06
299.445	84.06
299.675	77.06
299.905	78.06
300.136	83.06
300.366	94.06
300.597	77.06
300.827	84.06
301.057	86.06
301.288	98.06
301.518	72.06
301.748	85.06
301.979	99.06
302.209	93.06
302.439	91.06
302.669	89.06
302.9	90.06
303.13	83.06
303.36	96.06
303.59	88.06
303.82	69.06
304.051	93.06
304.281	89.06
304.511	83.06
304.741	75.06
304.971	83.06
305.201	85.06
305.431	77.06
305.661	82.06
305.891	81.06
306.121	94.06
306.352	84.06
306.582	73.06
306.812	89.06
307.042	91.06
307.272	69.06
307.502	92.06
307.731	82.06
307.961	81.06
308.191	93.06
308.421	89.06
308.651	96.06
308.881	100.06
309.111	91.06
309.341	92.06
309.571	105.06
309.8	98.06
310.03	79.06
310.26	92.06
310.49	86.06
310.72	88.06
310.949	92.06
311.179	99.06
311.409	86.06
311.639	82.06
311.868	80.06
312.098	86.06
312.328	89.06
312.557	86.06
312.787	87.06
313.017	78.06
313.246	96.06
313.476	73.06
313.706	84.06
313.935	87.06
314.165	85.06
314.394	76.06
314.624	92.06
314.853	87.06
315.083	92.06
315.312	94.06
315.542	102.06
315.771	86.06
316.001	94.06
316.23	92.06
316.46	75.06
316.689	84.06
316.919	100.06
317.148	89.06
317.377	98.06
317.607	88.06
317.836	92.06
318.065	96.06
318.295	104.06
318.524	87.06
318.753	85.06
318.983	100.06
319.212	82.06
319.441	73.06
319.67	68.06
319.9	84.06
320.129	82.06
320.358	100.06
320.587	94.06
320.816	102.06
321.046	92.06
321.275	90.06
321.504	85.06
321.733	74.06
321.962	85.06
322.191	86.06
322.42	98.06
322.649	96.06
322.878	95.06
323.108	86.06
323.337	95.06
323.566	89.06
323.795	83.06
324.024	89.06
324.253	77.06
324.482	91.06
324.71	89.06
324.939	90.06
325.168	95.06
325.397	88.06
325.626	86.06
325.855	94.06
326.084	96.06
326.313	90.06
326.542	68.06
326.77	80.06
326.999	84.06
327.228	81.06
327.457	87.06
327.686	86.06
327.914	103.06
328.143	98.06
328.372	86.06
328.6	84.06
328.829	82.06
329.058	84.06
329.287	85.06
329.515	72.06
329.744	112.06
329.972	73.06
330.201	77.06
330.43	92.06
330.658	95.06
330.887	100.06
331.115	70.06
331.344	88.06
331.572	80.06
331.801	92.06
332.03	105.06
332.258	84.06
332.486	81.06
332.715	87.06
332.943	86.06
333.172	72.06
333.4	84.06
333.629	76.06
333.857	84.06
334.085	93.06
334.314	97.06
334.542	98.06
334.771	101.06
334.999	101.06
335.227	98.06
335.455	104.06
335.684	89.06
335.912	96.06
336.14	106.06
336.369	92.06
336.597	82.06
336.825	80.06
337.053	83.06
337.281	81.06
337.51	85.06
337.738	86.06
337.966	85.06
338.194	98.06
338.422	83.06
338.65	84.06
338.878	86.06
339.106	78.06
339.334	106.06
339.562	88.06
339.79	87.06
340.018	80.06
340.246	74.06
340.474	79.06
340.702	84.06
340.93	94.06
341.158	95.06
341.386	116.06
341.614	90.06
341.842	89.06
342.07	75.06
342.298	92.06
342.526	78.06
342.754	86.06
342.981	84.06
343.209	84.06
343.437	97.06
343.665	94.06
343.893	93.06
344.12	94.06
344.348	91.06
344.576	101.06
344.804	82.06
345.031	94.06
345.259	91.06
345.487	94.06
345.714	82.06
345.942	95.06
346.17	96.06
346.397	91.06
346.625	88.06
346.853	87.06
347.08	70.06
347.308	102.06
347.535	92.06
347.763	82.06
347.99	82.06
348.218	82.06
348.445	96.06
348.673	90.06
348.9	98.06
349.128	90.06
349.355	91.06
349.583	93.06
349.81	91.06
350.037	91.06
350.265	86.06
350.492	84.06
350.72	92.06
350.947	87.06
351.174	77.06
351.402	97.06
351.629	93.06
351.856	96.06
352.083	86.06
352.311	90.06
352.538	75.06
352.765	87.06
352.992	90.06
353.22	74.06
353.447	75.06
353.674	83.06
353.901	65.06
354.128	101.06
354.355	85.06
354.583	88.06
354.81	78.06
355.037	96.06
355.264	84.06
355.491	92.06
355.718	91.06
355.945	104.06
356.172	96.06
356.399	88.06
356.626	85.06
356.853	90.06
357.08	92.06
357.307	99.06
357.534	84.06
357.761	102.06
357.988	89.06
358.215	99.06
358.441	98.06
358.668	101.06
358.895	90.06
359.122	97.06
359.349	90.06
359.576	90.06
359.802	89.06
360.029	85.06
360.256	76.06
360.483	80.06
360.709	93.06
360.936	103.06
361.163	91.06
361.39	88.06
361.616	100.06
361.843	107.06
362.07	93.06
362.296	99.06
362.523	97.06
362.749	102.06
362.976	89.06
363.203	128.06
363.429	110.06
363.656	74.06
363.882	89.06
364.109	104.06
364.335	125.06
364.562	112.06
364.788	114.06
365.015	85.06
365.241	92.06
365.468	96.06
365.694	100.06
365.92	82.06
366.147	90.06
366.373	98.06
366.599	77.06
366.826	84.06
367.052	86.06
367.278	76.06
367.505	103.06
367.731	86.06
367.957	88.06
368.184	87.06
368.41	86.06
368.636	83.06
368.862	75.06
369.089	88.06
369.315	74.06
369.541	77.06
369.767	88.06
369.993	85.06
370.219	75.06
370.445	87.06
370.672	90.06
370.898	104.06
371.124	84.06
371.35	84.06
371.576	83.06
371.802	94.06
372.028	96.06
372.254	74.06
372.48	83.06
372.706	92.06
372.932	93.06
373.158	101.06
373.384	106.06
373.61	121.06
373.835	117.06
374.061	100.06
374.287	104.06
374.513	93.06
374.739	116.06
374.965	104.06
375.191	98.06
375.416	93.06
375.642	88.06
375.868	88.06
376.094	99.06
376.319	103.06
376.545	88.06
376.771	96.06
376.997	88.06
377.222	90.06
377.448	84.06
377.674	82.06
377.899	95.06
378.125	93.06
378.35	79.06
378.576	78.06
378.802	103.06
379.027	94.06
379.253	96.06
379.478	88.06
379.704	92.06
379.929	98.06
380.155	89.06
380.38	82.06
380.606	72.06
380.831	79.06
381.057	83.06
381.282	88.06
381.507	97.06
381.733	92.06
381.958	96.06
382.184	82.06
382.409	91.06
382.634	104.06
382.86	90.06
383.085	106.06
383.31	93.06
383.535	103.06
383.761	98.06
383.986	92.06
384.211	84.06
384.436	97.06
384.662	86.06
384.887	90.06
385.112	99.06
385.337	84.06
385.562	85.06
385.787	94.06
386.013	84.06
386.238	109.06
386.463	102.06
386.688	90.06
386.913	76.06
387.138	98.06
387.363	79.06
387.588	96.06
387.813	101.06
388.038	101.06
388.263	77.06
388.488	99.06
388.713	79.06
388.938	80.06
389.163	91.06
389.387	86.06
389.612	82.06
389.837	94.06
390.062	96.06
390.287	94.06
390.512	92.06
390.736	84.06
390.961	99.06
391.186	88.06
391.411	102.06
391.636	106.06
391.86	103.06
392.085	100.06
392.31	86.06
392.534	100.06
392.759	119.06
392.984	168.06
393.208	318.06
393.433	444.06
393.658	331.06
393.882	147.06
394.107	112.06
394.331	105.06
394.556	125.06
394.78	100.06
395.005	118.06
395.229	106.06
395.454	108.06
395.678	104.06
395.903	113.06
396.127	133.06
396.352	155.06
396.576	177.06
396.801	293.06
397.025	350.06
397.249	184.06
397.474	124.06
397.698	106.06
397.922	110.06
398.147	97.06
398.371	82.06
398.595	85.06
398.82	85.06
399.044	79.06
399.268	84.06
399.492	82.06
399.717	97.06
399.941	93.06
400.165	90.06
400.389	78.06
400.613	77.06
400.837	89.06
401.062	86.06
401.286	92.06
401.51	89.06
401.734	76.06
401.958	91.06
402.182	94.06
402.406	96.06
402.63	78.06
402.854	76.06
403.078	82.06
403.302	88.06
403.526	92.06
403.75	93.06
403.974	93.06
404.198	93.06
404.422	113.06
404.645	116.06
404.869	102.06
405.093	90.06
405.317	81.06
405.541	74.06
405.765	79.06
405.988	92.06
406.212	90.06
406.436	87.06
406.66	89.06
406.883	93.06
407.107	80.06
407.331	99.06
407.555	107.06
407.778	104.06
408.002	117.06
408.226	83.06
408.449	93.06
408.673	86.06
408.896	82.06
409.12	77.06
409.344	100.06
409.567	93.06
409.791	98.06
410.014	97.06
410.238	100.06
410.461	99.06
410.685	88.06
410.908	82.06
411.132	97.06
411.355	85.06
411.578	86.06
411.802	96.06
412.025	89.06
412.249	84.06
412.472	76.06
412.695	96.06
412.919	83.06
413.142	84.06
413.365	92.06
413.589	78.06
413.812	94.06
414.035	100.06
414.258	76.06
414.482	77.06
414.705	88.06
414.928	82.06
415.151	92.06
415.374	97.06
415.597	86.06
415.821	87.06
416.044	76.06
416.267	90.06
416.49	94.06
416.713	94.06
416.936	89.06
417.159	95.06
417.382	90.06
417.605	85.06
417.828	90.06
418.051	92.06
418.274	78.06
418.497	93.06
418.72	93.06
418.943	94.06
419.166	90.06
419.389	94.06
419.611	79.06
419.834	90.06
420.057	100.06
420.28	91.06
420.503	102.06
420.726	99.06
420.948	94.06
421.171	93.06
421.394	107.06
421.617	108.06
421.839	125.06
422.062	138.06
422.285	161.06
422.507	284.06
422.73	450.06
422.953	377.06
423.175	184.06
423.398	130.06
423.621	96.06
423.843	100.06
424.066	101.06
424.288	102.06
424.511	92.06
424.733	98.06
424.956	93.06
425.178	99.06
425.401	79.06
425.623	97.06
425.846	89.06
426.068	91.06
426.291	88.06
426.513	85.06
426.735	91.06
426.958	73.06
427.18	78.06
427.402	99.06
427.625	92.06
427.847	89.06
428.069	109.06
428.292	132.06
428.514	150.06
428.736	112.06
428.958	144.06
429.181	131.06
429.403	92.06
429.625	104.06
429.847	118.06
430.069	168.06
430.292	189.06
430.514	172.06
430.736	142.06
430.958	163.06
431.18	110.06
431.402	96.06
431.624	88.06
431.846	138.06
432.068	158.06
432.29	100.06
432.512	79.06
432.734	96.06
432.956	106.06
433.178	73.06
433.4	99.06
433.622	74.06
433.844	78.06
434.066	94.06
434.287	89.06
434.509	78.06
434.731	83.06
434.953	102.06
435.175	84.06
435.397	92.06
435.618	101.06
435.84	98.06
436.062	84.06
436.284	96.06
436.505	96.06
436.727	95.06
436.949	82.06
437.17	92.06
437.392	82.06
437.614	72.06
437.835	74.06
438.057	86.06
438.278	94.06
438.5	86.06
438.721	84.06
438.943	79.06
439.165	96.06
439.386	89.06
439.608	86.06
439.829	73.06
440.05	90.06
440.272	79.06
440.493	94.06
440.715	72.06
440.936	88.06
441.158	100.06
441.379	93.06
441.6	94.06
441.822	88.06
442.043	97.06
442.264	96.06
442.486	136.06
442.707	174.06
442.928	134.06
443.149	116.06
443.371	156.06
443.592	260.06
443.813	234.06
444.034	102.06
444.255	96.06
444.476	97.06
444.698	82.06
444.919	106.06
445.14	204.06
445.361	213.06
445.582	310.06
445.803	257.06
446.024	120.06
446.245	104.06
446.466	76.06
446.687	85.06
446.908	98.06
447.129	90.06
447.35	88.06
447.571	86.06
447.792	79.06
448.013	92.06
448.234	88.06
448.455	92.06
448.675	78.06
448.896	94.06
449.117	90.06
449.338	88.06
449.559	73.06
449.779	82.06
450	94.06
450.221	85.06
450.442	90.06
450.662	86.06
450.883	96.06
451.104	84.06
451.324	79.06
451.545	90.06
451.766	98.06
451.986	91.06
452.207	78.06
452.428	88.06
452.648	100.06
452.869	100.06
453.089	110.06
453.31	90.06
453.53	74.06
453.751	94.06
453.971	92.06
454.192	79.06
454.412	86.06
454.633	89.06
454.853	104.06
455.073	89.06
455.294	92.06
455.514	79.06
455.734	87.06
455.955	88.06
456.175	84.06
456.395	96.06
456.616	96.06
456.836	89.06
457.056	93.06
457.276	80.06
457.497	86.06
457.717	105.06
457.937	117.06
458.157	129.06
458.377	115.06
458.598	108.06
458.818	114.06
459.038	87.06
459.258	83.06
459.478	81.06
459.698	90.06
459.918	85.06
460.138	94.06
460.358	119.06
460.578	102.06
460.798	120.06
461.018	126.06
461.238	92.06
461.458	89.06
461.678	100.06
461.898	82.06
462.118	72.06
462.338	97.06
462.558	83.06
462.777	90.06
462.997	90.06
463.217	80.06
463.437	84.06
463.657	76.06
463.876	83.06
464.096	79.06
464.316	89.06
464.536	84.06
464.755	80.06
464.975	81.06
465.195	87.06
465.414	85.06
465.634	78.06
465.854	94.06
466.073	96.06
466.293	86.06
466.512	86.06
466.732	89.06
466.951	104.06
467.171	81.06
467.391	97.06
467.61	90.06
467.829	84.06
468.049	72.06
468.268	89.06
468.488	100.06
468.707	100.06
468.927	97.06
469.146	87.06
469.365	105.06
469.585	98.06
469.804	108.06
470.023	82.06
470.243	77.06
470.462	98.06
470.681	84.06
470.901	97.06
471.12	78.06
471.339	81.06
471.558	86.06
471.777	68.06
471.997	92.06
472.216	97.06
472.435	80.06
472.654	83.06
472.873	89.06
473.092	84.06
473.311	72.06
473.53	84.06
473.749	93.06
473.968	92.06
474.187	80.06
474.406	92.06
474.625	91.06
474.844	97.06
475.063	98.06
475.282	97.06
475.501	86.06
475.72	90.06
475.939	85.06
476.158	84.06
476.377	87.06
476.596	83.06
476.814	96.06
477.033	91.06
477.252	85.06
477.471	84.06
477.69	93.06
477.908	84.06
478.127	98.06
478.346	73.06
478.564	95.06
478.783	91.06
479.002	99.06
479.22	86.06
479.439	86.06
479.658	85.06
479.876	85.06
480.095	85.06
480.313	93.06
480.532	97.06
480.751	92.06
480.969	80.06
481.188	83.06
481.406	103.06
481.624	92.06
481.843	90.06
482.061	86.06
482.28	79.06
482.498	92.06
482.717	94.06
482.935	89.06
483.153	72.06
483.372	96.06
483.59	96.06
483.808	94.06
484.027	87.06
484.245	83.06
484.463	86.06
484.681	106.06
484.9	98.06
485.118	94.06
485.336	90.06
485.554	89.06
485.772	93.06
485.99	80.06
486.209	84.06
486.427	92.06
486.645	90.06
486.863	102.06
487.081	91.06
487.299	98.06
487.517	102.06
487.735	112.06
487.953	168.06
488.171	128.06
488.389	87.06
488.607	85.06
488.825	84.06
489.043	100.06
489.261	78.06
489.479	80.06
489.696	82.06
489.914	89.06
490.132	91.06
490.35	89.06
490.568	90.06
490.786	97.06
491.003	88.06
491.221	99.06
491.439	86.06
491.657	88.06
491.874	115.06
492.092	81.06
492.31	101.06
492.527	83.06
492.745	87.06
492.963	102.06
493.18	105.06
493.398	90.06
493.615	117.06
493.833	94.06
494.05	86.06
494.268	88.06
494.485	96.06
494.703	102.06
494.92	92.06
495.138	86.06
495.355	102.06
495.573	88.06
495.79	85.06
496.008	100.06
496.225	97.06
496.442	90.06
496.66	110.06
496.877	101.06
497.094	92.06
497.312	105.06
497.529	89.06
497.746	89.06
497.963	100.06
498.181	96.06
498.398	96.06
498.615	87.06
498.832	83.06
499.049	90.06
499.267	109.06
499.484	98.06
499.701	78.06
499.918	90.06
500.135	97.06
500.352	80.06
500.569	99.06
500.786	99.06
501.003	99.06
501.22	81.06
501.437	103.06
501.654	91.06
501.871	79.06
502.088	96.06
502.305	107.06
502.522	96.06
502.739	90.06
502.956	91.06
503.172	104.06
503.389	98.06
503.606	100.06
503.823	92.06
504.04	116.06
504.256	138.06
504.473	133.06
504.69	108.06
504.907	93.06
505.123	83.06
505.34	104.06
505.557	90.06
505.773	95.06
505.99	88.06
506.207	101.06
506.423	98.06
506.64	102.06
506.856	100.06
507.073	71.06
507.289	92.06
507.506	92.06
507.722	103.06
507.939	95.06
508.155	96.06
508.372	87.06
508.588	97.06
508.805	97.06
509.021	87.06
509.238	92.06
509.454	84.06
509.67	88.06
509.887	88.06
510.103	92.06
510.319	103.06
510.536	97.06
510.752	101.06
510.968	80.06
511.184	103.06
511.401	95.06
511.617	89.06
511.833	84.06
512.049	81.06
512.265	91.06
512.481	84.06
512.698	88.06
512.914	96.06
513.13	93.06
513.346	85.06
513.562	97.06
513.778	84.06
513.994	93.06
514.21	101.06
514.426	93.06
514.642	97.06
514.858	94.06
515.074	76.06
515.29	93.06
515.506	100.06
515.721	72.06
515.937	95.06
516.153	88.06
516.369	98.06
516.585	102.06
516.801	92.06
517.016	91.06
517.232	101.06
