Data from 237_2_HRD10591_00015.txt Node
Date: Mon Jan 19 14:11:38 EST 2026
User: Yrep
Spectrometer: HR+D1059
Trigger mode: 1
Integration Time (sec): 1.000000E-1
Scans to average: 1
Electric dark correction enabled: true
Nonlinearity correction enabled: false
Boxcar width: 0
XAxis mode: Wavelengths
Number of Pixels in Spectrum: 2048
>>>>>Begin Spectral Data<<<<<
223.165	-31.69
223.4	-31.69
223.635	-31.69
223.869	-22.69
224.104	-25.69
224.338	-4.69
224.573	-16.69
224.808	-11.69
225.042	-7.69
225.277	-0.69
225.511	4.31
225.746	8.31
225.98	8.31
226.215	12.31
226.449	13.31
226.683	30.31
226.918	20.31
227.152	24.31
227.387	36.31
227.621	33.31
227.856	37.31
228.09	41.31
228.324	48.31
228.559	58.31
228.793	61.31
229.027	65.31
229.262	56.31
229.496	76.31
229.73	69.31
229.964	67.31
230.199	72.31
230.433	56.31
230.667	73.31
230.901	72.31
231.136	81.31
231.37	76.31
231.604	82.31
231.838	94.31
232.072	84.31
232.306	80.31
232.541	92.31
232.775	69.31
233.009	85.31
233.243	62.31
233.477	87.31
233.711	92.31
233.945	76.31
234.179	64.31
234.413	79.31
234.647	84.31
234.881	95.31
235.115	74.31
235.349	74.31
235.583	75.31
235.817	87.31
236.051	73.31
236.285	76.31
236.519	77.31
236.753	75.31
236.987	68.31
237.221	74.31
237.455	71.31
237.689	74.31
237.922	84.31
238.156	79.31
238.39	68.31
238.624	73.31
238.858	87.31
239.091	80.31
239.325	81.31
239.559	67.31
239.793	61.31
240.027	88.31
240.26	73.31
240.494	80.31
240.728	62.31
240.961	74.31
241.195	85.31
241.429	87.31
241.662	77.31
241.896	81.31
242.13	72.31
242.363	67.31
242.597	75.31
242.83	61.31
243.064	81.31
243.298	86.31
243.531	72.31
243.765	75.31
243.998	78.31
244.232	72.31
244.465	67.31
244.699	80.31
244.932	86.31
245.166	70.31
245.399	71.31
245.633	78.31
245.866	80.31
246.099	88.31
246.333	76.31
246.566	66.31
246.8	72.31
247.033	69.31
247.266	84.31
247.5	88.31
247.733	93.31
247.966	88.31
248.2	70.31
248.433	62.31
248.666	66.31
248.899	82.31
249.133	84.31
249.366	69.31
249.599	79.31
249.832	70.31
250.066	75.31
250.299	77.31
250.532	85.31
250.765	71.31
250.998	69.31
251.231	72.31
251.465	77.31
251.698	73.31
251.931	82.31
252.164	74.31
252.397	71.31
252.63	78.31
252.863	71.31
253.096	75.31
253.329	73.31
253.562	72.31
253.795	84.31
254.028	72.31
254.261	84.31
254.494	82.31
254.727	74.31
254.96	72.31
255.193	86.31
255.426	72.31
255.659	71.31
255.892	95.31
256.124	72.31
256.357	67.31
256.59	76.31
256.823	84.31
257.056	91.31
257.289	97.31
257.521	58.31
257.754	75.31
257.987	75.31
258.22	69.31
258.452	56.31
258.685	73.31
258.918	87.31
259.151	78.31
259.383	69.31
259.616	71.31
259.849	76.31
260.081	80.31
260.314	87.31
260.547	77.31
260.779	87.31
261.012	85.31
261.244	92.31
261.477	80.31
261.71	67.31
261.942	72.31
262.175	74.31
262.407	75.31
262.64	87.31
262.872	87.31
263.105	66.31
263.337	82.31
263.57	73.31
263.802	92.31
264.035	76.31
264.267	79.31
264.499	75.31
264.732	78.31
264.964	93.31
265.197	76.31
265.429	77.31
265.661	94.31
265.894	70.31
266.126	72.31
266.358	69.31
266.591	78.31
266.823	89.31
267.055	78.31
267.287	70.31
267.52	66.31
267.752	79.31
267.984	74.31
268.216	72.31
268.448	90.31
268.681	97.31
268.913	70.31
269.145	81.31
269.377	74.31
269.609	87.31
269.841	83.31
270.073	78.31
270.306	77.31
270.538	81.31
270.77	80.31
271.002	100.31
271.234	72.31
271.466	84.31
271.698	86.31
271.93	93.31
272.162	93.31
272.394	84.31
272.626	72.31
272.858	80.31
273.09	80.31
273.322	81.31
273.553	82.31
273.785	84.31
274.017	92.31
274.249	82.31
274.481	84.31
274.713	66.31
274.945	84.31
275.176	89.31
275.408	90.31
275.64	76.31
275.872	66.31
276.104	90.31
276.335	73.31
276.567	78.31
276.799	84.31
277.031	81.31
277.262	103.31
277.494	78.31
277.726	85.31
277.957	92.31
278.189	87.31
278.421	84.31
278.652	90.31
278.884	75.31
279.115	86.31
279.347	88.31
279.579	81.31
279.81	79.31
280.042	81.31
280.273	91.31
280.505	88.31
280.736	81.31
280.968	86.31
281.199	81.31
281.431	72.31
281.662	74.31
281.894	84.31
282.125	86.31
282.356	93.31
282.588	82.31
282.819	77.31
283.051	88.31
283.282	82.31
283.513	76.31
283.745	81.31
283.976	74.31
284.207	84.31
284.439	84.31
284.67	83.31
284.901	80.31
285.132	89.31
285.364	88.31
285.595	94.31
285.826	75.31
286.057	82.31
286.288	84.31
286.52	85.31
286.751	82.31
286.982	81.31
287.213	82.31
287.444	88.31
287.675	84.31
287.906	90.31
288.138	92.31
288.369	87.31
288.6	94.31
288.831	84.31
289.062	93.31
289.293	88.31
289.524	80.31
289.755	81.31
289.986	76.31
290.217	89.31
290.448	74.31
290.679	64.31
290.91	87.31
291.141	85.31
291.371	90.31
291.602	78.31
291.833	92.31
292.064	97.31
292.295	74.31
292.526	91.31
292.757	101.31
292.987	76.31
293.218	78.31
293.449	89.31
293.68	75.31
293.91	77.31
294.141	82.31
294.372	95.31
294.603	84.31
294.833	82.31
295.064	91.31
295.295	96.31
295.525	66.31
295.756	93.31
295.987	88.31
296.217	73.31
296.448	81.31
296.679	85.31
296.909	84.31
297.14	88.31
297.37	103.31
297.601	81.31
297.831	75.31
298.062	75.31
298.292	74.31
298.523	87.31
298.753	96.31
298.984	85.31
299.214	89.31
299.445	89.31
299.675	83.31
299.905	92.31
300.136	100.31
300.366	90.31
300.597	102.31
300.827	82.31
301.057	86.31
301.288	85.31
301.518	100.31
301.748	80.31
301.979	106.31
302.209	96.31
302.439	91.31
302.669	91.31
302.9	80.31
303.13	77.31
303.36	92.31
303.59	98.31
303.82	88.31
304.051	93.31
304.281	90.31
304.511	83.31
304.741	80.31
304.971	85.31
305.201	88.31
305.431	80.31
305.661	89.31
305.891	79.31
306.121	89.31
306.352	93.31
306.582	86.31
306.812	88.31
307.042	93.31
307.272	80.31
307.502	92.31
307.731	90.31
307.961	103.31
308.191	79.31
308.421	95.31
308.651	85.31
308.881	90.31
309.111	101.31
309.341	108.31
309.571	101.31
309.8	88.31
310.03	95.31
310.26	79.31
310.49	81.31
310.72	76.31
310.949	94.31
311.179	83.31
311.409	99.31
311.639	97.31
311.868	95.31
312.098	85.31
312.328	73.31
312.557	87.31
312.787	86.31
313.017	90.31
313.246	88.31
313.476	73.31
313.706	92.31
313.935	101.31
314.165	88.31
314.394	86.31
314.624	79.31
314.853	82.31
315.083	86.31
315.312	82.31
315.542	93.31
315.771	87.31
316.001	104.31
316.23	91.31
316.46	97.31
316.689	87.31
316.919	73.31
317.148	80.31
317.377	97.31
317.607	101.31
317.836	108.31
318.065	131.31
318.295	108.31
318.524	95.31
318.753	97.31
318.983	92.31
319.212	105.31
319.441	89.31
319.67	90.31
319.9	86.31
320.129	100.31
320.358	75.31
320.587	87.31
320.816	74.31
321.046	87.31
321.275	97.31
321.504	84.31
321.733	96.31
321.962	86.31
322.191	84.31
322.42	88.31
322.649	108.31
322.878	101.31
323.108	92.31
323.337	101.31
323.566	82.31
323.795	97.31
324.024	87.31
324.253	93.31
324.482	89.31
324.71	98.31
324.939	93.31
325.168	80.31
325.397	97.31
325.626	88.31
325.855	80.31
326.084	76.31
326.313	73.31
326.542	87.31
326.77	74.31
326.999	96.31
327.228	98.31
327.457	95.31
327.686	93.31
327.914	96.31
328.143	100.31
328.372	82.31
328.6	76.31
328.829	82.31
329.058	87.31
329.287	87.31
329.515	86.31
329.744	91.31
329.972	85.31
330.201	97.31
330.43	113.31
330.658	102.31
330.887	77.31
331.115	94.31
331.344	68.31
331.572	112.31
331.801	90.31
332.03	73.31
332.258	73.31
332.486	92.31
332.715	84.31
332.943	90.31
333.172	88.31
333.4	71.31
333.629	84.31
333.857	89.31
334.085	86.31
334.314	97.31
334.542	100.31
334.771	102.31
334.999	112.31
335.227	108.31
335.455	99.31
335.684	110.31
335.912	116.31
336.14	117.31
336.369	100.31
336.597	104.31
336.825	94.31
337.053	96.31
337.281	99.31
337.51	86.31
337.738	93.31
337.966	90.31
338.194	76.31
338.422	81.31
338.65	87.31
338.878	97.31
339.106	94.31
339.334	102.31
339.562	92.31
339.79	90.31
340.018	85.31
340.246	87.31
340.474	84.31
340.702	89.31
340.93	82.31
341.158	85.31
341.386	88.31
341.614	84.31
341.842	88.31
342.07	89.31
342.298	92.31
342.526	75.31
342.754	74.31
342.981	95.31
343.209	102.31
343.437	116.31
343.665	105.31
343.893	100.31
344.12	94.31
344.348	94.31
344.576	105.31
344.804	97.31
345.031	93.31
345.259	90.31
345.487	75.31
345.714	77.31
345.942	88.31
346.17	85.31
346.397	82.31
346.625	94.31
346.853	85.31
347.08	66.31
347.308	93.31
347.535	97.31
347.763	105.31
347.99	70.31
348.218	69.31
348.445	93.31
348.673	74.31
348.9	101.31
349.128	91.31
349.355	89.31
349.583	88.31
349.81	79.31
350.037	96.31
350.265	91.31
350.492	93.31
350.72	77.31
350.947	90.31
351.174	78.31
351.402	76.31
351.629	91.31
351.856	92.31
352.083	100.31
352.311	86.31
352.538	101.31
352.765	73.31
352.992	99.31
353.22	78.31
353.447	97.31
353.674	90.31
353.901	97.31
354.128	80.31
354.355	93.31
354.583	98.31
354.81	91.31
355.037	108.31
355.264	102.31
355.491	98.31
355.718	95.31
355.945	105.31
356.172	94.31
356.399	88.31
356.626	96.31
356.853	116.31
357.08	116.31
357.307	108.31
357.534	95.31
357.761	88.31
357.988	108.31
358.215	105.31
358.441	105.31
358.668	96.31
358.895	92.31
359.122	92.31
359.349	102.31
359.576	89.31
359.802	72.31
360.029	88.31
360.256	100.31
360.483	97.31
360.709	94.31
360.936	97.31
361.163	126.31
361.39	99.31
361.616	110.31
361.843	104.31
362.07	105.31
362.296	123.31
362.523	144.31
362.749	137.31
362.976	160.31
363.203	187.31
363.429	149.31
363.656	108.31
363.882	111.31
364.109	166.31
364.335	188.31
364.562	240.31
364.788	165.31
365.015	109.31
365.241	105.31
365.468	106.31
365.694	89.31
365.92	90.31
366.147	86.31
366.373	101.31
366.599	97.31
366.826	95.31
367.052	85.31
367.278	95.31
367.505	93.31
367.731	98.31
367.957	88.31
368.184	97.31
368.41	80.31
368.636	85.31
368.862	96.31
369.089	66.31
369.315	80.31
369.541	84.31
369.767	86.31
369.993	99.31
370.219	93.31
370.445	96.31
370.672	98.31
370.898	113.31
371.124	92.31
371.35	84.31
371.576	85.31
371.802	101.31
372.028	128.31
372.254	108.31
372.48	92.31
372.706	99.31
372.932	89.31
373.158	108.31
373.384	130.31
373.61	146.31
373.835	154.31
374.061	124.31
374.287	118.31
374.513	114.31
374.739	126.31
374.965	129.31
375.191	135.31
375.416	110.31
375.642	100.31
375.868	104.31
376.094	113.31
376.319	99.31
376.545	104.31
376.771	109.31
376.997	92.31
377.222	86.31
377.448	98.31
377.674	102.31
377.899	85.31
378.125	98.31
378.35	83.31
378.576	104.31
378.802	98.31
379.027	108.31
379.253	102.31
379.478	81.31
379.704	102.31
379.929	100.31
380.155	90.31
380.38	88.31
380.606	96.31
380.831	78.31
381.057	88.31
381.282	103.31
381.507	112.31
381.733	108.31
381.958	118.31
382.184	120.31
382.409	112.31
382.634	120.31
382.86	122.31
383.085	117.31
383.31	115.31
383.535	114.31
383.761	122.31
383.986	133.31
384.211	106.31
384.436	102.31
384.662	94.31
384.887	97.31
385.112	103.31
385.337	106.31
385.562	110.31
385.787	120.31
386.013	126.31
386.238	116.31
386.463	104.31
386.688	120.31
386.913	99.31
387.138	108.31
387.363	101.31
387.588	130.31
387.813	117.31
388.038	117.31
388.263	105.31
388.488	118.31
388.713	120.31
388.938	113.31
389.163	106.31
389.387	108.31
389.612	92.31
389.837	93.31
390.062	94.31
390.287	93.31
390.512	93.31
390.736	97.31
390.961	104.31
391.186	112.31
391.411	112.31
391.636	104.31
391.86	104.31
392.085	125.31
392.31	125.31
392.534	137.31
392.759	180.31
392.984	289.31
393.208	558.31
393.433	836.31
393.658	620.31
393.882	228.31
394.107	161.31
394.331	179.31
394.556	188.31
394.78	147.31
395.005	108.31
395.229	104.31
395.454	132.31
395.678	151.31
395.903	178.31
396.127	229.31
396.352	259.31
396.576	328.31
396.801	564.31
397.025	665.31
397.249	331.31
397.474	186.31
397.698	148.31
397.922	112.31
398.147	104.31
398.371	108.31
398.595	110.31
398.82	84.31
399.044	95.31
399.268	86.31
399.492	92.31
399.717	87.31
399.941	90.31
400.165	80.31
400.389	96.31
400.613	85.31
400.837	90.31
401.062	94.31
401.286	85.31
401.51	74.31
401.734	92.31
401.958	77.31
402.182	88.31
402.406	93.31
402.63	84.31
402.854	93.31
403.078	92.31
403.302	102.31
403.526	101.31
403.75	97.31
403.974	96.31
404.198	110.31
404.422	144.31
404.645	140.31
404.869	128.31
405.093	90.31
405.317	104.31
405.541	90.31
405.765	92.31
405.988	112.31
406.212	104.31
406.436	100.31
406.66	98.31
406.883	95.31
407.107	97.31
407.331	91.31
407.555	125.31
407.778	172.31
408.002	161.31
408.226	90.31
408.449	99.31
408.673	88.31
408.896	88.31
409.12	114.31
409.344	108.31
409.567	136.31
409.791	140.31
410.014	119.31
410.238	113.31
410.461	91.31
410.685	100.31
410.908	93.31
411.132	98.31
411.355	96.31
411.578	89.31
411.802	92.31
412.025	84.31
412.249	113.31
412.472	92.31
412.695	93.31
412.919	93.31
413.142	102.31
413.365	97.31
413.589	87.31
413.812	86.31
414.035	80.31
414.258	83.31
414.482	84.31
414.705	97.31
414.928	96.31
415.151	95.31
415.374	94.31
415.597	84.31
415.821	87.31
416.044	87.31
416.267	97.31
416.49	106.31
416.713	83.31
416.936	94.31
417.159	88.31
417.382	84.31
417.605	84.31
417.828	81.31
418.051	92.31
418.274	90.31
418.497	111.31
418.72	92.31
418.943	102.31
419.166	83.31
419.389	100.31
419.611	112.31
419.834	95.31
420.057	96.31
420.28	100.31
420.503	104.31
420.726	100.31
420.948	115.31
421.171	123.31
421.394	144.31
421.617	169.31
421.839	183.31
422.062	172.31
422.285	292.31
422.507	582.31
422.73	999.31
422.953	869.31
423.175	405.31
423.398	222.31
423.621	158.31
423.843	129.31
424.066	123.31
424.288	110.31
424.511	103.31
424.733	116.31
424.956	113.31
425.178	105.31
425.401	97.31
425.623	95.31
425.846	105.31
426.068	85.31
426.291	89.31
426.513	73.31
426.735	98.31
426.958	98.31
427.18	93.31
427.402	113.31
427.625	118.31
427.847	100.31
428.069	134.31
428.292	189.31
428.514	240.31
428.736	172.31
428.958	208.31
429.181	229.31
429.403	134.31
429.625	132.31
429.847	200.31
430.069	278.31
430.292	351.31
430.514	329.31
430.736	258.31
430.958	261.31
431.18	152.31
431.402	108.31
431.624	130.31
431.846	181.31
432.068	228.31
432.29	121.31
432.512	110.31
432.734	112.31
432.956	97.31
433.178	91.31
433.4	81.31
433.622	100.31
433.844	76.31
434.066	73.31
434.287	82.31
434.509	88.31
434.731	94.31
434.953	84.31
435.175	96.31
435.397	109.31
435.618	121.31
435.84	114.31
436.062	108.31
436.284	105.31
436.505	97.31
436.727	71.31
436.949	78.31
437.17	74.31
437.392	82.31
437.614	87.31
437.835	96.31
438.057	78.31
438.278	101.31
438.5	113.31
438.721	88.31
438.943	85.31
439.165	82.31
439.386	87.31
439.608	98.31
439.829	89.31
440.05	88.31
440.272	93.31
440.493	100.31
440.715	83.31
440.936	88.31
441.158	102.31
441.379	94.31
441.6	115.31
441.822	100.31
442.043	99.31
442.264	137.31
442.486	244.31
442.707	340.31
442.928	207.31
443.149	160.31
443.371	273.31
443.592	558.31
443.813	473.31
444.034	165.31
444.255	110.31
444.476	93.31
444.698	92.31
444.919	116.31
445.14	250.31
445.361	382.31
445.582	690.31
445.803	558.31
446.024	197.31
446.245	110.31
446.466	81.31
446.687	95.31
446.908	96.31
447.129	95.31
447.35	79.31
447.571	86.31
447.792	88.31
448.013	87.31
448.234	95.31
448.455	85.31
448.675	84.31
448.896	75.31
449.117	90.31
449.338	88.31
449.559	92.31
449.779	76.31
450	76.31
450.221	96.31
450.442	89.31
450.662	87.31
450.883	108.31
451.104	108.31
451.324	87.31
451.545	86.31
451.766	89.31
451.986	94.31
452.207	97.31
452.428	96.31
452.648	110.31
452.869	132.31
453.089	118.31
453.31	95.31
453.53	102.31
453.751	98.31
453.971	106.31
454.192	80.31
454.412	94.31
454.633	103.31
454.853	86.31
455.073	88.31
455.294	96.31
455.514	112.31
455.734	116.31
455.955	87.31
456.175	76.31
456.395	72.31
456.616	93.31
456.836	81.31
457.056	89.31
457.276	86.31
457.497	93.31
457.717	109.31
457.937	157.31
458.157	191.31
458.377	205.31
458.598	203.31
458.818	222.31
459.038	122.31
459.258	104.31
459.478	99.31
459.698	97.31
459.918	104.31
460.138	94.31
460.358	92.31
460.578	114.31
460.798	166.31
461.018	178.31
461.238	100.31
461.458	85.31
461.678	87.31
461.898	86.31
462.118	100.31
462.338	85.31
462.558	73.31
462.777	80.31
462.997	78.31
463.217	89.31
463.437	82.31
463.657	85.31
463.876	84.31
464.096	88.31
464.316	95.31
464.536	75.31
464.755	85.31
464.975	96.31
465.195	81.31
465.414	89.31
465.634	94.31
465.854	86.31
466.073	72.31
466.293	90.31
466.512	92.31
466.732	85.31
466.951	95.31
467.171	87.31
467.391	72.31
467.61	84.31
467.829	86.31
468.049	77.31
468.268	88.31
468.488	105.31
468.707	104.31
468.927	86.31
469.146	80.31
469.365	81.31
469.585	89.31
469.804	93.31
470.023	98.31
470.243	82.31
470.462	77.31
470.681	95.31
470.901	84.31
471.12	81.31
471.339	78.31
471.558	84.31
471.777	91.31
471.997	97.31
472.216	101.31
472.435	81.31
472.654	93.31
472.873	83.31
473.092	101.31
473.311	99.31
473.53	84.31
473.749	84.31
473.968	107.31
474.187	103.31
474.406	95.31
474.625	90.31
474.844	100.31
475.063	91.31
475.282	82.31
475.501	86.31
475.72	81.31
475.939	90.31
476.158	78.31
476.377	96.31
476.596	81.31
476.814	84.31
477.033	78.31
477.252	89.31
477.471	90.31
477.69	100.31
477.908	89.31
478.127	87.31
478.346	74.31
478.564	72.31
478.783	97.31
479.002	84.31
479.22	82.31
479.439	100.31
479.658	89.31
479.876	97.31
480.095	100.31
480.313	78.31
480.532	90.31
480.751	100.31
480.969	93.31
481.188	103.31
481.406	114.31
481.624	96.31
481.843	89.31
482.061	88.31
482.28	96.31
482.498	78.31
482.717	89.31
482.935	93.31
483.153	91.31
483.372	102.31
483.59	93.31
483.808	97.31
484.027	90.31
484.245	96.31
484.463	90.31
484.681	106.31
484.9	99.31
485.118	95.31
485.336	87.31
485.554	87.31
485.772	102.31
485.99	100.31
486.209	95.31
486.427	91.31
486.645	110.31
486.863	99.31
487.081	96.31
487.299	115.31
487.517	116.31
487.735	176.31
487.953	344.31
488.171	252.31
488.389	126.31
488.607	94.31
488.825	100.31
489.043	94.31
489.261	104.31
489.479	94.31
489.696	84.31
489.914	101.31
490.132	88.31
490.35	88.31
490.568	95.31
490.786	103.31
491.003	91.31
491.221	96.31
491.439	89.31
491.657	79.31
491.874	92.31
492.092	100.31
492.31	78.31
492.527	87.31
492.745	90.31
492.963	78.31
493.18	96.31
493.398	111.31
493.615	101.31
493.833	98.31
494.05	83.31
494.268	84.31
494.485	103.31
494.703	100.31
494.92	89.31
495.138	96.31
495.355	87.31
495.573	94.31
495.79	101.31
496.008	110.31
496.225	112.31
496.442	108.31
496.66	108.31
496.877	97.31
497.094	100.31
497.312	103.31
497.529	102.31
497.746	114.31
497.963	92.31
498.181	104.31
498.398	126.31
498.615	96.31
498.832	99.31
499.049	98.31
499.267	104.31
499.484	110.31
499.701	99.31
499.918	94.31
500.135	108.31
500.352	102.31
500.569	95.31
500.786	99.31
501.003	89.31
501.22	81.31
501.437	101.31
501.654	118.31
501.871	105.31
502.088	101.31
502.305	104.31
502.522	89.31
502.739	91.31
502.956	105.31
503.172	96.31
503.389	98.31
503.606	93.31
503.823	123.31
504.04	137.31
504.256	232.31
504.473	230.31
504.69	126.31
504.907	102.31
505.123	93.31
505.34	94.31
505.557	105.31
505.773	96.31
505.99	96.31
506.207	93.31
506.423	94.31
506.64	94.31
506.856	78.31
507.073	79.31
507.289	87.31
507.506	78.31
507.722	93.31
507.939	74.31
508.155	102.31
508.372	88.31
508.588	103.31
508.805	86.31
509.021	84.31
509.238	89.31
509.454	93.31
509.67	92.31
509.887	95.31
510.103	99.31
510.319	110.31
510.536	99.31
510.752	101.31
510.968	87.31
511.184	90.31
511.401	94.31
511.617	90.31
511.833	86.31
512.049	98.31
512.265	75.31
512.481	98.31
512.698	94.31
512.914	100.31
513.13	100.31
513.346	89.31
513.562	87.31
513.778	100.31
513.994	82.31
514.21	96.31
514.426	106.31
514.642	98.31
514.858	106.31
515.074	84.31
