Data from 237_2_HRD10591_00012.txt Node
Date: Mon Jan 19 14:11:36 EST 2026
User: Yrep
Spectrometer: HR+D1059
Trigger mode: 1
Integration Time (sec): 1.000000E-1
Scans to average: 1
Electric dark correction enabled: true
Nonlinearity correction enabled: false
Boxcar width: 0
XAxis mode: Wavelengths
Number of Pixels in Spectrum: 2048
>>>>>Begin Spectral Data<<<<<
223.165	-20
223.4	-20
223.635	-20
223.869	-16
224.104	-21
224.338	-5
224.573	-10
224.808	-8
225.042	-13
225.277	-5
225.511	1
225.746	5
225.98	22
226.215	-2
226.449	9
226.683	13
226.918	19
227.152	31
227.387	35
227.621	25
227.856	54
228.09	47
228.324	38
228.559	44
228.793	47
229.027	63
229.262	74
229.496	73
229.73	65
229.964	66
230.199	68
230.433	68
230.667	80
230.901	77
231.136	73
231.37	74
231.604	67
231.838	69
232.072	81
232.306	75
232.541	69
232.775	81
233.009	81
233.243	87
233.477	74
233.711	72
233.945	79
234.179	87
234.413	81
234.647	78
234.881	87
235.115	67
235.349	73
235.583	77
235.817	76
236.051	80
236.285	81
236.519	77
236.753	76
236.987	73
237.221	69
237.455	71
237.689	72
237.922	72
238.156	81
238.39	67
238.624	75
238.858	78
239.091	63
239.325	79
239.559	63
239.793	69
240.027	65
240.26	72
240.494	71
240.728	87
240.961	88
241.195	84
241.429	93
241.662	75
241.896	79
242.13	83
242.363	76
242.597	76
242.83	82
243.064	74
243.298	81
243.531	59
243.765	80
243.998	81
244.232	79
244.465	63
244.699	83
244.932	63
245.166	71
245.399	88
245.633	82
245.866	70
246.099	82
246.333	77
246.566	65
246.8	65
247.033	72
247.266	67
247.5	78
247.733	87
247.966	71
248.2	86
248.433	72
248.666	69
248.899	72
249.133	77
249.366	97
249.599	85
249.832	81
250.066	83
250.299	81
250.532	89
250.765	74
250.998	72
251.231	79
251.465	79
251.698	82
251.931	78
252.164	79
252.397	72
252.63	80
252.863	74
253.096	87
253.329	76
253.562	73
253.795	79
254.028	87
254.261	79
254.494	79
254.727	84
254.96	85
255.193	75
255.426	75
255.659	81
255.892	75
256.124	70
256.357	81
256.59	71
256.823	74
257.056	61
257.289	87
257.521	71
257.754	73
257.987	80
258.22	65
258.452	85
258.685	77
258.918	76
259.151	73
259.383	84
259.616	74
259.849	71
260.081	82
260.314	80
260.547	77
260.779	82
261.012	75
261.244	83
261.477	79
261.71	80
261.942	86
262.175	74
262.407	68
262.64	82
262.872	78
263.105	86
263.337	86
263.57	78
263.802	68
264.035	75
264.267	73
264.499	88
264.732	83
264.964	78
265.197	77
265.429	87
265.661	74
265.894	73
266.126	77
266.358	83
266.591	73
266.823	91
267.055	78
267.287	69
267.52	81
267.752	78
267.984	79
268.216	73
268.448	74
268.681	87
268.913	86
269.145	77
269.377	78
269.609	90
269.841	81
270.073	83
270.306	91
270.538	85
270.77	88
271.002	83
271.234	89
271.466	83
271.698	81
271.93	87
272.162	69
272.394	93
272.626	88
272.858	70
273.09	98
273.322	79
273.553	71
273.785	72
274.017	92
274.249	78
274.481	87
274.713	82
274.945	83
275.176	86
275.408	85
275.64	74
275.872	92
276.104	85
276.335	87
276.567	82
276.799	79
277.031	73
277.262	89
277.494	88
277.726	79
277.957	74
278.189	83
278.421	95
278.652	92
278.884	89
279.115	88
279.347	84
279.579	89
279.81	88
280.042	91
280.273	92
280.505	79
280.736	90
280.968	85
281.199	81
281.431	78
281.662	89
281.894	89
282.125	84
282.356	79
282.588	85
282.819	87
283.051	80
283.282	77
283.513	100
283.745	90
283.976	87
284.207	95
284.439	74
284.67	61
284.901	85
285.132	77
285.364	97
285.595	76
285.826	84
286.057	83
286.288	71
286.52	68
286.751	85
286.982	91
287.213	79
287.444	72
287.675	88
287.906	79
288.138	71
288.369	81
288.6	87
288.831	86
289.062	82
289.293	86
289.524	86
289.755	86
289.986	80
290.217	98
290.448	97
290.679	87
290.91	88
291.141	92
291.371	80
291.602	76
291.833	80
292.064	72
292.295	68
292.526	76
292.757	69
292.987	70
293.218	81
293.449	80
293.68	78
293.91	99
294.141	86
294.372	80
294.603	71
294.833	78
295.064	77
295.295	86
295.525	80
295.756	71
295.987	84
296.217	78
296.448	75
296.679	72
296.909	86
297.14	86
297.37	88
297.601	86
297.831	80
298.062	77
298.292	74
298.523	83
298.753	79
298.984	63
299.214	85
299.445	96
299.675	65
299.905	95
300.136	84
300.366	82
300.597	73
300.827	99
301.057	81
301.288	87
301.518	80
301.748	79
301.979	99
302.209	91
302.439	88
302.669	87
302.9	80
303.13	75
303.36	76
303.59	92
303.82	78
304.051	85
304.281	81
304.511	81
304.741	89
304.971	87
305.201	74
305.431	88
305.661	83
305.891	83
306.121	86
306.352	76
306.582	77
306.812	78
307.042	91
307.272	88
307.502	76
307.731	77
307.961	93
308.191	105
308.421	93
308.651	99
308.881	102
309.111	90
309.341	97
309.571	95
309.8	71
310.03	81
310.26	91
310.49	87
310.72	72
310.949	93
311.179	87
311.409	75
311.639	90
311.868	99
312.098	92
312.328	87
312.557	79
312.787	93
313.017	80
313.246	88
313.476	81
313.706	73
313.935	86
314.165	80
314.394	90
314.624	77
314.853	95
315.083	87
315.312	85
315.542	81
315.771	99
316.001	91
316.23	100
316.46	84
316.689	93
316.919	83
317.148	77
317.377	83
317.607	92
317.836	83
318.065	94
318.295	94
318.524	86
318.753	81
318.983	92
319.212	90
319.441	107
319.67	81
319.9	91
320.129	83
320.358	95
320.587	91
320.816	87
321.046	96
321.275	78
321.504	69
321.733	86
321.962	98
322.191	88
322.42	97
322.649	92
322.878	90
323.108	93
323.337	94
323.566	93
323.795	85
324.024	81
324.253	92
324.482	78
324.71	90
324.939	107
325.168	107
325.397	73
325.626	68
325.855	72
326.084	91
326.313	79
326.542	85
326.77	93
326.999	76
327.228	91
327.457	93
327.686	85
327.914	84
328.143	84
328.372	71
328.6	92
328.829	85
329.058	88
329.287	90
329.515	82
329.744	76
329.972	74
330.201	85
330.43	77
330.658	85
330.887	86
331.115	81
331.344	75
331.572	99
331.801	100
332.03	86
332.258	89
332.486	74
332.715	91
332.943	89
333.172	84
333.4	79
333.629	70
333.857	83
334.085	94
334.314	79
334.542	83
334.771	92
334.999	95
335.227	93
335.455	80
335.684	94
335.912	97
336.14	94
336.369	84
336.597	97
336.825	92
337.053	80
337.281	97
337.51	80
337.738	88
337.966	86
338.194	84
338.422	81
338.65	82
338.878	93
339.106	83
339.334	100
339.562	87
339.79	75
340.018	70
340.246	78
340.474	77
340.702	72
340.93	83
341.158	77
341.386	76
341.614	78
341.842	92
342.07	76
342.298	75
342.526	85
342.754	89
342.981	93
343.209	77
343.437	93
343.665	94
343.893	101
344.12	90
344.348	86
344.576	88
344.804	95
345.031	76
345.259	101
345.487	77
345.714	77
345.942	72
346.17	84
346.397	87
346.625	84
346.853	91
347.08	91
347.308	94
347.535	75
347.763	70
347.99	85
348.218	87
348.445	80
348.673	73
348.9	87
349.128	91
349.355	80
349.583	75
349.81	87
350.037	76
350.265	79
350.492	73
350.72	88
350.947	95
351.174	89
351.402	84
351.629	87
351.856	94
352.083	79
352.311	82
352.538	85
352.765	105
352.992	83
353.22	96
353.447	81
353.674	93
353.901	83
354.128	86
354.355	77
354.583	86
354.81	83
355.037	70
355.264	83
355.491	80
355.718	79
355.945	85
356.172	88
356.399	87
356.626	79
356.853	85
357.08	93
357.307	88
357.534	91
357.761	99
357.988	97
358.215	93
358.441	97
358.668	93
358.895	93
359.122	97
359.349	84
359.576	76
359.802	79
360.029	81
360.256	74
360.483	98
360.709	79
360.936	87
361.163	83
361.39	84
361.616	79
361.843	104
362.07	97
362.296	84
362.523	85
362.749	94
362.976	112
363.203	127
363.429	104
363.656	87
363.882	98
364.109	127
364.335	125
364.562	127
364.788	86
365.015	93
365.241	78
365.468	83
365.694	77
365.92	90
366.147	85
366.373	80
366.599	91
366.826	80
367.052	80
367.278	89
367.505	74
367.731	84
367.957	83
368.184	83
368.41	76
368.636	98
368.862	75
369.089	87
369.315	84
369.541	84
369.767	78
369.993	91
370.219	81
370.445	86
370.672	101
370.898	89
371.124	83
371.35	79
371.576	103
371.802	95
372.028	111
372.254	92
372.48	92
372.706	93
372.932	89
373.158	73
373.384	114
373.61	115
373.835	107
374.061	82
374.287	96
374.513	100
374.739	105
374.965	100
375.191	99
375.416	87
375.642	87
375.868	93
376.094	82
376.319	81
376.545	95
376.771	102
376.997	101
377.222	64
377.448	87
377.674	101
377.899	85
378.125	80
378.35	77
378.576	81
378.802	90
379.027	91
379.253	78
379.478	72
379.704	73
379.929	87
380.155	88
380.38	85
380.606	92
380.831	89
381.057	97
381.282	88
381.507	88
381.733	102
381.958	101
382.184	93
382.409	88
382.634	104
382.86	104
383.085	119
383.31	82
383.535	99
383.761	80
383.986	110
384.211	109
384.436	87
384.662	87
384.887	101
385.112	84
385.337	106
385.562	91
385.787	88
386.013	99
386.238	89
386.463	89
386.688	107
386.913	100
387.138	101
387.363	85
387.588	96
387.813	96
388.038	96
388.263	100
388.488	102
388.713	100
388.938	89
389.163	81
389.387	87
389.612	93
389.837	80
390.062	94
390.287	72
390.512	77
390.736	76
390.961	74
391.186	86
391.411	83
391.636	74
391.86	84
392.085	114
392.31	92
392.534	98
392.759	124
392.984	189
393.208	324
393.433	508
393.658	353
393.882	151
394.107	123
394.331	131
394.556	135
394.78	107
395.005	108
395.229	93
395.454	98
395.678	94
395.903	122
396.127	143
396.352	179
396.576	195
396.801	332
397.025	383
397.249	210
397.474	129
397.698	86
397.922	97
398.147	90
398.371	101
398.595	86
398.82	87
399.044	89
399.268	84
399.492	79
399.717	89
399.941	97
400.165	93
400.389	70
400.613	85
400.837	79
401.062	77
401.286	76
401.51	80
401.734	90
401.958	87
402.182	89
402.406	91
402.63	79
402.854	84
403.078	92
403.302	97
403.526	82
403.75	82
403.974	87
404.198	94
404.422	88
404.645	109
404.869	104
405.093	93
405.317	93
405.541	80
405.765	89
405.988	79
406.212	80
406.436	84
406.66	74
406.883	76
407.107	92
407.331	88
407.555	94
407.778	104
408.002	120
408.226	102
408.449	85
408.673	83
408.896	89
409.12	101
409.344	81
409.567	89
409.791	92
410.014	94
410.238	84
410.461	84
410.685	79
410.908	84
411.132	79
411.355	95
411.578	95
411.802	86
412.025	84
412.249	95
412.472	83
412.695	88
412.919	79
413.142	78
413.365	105
413.589	87
413.812	95
414.035	96
414.258	87
414.482	84
414.705	82
414.928	67
415.151	88
415.374	76
415.597	85
415.821	85
416.044	76
416.267	73
416.49	85
416.713	83
416.936	100
417.159	83
417.382	88
417.605	88
417.828	94
418.051	77
418.274	92
418.497	75
418.72	76
418.943	95
419.166	83
419.389	81
419.611	85
419.834	83
420.057	70
420.28	91
420.503	99
420.726	72
420.948	88
421.171	98
421.394	119
421.617	131
421.839	124
422.062	119
422.285	159
422.507	307
422.73	514
422.953	471
423.175	217
423.398	132
423.621	104
423.843	104
424.066	97
424.288	98
424.511	100
424.733	85
424.956	87
425.178	89
425.401	86
425.623	97
425.846	88
426.068	81
426.291	92
426.513	74
426.735	75
426.958	82
427.18	92
427.402	92
427.625	88
427.847	69
428.069	109
428.292	140
428.514	161
428.736	104
428.958	144
429.181	160
429.403	95
429.625	111
429.847	127
430.069	179
430.292	205
430.514	179
430.736	141
430.958	164
431.18	113
431.402	95
431.624	115
431.846	117
432.068	141
432.29	108
432.512	99
432.734	91
432.956	80
433.178	97
433.4	89
433.622	81
433.844	101
434.066	79
434.287	86
434.509	96
434.731	93
434.953	76
435.175	77
435.397	87
435.618	81
435.84	92
436.062	99
436.284	90
436.505	85
436.727	91
436.949	92
437.17	80
437.392	86
437.614	86
437.835	83
438.057	79
438.278	87
438.5	104
438.721	96
438.943	89
439.165	88
439.386	87
439.608	92
439.829	78
440.05	82
440.272	76
440.493	83
440.715	88
440.936	81
441.158	90
441.379	86
441.6	86
441.822	79
442.043	95
442.264	114
442.486	134
442.707	159
442.928	123
443.149	88
443.371	171
443.592	257
443.813	227
444.034	103
444.255	103
444.476	99
444.698	95
444.919	98
445.14	185
445.361	221
445.582	315
445.803	281
446.024	137
446.245	79
446.466	93
446.687	81
446.908	91
447.129	77
447.35	69
447.571	81
447.792	79
448.013	86
448.234	84
448.455	81
448.675	71
448.896	97
449.117	77
449.338	73
449.559	88
449.779	89
450	77
450.221	84
450.442	80
450.662	105
450.883	71
451.104	83
451.324	74
451.545	93
451.766	93
451.986	86
452.207	80
452.428	100
452.648	91
452.869	102
453.089	96
453.31	79
453.53	97
453.751	104
453.971	88
454.192	88
454.412	87
454.633	86
454.853	70
455.073	93
455.294	79
455.514	95
455.734	79
455.955	76
456.175	81
456.395	77
456.616	76
456.836	78
457.056	96
457.276	68
457.497	86
457.717	88
457.937	110
458.157	135
458.377	97
458.598	121
458.818	120
459.038	80
459.258	93
459.478	88
459.698	74
459.918	91
460.138	77
460.358	82
460.578	88
460.798	109
461.018	123
461.238	92
461.458	80
461.678	87
461.898	81
462.118	74
462.338	90
462.558	94
462.777	84
462.997	77
463.217	85
463.437	84
463.657	86
463.876	80
464.096	71
464.316	87
464.536	87
464.755	60
464.975	70
465.195	84
465.414	81
465.634	99
465.854	77
466.073	86
466.293	79
466.512	74
466.732	74
466.951	86
467.171	79
467.391	93
467.61	108
467.829	91
468.049	74
468.268	85
468.488	91
468.707	101
468.927	78
469.146	84
469.365	84
469.585	91
469.804	86
470.023	89
470.243	92
470.462	93
470.681	69
470.901	88
471.12	101
471.339	67
471.558	75
471.777	85
471.997	83
472.216	94
472.435	75
472.654	66
472.873	83
473.092	63
473.311	80
473.53	91
473.749	81
473.968	83
474.187	80
474.406	100
474.625	95
474.844	79
475.063	79
475.282	77
475.501	83
475.72	81
475.939	89
476.158	88
476.377	75
476.596	83
476.814	85
477.033	80
477.252	79
477.471	74
477.69	70
477.908	88
478.127	87
478.346	89
478.564	85
478.783	74
479.002	85
479.22	70
479.439	89
479.658	97
479.876	100
480.095	84
480.313	89
480.532	84
480.751	89
480.969	79
481.188	91
481.406	85
481.624	81
481.843	87
482.061	86
482.28	92
482.498	79
482.717	91
482.935	80
483.153	85
483.372	85
483.59	85
483.808	68
484.027	75
484.245	83
484.463	96
484.681	104
484.9	99
485.118	95
485.336	93
485.554	87
485.772	91
485.99	93
486.209	78
486.427	83
486.645	79
486.863	101
487.081	85
487.299	87
487.517	98
487.735	121
487.953	165
488.171	141
488.389	89
488.607	87
488.825	83
489.043	92
489.261	85
489.479	92
489.696	79
489.914	89
490.132	87
490.35	93
490.568	84
490.786	73
491.003	81
491.221	87
491.439	84
491.657	73
491.874	84
492.092	92
492.31	98
492.527	91
492.745	72
492.963	85
493.18	100
493.398	95
493.615	81
493.833	79
494.05	78
494.268	84
494.485	72
494.703	77
494.92	87
495.138	100
495.355	80
495.573	90
495.79	77
496.008	90
496.225	87
496.442	111
496.66	100
496.877	93
497.094	82
497.312	68
497.529	95
497.746	113
497.963	95
498.181	84
498.398	101
498.615	89
498.832	91
499.049	85
499.267	97
499.484	107
499.701	88
499.918	82
500.135	93
500.352	89
500.569	75
500.786	89
501.003	93
501.22	93
501.437	94
501.654	89
501.871	73
502.088	81
502.305	106
502.522	85
502.739	81
502.956	77
503.172	97
503.389	91
503.606	88
503.823	105
504.04	102
504.256	118
504.473	126
504.69	95
504.907	86
505.123	87
505.34	84
505.557	83
505.773	92
505.99	97
506.207	92
506.423	92
506.64	87
506.856	91
507.073	89
507.289	89
507.506	88
507.722	80
507.939	81
508.155	90
508.372	81
508.588	82
508.805	93
509.021	87
509.238	83
509.454	88
509.67	81
509.887	80
510.103	84
510.319	84
510.536	88
510.752	68
510.968	92
511.184	83
511.401	88
511.617	84
511.833	87
512.049	104
512.265	96
512.481	88
512.698	96
512.914	87
513.13	79
513.346	80
513.562	80
513.778	97
513.994	79
514.21	72
514.426	84
514.642	95
514.858	87
515.074	93
515.29	87
515.506	77
515.721	94
515.937	91
516.153	89
516.369	102
516.585	91
516.801	81
517.016	88
517.232	84
517.448	103
517.664	95
517.879	91
518.095	91
518.311	95
518.527	119
518.742	111
518.958	164
519.173	164
519.389	103
519.605	97
519.82	103
520.036	91
520.251	101
520.467	82
520.682	84
520.898	90
521.113	77
521.329	87
521.544	82
521.76	96
521.975	88
522.19	95
522.406	88
522.621	92
522.836	91
523.052	85
523.267	91
523.482	89
523.698	80
523.913	94
524.128	81
524.343	80
524.559	92
524.774	100
524.989	100
525.204	97
525.419	95
525.634	96
525.849	113
526.064	122
526.28	233
526.495	329
526.71	366
526.925	242
527.14	305
527.355	270
527.57	111
527.785	98
527.999	95
528.214	96
528.429	80
528.644	86
528.859	96
529.074	79
529.289	90
529.503	85
529.718	88
529.933	104
530.148	93
530.363	84
530.577	92
530.792	87
531.007	78
531.221	98
531.436	87
531.651	106
531.865	102
532.08	91
532.295	94
532.509	100
532.724	95
532.938	100
533.153	91
533.367	91
533.582	92
533.796	88
534.011	108
534.225	100
534.44	95
534.654	98
534.868	116
535.083	184
535.297	154
535.511	92
535.726	94
535.94	109
536.154	104
536.369	94
536.583	94
536.797	113
537.011	101
537.225	95
537.44	95
537.654	94
537.868	107
538.082	109
538.296	98
538.51	95
538.724	99
538.938	97
539.153	106
539.367	100
539.581	116
539.795	84
540.009	99
540.222	91
540.436	102
540.65	105
540.864	101
541.078	109
541.292	110
541.506	94
541.72	100
541.934	99
542.147	101
542.361	111
542.575	96
542.789	89
543.002	99
543.216	119
543.43	97
543.644	98
543.857	113
544.071	103
544.285	114
544.498	111
544.712	115
544.925	101
545.139	90
545.352	110
545.566	107
545.779	115
545.993	117
546.206	123
546.42	125
546.633	134
546.847	141
547.06	130
547.274	156
547.487	189
547.7	209
547.914	217
548.127	214
548.34	236
548.554	235
548.767	210
548.98	230
549.193	223
549.407	224
549.62	263
549.833	257
550.046	285
550.259	289
550.473	280
550.686	285
550.899	316
551.112	344
551.325	340
551.538	363
551.751	350
551.964	317
552.177	294
552.39	301
552.603	311
552.816	294
553.029	288
553.242	292
553.455	291
553.667	323
553.88	322
554.093	322
554.306	327
554.519	329
554.732	342
554.944	306
555.157	288
555.37	279
555.583	280
555.795	264
556.008	227
556.221	231
556.433	207
556.646	221
556.859	199
557.071	214
557.284	194
557.496	165
557.709	163
557.921	171
558.134	167
558.346	224
558.559	214
558.771	194
558.984	360
559.196	447
559.409	230
559.621	377
559.833	271
560.046	323
560.258	247
560.47	245
560.683	161
560.895	128
561.107	118
561.32	111
561.532	90
561.744	111
561.956	111
562.168	119
562.381	108
562.593	98
562.805	88
563.017	103
563.229	127
563.441	119
563.653	102
563.865	99
564.077	101
564.289	101
564.501	115
564.713	95
564.925	96
565.137	103
565.349	107
565.561	93
565.773	107
565.985	112
566.197	99
566.408	97
566.62	92
566.832	105
567.044	93
567.255	94
567.467	108
567.679	107
567.891	119
568.102	117
568.314	99
568.526	115
568.737	108
568.949	110
569.161	106
569.372	107
569.584	94
569.795	95
570.007	95
570.218	103
570.43	102
570.641	85
570.853	99
571.064	103
571.276	100
571.487	95
571.698	101
571.91	96
572.121	107
572.333	109
572.544	99
572.755	93
572.966	97
573.178	97
573.389	96
573.6	107
573.811	103
574.023	104
574.234	101
574.445	94
574.656	85
574.867	88
575.078	94
575.289	91
575.501	96
575.712	84
575.923	87
576.134	99
576.345	93
576.556	98
576.767	95
576.978	84
577.188	101
577.399	96
577.61	101
577.821	107
578.032	101
578.243	87
578.454	87
578.665	103
578.875	85
579.086	99
579.297	94
579.508	95
579.718	97
579.929	92
580.14	86
580.35	90
580.561	99
580.772	94
580.982	100
581.193	83
581.403	85
581.614	100
581.825	97
582.035	123
582.246	91
582.456	90
582.667	86
582.877	91
583.087	103
583.298	100
583.508	88
583.719	99
583.929	96
584.139	94
584.35	95
584.56	91
584.77	100
584.981	88
585.191	80
585.401	95
