Data from 237_2_HRD10591_00036.txt Node
Date: Mon Jan 19 14:11:48 EST 2026
User: Yrep
Spectrometer: HR+D1059
Trigger mode: 1
Integration Time (sec): 1.000000E-1
Scans to average: 1
Electric dark correction enabled: true
Nonlinearity correction enabled: false
Boxcar width: 0
XAxis mode: Wavelengths
Number of Pixels in Spectrum: 2048
>>>>>Begin Spectral Data<<<<<
223.165	-16.62
223.4	-16.62
223.635	-16.62
223.869	-9.62
224.104	-16.62
224.338	-15.62
224.573	-12.62
224.808	-8.62
225.042	-12.62
225.277	-12.62
225.511	-5.62
225.746	-8.62
225.98	8.38
226.215	12.38
226.449	8.38
226.683	29.38
226.918	31.38
227.152	29.38
227.387	19.38
227.621	38.38
227.856	41.38
228.09	37.38
228.324	53.38
228.559	51.38
228.793	56.38
229.027	61.38
229.262	55.38
229.496	55.38
229.73	65.38
229.964	62.38
230.199	85.38
230.433	61.38
230.667	68.38
230.901	78.38
231.136	85.38
231.37	81.38
231.604	83.38
231.838	64.38
232.072	80.38
232.306	80.38
232.541	83.38
232.775	79.38
233.009	88.38
233.243	83.38
233.477	80.38
233.711	77.38
233.945	64.38
234.179	91.38
234.413	77.38
234.647	74.38
234.881	69.38
235.115	84.38
235.349	86.38
235.583	88.38
235.817	78.38
236.051	80.38
236.285	73.38
236.519	85.38
236.753	66.38
236.987	73.38
237.221	67.38
237.455	63.38
237.689	93.38
237.922	78.38
238.156	71.38
238.39	70.38
238.624	71.38
238.858	68.38
239.091	85.38
239.325	84.38
239.559	72.38
239.793	59.38
240.027	77.38
240.26	65.38
240.494	71.38
240.728	73.38
240.961	74.38
241.195	96.38
241.429	88.38
241.662	79.38
241.896	81.38
242.13	68.38
242.363	47.38
242.597	81.38
242.83	71.38
243.064	65.38
243.298	73.38
243.531	70.38
243.765	75.38
243.998	79.38
244.232	75.38
244.465	77.38
244.699	78.38
244.932	68.38
245.166	73.38
245.399	86.38
245.633	88.38
245.866	72.38
246.099	77.38
246.333	82.38
246.566	70.38
246.8	80.38
247.033	81.38
247.266	72.38
247.5	79.38
247.733	75.38
247.966	82.38
248.2	76.38
248.433	82.38
248.666	84.38
248.899	80.38
249.133	68.38
249.366	77.38
249.599	89.38
249.832	84.38
250.066	89.38
250.299	79.38
250.532	83.38
250.765	84.38
250.998	89.38
251.231	79.38
251.465	76.38
251.698	71.38
251.931	73.38
252.164	68.38
252.397	71.38
252.63	75.38
252.863	77.38
253.096	87.38
253.329	63.38
253.562	80.38
253.795	87.38
254.028	83.38
254.261	69.38
254.494	74.38
254.727	73.38
254.96	81.38
255.193	86.38
255.426	77.38
255.659	68.38
255.892	88.38
256.124	79.38
256.357	83.38
256.59	86.38
256.823	80.38
257.056	67.38
257.289	82.38
257.521	87.38
257.754	75.38
257.987	89.38
258.22	63.38
258.452	88.38
258.685	78.38
258.918	80.38
259.151	76.38
259.383	88.38
259.616	66.38
259.849	73.38
260.081	61.38
260.314	73.38
260.547	65.38
260.779	84.38
261.012	81.38
261.244	90.38
261.477	77.38
261.71	67.38
261.942	83.38
262.175	75.38
262.407	73.38
262.64	74.38
262.872	79.38
263.105	88.38
263.337	86.38
263.57	91.38
263.802	66.38
264.035	87.38
264.267	71.38
264.499	93.38
264.732	71.38
264.964	98.38
265.197	88.38
265.429	81.38
265.661	87.38
265.894	64.38
266.126	82.38
266.358	89.38
266.591	70.38
266.823	90.38
267.055	74.38
267.287	87.38
267.52	77.38
267.752	81.38
267.984	79.38
268.216	82.38
268.448	81.38
268.681	83.38
268.913	93.38
269.145	89.38
269.377	81.38
269.609	83.38
269.841	93.38
270.073	85.38
270.306	89.38
270.538	72.38
270.77	96.38
271.002	91.38
271.234	81.38
271.466	76.38
271.698	72.38
271.93	81.38
272.162	84.38
272.394	95.38
272.626	93.38
272.858	88.38
273.09	79.38
273.322	80.38
273.553	84.38
273.785	88.38
274.017	84.38
274.249	79.38
274.481	82.38
274.713	62.38
274.945	81.38
275.176	93.38
275.408	81.38
275.64	75.38
275.872	85.38
276.104	74.38
276.335	83.38
276.567	82.38
276.799	76.38
277.031	85.38
277.262	80.38
277.494	84.38
277.726	85.38
277.957	88.38
278.189	83.38
278.421	79.38
278.652	72.38
278.884	69.38
279.115	92.38
279.347	86.38
279.579	82.38
279.81	77.38
280.042	85.38
280.273	79.38
280.505	85.38
280.736	82.38
280.968	73.38
281.199	91.38
281.431	81.38
281.662	71.38
281.894	81.38
282.125	86.38
282.356	79.38
282.588	76.38
282.819	77.38
283.051	85.38
283.282	87.38
283.513	80.38
283.745	79.38
283.976	83.38
284.207	71.38
284.439	77.38
284.67	93.38
284.901	87.38
285.132	74.38
285.364	73.38
285.595	79.38
285.826	77.38
286.057	86.38
286.288	89.38
286.52	74.38
286.751	76.38
286.982	78.38
287.213	65.38
287.444	82.38
287.675	93.38
287.906	81.38
288.138	82.38
288.369	82.38
288.6	71.38
288.831	71.38
289.062	88.38
289.293	91.38
289.524	85.38
289.755	70.38
289.986	81.38
290.217	74.38
290.448	81.38
290.679	83.38
290.91	86.38
291.141	72.38
291.371	84.38
291.602	82.38
291.833	83.38
292.064	78.38
292.295	79.38
292.526	86.38
292.757	79.38
292.987	96.38
293.218	89.38
293.449	65.38
293.68	83.38
293.91	69.38
294.141	91.38
294.372	87.38
294.603	92.38
294.833	75.38
295.064	97.38
295.295	85.38
295.525	81.38
295.756	75.38
295.987	69.38
296.217	87.38
296.448	77.38
296.679	85.38
296.909	85.38
297.14	89.38
297.37	77.38
297.601	52.38
297.831	77.38
298.062	81.38
298.292	94.38
298.523	86.38
298.753	73.38
298.984	73.38
299.214	86.38
299.445	69.38
299.675	77.38
299.905	80.38
300.136	100.38
300.366	89.38
300.597	89.38
300.827	88.38
301.057	77.38
301.288	87.38
301.518	76.38
301.748	77.38
301.979	101.38
302.209	90.38
302.439	93.38
302.669	86.38
302.9	101.38
303.13	79.38
303.36	80.38
303.59	77.38
303.82	64.38
304.051	86.38
304.281	88.38
304.511	82.38
304.741	87.38
304.971	86.38
305.201	92.38
305.431	79.38
305.661	79.38
305.891	83.38
306.121	79.38
306.352	76.38
306.582	77.38
306.812	73.38
307.042	79.38
307.272	92.38
307.502	95.38
307.731	98.38
307.961	90.38
308.191	91.38
308.421	84.38
308.651	91.38
308.881	91.38
309.111	82.38
309.341	85.38
309.571	78.38
309.8	82.38
310.03	79.38
310.26	64.38
310.49	62.38
310.72	87.38
310.949	88.38
311.179	93.38
311.409	66.38
311.639	84.38
311.868	74.38
312.098	65.38
312.328	76.38
312.557	79.38
312.787	86.38
313.017	95.38
313.246	72.38
313.476	79.38
313.706	92.38
313.935	96.38
314.165	83.38
314.394	80.38
314.624	86.38
314.853	79.38
315.083	89.38
315.312	102.38
315.542	74.38
315.771	84.38
316.001	81.38
316.23	83.38
316.46	74.38
316.689	77.38
316.919	72.38
317.148	91.38
317.377	67.38
317.607	78.38
317.836	95.38
318.065	73.38
318.295	87.38
318.524	72.38
318.753	83.38
318.983	83.38
319.212	88.38
319.441	95.38
319.67	89.38
319.9	87.38
320.129	70.38
320.358	77.38
320.587	70.38
320.816	85.38
321.046	74.38
321.275	91.38
321.504	81.38
321.733	79.38
321.962	73.38
322.191	79.38
322.42	79.38
322.649	76.38
322.878	87.38
323.108	87.38
323.337	74.38
323.566	85.38
323.795	87.38
324.024	79.38
324.253	80.38
324.482	89.38
324.71	87.38
324.939	91.38
325.168	81.38
325.397	78.38
325.626	83.38
325.855	84.38
326.084	76.38
326.313	97.38
326.542	79.38
326.77	93.38
326.999	83.38
327.228	85.38
327.457	93.38
327.686	88.38
327.914	79.38
328.143	88.38
328.372	81.38
328.6	73.38
328.829	100.38
329.058	73.38
329.287	84.38
329.515	76.38
329.744	88.38
329.972	72.38
330.201	84.38
330.43	74.38
330.658	87.38
330.887	83.38
331.115	80.38
331.344	87.38
331.572	77.38
331.801	84.38
332.03	71.38
332.258	81.38
332.486	89.38
332.715	83.38
332.943	81.38
333.172	72.38
333.4	84.38
333.629	69.38
333.857	92.38
334.085	100.38
334.314	86.38
334.542	82.38
334.771	79.38
334.999	91.38
335.227	86.38
335.455	85.38
335.684	83.38
335.912	92.38
336.14	81.38
336.369	83.38
336.597	71.38
336.825	93.38
337.053	84.38
337.281	90.38
337.51	76.38
337.738	90.38
337.966	92.38
338.194	84.38
338.422	87.38
338.65	76.38
338.878	85.38
339.106	65.38
339.334	84.38
339.562	93.38
339.79	83.38
340.018	77.38
340.246	62.38
340.474	83.38
340.702	91.38
340.93	80.38
341.158	88.38
341.386	82.38
341.614	69.38
341.842	62.38
342.07	85.38
342.298	85.38
342.526	83.38
342.754	75.38
342.981	85.38
343.209	85.38
343.437	88.38
343.665	92.38
343.893	65.38
344.12	88.38
344.348	83.38
344.576	90.38
344.804	71.38
345.031	83.38
345.259	67.38
345.487	75.38
345.714	71.38
345.942	79.38
346.17	85.38
346.397	83.38
346.625	76.38
346.853	76.38
347.08	80.38
347.308	87.38
347.535	88.38
347.763	79.38
347.99	95.38
348.218	78.38
348.445	81.38
348.673	75.38
348.9	88.38
349.128	89.38
349.355	82.38
349.583	79.38
349.81	80.38
350.037	77.38
350.265	81.38
350.492	81.38
350.72	91.38
350.947	85.38
351.174	86.38
351.402	77.38
351.629	79.38
351.856	84.38
352.083	66.38
352.311	71.38
352.538	66.38
352.765	79.38
352.992	94.38
353.22	79.38
353.447	85.38
353.674	86.38
353.901	91.38
354.128	70.38
354.355	88.38
354.583	84.38
354.81	81.38
355.037	83.38
355.264	88.38
355.491	85.38
355.718	74.38
355.945	92.38
356.172	89.38
356.399	97.38
356.626	90.38
356.853	93.38
357.08	95.38
357.307	83.38
357.534	79.38
357.761	80.38
357.988	74.38
358.215	99.38
358.441	70.38
358.668	85.38
358.895	79.38
359.122	75.38
359.349	79.38
359.576	77.38
359.802	77.38
360.029	85.38
360.256	93.38
360.483	71.38
360.709	67.38
360.936	88.38
361.163	84.38
361.39	89.38
361.616	71.38
361.843	76.38
362.07	91.38
362.296	76.38
362.523	82.38
362.749	75.38
362.976	84.38
363.203	100.38
363.429	84.38
363.656	84.38
363.882	99.38
364.109	87.38
364.335	81.38
364.562	76.38
364.788	89.38
365.015	93.38
365.241	81.38
365.468	89.38
365.694	80.38
365.92	82.38
366.147	86.38
366.373	85.38
366.599	79.38
366.826	78.38
367.052	85.38
367.278	90.38
367.505	81.38
367.731	82.38
367.957	91.38
368.184	78.38
368.41	69.38
368.636	89.38
368.862	84.38
369.089	77.38
369.315	85.38
369.541	70.38
369.767	76.38
369.993	68.38
370.219	81.38
370.445	73.38
370.672	90.38
370.898	83.38
371.124	83.38
371.35	91.38
371.576	88.38
371.802	70.38
372.028	80.38
372.254	95.38
372.48	81.38
372.706	95.38
372.932	93.38
373.158	77.38
373.384	80.38
373.61	83.38
373.835	93.38
374.061	80.38
374.287	91.38
374.513	97.38
374.739	97.38
374.965	93.38
375.191	87.38
375.416	88.38
375.642	85.38
375.868	87.38
376.094	84.38
376.319	78.38
376.545	72.38
376.771	86.38
376.997	78.38
377.222	77.38
377.448	80.38
377.674	87.38
377.899	81.38
378.125	88.38
378.35	83.38
378.576	81.38
378.802	86.38
379.027	96.38
379.253	77.38
379.478	85.38
379.704	70.38
379.929	75.38
380.155	81.38
380.38	91.38
380.606	85.38
380.831	84.38
381.057	87.38
381.282	79.38
381.507	101.38
381.733	87.38
381.958	83.38
382.184	82.38
382.409	79.38
382.634	95.38
382.86	78.38
383.085	85.38
383.31	79.38
383.535	92.38
383.761	88.38
383.986	85.38
384.211	86.38
384.436	72.38
384.662	79.38
384.887	71.38
385.112	70.38
385.337	79.38
385.562	81.38
385.787	94.38
386.013	95.38
386.238	88.38
386.463	81.38
386.688	92.38
386.913	77.38
387.138	73.38
387.363	81.38
387.588	88.38
387.813	86.38
388.038	87.38
388.263	84.38
388.488	93.38
388.713	79.38
388.938	81.38
389.163	89.38
389.387	84.38
389.612	70.38
389.837	77.38
390.062	83.38
390.287	75.38
390.512	73.38
390.736	84.38
390.961	78.38
391.186	70.38
391.411	96.38
391.636	88.38
391.86	83.38
392.085	82.38
392.31	83.38
392.534	79.38
392.759	87.38
392.984	120.38
393.208	168.38
393.433	263.38
393.658	211.38
393.882	104.38
394.107	82.38
394.331	97.38
394.556	84.38
394.78	85.38
395.005	78.38
395.229	71.38
395.454	106.38
395.678	83.38
395.903	79.38
396.127	94.38
396.352	109.38
396.576	126.38
396.801	193.38
397.025	193.38
397.249	115.38
397.474	93.38
397.698	93.38
397.922	74.38
398.147	82.38
398.371	83.38
398.595	91.38
398.82	86.38
399.044	71.38
399.268	70.38
399.492	77.38
399.717	79.38
399.941	72.38
400.165	96.38
400.389	85.38
400.613	79.38
400.837	83.38
401.062	75.38
401.286	68.38
401.51	83.38
401.734	77.38
401.958	90.38
402.182	81.38
402.406	75.38
402.63	72.38
402.854	86.38
403.078	89.38
403.302	68.38
403.526	79.38
403.75	84.38
403.974	72.38
404.198	80.38
404.422	90.38
404.645	94.38
404.869	83.38
405.093	94.38
405.317	78.38
405.541	84.38
405.765	91.38
405.988	88.38
406.212	89.38
406.436	83.38
406.66	93.38
406.883	88.38
407.107	84.38
407.331	83.38
407.555	80.38
407.778	77.38
408.002	85.38
408.226	88.38
408.449	85.38
408.673	77.38
408.896	82.38
409.12	78.38
409.344	89.38
409.567	86.38
409.791	91.38
410.014	77.38
410.238	89.38
410.461	88.38
410.685	80.38
410.908	66.38
411.132	87.38
411.355	80.38
411.578	74.38
411.802	80.38
412.025	89.38
412.249	78.38
412.472	65.38
412.695	70.38
412.919	88.38
413.142	85.38
413.365	75.38
413.589	87.38
413.812	64.38
414.035	83.38
414.258	75.38
414.482	91.38
414.705	88.38
414.928	79.38
415.151	91.38
415.374	78.38
415.597	73.38
415.821	71.38
416.044	81.38
416.267	83.38
416.49	69.38
416.713	87.38
416.936	92.38
417.159	83.38
417.382	76.38
417.605	74.38
417.828	79.38
418.051	82.38
418.274	73.38
418.497	70.38
418.72	67.38
418.943	91.38
419.166	83.38
419.389	80.38
419.611	73.38
419.834	79.38
420.057	74.38
420.28	91.38
420.503	84.38
420.726	73.38
420.948	79.38
421.171	77.38
421.394	73.38
421.617	93.38
421.839	92.38
422.062	75.38
422.285	115.38
422.507	135.38
422.73	223.38
422.953	194.38
423.175	101.38
423.398	93.38
423.621	77.38
423.843	79.38
424.066	83.38
424.288	74.38
424.511	77.38
424.733	66.38
424.956	91.38
425.178	91.38
425.401	79.38
425.623	69.38
425.846	83.38
426.068	83.38
426.291	80.38
426.513	91.38
426.735	72.38
426.958	77.38
427.18	74.38
427.402	79.38
427.625	85.38
427.847	79.38
428.069	88.38
428.292	97.38
428.514	82.38
428.736	99.38
428.958	94.38
429.181	96.38
429.403	86.38
429.625	79.38
429.847	70.38
430.069	98.38
430.292	111.38
430.514	107.38
430.736	103.38
430.958	99.38
431.18	78.38
431.402	91.38
431.624	89.38
431.846	76.38
432.068	112.38
432.29	87.38
432.512	78.38
432.734	73.38
432.956	85.38
433.178	91.38
433.4	90.38
433.622	82.38
433.844	94.38
434.066	77.38
434.287	63.38
434.509	92.38
434.731	85.38
434.953	83.38
435.175	73.38
435.397	77.38
435.618	85.38
435.84	90.38
436.062	83.38
436.284	81.38
436.505	85.38
436.727	87.38
436.949	88.38
437.17	84.38
437.392	80.38
437.614	71.38
437.835	77.38
438.057	77.38
438.278	71.38
438.5	88.38
438.721	78.38
438.943	69.38
439.165	81.38
439.386	81.38
439.608	90.38
439.829	74.38
440.05	84.38
440.272	69.38
440.493	83.38
440.715	98.38
440.936	83.38
441.158	84.38
441.379	81.38
441.6	80.38
441.822	77.38
442.043	80.38
442.264	82.38
442.486	87.38
442.707	104.38
442.928	87.38
443.149	96.38
443.371	107.38
443.592	135.38
443.813	110.38
444.034	79.38
444.255	89.38
444.476	81.38
444.698	90.38
444.919	78.38
445.14	169.38
445.361	146.38
445.582	140.38
445.803	111.38
446.024	93.38
446.245	82.38
446.466	77.38
446.687	95.38
446.908	84.38
447.129	90.38
447.35	87.38
447.571	87.38
447.792	78.38
448.013	83.38
448.234	83.38
448.455	91.38
448.675	87.38
448.896	85.38
449.117	84.38
449.338	80.38
449.559	98.38
449.779	82.38
450	82.38
450.221	81.38
450.442	77.38
450.662	84.38
450.883	83.38
451.104	84.38
451.324	91.38
451.545	77.38
451.766	78.38
451.986	83.38
452.207	89.38
452.428	91.38
452.648	83.38
452.869	90.38
453.089	75.38
453.31	98.38
453.53	78.38
453.751	77.38
453.971	89.38
454.192	87.38
454.412	74.38
454.633	76.38
454.853	80.38
455.073	79.38
455.294	97.38
455.514	73.38
455.734	66.38
455.955	87.38
456.175	83.38
456.395	75.38
456.616	87.38
456.836	65.38
457.056	77.38
457.276	85.38
457.497	67.38
457.717	79.38
457.937	72.38
458.157	91.38
458.377	74.38
458.598	80.38
458.818	85.38
459.038	78.38
459.258	71.38
459.478	85.38
459.698	77.38
459.918	88.38
460.138	76.38
460.358	89.38
460.578	98.38
460.798	88.38
461.018	100.38
461.238	80.38
461.458	73.38
461.678	79.38
461.898	75.38
462.118	78.38
462.338	80.38
462.558	67.38
462.777	73.38
462.997	96.38
463.217	64.38
463.437	76.38
463.657	84.38
463.876	78.38
464.096	73.38
464.316	79.38
464.536	61.38
464.755	69.38
464.975	84.38
465.195	79.38
465.414	59.38
465.634	83.38
465.854	86.38
466.073	82.38
466.293	65.38
466.512	84.38
466.732	91.38
466.951	81.38
467.171	97.38
467.391	87.38
467.61	91.38
467.829	77.38
468.049	74.38
468.268	85.38
468.488	82.38
468.707	80.38
468.927	82.38
469.146	84.38
469.365	83.38
469.585	82.38
469.804	80.38
470.023	77.38
470.243	88.38
470.462	90.38
470.681	86.38
470.901	73.38
471.12	85.38
471.339	70.38
471.558	81.38
471.777	83.38
471.997	78.38
472.216	84.38
472.435	79.38
472.654	85.38
472.873	66.38
473.092	83.38
473.311	78.38
473.53	81.38
473.749	92.38
473.968	77.38
474.187	91.38
474.406	86.38
474.625	79.38
474.844	75.38
475.063	71.38
475.282	67.38
475.501	82.38
475.72	84.38
475.939	78.38
476.158	63.38
476.377	81.38
476.596	67.38
476.814	79.38
477.033	78.38
477.252	79.38
477.471	89.38
477.69	70.38
477.908	83.38
478.127	85.38
478.346	87.38
478.564	82.38
478.783	69.38
479.002	83.38
479.22	87.38
479.439	89.38
479.658	95.38
479.876	77.38
480.095	69.38
480.313	83.38
480.532	86.38
480.751	78.38
480.969	94.38
481.188	84.38
481.406	96.38
481.624	88.38
481.843	92.38
482.061	90.38
482.28	80.38
482.498	79.38
482.717	93.38
482.935	83.38
483.153	89.38
483.372	78.38
483.59	74.38
483.808	92.38
484.027	96.38
484.245	74.38
484.463	83.38
484.681	85.38
484.9	87.38
485.118	79.38
485.336	79.38
485.554	83.38
485.772	77.38
485.99	79.38
486.209	81.38
486.427	76.38
486.645	87.38
486.863	80.38
487.081	90.38
487.299	92.38
487.517	71.38
487.735	88.38
487.953	89.38
488.171	84.38
488.389	90.38
488.607	87.38
488.825	77.38
489.043	71.38
489.261	89.38
489.479	81.38
489.696	80.38
489.914	78.38
490.132	78.38
490.35	74.38
490.568	86.38
490.786	73.38
491.003	85.38
491.221	87.38
491.439	83.38
491.657	91.38
491.874	89.38
492.092	87.38
492.31	83.38
492.527	85.38
492.745	84.38
492.963	85.38
493.18	87.38
493.398	90.38
493.615	82.38
493.833	85.38
494.05	71.38
494.268	90.38
494.485	88.38
494.703	78.38
494.92	83.38
495.138	76.38
495.355	69.38
495.573	94.38
495.79	84.38
496.008	73.38
496.225	88.38
496.442	72.38
496.66	93.38
496.877	95.38
497.094	82.38
497.312	83.38
497.529	73.38
497.746	86.38
497.963	92.38
498.181	96.38
498.398	82.38
498.615	83.38
498.832	70.38
499.049	76.38
499.267	93.38
499.484	91.38
499.701	85.38
499.918	99.38
500.135	89.38
500.352	83.38
500.569	86.38
500.786	99.38
501.003	87.38
501.22	78.38
501.437	79.38
501.654	84.38
501.871	71.38
502.088	79.38
502.305	95.38
502.522	86.38
502.739	83.38
502.956	97.38
503.172	96.38
503.389	79.38
503.606	80.38
503.823	85.38
504.04	103.38
504.256	104.38
504.473	86.38
504.69	77.38
504.907	85.38
505.123	69.38
505.34	81.38
505.557	83.38
505.773	86.38
505.99	107.38
506.207	97.38
506.423	85.38
506.64	81.38
506.856	82.38
507.073	84.38
507.289	84.38
507.506	91.38
507.722	79.38
507.939	85.38
508.155	83.38
508.372	71.38
508.588	89.38
508.805	78.38
509.021	78.38
509.238	96.38
509.454	91.38
509.67	80.38
509.887	73.38
510.103	83.38
510.319	87.38
510.536	88.38
510.752	72.38
510.968	75.38
511.184	89.38
511.401	75.38
511.617	80.38
511.833	75.38
512.049	70.38
512.265	71.38
512.481	80.38
512.698	71.38
512.914	93.38
513.13	71.38
513.346	63.38
513.562	84.38
513.778	96.38
513.994	83.38
514.21	82.38
514.426	79.38
514.642	80.38
514.858	88.38
515.074	84.38
515.29	79.38
515.506	78.38
515.721	95.38
515.937	92.38
516.153	89.38
516.369	81.38
516.585	85.38
516.801	95.38
517.016	93.38
517.232	83.38
517.448	81.38
517.664	72.38
517.879	66.38
518.095	89.38
518.311	72.38
518.527	84.38
518.742	80.38
518.958	103.38
519.173	102.38
519.389	72.38
519.605	88.38
519.82	73.38
