Data from 237_2_HRD10591_00008.txt Node
Date: Mon Jan 19 14:11:34 EST 2026
User: Yrep
Spectrometer: HR+D1059
Trigger mode: 1
Integration Time (sec): 1.000000E-1
Scans to average: 1
Electric dark correction enabled: true
Nonlinearity correction enabled: false
Boxcar width: 0
XAxis mode: Wavelengths
Number of Pixels in Spectrum: 2048
>>>>>Begin Spectral Data<<<<<
223.165	-15
223.4	-15
223.635	-15
223.869	-27
224.104	-25
224.338	-18
224.573	-29
224.808	-9
225.042	7
225.277	-10
225.511	0
225.746	8
225.98	13
226.215	13
226.449	27
226.683	13
226.918	25
227.152	27
227.387	32
227.621	60
227.856	59
228.09	47
228.324	56
228.559	67
228.793	64
229.027	74
229.262	70
229.496	78
229.73	78
229.964	70
230.199	84
230.433	77
230.667	76
230.901	80
231.136	95
231.37	69
231.604	88
231.838	87
232.072	91
232.306	76
232.541	85
232.775	80
233.009	71
233.243	93
233.477	88
233.711	99
233.945	99
234.179	71
234.413	86
234.647	95
234.881	94
235.115	88
235.349	100
235.583	98
235.817	81
236.051	95
236.285	85
236.519	83
236.753	86
236.987	82
237.221	85
237.455	73
237.689	77
237.922	75
238.156	91
238.39	82
238.624	74
238.858	88
239.091	67
239.325	70
239.559	82
239.793	87
240.027	82
240.26	74
240.494	81
240.728	81
240.961	79
241.195	89
241.429	67
241.662	79
241.896	68
242.13	93
242.363	77
242.597	87
242.83	86
243.064	75
243.298	88
243.531	84
243.765	76
243.998	74
244.232	73
244.465	80
244.699	77
244.932	78
245.166	93
245.399	81
245.633	71
245.866	71
246.099	79
246.333	76
246.566	91
246.8	71
247.033	79
247.266	75
247.5	82
247.733	82
247.966	84
248.2	71
248.433	77
248.666	71
248.899	89
249.133	87
249.366	81
249.599	77
249.832	90
250.066	75
250.299	89
250.532	77
250.765	78
250.998	93
251.231	76
251.465	69
251.698	81
251.931	70
252.164	73
252.397	89
252.63	78
252.863	85
253.096	98
253.329	94
253.562	69
253.795	87
254.028	87
254.261	94
254.494	77
254.727	94
254.96	72
255.193	84
255.426	90
255.659	95
255.892	82
256.124	76
256.357	80
256.59	88
256.823	79
257.056	93
257.289	93
257.521	97
257.754	67
257.987	73
258.22	81
258.452	92
258.685	81
258.918	85
259.151	93
259.383	79
259.616	93
259.849	92
260.081	76
260.314	95
260.547	78
260.779	88
261.012	91
261.244	83
261.477	89
261.71	85
261.942	75
262.175	89
262.407	89
262.64	78
262.872	87
263.105	85
263.337	85
263.57	78
263.802	89
264.035	88
264.267	97
264.499	95
264.732	95
264.964	91
265.197	82
265.429	87
265.661	83
265.894	94
266.126	93
266.358	89
266.591	100
266.823	86
267.055	84
267.287	91
267.52	88
267.752	91
267.984	89
268.216	99
268.448	112
268.681	81
268.913	98
269.145	92
269.377	77
269.609	89
269.841	87
270.073	83
270.306	85
270.538	98
270.77	86
271.002	88
271.234	88
271.466	101
271.698	91
271.93	81
272.162	82
272.394	71
272.626	86
272.858	89
273.09	92
273.322	102
273.553	88
273.785	103
274.017	88
274.249	89
274.481	88
274.713	72
274.945	83
275.176	87
275.408	94
275.64	78
275.872	90
276.104	83
276.335	95
276.567	73
276.799	68
277.031	82
277.262	86
277.494	79
277.726	81
277.957	77
278.189	79
278.421	100
278.652	79
278.884	85
279.115	95
279.347	91
279.579	92
279.81	91
280.042	61
280.273	73
280.505	95
280.736	93
280.968	80
281.199	82
281.431	81
281.662	101
281.894	97
282.125	77
282.356	89
282.588	79
282.819	93
283.051	73
283.282	87
283.513	87
283.745	98
283.976	94
284.207	72
284.439	85
284.67	87
284.901	94
285.132	93
285.364	91
285.595	85
285.826	88
286.057	80
286.288	79
286.52	89
286.751	85
286.982	79
287.213	97
287.444	85
287.675	81
287.906	88
288.138	92
288.369	86
288.6	82
288.831	78
289.062	91
289.293	76
289.524	90
289.755	92
289.986	87
290.217	86
290.448	89
290.679	104
290.91	91
291.141	86
291.371	91
291.602	90
291.833	88
292.064	62
292.295	82
292.526	94
292.757	81
292.987	88
293.218	90
293.449	92
293.68	95
293.91	88
294.141	95
294.372	73
294.603	98
294.833	84
295.064	88
295.295	83
295.525	95
295.756	126
295.987	79
296.217	93
296.448	65
296.679	82
296.909	90
297.14	89
297.37	91
297.601	96
297.831	78
298.062	103
298.292	87
298.523	85
298.753	82
298.984	93
299.214	93
299.445	81
299.675	88
299.905	96
300.136	88
300.366	99
300.597	85
300.827	89
301.057	96
301.288	81
301.518	95
301.748	81
301.979	116
302.209	89
302.439	81
302.669	85
302.9	68
303.13	95
303.36	100
303.59	94
303.82	101
304.051	95
304.281	101
304.511	82
304.741	87
304.971	89
305.201	92
305.431	96
305.661	93
305.891	100
306.121	80
306.352	92
306.582	90
306.812	77
307.042	87
307.272	80
307.502	87
307.731	87
307.961	94
308.191	91
308.421	100
308.651	99
308.881	94
309.111	93
309.341	100
309.571	93
309.8	92
310.03	91
310.26	85
310.49	92
310.72	90
310.949	88
311.179	82
311.409	89
311.639	90
311.868	87
312.098	94
312.328	86
312.557	97
312.787	98
313.017	94
313.246	87
313.476	79
313.706	91
313.935	88
314.165	91
314.394	83
314.624	98
314.853	96
315.083	83
315.312	77
315.542	85
315.771	91
316.001	82
316.23	84
316.46	81
316.689	72
316.919	102
317.148	72
317.377	89
317.607	104
317.836	74
318.065	90
318.295	74
318.524	87
318.753	85
318.983	83
319.212	104
319.441	109
319.67	91
319.9	74
320.129	96
320.358	91
320.587	98
320.816	69
321.046	91
321.275	93
321.504	90
321.733	96
321.962	96
322.191	85
322.42	86
322.649	88
322.878	101
323.108	95
323.337	92
323.566	90
323.795	82
324.024	95
324.253	71
324.482	103
324.71	80
324.939	88
325.168	71
325.397	89
325.626	91
325.855	96
326.084	76
326.313	95
326.542	83
326.77	79
326.999	90
327.228	99
327.457	90
327.686	97
327.914	99
328.143	101
328.372	96
328.6	96
328.829	91
329.058	82
329.287	81
329.515	83
329.744	103
329.972	91
330.201	84
330.43	91
330.658	69
330.887	80
331.115	93
331.344	92
331.572	100
331.801	113
332.03	97
332.258	71
332.486	86
332.715	95
332.943	82
333.172	89
333.4	95
333.629	75
333.857	93
334.085	95
334.314	99
334.542	109
334.771	95
334.999	97
335.227	89
335.455	90
335.684	102
335.912	83
336.14	99
336.369	100
336.597	100
336.825	96
337.053	87
337.281	92
337.51	90
337.738	95
337.966	95
338.194	86
338.422	98
338.65	87
338.878	93
339.106	85
339.334	87
339.562	95
339.79	99
340.018	88
340.246	88
340.474	89
340.702	91
340.93	89
341.158	85
341.386	91
341.614	92
341.842	92
342.07	94
342.298	90
342.526	93
342.754	90
342.981	82
343.209	77
343.437	105
343.665	88
343.893	97
344.12	103
344.348	88
344.576	113
344.804	100
345.031	93
345.259	92
345.487	99
345.714	88
345.942	106
346.17	89
346.397	87
346.625	84
346.853	95
347.08	82
347.308	93
347.535	103
347.763	88
347.99	87
348.218	93
348.445	78
348.673	100
348.9	81
349.128	86
349.355	75
349.583	89
349.81	89
350.037	94
350.265	96
350.492	105
350.72	102
350.947	82
351.174	84
351.402	103
351.629	89
351.856	94
352.083	91
352.311	85
352.538	77
352.765	87
352.992	93
353.22	92
353.447	91
353.674	95
353.901	95
354.128	90
354.355	77
354.583	100
354.81	93
355.037	90
355.264	85
355.491	90
355.718	96
355.945	89
356.172	81
356.399	105
356.626	94
356.853	92
357.08	101
357.307	81
357.534	96
357.761	88
357.988	100
358.215	98
358.441	86
358.668	92
358.895	99
359.122	91
359.349	80
359.576	97
359.802	78
360.029	82
360.256	90
360.483	79
360.709	87
360.936	101
361.163	92
361.39	91
361.616	91
361.843	94
362.07	94
362.296	86
362.523	110
362.749	95
362.976	109
363.203	107
363.429	88
363.656	90
363.882	87
364.109	110
364.335	92
364.562	113
364.788	109
365.015	97
365.241	80
365.468	77
365.694	89
365.92	87
366.147	82
366.373	80
366.599	98
366.826	75
367.052	93
367.278	94
367.505	97
367.731	106
367.957	91
368.184	103
368.41	89
368.636	77
368.862	91
369.089	91
369.315	86
369.541	81
369.767	92
369.993	73
370.219	80
370.445	103
370.672	88
370.898	97
371.124	80
371.35	100
371.576	86
371.802	105
372.028	99
372.254	103
372.48	80
372.706	98
372.932	102
373.158	101
373.384	99
373.61	107
373.835	110
374.061	103
374.287	98
374.513	99
374.739	98
374.965	104
375.191	93
375.416	105
375.642	97
375.868	96
376.094	96
376.319	96
376.545	86
376.771	97
376.997	95
377.222	85
377.448	95
377.674	93
377.899	90
378.125	74
378.35	93
378.576	85
378.802	88
379.027	81
379.253	105
379.478	92
379.704	104
379.929	96
380.155	95
380.38	87
380.606	86
380.831	99
381.057	95
381.282	90
381.507	98
381.733	106
381.958	99
382.184	75
382.409	105
382.634	106
382.86	117
383.085	100
383.31	98
383.535	100
383.761	110
383.986	95
384.211	89
384.436	74
384.662	95
384.887	95
385.112	91
385.337	97
385.562	95
385.787	98
386.013	93
386.238	95
386.463	91
386.688	99
386.913	94
387.138	94
387.363	89
387.588	96
387.813	90
388.038	93
388.263	85
388.488	98
388.713	103
388.938	93
389.163	99
389.387	80
389.612	108
389.837	96
390.062	84
390.287	86
390.512	95
390.736	77
390.961	82
391.186	87
391.411	77
391.636	91
391.86	86
392.085	98
392.31	98
392.534	95
392.759	107
392.984	140
393.208	224
393.433	255
393.658	230
393.882	115
394.107	104
394.331	121
394.556	113
394.78	104
395.005	100
395.229	85
395.454	112
395.678	91
395.903	112
396.127	133
396.352	141
396.576	152
396.801	205
397.025	241
397.249	152
397.474	108
397.698	88
397.922	87
398.147	96
398.371	73
398.595	82
398.82	77
399.044	85
399.268	77
399.492	99
399.717	94
399.941	87
400.165	90
400.389	85
400.613	74
400.837	79
401.062	81
401.286	90
401.51	87
401.734	93
401.958	81
402.182	81
402.406	92
402.63	91
402.854	91
403.078	101
403.302	95
403.526	96
403.75	82
403.974	97
404.198	91
404.422	87
404.645	89
404.869	96
405.093	94
405.317	89
405.541	93
405.765	79
405.988	91
406.212	78
406.436	100
406.66	91
406.883	94
407.107	95
407.331	100
407.555	97
407.778	101
408.002	125
408.226	89
408.449	87
408.673	81
408.896	82
409.12	80
409.344	87
409.567	93
409.791	93
410.014	86
410.238	72
410.461	94
410.685	91
410.908	84
411.132	90
411.355	86
411.578	96
411.802	95
412.025	90
412.249	100
412.472	91
412.695	91
412.919	70
413.142	72
413.365	78
413.589	78
413.812	89
414.035	104
414.258	85
414.482	90
414.705	86
414.928	97
415.151	80
415.374	82
415.597	87
415.821	92
416.044	94
416.267	77
416.49	78
416.713	76
416.936	67
417.159	95
417.382	75
417.605	96
417.828	90
418.051	86
418.274	95
418.497	87
418.72	89
418.943	96
419.166	93
419.389	80
419.611	79
419.834	88
420.057	87
420.28	80
420.503	97
420.726	81
420.948	82
421.171	87
421.394	97
421.617	100
421.839	105
422.062	133
422.285	161
422.507	208
422.73	351
422.953	300
423.175	163
423.398	111
423.621	125
423.843	104
424.066	99
424.288	92
424.511	93
424.733	93
424.956	93
425.178	92
425.401	92
425.623	98
425.846	88
426.068	80
426.291	103
426.513	91
426.735	101
426.958	93
427.18	88
427.402	112
427.625	95
427.847	76
428.069	94
428.292	129
428.514	128
428.736	97
428.958	130
429.181	142
429.403	91
429.625	111
429.847	104
430.069	149
430.292	160
430.514	151
430.736	109
430.958	126
431.18	102
431.402	99
431.624	88
431.846	99
432.068	109
432.29	93
432.512	89
432.734	92
432.956	83
433.178	88
433.4	91
433.622	91
433.844	88
434.066	89
434.287	86
434.509	93
434.731	76
434.953	85
435.175	80
435.397	96
435.618	87
435.84	87
436.062	88
436.284	94
436.505	78
436.727	77
436.949	81
437.17	84
437.392	93
437.614	81
437.835	87
438.057	92
438.278	93
438.5	89
438.721	98
438.943	92
439.165	89
439.386	79
439.608	90
439.829	96
440.05	72
440.272	88
440.493	92
440.715	95
440.936	91
441.158	82
441.379	85
441.6	96
441.822	99
442.043	93
442.264	98
442.486	110
442.707	155
442.928	115
443.149	108
443.371	129
443.592	203
443.813	174
444.034	117
444.255	104
444.476	81
444.698	91
444.919	97
445.14	202
445.361	164
445.582	236
445.803	202
446.024	109
446.245	89
446.466	87
446.687	86
446.908	82
447.129	80
447.35	71
447.571	89
447.792	82
448.013	98
448.234	85
448.455	79
448.675	91
448.896	82
449.117	87
449.338	77
449.559	80
449.779	84
450	88
450.221	91
450.442	103
450.662	85
450.883	96
451.104	89
451.324	88
451.545	93
451.766	88
451.986	101
452.207	75
452.428	92
452.648	108
452.869	85
453.089	77
453.31	103
453.53	105
453.751	102
453.971	78
454.192	79
454.412	85
454.633	88
454.853	81
455.073	89
455.294	82
455.514	89
455.734	94
455.955	80
456.175	94
456.395	87
456.616	85
456.836	102
457.056	85
457.276	87
457.497	90
457.717	98
457.937	102
458.157	115
458.377	101
458.598	93
458.818	108
459.038	86
459.258	70
459.478	85
459.698	88
459.918	72
460.138	87
460.358	91
460.578	95
460.798	108
461.018	106
461.238	89
461.458	96
461.678	89
461.898	86
462.118	81
462.338	79
462.558	93
462.777	85
462.997	88
463.217	71
463.437	81
463.657	88
463.876	81
464.096	74
464.316	72
464.536	75
464.755	91
464.975	80
465.195	87
465.414	93
465.634	83
465.854	79
466.073	97
466.293	73
466.512	81
466.732	86
466.951	79
467.171	88
467.391	105
467.61	80
467.829	84
468.049	91
468.268	72
468.488	80
468.707	95
468.927	81
469.146	77
469.365	89
469.585	94
469.804	97
470.023	81
470.243	86
470.462	85
470.681	93
470.901	84
471.12	108
471.339	90
471.558	88
471.777	101
471.997	77
472.216	87
472.435	90
472.654	91
472.873	93
473.092	71
473.311	76
473.53	78
473.749	71
473.968	89
474.187	87
474.406	88
474.625	93
474.844	76
475.063	91
475.282	84
475.501	80
475.72	96
475.939	94
476.158	86
476.377	70
476.596	79
476.814	100
477.033	93
477.252	77
477.471	82
477.69	81
477.908	95
478.127	79
478.346	84
478.564	91
478.783	66
479.002	95
479.22	102
479.439	83
479.658	78
479.876	87
480.095	82
480.313	91
480.532	92
480.751	92
480.969	85
481.188	99
481.406	102
481.624	100
481.843	84
482.061	87
482.28	106
482.498	88
482.717	89
482.935	87
483.153	92
483.372	92
483.59	104
483.808	91
484.027	77
484.245	93
484.463	78
484.681	106
484.9	96
485.118	89
485.336	80
485.554	79
485.772	78
485.99	92
486.209	95
486.427	92
486.645	80
486.863	101
487.081	70
487.299	81
487.517	82
487.735	115
487.953	144
488.171	134
488.389	106
488.607	92
488.825	92
489.043	90
489.261	86
489.479	96
489.696	98
489.914	93
490.132	89
490.35	92
490.568	80
490.786	100
491.003	79
491.221	91
491.439	79
491.657	89
491.874	85
492.092	79
492.31	91
492.527	78
492.745	101
492.963	96
493.18	87
493.398	83
493.615	82
493.833	81
494.05	91
494.268	90
494.485	82
494.703	110
494.92	91
495.138	84
495.355	94
495.573	103
495.79	83
496.008	106
496.225	99
496.442	91
496.66	93
496.877	79
497.094	102
497.312	96
497.529	94
497.746	88
497.963	80
498.181	98
498.398	93
498.615	102
498.832	88
499.049	99
499.267	99
499.484	92
499.701	93
499.918	97
500.135	111
500.352	86
500.569	101
500.786	93
501.003	104
501.22	96
501.437	96
501.654	95
501.871	85
502.088	91
502.305	77
502.522	76
502.739	90
502.956	95
503.172	100
503.389	95
503.606	99
503.823	88
504.04	114
504.256	115
504.473	113
504.69	91
504.907	93
505.123	95
505.34	91
505.557	91
505.773	89
505.99	78
506.207	93
506.423	85
506.64	92
506.856	89
507.073	88
507.289	86
507.506	75
507.722	103
507.939	89
508.155	82
508.372	101
508.588	89
508.805	97
509.021	100
509.238	87
509.454	83
509.67	83
509.887	85
510.103	104
510.319	92
510.536	92
510.752	96
510.968	86
511.184	81
511.401	86
511.617	83
511.833	89
512.049	98
512.265	102
512.481	100
512.698	91
512.914	92
513.13	79
513.346	85
513.562	89
513.778	96
513.994	89
514.21	85
514.426	93
514.642	102
514.858	91
515.074	75
515.29	95
515.506	91
515.721	90
515.937	96
516.153	95
516.369	101
516.585	101
516.801	95
517.016	96
517.232	93
517.448	97
517.664	90
517.879	101
518.095	87
518.311	85
518.527	122
518.742	104
518.958	123
519.173	143
519.389	96
519.605	104
519.82	104
520.036	82
520.251	95
520.467	94
520.682	101
520.898	85
521.113	99
521.329	83
521.544	95
521.76	93
521.975	82
522.19	91
522.406	92
522.621	101
522.836	78
523.052	90
523.267	86
523.482	93
523.698	92
523.913	99
524.128	77
524.343	84
524.559	99
524.774	90
524.989	90
525.204	99
525.419	94
525.634	94
525.849	95
526.064	125
526.28	180
526.495	216
526.71	239
526.925	181
527.14	217
527.355	208
527.57	101
527.785	96
527.999	91
528.214	95
528.429	93
528.644	103
528.859	92
529.074	103
529.289	86
529.503	77
529.718	82
529.933	89
530.148	87
530.363	98
530.577	97
530.792	75
531.007	81
531.221	89
531.436	91
531.651	95
531.865	91
532.08	98
532.295	105
532.509	90
532.724	95
532.938	83
533.153	94
533.367	91
533.582	91
533.796	94
534.011	109
534.225	89
534.44	107
534.654	103
534.868	103
535.083	137
535.297	139
535.511	106
535.726	100
535.94	89
536.154	96
536.369	109
536.583	105
536.797	97
537.011	104
537.225	103
537.44	104
537.654	93
537.868	112
538.082	97
538.296	90
538.51	105
538.724	104
538.938	93
539.153	107
539.367	94
539.581	111
539.795	92
540.009	103
540.222	97
540.436	92
540.65	76
540.864	116
541.078	118
541.292	115
541.506	99
541.72	95
541.934	89
542.147	100
542.361	106
542.575	105
542.789	107
543.002	100
543.216	92
543.43	93
543.644	109
543.857	102
544.071	98
544.285	101
544.498	103
544.712	117
544.925	88
545.139	87
545.352	92
545.566	93
545.779	101
545.993	111
546.206	98
546.42	104
546.633	109
546.847	123
547.06	115
547.274	129
547.487	158
547.7	144
547.914	158
548.127	155
548.34	146
548.554	157
548.767	135
548.98	142
549.193	149
549.407	135
549.62	142
549.833	175
550.046	172
550.259	171
550.473	160
550.686	166
550.899	175
551.112	199
551.325	232
551.538	224
551.751	207
551.964	195
552.177	188
552.39	202
552.603	195
552.816	188
553.029	172
553.242	184
553.455	192
553.667	198
553.88	202
554.093	189
554.306	196
554.519	199
554.732	196
554.944	188
555.157	175
555.37	170
555.583	172
555.795	173
556.008	158
556.221	156
556.433	136
556.646	151
556.859	154
557.071	123
557.284	140
557.496	129
557.709	139
557.921	108
558.134	134
558.346	154
558.559	164
558.771	147
558.984	245
559.196	279
559.409	176
559.621	241
559.833	193
560.046	233
560.258	192
560.47	190
560.683	129
560.895	92
561.107	105
561.32	112
561.532	95
561.744	92
561.956	105
562.168	105
562.381	94
562.593	94
562.805	103
563.017	100
563.229	95
563.441	92
563.653	102
563.865	81
564.077	89
564.289	103
564.501	111
564.713	100
564.925	101
565.137	100
565.349	100
565.561	114
565.773	95
565.985	102
566.197	103
566.408	107
566.62	102
566.832	107
567.044	89
567.255	84
567.467	104
567.679	101
567.891	93
568.102	99
568.314	95
568.526	96
568.737	104
568.949	113
569.161	105
569.372	80
569.584	105
569.795	93
570.007	102
570.218	98
570.43	103
570.641	99
570.853	97
571.064	97
571.276	85
571.487	121
571.698	97
571.91	103
572.121	94
572.333	102
572.544	86
572.755	103
572.966	100
573.178	103
573.389	105
573.6	82
573.811	103
574.023	95
574.234	94
574.445	90
574.656	94
574.867	87
575.078	94
575.289	106
575.501	97
575.712	98
575.923	103
576.134	95
576.345	95
576.556	99
576.767	81
576.978	81
577.188	96
577.399	97
577.61	89
577.821	100
578.032	93
578.243	102
578.454	115
578.665	77
578.875	91
579.086	103
579.297	100
579.508	111
579.718	101
579.929	102
580.14	89
580.35	92
580.561	112
580.772	95
580.982	95
581.193	87
581.403	99
581.614	95
581.825	77
582.035	90
582.246	90
582.456	89
582.667	84
582.877	100
583.087	96
583.298	93
583.508	100
583.719	93
583.929	97
584.139	100
584.35	101
584.56	90
584.77	94
