Data from 237_2_HRD10591_00039.txt Node
Date: Mon Jan 19 14:11:50 EST 2026
User: Yrep
Spectrometer: HR+D1059
Trigger mode: 1
Integration Time (sec): 1.000000E-1
Scans to average: 1
Electric dark correction enabled: true
Nonlinearity correction enabled: false
Boxcar width: 0
XAxis mode: Wavelengths
Number of Pixels in Spectrum: 2048
>>>>>Begin Spectral Data<<<<<
223.165	-15
223.4	-15
223.635	-15
223.869	-21
224.104	-9
224.338	-16
224.573	-13
224.808	-11
225.042	-8
225.277	-17
225.511	8
225.746	-6
225.98	1
226.215	18
226.449	20
226.683	10
226.918	19
227.152	40
227.387	38
227.621	31
227.856	51
228.09	60
228.324	43
228.559	52
228.793	68
229.027	63
229.262	69
229.496	71
229.73	78
229.964	75
230.199	68
230.433	85
230.667	91
230.901	87
231.136	94
231.37	84
231.604	75
231.838	75
232.072	65
232.306	77
232.541	88
232.775	99
233.009	90
233.243	95
233.477	79
233.711	79
233.945	99
234.179	82
234.413	70
234.647	68
234.881	71
235.115	72
235.349	92
235.583	83
235.817	72
236.051	62
236.285	71
236.519	75
236.753	88
236.987	70
237.221	71
237.455	73
237.689	64
237.922	82
238.156	62
238.39	63
238.624	74
238.858	66
239.091	66
239.325	81
239.559	74
239.793	90
240.027	76
240.26	71
240.494	79
240.728	73
240.961	80
241.195	78
241.429	81
241.662	66
241.896	73
242.13	67
242.363	74
242.597	76
242.83	80
243.064	72
243.298	83
243.531	97
243.765	67
243.998	85
244.232	81
244.465	83
244.699	73
244.932	86
245.166	82
245.399	85
245.633	82
245.866	59
246.099	68
246.333	77
246.566	62
246.8	72
247.033	79
247.266	68
247.5	68
247.733	75
247.966	73
248.2	65
248.433	82
248.666	74
248.899	83
249.133	74
249.366	82
249.599	76
249.832	73
250.066	78
250.299	78
250.532	69
250.765	76
250.998	81
251.231	83
251.465	83
251.698	81
251.931	84
252.164	72
252.397	82
252.63	82
252.863	78
253.096	78
253.329	79
253.562	67
253.795	81
254.028	66
254.261	75
254.494	82
254.727	86
254.96	75
255.193	98
255.426	78
255.659	76
255.892	73
256.124	80
256.357	72
256.59	72
256.823	79
257.056	70
257.289	91
257.521	78
257.754	81
257.987	75
258.22	82
258.452	88
258.685	68
258.918	83
259.151	79
259.383	92
259.616	87
259.849	65
260.081	78
260.314	85
260.547	66
260.779	79
261.012	76
261.244	80
261.477	61
261.71	76
261.942	69
262.175	67
262.407	74
262.64	68
262.872	67
263.105	78
263.337	92
263.57	73
263.802	77
264.035	75
264.267	89
264.499	84
264.732	82
264.964	83
265.197	82
265.429	94
265.661	84
265.894	75
266.126	88
266.358	86
266.591	90
266.823	75
267.055	86
267.287	76
267.52	90
267.752	88
267.984	80
268.216	67
268.448	80
268.681	74
268.913	94
269.145	84
269.377	82
269.609	84
269.841	85
270.073	84
270.306	87
270.538	73
270.77	79
271.002	75
271.234	92
271.466	83
271.698	74
271.93	73
272.162	88
272.394	89
272.626	70
272.858	75
273.09	72
273.322	70
273.553	73
273.785	87
274.017	71
274.249	79
274.481	78
274.713	74
274.945	93
275.176	81
275.408	94
275.64	85
275.872	79
276.104	81
276.335	84
276.567	70
276.799	83
277.031	85
277.262	99
277.494	87
277.726	85
277.957	68
278.189	76
278.421	70
278.652	76
278.884	86
279.115	77
279.347	91
279.579	82
279.81	81
280.042	89
280.273	89
280.505	96
280.736	77
280.968	82
281.199	83
281.431	90
281.662	87
281.894	87
282.125	88
282.356	67
282.588	84
282.819	98
283.051	90
283.282	88
283.513	96
283.745	80
283.976	97
284.207	95
284.439	83
284.67	76
284.901	75
285.132	84
285.364	84
285.595	88
285.826	85
286.057	97
286.288	87
286.52	79
286.751	88
286.982	78
287.213	77
287.444	91
287.675	84
287.906	86
288.138	85
288.369	86
288.6	92
288.831	80
289.062	78
289.293	77
289.524	79
289.755	81
289.986	91
290.217	71
290.448	92
290.679	82
290.91	104
291.141	102
291.371	86
291.602	81
291.833	88
292.064	77
292.295	68
292.526	73
292.757	89
292.987	94
293.218	82
293.449	89
293.68	74
293.91	84
294.141	78
294.372	81
294.603	112
294.833	87
295.064	82
295.295	76
295.525	95
295.756	89
295.987	91
296.217	84
296.448	76
296.679	99
296.909	94
297.14	107
297.37	109
297.601	73
297.831	75
298.062	82
298.292	98
298.523	83
298.753	78
298.984	84
299.214	73
299.445	92
299.675	81
299.905	96
300.136	104
300.366	91
300.597	91
300.827	100
301.057	94
301.288	92
301.518	84
301.748	68
301.979	105
302.209	88
302.439	105
302.669	90
302.9	79
303.13	78
303.36	89
303.59	92
303.82	88
304.051	88
304.281	89
304.511	72
304.741	88
304.971	88
305.201	82
305.431	84
305.661	94
305.891	86
306.121	80
306.352	92
306.582	91
306.812	91
307.042	84
307.272	90
307.502	73
307.731	90
307.961	84
308.191	87
308.421	99
308.651	87
308.881	90
309.111	87
309.341	113
309.571	106
309.8	92
310.03	84
310.26	96
310.49	90
310.72	86
310.949	75
311.179	80
311.409	94
311.639	90
311.868	94
312.098	73
312.328	86
312.557	74
312.787	84
313.017	80
313.246	74
313.476	88
313.706	91
313.935	80
314.165	72
314.394	88
314.624	103
314.853	75
315.083	85
315.312	86
315.542	89
315.771	88
316.001	93
316.23	78
316.46	91
316.689	84
316.919	87
317.148	99
317.377	82
317.607	95
317.836	113
318.065	123
318.295	98
318.524	82
318.753	90
318.983	91
319.212	82
319.441	86
319.67	84
319.9	94
320.129	91
320.358	91
320.587	81
320.816	79
321.046	99
321.275	84
321.504	83
321.733	70
321.962	84
322.191	93
322.42	82
322.649	91
322.878	101
323.108	87
323.337	108
323.566	99
323.795	83
324.024	99
324.253	83
324.482	72
324.71	86
324.939	92
325.168	81
325.397	82
325.626	78
325.855	70
326.084	88
326.313	90
326.542	89
326.77	89
326.999	76
327.228	84
327.457	91
327.686	75
327.914	106
328.143	94
328.372	78
328.6	95
328.829	82
329.058	92
329.287	99
329.515	74
329.744	76
329.972	92
330.201	90
330.43	86
330.658	81
330.887	75
331.115	84
331.344	72
331.572	96
331.801	77
332.03	79
332.258	87
332.486	96
332.715	95
332.943	82
333.172	84
333.4	75
333.629	78
333.857	100
334.085	91
334.314	86
334.542	83
334.771	76
334.999	112
335.227	90
335.455	90
335.684	95
335.912	102
336.14	91
336.369	82
336.597	91
336.825	94
337.053	92
337.281	92
337.51	88
337.738	100
337.966	82
338.194	78
338.422	89
338.65	94
338.878	83
339.106	78
339.334	90
339.562	87
339.79	95
340.018	76
340.246	77
340.474	82
340.702	86
340.93	101
341.158	92
341.386	77
341.614	80
341.842	86
342.07	86
342.298	72
342.526	77
342.754	89
342.981	95
343.209	87
343.437	104
343.665	89
343.893	98
344.12	97
344.348	106
344.576	99
344.804	84
345.031	64
345.259	80
345.487	82
345.714	83
345.942	88
346.17	86
346.397	100
346.625	74
346.853	86
347.08	93
347.308	96
347.535	85
347.763	84
347.99	95
348.218	87
348.445	74
348.673	84
348.9	100
349.128	85
349.355	89
349.583	82
349.81	72
350.037	74
350.265	100
350.492	82
350.72	85
350.947	83
351.174	83
351.402	98
351.629	90
351.856	83
352.083	94
352.311	94
352.538	75
352.765	92
352.992	75
353.22	92
353.447	84
353.674	96
353.901	90
354.128	89
354.355	95
354.583	85
354.81	83
355.037	85
355.264	87
355.491	86
355.718	76
355.945	82
356.172	82
356.399	100
356.626	98
356.853	91
357.08	94
357.307	107
357.534	88
357.761	82
357.988	106
358.215	95
358.441	76
358.668	99
358.895	98
359.122	88
359.349	82
359.576	77
359.802	79
360.029	67
360.256	76
360.483	83
360.709	96
360.936	88
361.163	101
361.39	100
361.616	88
361.843	84
362.07	112
362.296	107
362.523	100
362.749	120
362.976	134
363.203	144
363.429	114
363.656	87
363.882	93
364.109	106
364.335	148
364.562	163
364.788	130
365.015	97
365.241	101
365.468	94
365.694	98
365.92	84
366.147	90
366.373	88
366.599	96
366.826	99
367.052	97
367.278	83
367.505	77
367.731	90
367.957	97
368.184	95
368.41	91
368.636	103
368.862	88
369.089	82
369.315	82
369.541	71
369.767	79
369.993	99
370.219	98
370.445	86
370.672	90
370.898	85
371.124	90
371.35	75
371.576	95
371.802	95
372.028	103
372.254	111
372.48	89
372.706	95
372.932	92
373.158	98
373.384	110
373.61	128
373.835	124
374.061	98
374.287	87
374.513	100
374.739	121
374.965	115
375.191	101
375.416	92
375.642	103
375.868	98
376.094	98
376.319	99
376.545	87
376.771	90
376.997	88
377.222	79
377.448	103
377.674	95
377.899	88
378.125	92
378.35	85
378.576	77
378.802	83
379.027	100
379.253	88
379.478	82
379.704	83
379.929	79
380.155	91
380.38	83
380.606	88
380.831	91
381.057	88
381.282	91
381.507	103
381.733	121
381.958	106
382.184	107
382.409	108
382.634	110
382.86	102
383.085	97
383.31	106
383.535	105
383.761	95
383.986	100
384.211	104
384.436	88
384.662	91
384.887	104
385.112	89
385.337	103
385.562	104
385.787	98
386.013	98
386.238	95
386.463	94
386.688	88
386.913	106
387.138	96
387.363	103
387.588	97
387.813	116
388.038	98
388.263	87
388.488	99
388.713	110
388.938	108
389.163	84
389.387	87
389.612	82
389.837	86
390.062	96
390.287	93
390.512	83
390.736	80
390.961	96
391.186	99
391.411	95
391.636	89
391.86	91
392.085	102
392.31	115
392.534	107
392.759	141
392.984	220
393.208	388
393.433	547
393.658	430
393.882	167
394.107	118
394.331	136
394.556	155
394.78	129
395.005	104
395.229	101
395.454	112
395.678	122
395.903	144
396.127	183
396.352	201
396.576	230
396.801	376
397.025	420
397.249	210
397.474	128
397.698	118
397.922	94
398.147	102
398.371	95
398.595	98
398.82	98
399.044	95
399.268	73
399.492	85
399.717	86
399.941	103
400.165	75
400.389	86
400.613	80
400.837	96
401.062	82
401.286	88
401.51	75
401.734	86
401.958	90
402.182	84
402.406	87
402.63	95
402.854	84
403.078	82
403.302	83
403.526	80
403.75	80
403.974	90
404.198	99
404.422	114
404.645	102
404.869	107
405.093	93
405.317	88
405.541	98
405.765	101
405.988	92
406.212	95
406.436	94
406.66	104
406.883	92
407.107	103
407.331	95
407.555	108
407.778	128
408.002	130
408.226	102
408.449	76
408.673	72
408.896	87
409.12	89
409.344	94
409.567	100
409.791	102
410.014	91
410.238	99
410.461	96
410.685	80
410.908	85
411.132	103
411.355	94
411.578	88
411.802	95
412.025	86
412.249	86
412.472	92
412.695	90
412.919	83
413.142	99
413.365	95
413.589	85
413.812	90
414.035	76
414.258	70
414.482	89
414.705	87
414.928	92
415.151	90
415.374	80
415.597	92
415.821	81
416.044	81
416.267	76
416.49	83
416.713	91
416.936	79
417.159	76
417.382	80
417.605	86
417.828	86
418.051	87
418.274	77
418.497	100
418.72	86
418.943	96
419.166	85
419.389	93
419.611	90
419.834	78
420.057	92
420.28	85
420.503	84
420.726	95
420.948	82
421.171	114
421.394	110
421.617	143
421.839	149
422.062	149
422.285	199
422.507	357
422.73	598
422.953	564
423.175	263
423.398	142
423.621	107
423.843	113
424.066	92
424.288	99
424.511	98
424.733	80
424.956	94
425.178	91
425.401	94
425.623	88
425.846	86
426.068	86
426.291	95
426.513	95
426.735	86
426.958	104
427.18	92
427.402	105
427.625	90
427.847	101
428.069	100
428.292	150
428.514	185
428.736	140
428.958	155
429.181	155
429.403	104
429.625	107
429.847	153
430.069	193
430.292	244
430.514	209
430.736	168
430.958	176
431.18	116
431.402	87
431.624	102
431.846	137
432.068	158
432.29	111
432.512	92
432.734	96
432.956	84
433.178	90
433.4	82
433.622	86
433.844	77
434.066	83
434.287	75
434.509	82
434.731	79
434.953	75
435.175	93
435.397	93
435.618	82
435.84	96
436.062	95
436.284	98
436.505	95
436.727	78
436.949	76
437.17	84
437.392	90
437.614	93
437.835	72
438.057	91
438.278	87
438.5	108
438.721	89
438.943	92
439.165	89
439.386	77
439.608	103
439.829	99
440.05	83
440.272	72
440.493	90
440.715	93
440.936	80
441.158	84
441.379	91
441.6	76
441.822	76
442.043	91
442.264	105
442.486	152
442.707	217
442.928	149
443.149	126
443.371	186
443.592	356
443.813	282
444.034	138
444.255	81
444.476	105
444.698	95
444.919	115
445.14	208
445.361	260
445.582	408
445.803	336
446.024	142
446.245	94
446.466	96
446.687	86
446.908	95
447.129	80
447.35	96
447.571	73
447.792	88
448.013	71
448.234	78
448.455	94
448.675	73
448.896	84
449.117	77
449.338	76
449.559	93
449.779	78
450	100
450.221	79
450.442	80
450.662	94
450.883	88
451.104	77
451.324	78
451.545	76
451.766	81
451.986	65
452.207	83
452.428	80
452.648	103
452.869	118
453.089	96
453.31	100
453.53	110
453.751	90
453.971	70
454.192	74
454.412	89
454.633	82
454.853	80
455.073	84
455.294	87
455.514	93
455.734	77
455.955	87
456.175	92
456.395	95
456.616	89
456.836	97
457.056	76
457.276	90
457.497	94
457.717	103
457.937	117
458.157	166
458.377	135
458.598	156
458.818	131
459.038	104
459.258	82
459.478	98
459.698	79
459.918	91
460.138	89
460.358	96
460.578	102
460.798	140
461.018	143
461.238	101
461.458	87
461.678	90
461.898	90
462.118	67
462.338	90
462.558	84
462.777	88
462.997	77
463.217	75
463.437	86
463.657	88
463.876	79
464.096	85
464.316	79
464.536	82
464.755	80
464.975	71
465.195	69
465.414	82
465.634	81
465.854	88
466.073	79
466.293	90
466.512	75
466.732	88
466.951	90
467.171	85
467.391	81
467.61	91
467.829	81
468.049	88
468.268	89
468.488	96
468.707	80
468.927	76
469.146	96
469.365	97
469.585	91
469.804	97
470.023	77
470.243	101
470.462	90
470.681	93
470.901	84
471.12	84
471.339	95
471.558	91
471.777	84
471.997	88
472.216	87
472.435	95
472.654	88
472.873	74
473.092	96
473.311	86
473.53	82
473.749	79
473.968	99
474.187	96
474.406	87
474.625	80
474.844	81
475.063	82
475.282	84
475.501	84
475.72	97
475.939	100
476.158	87
476.377	93
476.596	94
476.814	80
477.033	76
477.252	88
477.471	100
477.69	101
477.908	102
478.127	95
478.346	96
478.564	102
478.783	89
479.002	81
479.22	91
479.439	80
479.658	96
479.876	75
480.095	92
480.313	91
480.532	87
480.751	84
480.969	97
481.188	91
481.406	87
481.624	83
481.843	97
482.061	83
482.28	91
482.498	89
482.717	76
482.935	90
483.153	82
483.372	91
483.59	100
483.808	80
484.027	96
484.245	87
484.463	103
484.681	91
484.9	90
485.118	94
485.336	84
485.554	98
485.772	84
485.99	86
486.209	91
486.427	94
486.645	96
486.863	80
487.081	95
487.299	93
487.517	100
487.735	124
487.953	216
488.171	173
488.389	96
488.607	79
488.825	87
489.043	87
489.261	94
489.479	95
489.696	94
489.914	85
490.132	89
490.35	74
490.568	83
490.786	84
491.003	89
491.221	71
491.439	76
491.657	92
491.874	90
492.092	91
492.31	100
492.527	85
492.745	95
492.963	83
493.18	94
493.398	96
493.615	98
493.833	91
494.05	75
494.268	93
494.485	80
494.703	96
494.92	82
495.138	91
495.355	95
495.573	80
495.79	92
496.008	98
496.225	80
496.442	102
496.66	103
496.877	82
497.094	101
497.312	88
497.529	90
497.746	102
497.963	76
498.181	97
498.398	108
498.615	87
498.832	87
499.049	87
499.267	107
499.484	104
499.701	76
499.918	95
500.135	94
500.352	99
500.569	82
500.786	77
501.003	103
501.22	102
501.437	89
501.654	94
501.871	94
502.088	98
502.305	103
502.522	84
502.739	79
502.956	89
503.172	82
503.389	90
503.606	88
503.823	98
504.04	114
504.256	164
504.473	154
504.69	86
504.907	108
505.123	86
505.34	87
505.557	80
505.773	89
505.99	85
506.207	75
506.423	86
506.64	99
506.856	81
507.073	84
507.289	92
507.506	100
507.722	96
507.939	82
508.155	83
508.372	97
508.588	86
508.805	92
509.021	96
509.238	81
509.454	84
509.67	86
509.887	82
510.103	98
510.319	77
510.536	91
510.752	78
510.968	94
511.184	86
511.401	80
511.617	90
511.833	74
512.049	91
512.265	84
512.481	87
512.698	82
512.914	98
513.13	85
513.346	103
513.562	66
513.778	82
513.994	85
514.21	105
514.426	100
514.642	93
514.858	93
515.074	88
515.29	92
515.506	91
515.721	90
515.937	84
516.153	78
516.369	101
516.585	118
516.801	91
517.016	96
517.232	84
517.448	107
517.664	110
517.879	103
518.095	90
518.311	95
518.527	110
518.742	143
518.958	202
519.173	216
519.389	107
519.605	99
519.82	98
520.036	89
520.251	84
520.467	86
520.682	82
520.898	96
521.113	82
521.329	95
521.544	95
521.76	82
521.975	80
522.19	91
522.406	90
522.621	89
522.836	81
523.052	77
523.267	86
523.482	96
523.698	88
523.913	83
524.128	79
524.343	104
524.559	88
524.774	78
524.989	92
525.204	98
525.419	97
525.634	100
525.849	112
526.064	122
526.28	291
526.495	402
526.71	450
526.925	289
527.14	363
527.355	342
527.57	138
527.785	88
527.999	91
528.214	86
528.429	87
528.644	89
528.859	95
529.074	97
529.289	88
529.503	94
529.718	78
529.933	92
530.148	84
530.363	94
530.577	96
530.792	95
531.007	87
531.221	105
531.436	84
531.651	75
531.865	82
532.08	84
532.295	99
532.509	108
532.724	100
532.938	99
533.153	105
533.367	113
533.582	83
533.796	101
534.011	94
534.225	103
534.44	104
534.654	102
534.868	108
535.083	193
535.297	167
535.511	106
535.726	96
535.94	112
536.154	111
536.369	92
536.583	86
536.797	97
537.011	101
537.225	103
537.44	121
537.654	98
537.868	108
538.082	105
538.296	100
538.51	110
538.724	110
538.938	93
539.153	101
539.367	98
539.581	93
539.795	100
540.009	116
540.222	113
540.436	113
540.65	88
540.864	99
541.078	107
541.292	107
541.506	102
541.72	97
541.934	95
542.147	106
542.361	106
542.575	105
542.789	97
543.002	102
543.216	97
543.43	104
543.644	99
543.857	101
544.071	115
544.285	88
544.498	94
544.712	91
544.925	118
545.139	109
545.352	107
545.566	107
545.779	110
545.993	126
546.206	113
546.42	126
546.633	121
546.847	122
547.06	152
547.274	154
547.487	190
547.7	205
547.914	210
548.127	229
548.34	232
548.554	224
548.767	227
548.98	219
549.193	211
549.407	215
549.62	236
549.833	250
550.046	269
550.259	277
550.473	248
550.686	286
550.899	312
551.112	338
551.325	365
551.538	367
551.751	333
551.964	294
552.177	288
552.39	286
552.603	267
552.816	268
553.029	274
553.242	281
553.455	280
553.667	298
553.88	299
554.093	292
554.306	288
554.519	280
554.732	275
554.944	279
555.157	261
555.37	254
555.583	253
555.795	236
556.008	224
556.221	203
556.433	182
556.646	167
556.859	190
557.071	190
557.284	169
557.496	176
557.709	140
557.921	158
558.134	145
558.346	244
558.559	208
558.771	205
558.984	433
559.196	506
559.409	267
559.621	426
559.833	288
560.046	374
560.258	311
560.47	326
560.683	174
560.895	122
561.107	110
561.32	104
561.532	123
561.744	122
561.956	122
562.168	96
562.381	107
562.593	92
562.805	122
563.017	73
563.229	95
563.441	100
563.653	99
563.865	105
564.077	84
564.289	101
564.501	102
564.713	106
564.925	111
565.137	92
565.349	102
565.561	92
565.773	122
565.985	99
566.197	102
566.408	96
566.62	84
566.832	112
567.044	112
567.255	111
567.467	100
567.679	114
567.891	96
568.102	96
568.314	91
568.526	111
568.737	123
568.949	110
569.161	110
569.372	95
569.584	108
569.795	99
570.007	102
570.218	102
570.43	103
570.641	105
570.853	102
571.064	98
571.276	111
571.487	101
571.698	105
571.91	123
572.121	91
572.333	95
572.544	87
572.755	83
572.966	94
573.178	101
573.389	96
573.6	112
573.811	102
574.023	102
574.234	82
574.445	103
574.656	91
574.867	92
575.078	84
575.289	85
575.501	82
575.712	83
575.923	107
576.134	94
576.345	100
576.556	88
576.767	99
576.978	100
577.188	86
577.399	98
577.61	110
577.821	99
578.032	92
578.243	103
578.454	73
578.665	91
578.875	104
579.086	86
579.297	95
579.508	98
579.718	70
579.929	100
580.14	104
580.35	95
580.561	102
580.772	99
580.982	105
581.193	87
581.403	100
581.614	85
581.825	92
582.035	88
582.246	98
582.456	96
582.667	80
582.877	90
583.087	95
583.298	110
583.508	93
583.719	83
583.929	98
