Data from 237_2_HRD10591_00050.txt Node
Date: Mon Jan 19 14:11:55 EST 2026
User: Yrep
Spectrometer: HR+D1059
Trigger mode: 1
Integration Time (sec): 1.000000E-1
Scans to average: 1
Electric dark correction enabled: true
Nonlinearity correction enabled: false
Boxcar width: 0
XAxis mode: Wavelengths
Number of Pixels in Spectrum: 2048
>>>>>Begin Spectral Data<<<<<
223.165	-12
223.4	-12
223.635	-12
223.869	-9
224.104	-27
224.338	-24
224.573	-14
224.808	0
225.042	-3
225.277	-8
225.511	3
225.746	8
225.98	9
226.215	-5
226.449	14
226.683	34
226.918	13
227.152	21
227.387	44
227.621	36
227.856	47
228.09	30
228.324	49
228.559	65
228.793	54
229.027	68
229.262	60
229.496	65
229.73	60
229.964	72
230.199	64
230.433	63
230.667	67
230.901	78
231.136	56
231.37	65
231.604	81
231.838	54
232.072	74
232.306	70
232.541	87
232.775	85
233.009	64
233.243	70
233.477	77
233.711	73
233.945	86
234.179	78
234.413	74
234.647	85
234.881	73
235.115	68
235.349	76
235.583	81
235.817	77
236.051	77
236.285	84
236.519	79
236.753	66
236.987	75
237.221	77
237.455	58
237.689	78
237.922	61
238.156	65
238.39	79
238.624	70
238.858	69
239.091	72
239.325	77
239.559	78
239.793	75
240.027	87
240.26	91
240.494	73
240.728	60
240.961	73
241.195	69
241.429	86
241.662	72
241.896	75
242.13	68
242.363	76
242.597	85
242.83	71
243.064	85
243.298	71
243.531	82
243.765	55
243.998	82
244.232	71
244.465	78
244.699	80
244.932	60
245.166	68
245.399	65
245.633	77
245.866	74
246.099	72
246.333	68
246.566	78
246.8	69
247.033	80
247.266	80
247.5	65
247.733	83
247.966	80
248.2	83
248.433	74
248.666	72
248.899	92
249.133	64
249.366	94
249.599	77
249.832	79
250.066	69
250.299	67
250.532	72
250.765	80
250.998	58
251.231	65
251.465	74
251.698	86
251.931	71
252.164	78
252.397	79
252.63	87
252.863	59
253.096	66
253.329	63
253.562	78
253.795	91
254.028	81
254.261	80
254.494	80
254.727	77
254.96	70
255.193	76
255.426	67
255.659	70
255.892	94
256.124	90
256.357	78
256.59	85
256.823	73
257.056	81
257.289	86
257.521	75
257.754	85
257.987	88
258.22	88
258.452	82
258.685	85
258.918	65
259.151	64
259.383	83
259.616	88
259.849	75
260.081	71
260.314	82
260.547	77
260.779	82
261.012	84
261.244	70
261.477	70
261.71	89
261.942	75
262.175	90
262.407	72
262.64	71
262.872	70
263.105	81
263.337	94
263.57	83
263.802	80
264.035	73
264.267	66
264.499	61
264.732	94
264.964	86
265.197	76
265.429	77
265.661	84
265.894	81
266.126	87
266.358	72
266.591	78
266.823	99
267.055	72
267.287	75
267.52	70
267.752	83
267.984	92
268.216	71
268.448	75
268.681	82
268.913	73
269.145	83
269.377	74
269.609	83
269.841	81
270.073	72
270.306	84
270.538	72
270.77	74
271.002	89
271.234	84
271.466	68
271.698	78
271.93	87
272.162	85
272.394	90
272.626	77
272.858	85
273.09	82
273.322	72
273.553	85
273.785	72
274.017	84
274.249	80
274.481	64
274.713	69
274.945	95
275.176	87
275.408	81
275.64	79
275.872	76
276.104	85
276.335	77
276.567	74
276.799	72
277.031	77
277.262	80
277.494	84
277.726	70
277.957	78
278.189	75
278.421	69
278.652	72
278.884	93
279.115	78
279.347	84
279.579	100
279.81	82
280.042	84
280.273	89
280.505	86
280.736	83
280.968	75
281.199	71
281.431	68
281.662	80
281.894	78
282.125	86
282.356	65
282.588	80
282.819	86
283.051	85
283.282	78
283.513	81
283.745	84
283.976	82
284.207	85
284.439	71
284.67	86
284.901	77
285.132	79
285.364	89
285.595	90
285.826	80
286.057	90
286.288	77
286.52	73
286.751	81
286.982	94
287.213	81
287.444	88
287.675	84
287.906	69
288.138	77
288.369	82
288.6	85
288.831	78
289.062	71
289.293	72
289.524	91
289.755	70
289.986	79
290.217	84
290.448	84
290.679	85
290.91	81
291.141	77
291.371	87
291.602	73
291.833	81
292.064	82
292.295	78
292.526	82
292.757	95
292.987	81
293.218	86
293.449	67
293.68	68
293.91	84
294.141	85
294.372	88
294.603	85
294.833	68
295.064	81
295.295	75
295.525	82
295.756	98
295.987	80
296.217	84
296.448	92
296.679	72
296.909	89
297.14	75
297.37	80
297.601	73
297.831	87
298.062	75
298.292	68
298.523	92
298.753	69
298.984	69
299.214	84
299.445	82
299.675	86
299.905	75
300.136	83
300.366	72
300.597	83
300.827	90
301.057	83
301.288	93
301.518	90
301.748	84
301.979	93
302.209	90
302.439	88
302.669	83
302.9	68
303.13	88
303.36	82
303.59	79
303.82	86
304.051	77
304.281	89
304.511	81
304.741	92
304.971	92
305.201	87
305.431	79
305.661	74
305.891	82
306.121	75
306.352	58
306.582	75
306.812	84
307.042	96
307.272	98
307.502	90
307.731	88
307.961	88
308.191	88
308.421	91
308.651	83
308.881	75
309.111	74
309.341	92
309.571	82
309.8	68
310.03	70
310.26	85
310.49	88
310.72	90
310.949	83
311.179	79
311.409	87
311.639	96
311.868	78
312.098	93
312.328	83
312.557	90
312.787	87
313.017	74
313.246	95
313.476	76
313.706	88
313.935	73
314.165	82
314.394	93
314.624	82
314.853	98
315.083	89
315.312	71
315.542	83
315.771	100
316.001	76
316.23	94
316.46	94
316.689	65
316.919	86
317.148	78
317.377	89
317.607	88
317.836	93
318.065	77
318.295	75
318.524	87
318.753	92
318.983	76
319.212	74
319.441	77
319.67	74
319.9	88
320.129	73
320.358	79
320.587	77
320.816	54
321.046	82
321.275	78
321.504	72
321.733	80
321.962	79
322.191	89
322.42	85
322.649	79
322.878	86
323.108	79
323.337	80
323.566	85
323.795	100
324.024	85
324.253	85
324.482	72
324.71	93
324.939	87
325.168	92
325.397	78
325.626	82
325.855	80
326.084	97
326.313	72
326.542	80
326.77	84
326.999	82
327.228	80
327.457	86
327.686	89
327.914	80
328.143	87
328.372	77
328.6	82
328.829	75
329.058	88
329.287	80
329.515	67
329.744	82
329.972	88
330.201	82
330.43	81
330.658	64
330.887	87
331.115	88
331.344	87
331.572	94
331.801	93
332.03	93
332.258	87
332.486	86
332.715	87
332.943	78
333.172	82
333.4	84
333.629	89
333.857	87
334.085	84
334.314	75
334.542	87
334.771	81
334.999	96
335.227	77
335.455	103
335.684	96
335.912	88
336.14	85
336.369	86
336.597	92
336.825	88
337.053	85
337.281	111
337.51	94
337.738	76
337.966	86
338.194	83
338.422	83
338.65	78
338.878	86
339.106	81
339.334	84
339.562	98
339.79	78
340.018	83
340.246	85
340.474	85
340.702	96
340.93	88
341.158	78
341.386	89
341.614	88
341.842	79
342.07	86
342.298	70
342.526	76
342.754	82
342.981	78
343.209	80
343.437	75
343.665	75
343.893	88
344.12	83
344.348	78
344.576	82
344.804	80
345.031	81
345.259	80
345.487	84
345.714	73
345.942	68
346.17	68
346.397	85
346.625	75
346.853	86
347.08	75
347.308	84
347.535	89
347.763	89
347.99	79
348.218	75
348.445	71
348.673	82
348.9	79
349.128	88
349.355	77
349.583	100
349.81	91
350.037	80
350.265	106
350.492	85
350.72	65
350.947	84
351.174	86
351.402	90
351.629	81
351.856	77
352.083	80
352.311	82
352.538	88
352.765	84
352.992	78
353.22	90
353.447	84
353.674	82
353.901	75
354.128	89
354.355	73
354.583	75
354.81	86
355.037	78
355.264	75
355.491	73
355.718	81
355.945	69
356.172	78
356.399	87
356.626	78
356.853	86
357.08	80
357.307	79
357.534	85
357.761	90
357.988	93
358.215	88
358.441	81
358.668	87
358.895	82
359.122	88
359.349	93
359.576	81
359.802	91
360.029	87
360.256	77
360.483	77
360.709	80
360.936	84
361.163	74
361.39	93
361.616	72
361.843	87
362.07	106
362.296	75
362.523	76
362.749	100
362.976	82
363.203	93
363.429	74
363.656	88
363.882	83
364.109	82
364.335	93
364.562	96
364.788	77
365.015	78
365.241	88
365.468	78
365.694	64
365.92	87
366.147	87
366.373	81
366.599	87
366.826	78
367.052	75
367.278	84
367.505	86
367.731	93
367.957	78
368.184	88
368.41	99
368.636	95
368.862	102
369.089	77
369.315	90
369.541	75
369.767	69
369.993	84
370.219	76
370.445	69
370.672	71
370.898	89
371.124	80
371.35	88
371.576	86
371.802	87
372.028	73
372.254	84
372.48	98
372.706	75
372.932	76
373.158	73
373.384	96
373.61	95
373.835	88
374.061	88
374.287	81
374.513	84
374.739	78
374.965	96
375.191	89
375.416	89
375.642	100
375.868	99
376.094	80
376.319	70
376.545	68
376.771	85
376.997	64
377.222	89
377.448	93
377.674	75
377.899	81
378.125	70
378.35	68
378.576	86
378.802	83
379.027	73
379.253	83
379.478	74
379.704	86
379.929	78
380.155	84
380.38	64
380.606	89
380.831	78
381.057	87
381.282	91
381.507	84
381.733	79
381.958	82
382.184	84
382.409	86
382.634	80
382.86	82
383.085	90
383.31	75
383.535	78
383.761	88
383.986	82
384.211	89
384.436	86
384.662	72
384.887	70
385.112	81
385.337	81
385.562	78
385.787	88
386.013	76
386.238	73
386.463	89
386.688	86
386.913	86
387.138	77
387.363	73
387.588	76
387.813	79
388.038	88
388.263	78
388.488	74
388.713	85
388.938	88
389.163	82
389.387	72
389.612	90
389.837	81
390.062	89
390.287	95
390.512	89
390.736	66
390.961	68
391.186	75
391.411	76
391.636	97
391.86	100
392.085	87
392.31	90
392.534	83
392.759	80
392.984	116
393.208	188
393.433	278
393.658	227
393.882	115
394.107	100
394.331	93
394.556	94
394.78	80
395.005	78
395.229	83
395.454	92
395.678	92
395.903	85
396.127	112
396.352	124
396.576	128
396.801	205
397.025	242
397.249	125
397.474	99
397.698	91
397.922	95
398.147	86
398.371	80
398.595	77
398.82	88
399.044	74
399.268	74
399.492	72
399.717	82
399.941	89
400.165	84
400.389	86
400.613	76
400.837	85
401.062	87
401.286	76
401.51	92
401.734	79
401.958	80
402.182	79
402.406	90
402.63	77
402.854	86
403.078	89
403.302	72
403.526	83
403.75	69
403.974	80
404.198	81
404.422	86
404.645	84
404.869	80
405.093	74
405.317	88
405.541	78
405.765	87
405.988	87
406.212	88
406.436	78
406.66	74
406.883	78
407.107	63
407.331	67
407.555	86
407.778	95
408.002	88
408.226	84
408.449	79
408.673	84
408.896	74
409.12	70
409.344	82
409.567	91
409.791	70
410.014	80
410.238	74
410.461	73
410.685	81
410.908	83
411.132	79
411.355	89
411.578	93
411.802	75
412.025	89
412.249	88
412.472	74
412.695	69
412.919	80
413.142	68
413.365	76
413.589	73
413.812	67
414.035	91
414.258	83
414.482	81
414.705	81
414.928	79
415.151	87
415.374	79
415.597	99
415.821	93
416.044	83
416.267	84
416.49	98
416.713	75
416.936	81
417.159	89
417.382	82
417.605	66
417.828	77
418.051	73
418.274	80
418.497	74
418.72	67
418.943	91
419.166	86
419.389	90
419.611	82
419.834	74
420.057	89
420.28	77
420.503	94
420.726	82
420.948	81
421.171	89
421.394	87
421.617	92
421.839	75
422.062	98
422.285	103
422.507	148
422.73	244
422.953	216
423.175	117
423.398	95
423.621	84
423.843	92
424.066	85
424.288	86
424.511	62
424.733	94
424.956	85
425.178	69
425.401	89
425.623	76
425.846	78
426.068	99
426.291	84
426.513	95
426.735	88
426.958	83
427.18	73
427.402	90
427.625	78
427.847	92
428.069	88
428.292	103
428.514	102
428.736	83
428.958	102
429.181	95
429.403	95
429.625	90
429.847	87
430.069	103
430.292	113
430.514	112
430.736	94
430.958	103
431.18	82
431.402	76
431.624	90
431.846	79
432.068	109
432.29	85
432.512	88
432.734	80
432.956	84
433.178	81
433.4	76
433.622	76
433.844	71
434.066	75
434.287	75
434.509	96
434.731	74
434.953	74
435.175	89
435.397	75
435.618	70
435.84	77
436.062	88
436.284	74
436.505	86
436.727	82
436.949	83
437.17	78
437.392	80
437.614	77
437.835	79
438.057	77
438.278	86
438.5	89
438.721	74
438.943	70
439.165	89
439.386	77
439.608	88
439.829	77
440.05	72
440.272	75
440.493	82
440.715	84
440.936	83
441.158	82
441.379	70
441.6	92
441.822	78
442.043	76
442.264	74
442.486	90
442.707	99
442.928	88
443.149	71
443.371	116
443.592	126
443.813	110
444.034	75
444.255	82
444.476	72
444.698	84
444.919	84
445.14	178
445.361	132
445.582	154
445.803	114
446.024	90
446.245	84
446.466	106
446.687	97
446.908	79
447.129	88
447.35	85
447.571	82
447.792	81
448.013	72
448.234	78
448.455	75
448.675	70
448.896	76
449.117	92
449.338	72
449.559	85
449.779	78
450	74
450.221	80
450.442	69
450.662	90
450.883	96
451.104	85
451.324	89
451.545	81
451.766	95
451.986	91
452.207	64
452.428	85
452.648	80
452.869	78
453.089	80
453.31	86
453.53	71
453.751	95
453.971	77
454.192	60
454.412	63
454.633	96
454.853	77
455.073	86
455.294	84
455.514	84
455.734	82
455.955	83
456.175	94
456.395	75
456.616	82
456.836	83
457.056	85
457.276	65
457.497	65
457.717	72
457.937	81
458.157	92
458.377	93
458.598	93
458.818	84
459.038	84
459.258	82
459.478	81
459.698	83
459.918	82
460.138	75
460.358	82
460.578	73
460.798	81
461.018	72
461.238	79
461.458	82
461.678	64
461.898	79
462.118	78
462.338	82
462.558	68
462.777	62
462.997	78
463.217	74
463.437	89
463.657	78
463.876	70
464.096	70
464.316	74
464.536	66
464.755	66
464.975	74
465.195	77
465.414	69
465.634	92
465.854	70
466.073	81
466.293	78
466.512	95
466.732	84
466.951	71
467.171	78
467.391	79
467.61	88
467.829	64
468.049	83
468.268	75
468.488	87
468.707	85
468.927	82
469.146	86
469.365	77
469.585	85
469.804	84
470.023	79
470.243	84
470.462	81
470.681	74
470.901	82
471.12	80
471.339	83
471.558	81
471.777	76
471.997	78
472.216	92
472.435	70
472.654	78
472.873	80
473.092	72
473.311	66
473.53	82
473.749	92
473.968	81
474.187	76
474.406	82
474.625	76
474.844	79
475.063	82
475.282	84
475.501	93
475.72	80
475.939	76
476.158	98
476.377	68
476.596	70
476.814	78
477.033	86
477.252	83
477.471	74
477.69	82
477.908	80
478.127	81
478.346	75
478.564	85
478.783	87
479.002	81
479.22	78
479.439	77
479.658	78
479.876	84
480.095	71
480.313	72
480.532	79
480.751	77
480.969	70
481.188	80
481.406	80
481.624	89
481.843	74
482.061	81
482.28	60
482.498	74
482.717	71
482.935	67
483.153	70
483.372	80
483.59	72
483.808	78
484.027	88
484.245	84
484.463	81
484.681	82
484.9	66
485.118	98
485.336	81
485.554	62
485.772	82
485.99	69
486.209	65
486.427	64
486.645	94
486.863	72
487.081	59
487.299	83
487.517	82
487.735	80
487.953	105
488.171	81
488.389	79
488.607	82
488.825	81
489.043	94
489.261	81
489.479	87
489.696	61
489.914	82
490.132	65
490.35	78
490.568	72
490.786	88
491.003	85
491.221	80
491.439	80
491.657	83
491.874	70
492.092	84
492.31	82
492.527	79
492.745	78
492.963	72
493.18	92
493.398	82
493.615	92
493.833	67
494.05	70
494.268	87
494.485	77
494.703	82
494.92	73
495.138	87
495.355	80
495.573	85
495.79	81
496.008	78
496.225	73
496.442	70
496.66	75
496.877	82
497.094	87
497.312	77
497.529	96
497.746	70
497.963	72
498.181	85
498.398	81
498.615	72
498.832	103
499.049	96
499.267	69
499.484	80
499.701	72
499.918	70
500.135	84
500.352	82
500.569	82
500.786	98
501.003	92
501.22	89
501.437	92
501.654	76
501.871	82
502.088	88
502.305	85
502.522	91
502.739	92
502.956	82
503.172	85
503.389	81
503.606	86
503.823	77
504.04	77
504.256	84
504.473	84
504.69	81
504.907	82
505.123	82
505.34	87
505.557	92
505.773	78
505.99	89
506.207	72
506.423	81
506.64	85
506.856	84
507.073	82
507.289	86
507.506	86
507.722	84
507.939	74
508.155	86
508.372	86
508.588	83
508.805	79
509.021	87
509.238	84
509.454	85
509.67	88
509.887	86
510.103	83
510.319	84
510.536	87
510.752	93
510.968	82
511.184	86
511.401	73
511.617	81
511.833	70
512.049	68
512.265	88
512.481	75
512.698	78
512.914	91
513.13	81
513.346	62
513.562	80
513.778	88
513.994	91
514.21	78
514.426	81
514.642	89
514.858	63
515.074	89
515.29	81
515.506	74
515.721	79
515.937	68
516.153	73
516.369	66
516.585	71
516.801	85
517.016	88
517.232	81
517.448	88
517.664	76
517.879	81
518.095	81
518.311	77
518.527	86
518.742	95
518.958	86
519.173	84
519.389	93
519.605	86
519.82	73
520.036	80
520.251	73
520.467	73
520.682	78
520.898	66
521.113	89
521.329	77
521.544	74
521.76	71
521.975	77
522.19	83
522.406	75
522.621	79
522.836	96
523.052	77
523.267	74
523.482	78
523.698	90
523.913	89
524.128	84
524.343	83
524.559	86
524.774	81
524.989	79
525.204	80
525.419	85
525.634	77
525.849	93
526.064	94
526.28	108
526.495	125
526.71	128
526.925	107
527.14	130
527.355	135
527.57	78
527.785	98
527.999	74
528.214	89
528.429	67
528.644	88
528.859	77
529.074	78
529.289	93
529.503	80
529.718	94
529.933	80
530.148	82
530.363	87
530.577	83
530.792	86
531.007	82
531.221	80
531.436	70
531.651	75
531.865	79
532.08	76
532.295	92
532.509	85
532.724	80
532.938	80
533.153	78
533.367	78
533.582	72
533.796	85
534.011	72
534.225	65
534.44	97
534.654	88
534.868	91
535.083	96
535.297	110
535.511	98
535.726	84
535.94	87
536.154	82
536.369	85
536.583	77
536.797	81
537.011	84
537.225	101
537.44	78
537.654	77
537.868	75
538.082	84
538.296	84
538.51	82
538.724	101
538.938	82
539.153	82
539.367	89
539.581	99
539.795	95
540.009	72
540.222	85
540.436	87
540.65	95
540.864	86
541.078	74
541.292	85
541.506	77
541.72	89
541.934	92
542.147	87
542.361	89
542.575	92
542.789	82
543.002	87
543.216	79
543.43	85
543.644	93
543.857	80
544.071	80
544.285	84
544.498	78
544.712	96
544.925	95
545.139	86
545.352	73
545.566	92
545.779	65
545.993	84
546.206	90
546.42	82
546.633	101
546.847	91
547.06	82
547.274	104
547.487	99
547.7	97
547.914	114
548.127	117
548.34	114
548.554	113
548.767	100
548.98	102
549.193	113
549.407	118
549.62	103
549.833	132
550.046	131
550.259	125
550.473	116
550.686	124
550.899	132
551.112	142
551.325	131
551.538	151
551.751	125
551.964	129
552.177	129
552.39	127
552.603	135
552.816	130
553.029	127
553.242	114
553.455	116
553.667	128
553.88	133
554.093	118
554.306	130
554.519	121
554.732	118
554.944	117
555.157	115
555.37	99
555.583	123
555.795	106
556.008	109
556.221	115
556.433	104
556.646	109
556.859	92
557.071	108
557.284	105
557.496	99
557.709	92
557.921	94
558.134	90
558.346	123
558.559	107
558.771	109
558.984	159
559.196	162
559.409	96
559.621	161
559.833	117
560.046	131
560.258	111
560.47	110
560.683	83
560.895	84
561.107	89
561.32	88
561.532	76
561.744	81
561.956	88
562.168	80
562.381	78
562.593	93
562.805	92
563.017	89
563.229	83
563.441	93
563.653	94
563.865	94
564.077	86
564.289	74
564.501	81
564.713	85
564.925	94
565.137	89
565.349	99
565.561	90
565.773	88
565.985	75
566.197	85
566.408	87
566.62	70
566.832	85
567.044	87
567.255	95
567.467	90
567.679	74
567.891	95
568.102	78
568.314	85
568.526	93
568.737	90
568.949	88
569.161	79
569.372	96
569.584	82
569.795	81
570.007	92
570.218	88
570.43	85
570.641	75
570.853	77
571.064	74
571.276	81
571.487	91
571.698	93
571.91	86
572.121	90
572.333	88
572.544	89
572.755	80
572.966	90
573.178	82
573.389	73
573.6	75
573.811	82
574.023	87
574.234	90
574.445	73
574.656	78
574.867	83
575.078	82
575.289	96
575.501	92
575.712	88
575.923	91
576.134	82
576.345	89
576.556	95
576.767	87
576.978	76
577.188	86
577.399	86
577.61	68
577.821	79
578.032	74
578.243	81
578.454	94
578.665	86
578.875	93
579.086	96
579.297	85
579.508	78
579.718	92
579.929	87
580.14	72
580.35	80
580.561	75
580.772	92
580.982	82
581.193	73
581.403	80
581.614	76
581.825	94
582.035	81
582.246	74
582.456	78
582.667	81
582.877	87
583.087	96
583.298	84
583.508	89
583.719	81
583.929	81
584.139	80
584.35	77
584.56	89
584.77	85
584.981	80
585.191	81
585.401	94
585.611	92
585.821	105
586.032	116
586.242	78
586.452	83
586.662	81
586.872	77
587.082	82
587.292	85
587.502	86
587.713	75
587.923	100
588.133	92
588.343	89
588.553	88
588.762	107
588.972	159
589.182	327
