Data from 237_2_HRD10591_00038.txt Node
Date: Mon Jan 19 14:11:49 EST 2026
User: Yrep
Spectrometer: HR+D1059
Trigger mode: 1
Integration Time (sec): 1.000000E-1
Scans to average: 1
Electric dark correction enabled: true
Nonlinearity correction enabled: false
Boxcar width: 0
XAxis mode: Wavelengths
Number of Pixels in Spectrum: 2048
>>>>>Begin Spectral Data<<<<<
223.165	-11.5
223.4	-11.5
223.635	-11.5
223.869	-11.5
224.104	-14.5
224.338	-15.5
224.573	-22.5
224.808	-7.5
225.042	-4.5
225.277	-9.5
225.511	-1.5
225.746	5.5
225.98	9.5
226.215	5.5
226.449	16.5
226.683	8.5
226.918	32.5
227.152	20.5
227.387	25.5
227.621	42.5
227.856	52.5
228.09	37.5
228.324	42.5
228.559	62.5
228.793	62.5
229.027	57.5
229.262	73.5
229.496	64.5
229.73	74.5
229.964	70.5
230.199	70.5
230.433	75.5
230.667	86.5
230.901	82.5
231.136	68.5
231.37	89.5
231.604	78.5
231.838	84.5
232.072	78.5
232.306	84.5
232.541	72.5
232.775	82.5
233.009	90.5
233.243	81.5
233.477	92.5
233.711	70.5
233.945	80.5
234.179	77.5
234.413	89.5
234.647	88.5
234.881	76.5
235.115	73.5
235.349	65.5
235.583	83.5
235.817	65.5
236.051	85.5
236.285	71.5
236.519	79.5
236.753	80.5
236.987	80.5
237.221	81.5
237.455	75.5
237.689	87.5
237.922	86.5
238.156	84.5
238.39	86.5
238.624	82.5
238.858	75.5
239.091	72.5
239.325	81.5
239.559	82.5
239.793	68.5
240.027	73.5
240.26	87.5
240.494	82.5
240.728	71.5
240.961	86.5
241.195	79.5
241.429	72.5
241.662	74.5
241.896	66.5
242.13	77.5
242.363	74.5
242.597	75.5
242.83	84.5
243.064	66.5
243.298	87.5
243.531	78.5
243.765	74.5
243.998	90.5
244.232	90.5
244.465	90.5
244.699	69.5
244.932	74.5
245.166	86.5
245.399	86.5
245.633	75.5
245.866	65.5
246.099	71.5
246.333	86.5
246.566	78.5
246.8	85.5
247.033	76.5
247.266	73.5
247.5	79.5
247.733	76.5
247.966	99.5
248.2	82.5
248.433	73.5
248.666	80.5
248.899	93.5
249.133	86.5
249.366	70.5
249.599	85.5
249.832	68.5
250.066	88.5
250.299	79.5
250.532	72.5
250.765	70.5
250.998	71.5
251.231	94.5
251.465	80.5
251.698	79.5
251.931	84.5
252.164	74.5
252.397	72.5
252.63	75.5
252.863	83.5
253.096	93.5
253.329	72.5
253.562	76.5
253.795	87.5
254.028	72.5
254.261	87.5
254.494	76.5
254.727	86.5
254.96	78.5
255.193	83.5
255.426	79.5
255.659	80.5
255.892	79.5
256.124	73.5
256.357	73.5
256.59	84.5
256.823	96.5
257.056	87.5
257.289	70.5
257.521	84.5
257.754	84.5
257.987	79.5
258.22	93.5
258.452	79.5
258.685	93.5
258.918	75.5
259.151	66.5
259.383	69.5
259.616	68.5
259.849	76.5
260.081	79.5
260.314	82.5
260.547	66.5
260.779	88.5
261.012	97.5
261.244	80.5
261.477	75.5
261.71	71.5
261.942	79.5
262.175	81.5
262.407	91.5
262.64	89.5
262.872	73.5
263.105	73.5
263.337	86.5
263.57	70.5
263.802	81.5
264.035	68.5
264.267	74.5
264.499	90.5
264.732	71.5
264.964	71.5
265.197	82.5
265.429	87.5
265.661	91.5
265.894	95.5
266.126	86.5
266.358	73.5
266.591	85.5
266.823	89.5
267.055	83.5
267.287	81.5
267.52	79.5
267.752	94.5
267.984	93.5
268.216	74.5
268.448	82.5
268.681	71.5
268.913	87.5
269.145	85.5
269.377	77.5
269.609	82.5
269.841	98.5
270.073	78.5
270.306	64.5
270.538	100.5
270.77	75.5
271.002	83.5
271.234	79.5
271.466	98.5
271.698	84.5
271.93	91.5
272.162	82.5
272.394	76.5
272.626	75.5
272.858	76.5
273.09	91.5
273.322	79.5
273.553	82.5
273.785	83.5
274.017	95.5
274.249	86.5
274.481	82.5
274.713	84.5
274.945	82.5
275.176	72.5
275.408	101.5
275.64	74.5
275.872	75.5
276.104	82.5
276.335	72.5
276.567	93.5
276.799	88.5
277.031	78.5
277.262	80.5
277.494	89.5
277.726	82.5
277.957	78.5
278.189	82.5
278.421	85.5
278.652	75.5
278.884	92.5
279.115	76.5
279.347	88.5
279.579	84.5
279.81	86.5
280.042	89.5
280.273	82.5
280.505	94.5
280.736	84.5
280.968	75.5
281.199	72.5
281.431	88.5
281.662	88.5
281.894	86.5
282.125	87.5
282.356	84.5
282.588	100.5
282.819	86.5
283.051	76.5
283.282	83.5
283.513	78.5
283.745	76.5
283.976	74.5
284.207	78.5
284.439	78.5
284.67	98.5
284.901	87.5
285.132	82.5
285.364	105.5
285.595	84.5
285.826	82.5
286.057	79.5
286.288	91.5
286.52	86.5
286.751	90.5
286.982	90.5
287.213	95.5
287.444	88.5
287.675	107.5
287.906	88.5
288.138	78.5
288.369	90.5
288.6	100.5
288.831	82.5
289.062	87.5
289.293	76.5
289.524	96.5
289.755	82.5
289.986	82.5
290.217	76.5
290.448	81.5
290.679	76.5
290.91	97.5
291.141	80.5
291.371	93.5
291.602	87.5
291.833	82.5
292.064	69.5
292.295	83.5
292.526	76.5
292.757	67.5
292.987	84.5
293.218	92.5
293.449	81.5
293.68	89.5
293.91	74.5
294.141	82.5
294.372	75.5
294.603	87.5
294.833	98.5
295.064	88.5
295.295	75.5
295.525	82.5
295.756	98.5
295.987	82.5
296.217	74.5
296.448	92.5
296.679	82.5
296.909	95.5
297.14	82.5
297.37	77.5
297.601	82.5
297.831	86.5
298.062	71.5
298.292	82.5
298.523	82.5
298.753	81.5
298.984	94.5
299.214	92.5
299.445	86.5
299.675	89.5
299.905	86.5
300.136	89.5
300.366	79.5
300.597	83.5
300.827	85.5
301.057	90.5
301.288	92.5
301.518	78.5
301.748	89.5
301.979	75.5
302.209	91.5
302.439	96.5
302.669	87.5
302.9	90.5
303.13	88.5
303.36	75.5
303.59	97.5
303.82	84.5
304.051	80.5
304.281	72.5
304.511	74.5
304.741	76.5
304.971	75.5
305.201	88.5
305.431	94.5
305.661	82.5
305.891	86.5
306.121	76.5
306.352	84.5
306.582	99.5
306.812	73.5
307.042	91.5
307.272	72.5
307.502	92.5
307.731	95.5
307.961	94.5
308.191	86.5
308.421	101.5
308.651	86.5
308.881	76.5
309.111	81.5
309.341	92.5
309.571	92.5
309.8	90.5
310.03	95.5
310.26	80.5
310.49	87.5
310.72	96.5
310.949	87.5
311.179	90.5
311.409	76.5
311.639	88.5
311.868	96.5
312.098	86.5
312.328	80.5
312.557	99.5
312.787	84.5
313.017	79.5
313.246	82.5
313.476	98.5
313.706	86.5
313.935	86.5
314.165	88.5
314.394	92.5
314.624	71.5
314.853	81.5
315.083	79.5
315.312	82.5
315.542	81.5
315.771	86.5
316.001	84.5
316.23	90.5
316.46	86.5
316.689	78.5
316.919	86.5
317.148	79.5
317.377	79.5
317.607	89.5
317.836	93.5
318.065	105.5
318.295	90.5
318.524	98.5
318.753	82.5
318.983	84.5
319.212	98.5
319.441	84.5
319.67	69.5
319.9	79.5
320.129	97.5
320.358	89.5
320.587	76.5
320.816	86.5
321.046	92.5
321.275	92.5
321.504	83.5
321.733	84.5
321.962	97.5
322.191	92.5
322.42	102.5
322.649	100.5
322.878	80.5
323.108	99.5
323.337	94.5
323.566	91.5
323.795	80.5
324.024	82.5
324.253	71.5
324.482	84.5
324.71	91.5
324.939	91.5
325.168	87.5
325.397	83.5
325.626	83.5
325.855	87.5
326.084	84.5
326.313	90.5
326.542	96.5
326.77	86.5
326.999	87.5
327.228	81.5
327.457	88.5
327.686	83.5
327.914	73.5
328.143	87.5
328.372	82.5
328.6	83.5
328.829	86.5
329.058	94.5
329.287	80.5
329.515	83.5
329.744	87.5
329.972	87.5
330.201	95.5
330.43	97.5
330.658	84.5
330.887	72.5
331.115	90.5
331.344	95.5
331.572	77.5
331.801	83.5
332.03	103.5
332.258	93.5
332.486	90.5
332.715	83.5
332.943	82.5
333.172	90.5
333.4	66.5
333.629	74.5
333.857	87.5
334.085	78.5
334.314	87.5
334.542	76.5
334.771	82.5
334.999	108.5
335.227	90.5
335.455	73.5
335.684	83.5
335.912	83.5
336.14	98.5
336.369	90.5
336.597	82.5
336.825	84.5
337.053	91.5
337.281	93.5
337.51	86.5
337.738	85.5
337.966	88.5
338.194	78.5
338.422	84.5
338.65	79.5
338.878	92.5
339.106	88.5
339.334	87.5
339.562	68.5
339.79	89.5
340.018	89.5
340.246	101.5
340.474	94.5
340.702	86.5
340.93	82.5
341.158	92.5
341.386	102.5
341.614	89.5
341.842	87.5
342.07	78.5
342.298	83.5
342.526	86.5
342.754	93.5
342.981	95.5
343.209	90.5
343.437	103.5
343.665	82.5
343.893	83.5
344.12	100.5
344.348	76.5
344.576	90.5
344.804	78.5
345.031	87.5
345.259	89.5
345.487	83.5
345.714	82.5
345.942	88.5
346.17	76.5
346.397	75.5
346.625	84.5
346.853	83.5
347.08	76.5
347.308	96.5
347.535	96.5
347.763	91.5
347.99	85.5
348.218	78.5
348.445	93.5
348.673	89.5
348.9	85.5
349.128	75.5
349.355	87.5
349.583	91.5
349.81	95.5
350.037	92.5
350.265	96.5
350.492	94.5
350.72	83.5
350.947	92.5
351.174	98.5
351.402	94.5
351.629	84.5
351.856	87.5
352.083	84.5
352.311	72.5
352.538	94.5
352.765	84.5
352.992	86.5
353.22	86.5
353.447	79.5
353.674	98.5
353.901	89.5
354.128	98.5
354.355	94.5
354.583	86.5
354.81	95.5
355.037	95.5
355.264	86.5
355.491	89.5
355.718	72.5
355.945	78.5
356.172	94.5
356.399	83.5
356.626	94.5
356.853	92.5
357.08	80.5
357.307	85.5
357.534	86.5
357.761	86.5
357.988	87.5
358.215	113.5
358.441	92.5
358.668	92.5
358.895	81.5
359.122	80.5
359.349	74.5
359.576	79.5
359.802	79.5
360.029	92.5
360.256	91.5
360.483	77.5
360.709	75.5
360.936	96.5
361.163	82.5
361.39	76.5
361.616	78.5
361.843	72.5
362.07	74.5
362.296	98.5
362.523	92.5
362.749	96.5
362.976	84.5
363.203	99.5
363.429	89.5
363.656	98.5
363.882	75.5
364.109	95.5
364.335	110.5
364.562	106.5
364.788	96.5
365.015	95.5
365.241	81.5
365.468	89.5
365.694	94.5
365.92	82.5
366.147	75.5
366.373	89.5
366.599	84.5
366.826	86.5
367.052	105.5
367.278	82.5
367.505	82.5
367.731	80.5
367.957	98.5
368.184	98.5
368.41	86.5
368.636	90.5
368.862	91.5
369.089	96.5
369.315	94.5
369.541	81.5
369.767	88.5
369.993	86.5
370.219	81.5
370.445	96.5
370.672	94.5
370.898	93.5
371.124	92.5
371.35	82.5
371.576	86.5
371.802	81.5
372.028	98.5
372.254	103.5
372.48	91.5
372.706	91.5
372.932	92.5
373.158	102.5
373.384	81.5
373.61	116.5
373.835	98.5
374.061	87.5
374.287	87.5
374.513	82.5
374.739	86.5
374.965	70.5
375.191	85.5
375.416	76.5
375.642	90.5
375.868	90.5
376.094	92.5
376.319	88.5
376.545	80.5
376.771	68.5
376.997	88.5
377.222	86.5
377.448	89.5
377.674	90.5
377.899	89.5
378.125	95.5
378.35	89.5
378.576	96.5
378.802	90.5
379.027	98.5
379.253	89.5
379.478	74.5
379.704	90.5
379.929	82.5
380.155	78.5
380.38	87.5
380.606	98.5
380.831	85.5
381.057	82.5
381.282	92.5
381.507	89.5
381.733	74.5
381.958	85.5
382.184	91.5
382.409	80.5
382.634	95.5
382.86	98.5
383.085	94.5
383.31	83.5
383.535	81.5
383.761	80.5
383.986	83.5
384.211	70.5
384.436	79.5
384.662	93.5
384.887	82.5
385.112	86.5
385.337	90.5
385.562	88.5
385.787	99.5
386.013	106.5
386.238	114.5
386.463	97.5
386.688	98.5
386.913	102.5
387.138	73.5
387.363	86.5
387.588	95.5
387.813	80.5
388.038	105.5
388.263	97.5
388.488	92.5
388.713	74.5
388.938	91.5
389.163	92.5
389.387	92.5
389.612	91.5
389.837	87.5
390.062	98.5
390.287	80.5
390.512	90.5
390.736	86.5
390.961	99.5
391.186	82.5
391.411	96.5
391.636	84.5
391.86	89.5
392.085	86.5
392.31	87.5
392.534	100.5
392.759	119.5
392.984	121.5
393.208	238.5
393.433	328.5
393.658	253.5
393.882	121.5
394.107	104.5
394.331	98.5
394.556	112.5
394.78	94.5
395.005	100.5
395.229	84.5
395.454	84.5
395.678	95.5
395.903	101.5
396.127	115.5
396.352	129.5
396.576	149.5
396.801	225.5
397.025	249.5
397.249	155.5
397.474	101.5
397.698	91.5
397.922	92.5
398.147	69.5
398.371	86.5
398.595	91.5
398.82	86.5
399.044	77.5
399.268	89.5
399.492	80.5
399.717	88.5
399.941	91.5
400.165	74.5
400.389	86.5
400.613	80.5
400.837	86.5
401.062	93.5
401.286	75.5
401.51	78.5
401.734	89.5
401.958	74.5
402.182	89.5
402.406	90.5
402.63	77.5
402.854	91.5
403.078	98.5
403.302	86.5
403.526	90.5
403.75	85.5
403.974	73.5
404.198	86.5
404.422	86.5
404.645	98.5
404.869	100.5
405.093	79.5
405.317	56.5
405.541	90.5
405.765	73.5
405.988	99.5
406.212	89.5
406.436	74.5
406.66	71.5
406.883	88.5
407.107	86.5
407.331	89.5
407.555	85.5
407.778	103.5
408.002	106.5
408.226	88.5
408.449	72.5
408.673	95.5
408.896	81.5
409.12	85.5
409.344	86.5
409.567	110.5
409.791	99.5
410.014	82.5
410.238	75.5
410.461	95.5
410.685	81.5
410.908	80.5
411.132	84.5
411.355	91.5
411.578	98.5
411.802	84.5
412.025	87.5
412.249	78.5
412.472	86.5
412.695	80.5
412.919	86.5
413.142	82.5
413.365	84.5
413.589	97.5
413.812	75.5
414.035	78.5
414.258	55.5
414.482	75.5
414.705	78.5
414.928	97.5
415.151	92.5
415.374	76.5
415.597	79.5
415.821	73.5
416.044	84.5
416.267	89.5
416.49	86.5
416.713	90.5
416.936	91.5
417.159	87.5
417.382	82.5
417.605	84.5
417.828	94.5
418.051	72.5
418.274	87.5
418.497	88.5
418.72	90.5
418.943	89.5
419.166	92.5
419.389	84.5
419.611	92.5
419.834	79.5
420.057	81.5
420.28	80.5
420.503	85.5
420.726	88.5
420.948	75.5
421.171	96.5
421.394	92.5
421.617	104.5
421.839	105.5
422.062	112.5
422.285	136.5
422.507	212.5
422.73	347.5
422.953	330.5
423.175	160.5
423.398	114.5
423.621	112.5
423.843	105.5
424.066	82.5
424.288	75.5
424.511	86.5
424.733	87.5
424.956	97.5
425.178	95.5
425.401	96.5
425.623	84.5
425.846	79.5
426.068	90.5
426.291	90.5
426.513	87.5
426.735	93.5
426.958	92.5
427.18	89.5
427.402	86.5
427.625	82.5
427.847	91.5
428.069	107.5
428.292	102.5
428.514	126.5
428.736	91.5
428.958	118.5
429.181	110.5
429.403	99.5
429.625	101.5
429.847	111.5
430.069	132.5
430.292	138.5
430.514	133.5
430.736	107.5
430.958	114.5
431.18	85.5
431.402	79.5
431.624	95.5
431.846	115.5
432.068	114.5
432.29	82.5
432.512	90.5
432.734	95.5
432.956	87.5
433.178	79.5
433.4	83.5
433.622	102.5
433.844	91.5
434.066	92.5
434.287	94.5
434.509	74.5
434.731	82.5
434.953	87.5
435.175	76.5
435.397	94.5
435.618	87.5
435.84	91.5
436.062	94.5
436.284	76.5
436.505	62.5
436.727	86.5
436.949	69.5
437.17	80.5
437.392	86.5
437.614	88.5
437.835	70.5
438.057	91.5
438.278	88.5
438.5	95.5
438.721	91.5
438.943	82.5
439.165	84.5
439.386	83.5
439.608	84.5
439.829	83.5
440.05	71.5
440.272	79.5
440.493	84.5
440.715	80.5
440.936	80.5
441.158	75.5
441.379	89.5
441.6	84.5
441.822	90.5
442.043	71.5
442.264	80.5
442.486	106.5
442.707	135.5
442.928	106.5
443.149	102.5
443.371	122.5
443.592	198.5
443.813	154.5
444.034	105.5
444.255	89.5
444.476	79.5
444.698	73.5
444.919	91.5
445.14	179.5
445.361	173.5
445.582	214.5
445.803	179.5
446.024	115.5
446.245	96.5
446.466	94.5
446.687	80.5
446.908	89.5
447.129	95.5
447.35	80.5
447.571	91.5
447.792	95.5
448.013	86.5
448.234	89.5
448.455	88.5
448.675	70.5
448.896	81.5
449.117	90.5
449.338	91.5
449.559	87.5
449.779	89.5
450	76.5
450.221	91.5
450.442	82.5
450.662	80.5
450.883	95.5
451.104	72.5
451.324	94.5
451.545	82.5
451.766	80.5
451.986	89.5
452.207	94.5
452.428	86.5
452.648	98.5
452.869	89.5
453.089	82.5
453.31	94.5
453.53	89.5
453.751	75.5
453.971	80.5
454.192	83.5
454.412	84.5
454.633	102.5
454.853	82.5
455.073	75.5
455.294	82.5
455.514	89.5
455.734	92.5
455.955	96.5
456.175	92.5
456.395	77.5
456.616	76.5
456.836	87.5
457.056	80.5
457.276	93.5
457.497	75.5
457.717	98.5
457.937	108.5
458.157	115.5
458.377	112.5
458.598	101.5
458.818	102.5
459.038	87.5
459.258	82.5
459.478	72.5
459.698	85.5
459.918	84.5
460.138	100.5
460.358	87.5
460.578	87.5
460.798	106.5
461.018	114.5
461.238	78.5
461.458	87.5
461.678	89.5
461.898	83.5
462.118	97.5
462.338	82.5
462.558	90.5
462.777	91.5
462.997	83.5
463.217	92.5
463.437	79.5
463.657	84.5
463.876	89.5
464.096	99.5
464.316	89.5
464.536	102.5
464.755	84.5
464.975	82.5
465.195	74.5
465.414	94.5
465.634	84.5
465.854	77.5
466.073	97.5
466.293	96.5
466.512	92.5
466.732	94.5
466.951	80.5
467.171	84.5
467.391	82.5
467.61	74.5
467.829	78.5
468.049	72.5
468.268	70.5
468.488	74.5
468.707	85.5
468.927	81.5
469.146	83.5
469.365	77.5
469.585	88.5
469.804	90.5
470.023	75.5
470.243	78.5
470.462	84.5
470.681	82.5
470.901	88.5
471.12	95.5
471.339	90.5
471.558	71.5
471.777	80.5
471.997	102.5
472.216	80.5
472.435	92.5
472.654	87.5
472.873	100.5
473.092	80.5
473.311	87.5
473.53	76.5
473.749	84.5
473.968	83.5
474.187	87.5
474.406	97.5
474.625	74.5
474.844	75.5
475.063	98.5
475.282	88.5
475.501	91.5
475.72	96.5
475.939	90.5
476.158	77.5
476.377	89.5
476.596	81.5
476.814	95.5
477.033	92.5
477.252	99.5
477.471	78.5
477.69	78.5
477.908	89.5
478.127	80.5
478.346	84.5
478.564	89.5
478.783	71.5
479.002	85.5
479.22	94.5
479.439	91.5
479.658	94.5
479.876	96.5
480.095	98.5
480.313	96.5
480.532	83.5
480.751	101.5
480.969	77.5
481.188	87.5
481.406	84.5
481.624	85.5
481.843	73.5
482.061	88.5
482.28	79.5
482.498	91.5
482.717	84.5
482.935	88.5
483.153	77.5
483.372	89.5
483.59	87.5
483.808	93.5
484.027	86.5
484.245	99.5
484.463	84.5
484.681	91.5
484.9	95.5
485.118	86.5
485.336	78.5
485.554	84.5
485.772	80.5
485.99	86.5
486.209	78.5
486.427	75.5
486.645	72.5
486.863	84.5
487.081	86.5
487.299	84.5
487.517	80.5
487.735	102.5
487.953	122.5
488.171	116.5
488.389	87.5
488.607	69.5
488.825	80.5
489.043	91.5
489.261	81.5
489.479	90.5
489.696	100.5
489.914	90.5
490.132	85.5
490.35	84.5
490.568	89.5
490.786	84.5
491.003	85.5
491.221	80.5
491.439	98.5
491.657	92.5
491.874	77.5
492.092	90.5
492.31	87.5
492.527	89.5
492.745	80.5
492.963	94.5
493.18	74.5
493.398	78.5
493.615	83.5
493.833	74.5
494.05	84.5
494.268	83.5
494.485	82.5
494.703	83.5
494.92	84.5
495.138	83.5
495.355	91.5
495.573	86.5
495.79	90.5
496.008	101.5
496.225	82.5
496.442	81.5
496.66	80.5
496.877	91.5
497.094	94.5
497.312	80.5
497.529	84.5
497.746	89.5
497.963	72.5
498.181	90.5
498.398	92.5
498.615	106.5
498.832	90.5
499.049	70.5
499.267	107.5
499.484	91.5
499.701	91.5
499.918	84.5
500.135	103.5
500.352	93.5
500.569	82.5
500.786	92.5
501.003	88.5
501.22	85.5
501.437	86.5
501.654	86.5
501.871	93.5
502.088	73.5
502.305	86.5
502.522	83.5
502.739	90.5
502.956	76.5
503.172	78.5
503.389	84.5
503.606	88.5
503.823	80.5
504.04	102.5
504.256	98.5
504.473	110.5
504.69	94.5
504.907	95.5
505.123	87.5
505.34	90.5
505.557	82.5
505.773	89.5
505.99	82.5
506.207	94.5
506.423	89.5
506.64	92.5
506.856	86.5
507.073	81.5
507.289	92.5
507.506	80.5
507.722	86.5
507.939	78.5
508.155	88.5
508.372	92.5
508.588	82.5
508.805	77.5
509.021	88.5
509.238	82.5
509.454	104.5
509.67	102.5
509.887	79.5
510.103	83.5
510.319	84.5
510.536	83.5
510.752	98.5
510.968	85.5
511.184	87.5
511.401	96.5
511.617	94.5
511.833	86.5
512.049	91.5
512.265	67.5
512.481	98.5
512.698	82.5
512.914	88.5
513.13	84.5
513.346	92.5
513.562	84.5
513.778	110.5
513.994	94.5
514.21	79.5
514.426	81.5
514.642	99.5
514.858	86.5
515.074	91.5
515.29	99.5
515.506	75.5
515.721	79.5
515.937	95.5
516.153	89.5
516.369	71.5
516.585	80.5
516.801	81.5
517.016	102.5
517.232	99.5
517.448	94.5
517.664	83.5
517.879	87.5
518.095	88.5
518.311	77.5
518.527	105.5
518.742	86.5
518.958	104.5
519.173	138.5
519.389	89.5
519.605	86.5
519.82	77.5
520.036	78.5
520.251	79.5
520.467	86.5
520.682	78.5
520.898	76.5
521.113	96.5
521.329	80.5
521.544	71.5
521.76	88.5
521.975	80.5
522.19	89.5
522.406	74.5
522.621	87.5
522.836	75.5
523.052	85.5
523.267	110.5
523.482	93.5
523.698	90.5
523.913	89.5
524.128	82.5
524.343	76.5
524.559	86.5
524.774	91.5
524.989	81.5
525.204	79.5
525.419	84.5
525.634	103.5
525.849	107.5
526.064	94.5
526.28	140.5
526.495	192.5
526.71	204.5
526.925	166.5
527.14	198.5
527.355	174.5
527.57	105.5
527.785	77.5
527.999	91.5
528.214	90.5
528.429	79.5
528.644	87.5
528.859	72.5
529.074	84.5
529.289	91.5
529.503	103.5
529.718	94.5
529.933	83.5
530.148	92.5
530.363	86.5
530.577	73.5
530.792	75.5
531.007	82.5
531.221	98.5
531.436	88.5
531.651	98.5
531.865	80.5
532.08	76.5
532.295	87.5
532.509	94.5
532.724	94.5
532.938	97.5
533.153	89.5
533.367	100.5
533.582	93.5
533.796	86.5
534.011	73.5
534.225	85.5
534.44	98.5
534.654	86.5
534.868	102.5
535.083	118.5
535.297	124.5
535.511	100.5
535.726	101.5
535.94	86.5
536.154	83.5
536.369	101.5
536.583	90.5
536.797	89.5
537.011	95.5
537.225	110.5
537.44	96.5
537.654	105.5
537.868	78.5
538.082	84.5
538.296	103.5
538.51	102.5
538.724	96.5
