Data from 237_2_HRD10591_00005.txt Node
Date: Mon Jan 19 14:11:33 EST 2026
User: Yrep
Spectrometer: HR+D1059
Trigger mode: 1
Integration Time (sec): 1.000000E-1
Scans to average: 1
Electric dark correction enabled: true
Nonlinearity correction enabled: false
Boxcar width: 0
XAxis mode: Wavelengths
Number of Pixels in Spectrum: 2048
>>>>>Begin Spectral Data<<<<<
223.165	-14
223.4	-14
223.635	-14
223.869	-13
224.104	-47
224.338	-9
224.573	-17
224.808	-9
225.042	-5
225.277	-19
225.511	-6
225.746	13
225.98	-2
226.215	19
226.449	12
226.683	26
226.918	35
227.152	36
227.387	50
227.621	52
227.856	40
228.09	42
228.324	39
228.559	59
228.793	64
229.027	69
229.262	62
229.496	74
229.73	64
229.964	78
230.199	70
230.433	69
230.667	64
230.901	69
231.136	93
231.37	70
231.604	71
231.838	86
232.072	91
232.306	84
232.541	91
232.775	96
233.009	90
233.243	86
233.477	82
233.711	94
233.945	79
234.179	90
234.413	78
234.647	84
234.881	77
235.115	75
235.349	87
235.583	80
235.817	80
236.051	87
236.285	72
236.519	85
236.753	87
236.987	79
237.221	88
237.455	87
237.689	90
237.922	83
238.156	81
238.39	89
238.624	80
238.858	82
239.091	77
239.325	69
239.559	78
239.793	74
240.027	68
240.26	91
240.494	71
240.728	85
240.961	89
241.195	69
241.429	80
241.662	83
241.896	76
242.13	79
242.363	80
242.597	91
242.83	91
243.064	89
243.298	93
243.531	89
243.765	71
243.998	69
244.232	73
244.465	80
244.699	78
244.932	61
245.166	83
245.399	89
245.633	84
245.866	69
246.099	95
246.333	86
246.566	64
246.8	95
247.033	87
247.266	84
247.5	76
247.733	71
247.966	88
248.2	77
248.433	83
248.666	97
248.899	93
249.133	80
249.366	70
249.599	78
249.832	80
250.066	91
250.299	83
250.532	76
250.765	87
250.998	73
251.231	78
251.465	80
251.698	88
251.931	72
252.164	80
252.397	85
252.63	90
252.863	94
253.096	94
253.329	86
253.562	97
253.795	85
254.028	79
254.261	83
254.494	82
254.727	75
254.96	72
255.193	76
255.426	86
255.659	77
255.892	72
256.124	82
256.357	68
256.59	85
256.823	79
257.056	92
257.289	73
257.521	87
257.754	89
257.987	72
258.22	77
258.452	92
258.685	87
258.918	87
259.151	88
259.383	87
259.616	78
259.849	85
260.081	63
260.314	83
260.547	85
260.779	92
261.012	72
261.244	83
261.477	91
261.71	89
261.942	71
262.175	84
262.407	77
262.64	88
262.872	83
263.105	85
263.337	89
263.57	91
263.802	95
264.035	71
264.267	75
264.499	81
264.732	97
264.964	88
265.197	77
265.429	83
265.661	81
265.894	70
266.126	89
266.358	83
266.591	90
266.823	81
267.055	72
267.287	90
267.52	91
267.752	78
267.984	92
268.216	89
268.448	74
268.681	102
268.913	74
269.145	91
269.377	91
269.609	90
269.841	86
270.073	91
270.306	85
270.538	90
270.77	93
271.002	88
271.234	69
271.466	83
271.698	85
271.93	94
272.162	85
272.394	79
272.626	91
272.858	91
273.09	82
273.322	82
273.553	95
273.785	81
274.017	83
274.249	92
274.481	89
274.713	79
274.945	91
275.176	79
275.408	88
275.64	95
275.872	79
276.104	79
276.335	102
276.567	93
276.799	98
277.031	91
277.262	77
277.494	89
277.726	78
277.957	91
278.189	79
278.421	90
278.652	83
278.884	85
279.115	82
279.347	88
279.579	88
279.81	91
280.042	80
280.273	87
280.505	83
280.736	80
280.968	76
281.199	87
281.431	80
281.662	77
281.894	91
282.125	79
282.356	88
282.588	85
282.819	94
283.051	83
283.282	81
283.513	81
283.745	87
283.976	78
284.207	94
284.439	89
284.67	83
284.901	82
285.132	82
285.364	92
285.595	95
285.826	78
286.057	86
286.288	67
286.52	75
286.751	83
286.982	86
287.213	84
287.444	80
287.675	93
287.906	83
288.138	102
288.369	85
288.6	93
288.831	100
289.062	91
289.293	84
289.524	67
289.755	84
289.986	90
290.217	88
290.448	86
290.679	97
290.91	90
291.141	93
291.371	80
291.602	93
291.833	90
292.064	92
292.295	83
292.526	83
292.757	93
292.987	86
293.218	92
293.449	91
293.68	86
293.91	83
294.141	99
294.372	93
294.603	94
294.833	86
295.064	90
295.295	85
295.525	95
295.756	95
295.987	84
296.217	90
296.448	108
296.679	87
296.909	95
297.14	85
297.37	94
297.601	95
297.831	90
298.062	87
298.292	93
298.523	88
298.753	78
298.984	87
299.214	82
299.445	94
299.675	90
299.905	82
300.136	93
300.366	84
300.597	94
300.827	88
301.057	87
301.288	93
301.518	94
301.748	97
301.979	105
302.209	92
302.439	76
302.669	99
302.9	95
303.13	85
303.36	87
303.59	107
303.82	108
304.051	85
304.281	95
304.511	93
304.741	98
304.971	77
305.201	91
305.431	96
305.661	87
305.891	93
306.121	84
306.352	81
306.582	92
306.812	96
307.042	83
307.272	93
307.502	97
307.731	85
307.961	99
308.191	103
308.421	96
308.651	89
308.881	90
309.111	80
309.341	98
309.571	89
309.8	89
310.03	91
310.26	89
310.49	83
310.72	89
310.949	91
311.179	88
311.409	99
311.639	101
311.868	90
312.098	89
312.328	81
312.557	84
312.787	96
313.017	87
313.246	88
313.476	81
313.706	77
313.935	92
314.165	89
314.394	85
314.624	104
314.853	89
315.083	102
315.312	98
315.542	81
315.771	99
316.001	85
316.23	89
316.46	85
316.689	101
316.919	101
317.148	82
317.377	77
317.607	85
317.836	88
318.065	91
318.295	96
318.524	89
318.753	83
318.983	76
319.212	91
319.441	85
319.67	92
319.9	80
320.129	90
320.358	93
320.587	77
320.816	83
321.046	92
321.275	96
321.504	97
321.733	107
321.962	90
322.191	73
322.42	85
322.649	89
322.878	91
323.108	90
323.337	87
323.566	82
323.795	97
324.024	86
324.253	84
324.482	96
324.71	97
324.939	89
325.168	93
325.397	98
325.626	90
325.855	93
326.084	82
326.313	78
326.542	89
326.77	99
326.999	66
327.228	80
327.457	86
327.686	94
327.914	91
328.143	93
328.372	87
328.6	95
328.829	91
329.058	104
329.287	93
329.515	85
329.744	103
329.972	90
330.201	85
330.43	97
330.658	71
330.887	97
331.115	94
331.344	88
331.572	95
331.801	90
332.03	100
332.258	98
332.486	86
332.715	96
332.943	94
333.172	87
333.4	97
333.629	86
333.857	97
334.085	101
334.314	69
334.542	111
334.771	84
334.999	90
335.227	75
335.455	94
335.684	93
335.912	92
336.14	98
336.369	103
336.597	106
336.825	102
337.053	107
337.281	104
337.51	97
337.738	97
337.966	80
338.194	89
338.422	81
338.65	90
338.878	87
339.106	85
339.334	93
339.562	98
339.79	88
340.018	82
340.246	103
340.474	98
340.702	78
340.93	93
341.158	101
341.386	80
341.614	97
341.842	89
342.07	95
342.298	97
342.526	83
342.754	95
342.981	94
343.209	94
343.437	109
343.665	94
343.893	94
344.12	94
344.348	92
344.576	95
344.804	91
345.031	82
345.259	85
345.487	72
345.714	99
345.942	93
346.17	83
346.397	77
346.625	90
346.853	96
347.08	87
347.308	85
347.535	88
347.763	98
347.99	90
348.218	88
348.445	94
348.673	84
348.9	89
349.128	89
349.355	87
349.583	73
349.81	90
350.037	89
350.265	103
350.492	78
350.72	99
350.947	87
351.174	90
351.402	106
351.629	83
351.856	89
352.083	89
352.311	92
352.538	93
352.765	103
352.992	100
353.22	91
353.447	82
353.674	86
353.901	102
354.128	94
354.355	83
354.583	84
354.81	90
355.037	95
355.264	89
355.491	87
355.718	110
355.945	94
356.172	96
356.399	100
356.626	105
356.853	87
357.08	85
357.307	104
357.534	101
357.761	85
357.988	89
358.215	103
358.441	91
358.668	101
358.895	91
359.122	82
359.349	85
359.576	83
359.802	87
360.029	76
360.256	95
360.483	77
360.709	85
360.936	97
361.163	90
361.39	80
361.616	102
361.843	92
362.07	88
362.296	103
362.523	106
362.749	107
362.976	102
363.203	122
363.429	120
363.656	101
363.882	101
364.109	102
364.335	117
364.562	138
364.788	117
365.015	109
365.241	107
365.468	93
365.694	89
365.92	90
366.147	80
366.373	86
366.599	89
366.826	95
367.052	82
367.278	91
367.505	83
367.731	107
367.957	92
368.184	98
368.41	94
368.636	87
368.862	93
369.089	81
369.315	91
369.541	93
369.767	95
369.993	85
370.219	91
370.445	83
370.672	92
370.898	85
371.124	95
371.35	91
371.576	92
371.802	91
372.028	97
372.254	108
372.48	102
372.706	98
372.932	98
373.158	86
373.384	113
373.61	108
373.835	115
374.061	98
374.287	94
374.513	95
374.739	103
374.965	93
375.191	111
375.416	93
375.642	92
375.868	97
376.094	91
376.319	95
376.545	104
376.771	97
376.997	88
377.222	85
377.448	101
377.674	87
377.899	87
378.125	69
378.35	89
378.576	99
378.802	106
379.027	89
379.253	95
379.478	101
379.704	87
379.929	100
380.155	98
380.38	86
380.606	84
380.831	92
381.057	95
381.282	95
381.507	90
381.733	114
381.958	85
382.184	91
382.409	101
382.634	102
382.86	101
383.085	86
383.31	101
383.535	116
383.761	91
383.986	117
384.211	110
384.436	91
384.662	92
384.887	97
385.112	81
385.337	97
385.562	93
385.787	104
386.013	109
386.238	103
386.463	91
386.688	101
386.913	106
387.138	87
387.363	103
387.588	91
387.813	102
388.038	93
388.263	99
388.488	98
388.713	93
388.938	90
389.163	95
389.387	94
389.612	98
389.837	94
390.062	100
390.287	109
390.512	83
390.736	103
390.961	95
391.186	91
391.411	79
391.636	98
391.86	100
392.085	103
392.31	89
392.534	95
392.759	108
392.984	153
393.208	262
393.433	387
393.658	288
393.882	143
394.107	100
394.331	100
394.556	134
394.78	110
395.005	91
395.229	90
395.454	103
395.678	108
395.903	108
396.127	134
396.352	142
396.576	167
396.801	251
397.025	291
397.249	171
397.474	127
397.698	110
397.922	99
398.147	94
398.371	97
398.595	100
398.82	98
399.044	106
399.268	100
399.492	87
399.717	103
399.941	84
400.165	93
400.389	95
400.613	87
400.837	92
401.062	70
401.286	95
401.51	90
401.734	90
401.958	92
402.182	104
402.406	103
402.63	89
402.854	83
403.078	84
403.302	96
403.526	101
403.75	101
403.974	100
404.198	99
404.422	97
404.645	127
404.869	107
405.093	100
405.317	89
405.541	77
405.765	74
405.988	93
406.212	104
406.436	91
406.66	93
406.883	80
407.107	79
407.331	93
407.555	89
407.778	113
408.002	119
408.226	89
408.449	80
408.673	89
408.896	96
409.12	92
409.344	103
409.567	104
409.791	91
410.014	99
410.238	90
410.461	97
410.685	94
410.908	92
411.132	98
411.355	89
411.578	72
411.802	91
412.025	93
412.249	86
412.472	88
412.695	88
412.919	86
413.142	93
413.365	108
413.589	98
413.812	80
414.035	94
414.258	85
414.482	80
414.705	95
414.928	95
415.151	95
415.374	100
415.597	89
415.821	75
416.044	85
416.267	93
416.49	89
416.713	90
416.936	91
417.159	71
417.382	85
417.605	83
417.828	79
418.051	81
418.274	90
418.497	86
418.72	104
418.943	97
419.166	80
419.389	85
419.611	94
419.834	98
420.057	103
420.28	91
420.503	94
420.726	91
420.948	92
421.171	100
421.394	89
421.617	100
421.839	100
422.062	127
422.285	151
422.507	277
422.73	450
422.953	394
423.175	219
423.398	110
423.621	104
423.843	98
424.066	111
424.288	87
424.511	97
424.733	101
424.956	90
425.178	89
425.401	93
425.623	89
425.846	86
426.068	103
426.291	98
426.513	100
426.735	88
426.958	79
427.18	87
427.402	90
427.625	85
427.847	92
428.069	109
428.292	137
428.514	149
428.736	114
428.958	137
429.181	141
429.403	111
429.625	101
429.847	127
430.069	168
430.292	193
430.514	176
430.736	133
430.958	131
431.18	107
431.402	100
431.624	105
431.846	126
432.068	132
432.29	99
432.512	92
432.734	85
432.956	76
433.178	101
433.4	81
433.622	69
433.844	79
434.066	80
434.287	91
434.509	89
434.731	93
434.953	84
435.175	95
435.397	83
435.618	87
435.84	104
436.062	98
436.284	101
436.505	94
436.727	83
436.949	90
437.17	68
437.392	95
437.614	99
437.835	95
438.057	93
438.278	100
438.5	95
438.721	83
438.943	86
439.165	81
439.386	91
439.608	93
439.829	93
440.05	92
440.272	78
440.493	95
440.715	93
440.936	89
441.158	97
441.379	81
441.6	87
441.822	91
442.043	94
442.264	115
442.486	137
442.707	175
442.928	131
443.149	115
443.371	143
443.592	267
443.813	241
444.034	122
444.255	91
444.476	91
444.698	95
444.919	98
445.14	186
445.361	221
445.582	300
445.803	255
446.024	126
446.245	102
446.466	87
446.687	80
446.908	91
447.129	95
447.35	66
447.571	92
447.792	85
448.013	78
448.234	92
448.455	81
448.675	90
448.896	77
449.117	87
449.338	87
449.559	89
449.779	81
450	98
450.221	80
450.442	75
450.662	89
450.883	71
451.104	93
451.324	83
451.545	87
451.766	90
451.986	94
452.207	99
452.428	86
452.648	89
452.869	106
453.089	92
453.31	93
453.53	89
453.751	97
453.971	79
454.192	83
454.412	82
454.633	92
454.853	78
455.073	94
455.294	84
455.514	93
455.734	97
455.955	89
456.175	97
456.395	71
456.616	75
456.836	82
457.056	103
457.276	100
457.497	83
457.717	92
457.937	99
458.157	129
458.377	114
458.598	118
458.818	122
459.038	97
459.258	89
459.478	76
459.698	83
459.918	81
460.138	86
460.358	94
460.578	88
460.798	113
461.018	117
461.238	95
461.458	89
461.678	92
461.898	93
462.118	103
462.338	90
462.558	75
462.777	80
462.997	93
463.217	88
463.437	79
463.657	81
463.876	78
464.096	84
464.316	93
464.536	93
464.755	88
464.975	72
465.195	88
465.414	90
465.634	90
465.854	105
466.073	87
466.293	85
466.512	74
466.732	83
466.951	85
467.171	86
467.391	91
467.61	99
467.829	89
468.049	85
468.268	97
468.488	84
468.707	81
468.927	75
469.146	82
469.365	81
469.585	87
469.804	85
470.023	78
470.243	87
470.462	88
470.681	81
470.901	83
471.12	76
471.339	83
471.558	85
471.777	106
471.997	88
472.216	91
472.435	81
472.654	91
472.873	88
473.092	92
473.311	79
473.53	88
473.749	91
473.968	106
474.187	85
474.406	95
474.625	94
474.844	94
475.063	91
475.282	96
475.501	105
475.72	93
475.939	98
476.158	76
476.377	79
476.596	91
476.814	79
477.033	83
477.252	79
477.471	73
477.69	91
477.908	95
478.127	86
478.346	79
478.564	71
478.783	101
479.002	89
479.22	92
479.439	74
479.658	94
479.876	75
480.095	88
480.313	99
480.532	97
480.751	90
480.969	97
481.188	93
481.406	90
481.624	93
481.843	89
482.061	85
482.28	90
482.498	91
482.717	79
482.935	95
483.153	103
483.372	100
483.59	92
483.808	85
484.027	105
484.245	83
484.463	93
484.681	98
484.9	100
485.118	94
485.336	81
485.554	85
485.772	95
485.99	97
486.209	89
486.427	76
486.645	80
486.863	96
487.081	89
487.299	90
487.517	100
487.735	123
487.953	161
488.171	147
488.389	93
488.607	93
488.825	93
489.043	82
489.261	86
489.479	87
489.696	81
489.914	84
490.132	92
490.35	90
490.568	82
490.786	79
491.003	82
491.221	78
491.439	90
491.657	106
491.874	101
492.092	81
492.31	93
492.527	91
492.745	98
492.963	94
493.18	91
493.398	94
493.615	79
493.833	77
494.05	87
494.268	98
494.485	91
494.703	90
494.92	80
495.138	90
495.355	95
495.573	90
495.79	95
496.008	101
496.225	93
496.442	94
496.66	90
496.877	93
497.094	91
497.312	87
497.529	90
497.746	99
497.963	86
498.181	98
498.398	94
498.615	95
498.832	91
499.049	82
499.267	93
499.484	92
499.701	82
499.918	86
500.135	98
500.352	80
500.569	99
500.786	89
501.003	91
501.22	75
501.437	102
501.654	92
501.871	101
502.088	94
502.305	94
502.522	82
502.739	94
502.956	78
503.172	76
503.389	91
503.606	86
503.823	97
504.04	98
504.256	135
504.473	125
504.69	102
504.907	95
505.123	92
505.34	79
505.557	95
505.773	96
505.99	99
506.207	85
506.423	95
506.64	96
506.856	81
507.073	107
507.289	94
507.506	85
507.722	89
507.939	95
508.155	91
508.372	81
508.588	85
508.805	90
509.021	91
509.238	98
509.454	87
509.67	91
509.887	97
510.103	94
510.319	94
510.536	101
510.752	94
510.968	89
511.184	78
511.401	88
511.617	87
511.833	74
512.049	96
512.265	81
512.481	95
512.698	96
512.914	84
513.13	84
513.346	102
513.562	101
513.778	96
513.994	96
514.21	92
514.426	85
514.642	94
514.858	101
515.074	96
515.29	95
515.506	94
515.721	87
515.937	85
516.153	94
516.369	79
516.585	95
516.801	90
517.016	87
517.232	94
517.448	103
517.664	99
517.879	83
518.095	101
518.311	93
518.527	105
518.742	107
518.958	152
519.173	151
519.389	101
519.605	85
519.82	84
520.036	84
520.251	97
520.467	82
520.682	89
520.898	73
521.113	89
521.329	91
521.544	95
521.76	97
521.975	99
522.19	88
522.406	95
522.621	88
522.836	76
523.052	94
523.267	89
523.482	89
523.698	87
523.913	96
524.128	83
524.343	93
524.559	99
524.774	84
524.989	92
525.204	95
525.419	89
525.634	88
525.849	116
526.064	120
526.28	191
526.495	293
526.71	319
526.925	223
527.14	283
527.355	258
527.57	123
527.785	105
527.999	95
528.214	97
528.429	86
528.644	99
528.859	94
529.074	94
529.289	106
529.503	105
529.718	97
529.933	95
530.148	107
530.363	90
530.577	83
530.792	110
531.007	106
531.221	94
531.436	101
531.651	96
531.865	92
532.08	90
532.295	97
532.509	87
532.724	99
532.938	100
533.153	102
533.367	98
533.582	103
533.796	103
534.011	110
534.225	81
534.44	85
534.654	107
534.868	110
535.083	159
535.297	131
535.511	101
535.726	97
535.94	102
536.154	98
536.369	95
536.583	113
536.797	94
537.011	107
537.225	82
537.44	105
537.654	103
537.868	101
538.082	107
538.296	109
538.51	94
538.724	93
538.938	99
539.153	107
539.367	113
539.581	83
539.795	87
540.009	91
540.222	78
540.436	89
540.65	90
540.864	103
541.078	102
541.292	99
541.506	94
541.72	96
541.934	92
542.147	95
542.361	107
542.575	95
542.789	101
543.002	93
543.216	108
543.43	109
543.644	108
543.857	100
544.071	101
544.285	94
544.498	95
544.712	101
544.925	102
545.139	101
545.352	90
545.566	101
545.779	91
545.993	101
546.206	107
546.42	101
546.633	119
546.847	123
547.06	119
547.274	134
547.487	137
547.7	147
547.914	155
548.127	149
548.34	153
548.554	153
548.767	166
548.98	159
549.193	154
549.407	135
549.62	175
549.833	165
550.046	183
550.259	183
550.473	170
550.686	179
550.899	197
551.112	211
551.325	231
551.538	251
551.751	234
551.964	210
552.177	225
552.39	190
552.603	198
552.816	191
553.029	200
553.242	189
553.455	195
553.667	200
553.88	215
554.093	214
554.306	209
554.519	213
554.732	223
554.944	213
555.157	205
555.37	190
555.583	184
555.795	175
556.008	172
556.221	153
556.433	160
556.646	161
556.859	142
557.071	150
557.284	152
557.496	122
557.709	127
557.921	122
558.134	130
558.346	188
558.559	155
558.771	163
558.984	303
559.196	364
559.409	205
559.621	294
559.833	237
560.046	283
560.258	214
560.47	216
560.683	133
560.895	117
561.107	108
561.32	115
561.532	119
561.744	108
561.956	88
562.168	87
562.381	117
562.593	116
562.805	106
563.017	95
563.229	97
563.441	101
563.653	87
563.865	93
564.077	109
564.289	101
564.501	91
564.713	93
564.925	91
565.137	95
565.349	88
565.561	89
565.773	85
565.985	100
566.197	103
566.408	93
566.62	93
566.832	85
567.044	105
567.255	88
567.467	93
567.679	91
567.891	107
568.102	117
568.314	87
568.526	111
568.737	103
568.949	94
569.161	102
569.372	98
569.584	77
569.795	105
570.007	97
570.218	114
570.43	109
570.641	97
570.853	105
571.064	94
571.276	92
571.487	98
571.698	108
571.91	83
572.121	90
572.333	103
572.544	105
572.755	91
572.966	103
573.178	99
573.389	88
573.6	95
573.811	105
574.023	95
574.234	85
574.445	98
574.656	93
574.867	93
575.078	94
575.289	99
575.501	89
575.712	105
575.923	109
576.134	93
576.345	89
576.556	98
576.767	87
576.978	94
577.188	90
577.399	107
577.61	87
577.821	99
578.032	89
578.243	110
578.454	105
578.665	95
578.875	89
579.086	104
579.297	93
579.508	89
579.718	85
579.929	91
580.14	88
580.35	103
580.561	93
580.772	79
580.982	99
581.193	85
581.403	90
581.614	83
581.825	94
582.035	89
582.246	88
582.456	107
582.667	97
582.877	101
583.087	89
583.298	102
583.508	102
583.719	88
583.929	97
584.139	90
584.35	87
