Data from 237_2_HRD10591_00030.txt Node
Date: Mon Jan 19 14:11:45 EST 2026
User: Yrep
Spectrometer: HR+D1059
Trigger mode: 1
Integration Time (sec): 1.000000E-1
Scans to average: 1
Electric dark correction enabled: true
Nonlinearity correction enabled: false
Boxcar width: 0
XAxis mode: Wavelengths
Number of Pixels in Spectrum: 2048
>>>>>Begin Spectral Data<<<<<
223.165	-12.12
223.4	-12.12
223.635	-12.12
223.869	-14.12
224.104	-17.12
224.338	-17.12
224.573	-20.12
224.808	-10.12
225.042	-4.12
225.277	0.88
225.511	-6.12
225.746	1.88
225.98	-6.12
226.215	13.88
226.449	21.88
226.683	11.88
226.918	26.88
227.152	29.88
227.387	27.88
227.621	40.88
227.856	34.88
228.09	36.88
228.324	42.88
228.559	53.88
228.793	50.88
229.027	63.88
229.262	69.88
229.496	51.88
229.73	80.88
229.964	68.88
230.199	73.88
230.433	57.88
230.667	85.88
230.901	72.88
231.136	95.88
231.37	79.88
231.604	69.88
231.838	83.88
232.072	76.88
232.306	83.88
232.541	66.88
232.775	69.88
233.009	81.88
233.243	79.88
233.477	88.88
233.711	74.88
233.945	83.88
234.179	84.88
234.413	83.88
234.647	100.88
234.881	75.88
235.115	69.88
235.349	79.88
235.583	89.88
235.817	79.88
236.051	80.88
236.285	80.88
236.519	84.88
236.753	81.88
236.987	86.88
237.221	84.88
237.455	90.88
237.689	86.88
237.922	79.88
238.156	77.88
238.39	54.88
238.624	76.88
238.858	76.88
239.091	85.88
239.325	86.88
239.559	90.88
239.793	69.88
240.027	87.88
240.26	72.88
240.494	76.88
240.728	84.88
240.961	81.88
241.195	82.88
241.429	77.88
241.662	79.88
241.896	74.88
242.13	78.88
242.363	61.88
242.597	79.88
242.83	91.88
243.064	88.88
243.298	66.88
243.531	86.88
243.765	67.88
243.998	81.88
244.232	77.88
244.465	76.88
244.699	71.88
244.932	70.88
245.166	74.88
245.399	93.88
245.633	85.88
245.866	64.88
246.099	67.88
246.333	78.88
246.566	86.88
246.8	82.88
247.033	89.88
247.266	78.88
247.5	90.88
247.733	75.88
247.966	67.88
248.2	77.88
248.433	90.88
248.666	69.88
248.899	70.88
249.133	88.88
249.366	100.88
249.599	92.88
249.832	84.88
250.066	104.88
250.299	90.88
250.532	86.88
250.765	75.88
250.998	86.88
251.231	76.88
251.465	80.88
251.698	93.88
251.931	88.88
252.164	79.88
252.397	82.88
252.63	92.88
252.863	78.88
253.096	82.88
253.329	76.88
253.562	77.88
253.795	74.88
254.028	86.88
254.261	68.88
254.494	87.88
254.727	95.88
254.96	68.88
255.193	73.88
255.426	89.88
255.659	76.88
255.892	84.88
256.124	71.88
256.357	68.88
256.59	82.88
256.823	85.88
257.056	60.88
257.289	83.88
257.521	92.88
257.754	93.88
257.987	79.88
258.22	83.88
258.452	86.88
258.685	95.88
258.918	73.88
259.151	87.88
259.383	85.88
259.616	71.88
259.849	83.88
260.081	80.88
260.314	87.88
260.547	85.88
260.779	78.88
261.012	90.88
261.244	72.88
261.477	88.88
261.71	84.88
261.942	78.88
262.175	81.88
262.407	82.88
262.64	84.88
262.872	88.88
263.105	95.88
263.337	73.88
263.57	76.88
263.802	89.88
264.035	84.88
264.267	85.88
264.499	90.88
264.732	85.88
264.964	93.88
265.197	84.88
265.429	79.88
265.661	86.88
265.894	72.88
266.126	85.88
266.358	106.88
266.591	84.88
266.823	91.88
267.055	76.88
267.287	78.88
267.52	81.88
267.752	84.88
267.984	84.88
268.216	85.88
268.448	77.88
268.681	72.88
268.913	93.88
269.145	86.88
269.377	81.88
269.609	65.88
269.841	96.88
270.073	82.88
270.306	72.88
270.538	88.88
270.77	98.88
271.002	87.88
271.234	85.88
271.466	79.88
271.698	94.88
271.93	76.88
272.162	76.88
272.394	90.88
272.626	86.88
272.858	79.88
273.09	90.88
273.322	81.88
273.553	87.88
273.785	93.88
274.017	93.88
274.249	85.88
274.481	90.88
274.713	86.88
274.945	82.88
275.176	83.88
275.408	73.88
275.64	90.88
275.872	105.88
276.104	84.88
276.335	85.88
276.567	77.88
276.799	89.88
277.031	75.88
277.262	84.88
277.494	96.88
277.726	77.88
277.957	76.88
278.189	82.88
278.421	80.88
278.652	80.88
278.884	78.88
279.115	93.88
279.347	87.88
279.579	82.88
279.81	84.88
280.042	73.88
280.273	82.88
280.505	96.88
280.736	77.88
280.968	86.88
281.199	88.88
281.431	88.88
281.662	82.88
281.894	88.88
282.125	75.88
282.356	83.88
282.588	92.88
282.819	79.88
283.051	76.88
283.282	86.88
283.513	86.88
283.745	95.88
283.976	85.88
284.207	86.88
284.439	92.88
284.67	76.88
284.901	100.88
285.132	98.88
285.364	96.88
285.595	81.88
285.826	91.88
286.057	87.88
286.288	88.88
286.52	94.88
286.751	89.88
286.982	82.88
287.213	82.88
287.444	84.88
287.675	97.88
287.906	100.88
288.138	105.88
288.369	84.88
288.6	90.88
288.831	77.88
289.062	82.88
289.293	82.88
289.524	89.88
289.755	79.88
289.986	81.88
290.217	80.88
290.448	76.88
290.679	79.88
290.91	77.88
291.141	81.88
291.371	93.88
291.602	94.88
291.833	85.88
292.064	107.88
292.295	83.88
292.526	88.88
292.757	84.88
292.987	101.88
293.218	78.88
293.449	76.88
293.68	86.88
293.91	108.88
294.141	100.88
294.372	93.88
294.603	94.88
294.833	89.88
295.064	96.88
295.295	84.88
295.525	83.88
295.756	112.88
295.987	92.88
296.217	79.88
296.448	82.88
296.679	87.88
296.909	86.88
297.14	92.88
297.37	86.88
297.601	80.88
297.831	79.88
298.062	84.88
298.292	91.88
298.523	75.88
298.753	84.88
298.984	84.88
299.214	80.88
299.445	86.88
299.675	90.88
299.905	77.88
300.136	92.88
300.366	93.88
300.597	99.88
300.827	101.88
301.057	90.88
301.288	81.88
301.518	94.88
301.748	82.88
301.979	93.88
302.209	99.88
302.439	92.88
302.669	94.88
302.9	87.88
303.13	86.88
303.36	92.88
303.59	84.88
303.82	79.88
304.051	85.88
304.281	88.88
304.511	88.88
304.741	75.88
304.971	80.88
305.201	98.88
305.431	83.88
305.661	97.88
305.891	72.88
306.121	77.88
306.352	85.88
306.582	93.88
306.812	84.88
307.042	96.88
307.272	90.88
307.502	89.88
307.731	90.88
307.961	91.88
308.191	105.88
308.421	100.88
308.651	95.88
308.881	91.88
309.111	101.88
309.341	97.88
309.571	105.88
309.8	90.88
310.03	83.88
310.26	91.88
310.49	87.88
310.72	90.88
310.949	108.88
311.179	99.88
311.409	83.88
311.639	99.88
311.868	93.88
312.098	94.88
312.328	96.88
312.557	90.88
312.787	82.88
313.017	109.88
313.246	86.88
313.476	84.88
313.706	83.88
313.935	86.88
314.165	85.88
314.394	95.88
314.624	100.88
314.853	92.88
315.083	88.88
315.312	93.88
315.542	91.88
315.771	94.88
316.001	99.88
316.23	93.88
316.46	84.88
316.689	90.88
316.919	105.88
317.148	86.88
317.377	86.88
317.607	85.88
317.836	82.88
318.065	91.88
318.295	84.88
318.524	82.88
318.753	86.88
318.983	95.88
319.212	88.88
319.441	86.88
319.67	108.88
319.9	78.88
320.129	94.88
320.358	82.88
320.587	96.88
320.816	87.88
321.046	89.88
321.275	87.88
321.504	98.88
321.733	100.88
321.962	86.88
322.191	90.88
322.42	71.88
322.649	79.88
322.878	93.88
323.108	97.88
323.337	84.88
323.566	85.88
323.795	75.88
324.024	80.88
324.253	90.88
324.482	86.88
324.71	102.88
324.939	105.88
325.168	92.88
325.397	103.88
325.626	92.88
325.855	94.88
326.084	93.88
326.313	93.88
326.542	75.88
326.77	105.88
326.999	98.88
327.228	88.88
327.457	86.88
327.686	96.88
327.914	86.88
328.143	75.88
328.372	80.88
328.6	90.88
328.829	77.88
329.058	78.88
329.287	90.88
329.515	106.88
329.744	77.88
329.972	103.88
330.201	97.88
330.43	88.88
330.658	77.88
330.887	86.88
331.115	94.88
331.344	98.88
331.572	98.88
331.801	94.88
332.03	88.88
332.258	77.88
332.486	102.88
332.715	80.88
332.943	77.88
333.172	86.88
333.4	86.88
333.629	93.88
333.857	90.88
334.085	92.88
334.314	79.88
334.542	93.88
334.771	93.88
334.999	102.88
335.227	91.88
335.455	85.88
335.684	109.88
335.912	85.88
336.14	100.88
336.369	87.88
336.597	88.88
336.825	91.88
337.053	92.88
337.281	90.88
337.51	90.88
337.738	92.88
337.966	93.88
338.194	90.88
338.422	104.88
338.65	91.88
338.878	86.88
339.106	93.88
339.334	98.88
339.562	78.88
339.79	73.88
340.018	76.88
340.246	95.88
340.474	91.88
340.702	89.88
340.93	83.88
341.158	92.88
341.386	96.88
341.614	70.88
341.842	85.88
342.07	89.88
342.298	78.88
342.526	92.88
342.754	91.88
342.981	84.88
343.209	77.88
343.437	93.88
343.665	92.88
343.893	99.88
344.12	93.88
344.348	90.88
344.576	72.88
344.804	91.88
345.031	90.88
345.259	96.88
345.487	83.88
345.714	80.88
345.942	87.88
346.17	76.88
346.397	95.88
346.625	85.88
346.853	94.88
347.08	94.88
347.308	83.88
347.535	115.88
347.763	91.88
347.99	62.88
348.218	91.88
348.445	88.88
348.673	86.88
348.9	92.88
349.128	97.88
349.355	90.88
349.583	68.88
349.81	86.88
350.037	96.88
350.265	64.88
350.492	88.88
350.72	88.88
350.947	93.88
351.174	72.88
351.402	81.88
351.629	92.88
351.856	93.88
352.083	90.88
352.311	77.88
352.538	69.88
352.765	111.88
352.992	94.88
353.22	84.88
353.447	93.88
353.674	77.88
353.901	78.88
354.128	107.88
354.355	100.88
354.583	94.88
354.81	83.88
355.037	94.88
355.264	84.88
355.491	88.88
355.718	83.88
355.945	92.88
356.172	83.88
356.399	82.88
356.626	97.88
356.853	101.88
357.08	95.88
357.307	86.88
357.534	94.88
357.761	80.88
357.988	82.88
358.215	84.88
358.441	82.88
358.668	89.88
358.895	102.88
359.122	83.88
359.349	90.88
359.576	90.88
359.802	82.88
360.029	85.88
360.256	92.88
360.483	80.88
360.709	99.88
360.936	102.88
361.163	101.88
361.39	78.88
361.616	79.88
361.843	78.88
362.07	78.88
362.296	91.88
362.523	94.88
362.749	104.88
362.976	100.88
363.203	116.88
363.429	87.88
363.656	100.88
363.882	98.88
364.109	107.88
364.335	98.88
364.562	119.88
364.788	103.88
365.015	101.88
365.241	77.88
365.468	84.88
365.694	78.88
365.92	82.88
366.147	98.88
366.373	84.88
366.599	88.88
366.826	93.88
367.052	90.88
367.278	96.88
367.505	101.88
367.731	97.88
367.957	77.88
368.184	78.88
368.41	80.88
368.636	86.88
368.862	90.88
369.089	93.88
369.315	83.88
369.541	78.88
369.767	86.88
369.993	84.88
370.219	100.88
370.445	96.88
370.672	95.88
370.898	90.88
371.124	101.88
371.35	82.88
371.576	91.88
371.802	76.88
372.028	94.88
372.254	108.88
372.48	87.88
372.706	86.88
372.932	91.88
373.158	94.88
373.384	101.88
373.61	108.88
373.835	96.88
374.061	101.88
374.287	100.88
374.513	93.88
374.739	90.88
374.965	96.88
375.191	116.88
375.416	84.88
375.642	92.88
375.868	95.88
376.094	76.88
376.319	88.88
376.545	110.88
376.771	84.88
376.997	83.88
377.222	84.88
377.448	94.88
377.674	75.88
377.899	84.88
378.125	88.88
378.35	92.88
378.576	85.88
378.802	76.88
379.027	95.88
379.253	83.88
379.478	88.88
379.704	91.88
379.929	105.88
380.155	83.88
380.38	89.88
380.606	91.88
380.831	96.88
381.057	95.88
381.282	85.88
381.507	93.88
381.733	96.88
381.958	101.88
382.184	101.88
382.409	100.88
382.634	101.88
382.86	100.88
383.085	96.88
383.31	97.88
383.535	96.88
383.761	95.88
383.986	93.88
384.211	88.88
384.436	100.88
384.662	94.88
384.887	87.88
385.112	95.88
385.337	100.88
385.562	99.88
385.787	112.88
386.013	96.88
386.238	97.88
386.463	98.88
386.688	100.88
386.913	91.88
387.138	87.88
387.363	91.88
387.588	93.88
387.813	100.88
388.038	99.88
388.263	85.88
388.488	93.88
388.713	87.88
388.938	77.88
389.163	86.88
389.387	87.88
389.612	86.88
389.837	102.88
390.062	73.88
390.287	88.88
390.512	78.88
390.736	85.88
390.961	87.88
391.186	100.88
391.411	90.88
391.636	88.88
391.86	83.88
392.085	97.88
392.31	99.88
392.534	92.88
392.759	110.88
392.984	149.88
393.208	256.88
393.433	370.88
393.658	291.88
393.882	138.88
394.107	112.88
394.331	120.88
394.556	132.88
394.78	106.88
395.005	114.88
395.229	99.88
395.454	101.88
395.678	108.88
395.903	113.88
396.127	122.88
396.352	136.88
396.576	161.88
396.801	229.88
397.025	307.88
397.249	155.88
397.474	109.88
397.698	101.88
397.922	91.88
398.147	89.88
398.371	89.88
398.595	92.88
398.82	94.88
399.044	96.88
399.268	78.88
399.492	98.88
399.717	97.88
399.941	90.88
400.165	87.88
400.389	93.88
400.613	84.88
400.837	80.88
401.062	100.88
401.286	90.88
401.51	82.88
401.734	77.88
401.958	99.88
402.182	92.88
402.406	85.88
402.63	98.88
402.854	91.88
403.078	83.88
403.302	94.88
403.526	77.88
403.75	88.88
403.974	92.88
404.198	77.88
404.422	97.88
404.645	79.88
404.869	105.88
405.093	89.88
405.317	76.88
405.541	92.88
405.765	79.88
405.988	84.88
406.212	92.88
406.436	89.88
406.66	86.88
406.883	77.88
407.107	91.88
407.331	92.88
407.555	93.88
407.778	98.88
408.002	109.88
408.226	81.88
408.449	80.88
408.673	96.88
408.896	92.88
409.12	88.88
409.344	94.88
409.567	88.88
409.791	88.88
410.014	75.88
410.238	84.88
410.461	78.88
410.685	92.88
410.908	83.88
411.132	89.88
411.355	94.88
411.578	92.88
411.802	81.88
412.025	72.88
412.249	79.88
412.472	85.88
412.695	84.88
412.919	80.88
413.142	93.88
413.365	82.88
413.589	85.88
413.812	76.88
414.035	90.88
414.258	86.88
414.482	97.88
414.705	100.88
414.928	82.88
415.151	86.88
415.374	86.88
415.597	78.88
415.821	78.88
416.044	74.88
416.267	81.88
416.49	89.88
416.713	91.88
416.936	82.88
417.159	83.88
417.382	72.88
417.605	70.88
417.828	84.88
418.051	76.88
418.274	75.88
418.497	83.88
418.72	84.88
418.943	81.88
419.166	89.88
419.389	79.88
419.611	71.88
419.834	77.88
420.057	90.88
420.28	105.88
420.503	62.88
420.726	80.88
420.948	99.88
421.171	88.88
421.394	93.88
421.617	103.88
421.839	108.88
422.062	121.88
422.285	141.88
422.507	245.88
422.73	364.88
422.953	324.88
423.175	165.88
423.398	102.88
423.621	90.88
423.843	83.88
424.066	82.88
424.288	95.88
424.511	88.88
424.733	87.88
424.956	99.88
425.178	93.88
425.401	91.88
425.623	102.88
425.846	94.88
426.068	86.88
426.291	86.88
426.513	85.88
426.735	91.88
426.958	89.88
427.18	74.88
427.402	91.88
427.625	101.88
427.847	92.88
428.069	111.88
428.292	131.88
428.514	127.88
428.736	119.88
428.958	121.88
429.181	124.88
429.403	93.88
429.625	99.88
429.847	122.88
430.069	146.88
430.292	153.88
430.514	165.88
430.736	123.88
430.958	126.88
431.18	101.88
431.402	96.88
431.624	87.88
431.846	116.88
432.068	123.88
432.29	91.88
432.512	107.88
432.734	87.88
432.956	94.88
433.178	94.88
433.4	97.88
433.622	86.88
433.844	100.88
434.066	67.88
434.287	76.88
434.509	76.88
434.731	80.88
434.953	84.88
435.175	77.88
435.397	91.88
435.618	97.88
435.84	93.88
436.062	94.88
436.284	94.88
436.505	74.88
436.727	91.88
436.949	82.88
437.17	95.88
437.392	84.88
437.614	89.88
437.835	84.88
438.057	85.88
438.278	92.88
438.5	90.88
438.721	84.88
438.943	90.88
439.165	82.88
439.386	77.88
439.608	96.88
439.829	86.88
440.05	96.88
440.272	96.88
440.493	79.88
440.715	82.88
440.936	83.88
441.158	96.88
441.379	74.88
441.6	80.88
441.822	84.88
442.043	91.88
442.264	88.88
442.486	117.88
442.707	140.88
442.928	133.88
443.149	113.88
443.371	128.88
443.592	222.88
443.813	198.88
444.034	99.88
444.255	94.88
444.476	90.88
444.698	85.88
444.919	100.88
445.14	185.88
445.361	197.88
445.582	244.88
445.803	233.88
446.024	122.88
446.245	100.88
446.466	87.88
446.687	90.88
446.908	98.88
447.129	87.88
447.35	96.88
447.571	100.88
447.792	75.88
448.013	94.88
448.234	100.88
448.455	86.88
448.675	76.88
448.896	91.88
449.117	88.88
449.338	74.88
449.559	88.88
449.779	70.88
450	75.88
450.221	91.88
450.442	89.88
450.662	96.88
450.883	94.88
451.104	78.88
451.324	85.88
451.545	92.88
451.766	74.88
451.986	84.88
452.207	102.88
452.428	79.88
452.648	101.88
452.869	102.88
453.089	102.88
453.31	89.88
453.53	92.88
453.751	64.88
453.971	87.88
454.192	89.88
454.412	89.88
454.633	82.88
454.853	86.88
455.073	84.88
455.294	76.88
455.514	88.88
455.734	94.88
455.955	88.88
456.175	98.88
456.395	71.88
456.616	90.88
456.836	84.88
457.056	86.88
457.276	85.88
457.497	87.88
457.717	84.88
457.937	94.88
458.157	107.88
458.377	107.88
458.598	108.88
458.818	117.88
459.038	93.88
459.258	75.88
459.478	84.88
459.698	98.88
459.918	98.88
460.138	86.88
460.358	83.88
460.578	101.88
460.798	115.88
461.018	127.88
461.238	93.88
461.458	86.88
461.678	94.88
461.898	90.88
462.118	82.88
462.338	92.88
462.558	91.88
462.777	84.88
462.997	76.88
463.217	99.88
463.437	87.88
463.657	77.88
463.876	94.88
464.096	75.88
464.316	90.88
464.536	77.88
464.755	84.88
464.975	91.88
465.195	87.88
465.414	98.88
465.634	85.88
465.854	86.88
466.073	81.88
466.293	99.88
466.512	81.88
466.732	75.88
466.951	83.88
467.171	82.88
467.391	84.88
467.61	76.88
467.829	80.88
468.049	101.88
468.268	83.88
468.488	93.88
468.707	70.88
468.927	80.88
469.146	85.88
469.365	90.88
469.585	92.88
469.804	79.88
470.023	73.88
470.243	77.88
470.462	87.88
470.681	90.88
470.901	88.88
471.12	87.88
471.339	92.88
471.558	93.88
471.777	81.88
471.997	85.88
472.216	95.88
472.435	65.88
472.654	92.88
472.873	97.88
473.092	70.88
473.311	92.88
473.53	78.88
473.749	86.88
473.968	80.88
474.187	90.88
474.406	83.88
474.625	105.88
474.844	84.88
475.063	79.88
475.282	88.88
475.501	72.88
475.72	80.88
475.939	84.88
476.158	93.88
476.377	88.88
476.596	88.88
476.814	86.88
477.033	88.88
477.252	92.88
477.471	82.88
477.69	101.88
477.908	90.88
478.127	78.88
478.346	80.88
478.564	82.88
478.783	81.88
479.002	94.88
479.22	85.88
479.439	85.88
479.658	86.88
479.876	83.88
480.095	70.88
480.313	86.88
480.532	89.88
480.751	90.88
480.969	91.88
481.188	95.88
481.406	93.88
481.624	82.88
481.843	83.88
482.061	81.88
482.28	85.88
482.498	83.88
482.717	90.88
482.935	83.88
483.153	80.88
483.372	83.88
483.59	86.88
483.808	76.88
484.027	88.88
484.245	88.88
484.463	96.88
484.681	96.88
484.9	88.88
485.118	78.88
485.336	82.88
485.554	78.88
485.772	90.88
485.99	99.88
486.209	80.88
486.427	75.88
486.645	86.88
486.863	98.88
487.081	86.88
487.299	96.88
487.517	96.88
487.735	114.88
487.953	137.88
488.171	126.88
488.389	95.88
488.607	87.88
488.825	87.88
489.043	87.88
489.261	95.88
489.479	80.88
489.696	86.88
489.914	77.88
490.132	96.88
490.35	98.88
490.568	91.88
490.786	82.88
491.003	92.88
491.221	96.88
491.439	87.88
491.657	76.88
491.874	78.88
492.092	81.88
492.31	98.88
492.527	89.88
492.745	90.88
492.963	90.88
493.18	88.88
493.398	103.88
493.615	89.88
493.833	77.88
494.05	90.88
494.268	89.88
494.485	101.88
494.703	95.88
494.92	79.88
495.138	77.88
495.355	89.88
495.573	86.88
495.79	80.88
496.008	92.88
496.225	84.88
496.442	72.88
496.66	94.88
496.877	73.88
497.094	95.88
497.312	91.88
497.529	87.88
497.746	76.88
497.963	106.88
498.181	93.88
498.398	82.88
498.615	90.88
498.832	87.88
499.049	89.88
499.267	91.88
499.484	79.88
499.701	92.88
499.918	72.88
500.135	87.88
500.352	88.88
500.569	77.88
500.786	100.88
501.003	97.88
501.22	90.88
501.437	66.88
501.654	91.88
501.871	76.88
502.088	93.88
502.305	92.88
502.522	90.88
502.739	95.88
502.956	90.88
503.172	72.88
503.389	69.88
503.606	88.88
503.823	91.88
504.04	96.88
504.256	127.88
504.473	107.88
504.69	103.88
504.907	107.88
505.123	100.88
505.34	96.88
505.557	86.88
505.773	90.88
505.99	81.88
506.207	94.88
506.423	103.88
506.64	78.88
506.856	100.88
507.073	89.88
507.289	93.88
507.506	87.88
507.722	74.88
507.939	80.88
508.155	88.88
508.372	82.88
508.588	96.88
508.805	87.88
509.021	86.88
509.238	92.88
509.454	78.88
509.67	76.88
509.887	96.88
510.103	101.88
510.319	82.88
510.536	94.88
510.752	93.88
510.968	69.88
511.184	89.88
511.401	77.88
511.617	95.88
511.833	88.88
512.049	97.88
512.265	92.88
512.481	108.88
512.698	95.88
512.914	85.88
513.13	88.88
513.346	92.88
513.562	78.88
513.778	94.88
513.994	82.88
514.21	92.88
514.426	89.88
514.642	76.88
514.858	75.88
515.074	80.88
515.29	86.88
515.506	87.88
515.721	83.88
515.937	89.88
516.153	88.88
516.369	84.88
516.585	98.88
516.801	102.88
517.016	88.88
517.232	83.88
517.448	100.88
517.664	80.88
517.879	84.88
