Data from 237_2_HRD10591_00007.txt Node
Date: Mon Jan 19 14:11:34 EST 2026
User: Yrep
Spectrometer: HR+D1059
Trigger mode: 1
Integration Time (sec): 1.000000E-1
Scans to average: 1
Electric dark correction enabled: true
Nonlinearity correction enabled: false
Boxcar width: 0
XAxis mode: Wavelengths
Number of Pixels in Spectrum: 2048
>>>>>Begin Spectral Data<<<<<
223.165	-24.88
223.4	-24.88
223.635	-24.88
223.869	-13.88
224.104	-14.88
224.338	-13.88
224.573	2.12
224.808	-6.88
225.042	-9.88
225.277	1.12
225.511	-2.88
225.746	-1.88
225.98	6.12
226.215	17.12
226.449	20.12
226.683	20.12
226.918	12.12
227.152	10.12
227.387	37.12
227.621	45.12
227.856	50.12
228.09	52.12
228.324	48.12
228.559	49.12
228.793	62.12
229.027	60.12
229.262	71.12
229.496	75.12
229.73	56.12
229.964	63.12
230.199	87.12
230.433	69.12
230.667	61.12
230.901	78.12
231.136	78.12
231.37	92.12
231.604	96.12
231.838	85.12
232.072	75.12
232.306	73.12
232.541	75.12
232.775	80.12
233.009	87.12
233.243	79.12
233.477	67.12
233.711	81.12
233.945	84.12
234.179	83.12
234.413	81.12
234.647	83.12
234.881	87.12
235.115	89.12
235.349	74.12
235.583	71.12
235.817	85.12
236.051	79.12
236.285	77.12
236.519	66.12
236.753	86.12
236.987	77.12
237.221	78.12
237.455	78.12
237.689	79.12
237.922	68.12
238.156	69.12
238.39	65.12
238.624	68.12
238.858	87.12
239.091	67.12
239.325	76.12
239.559	81.12
239.793	61.12
240.027	89.12
240.26	69.12
240.494	87.12
240.728	62.12
240.961	77.12
241.195	74.12
241.429	83.12
241.662	71.12
241.896	74.12
242.13	76.12
242.363	69.12
242.597	81.12
242.83	87.12
243.064	80.12
243.298	85.12
243.531	67.12
243.765	74.12
243.998	70.12
244.232	73.12
244.465	78.12
244.699	74.12
244.932	67.12
245.166	76.12
245.399	89.12
245.633	69.12
245.866	67.12
246.099	76.12
246.333	82.12
246.566	82.12
246.8	68.12
247.033	81.12
247.266	74.12
247.5	69.12
247.733	67.12
247.966	71.12
248.2	72.12
248.433	81.12
248.666	81.12
248.899	87.12
249.133	66.12
249.366	79.12
249.599	82.12
249.832	71.12
250.066	73.12
250.299	85.12
250.532	75.12
250.765	79.12
250.998	73.12
251.231	67.12
251.465	78.12
251.698	81.12
251.931	74.12
252.164	81.12
252.397	78.12
252.63	79.12
252.863	73.12
253.096	65.12
253.329	80.12
253.562	77.12
253.795	76.12
254.028	92.12
254.261	74.12
254.494	89.12
254.727	74.12
254.96	89.12
255.193	86.12
255.426	81.12
255.659	73.12
255.892	90.12
256.124	73.12
256.357	85.12
256.59	97.12
256.823	85.12
257.056	85.12
257.289	64.12
257.521	67.12
257.754	73.12
257.987	73.12
258.22	88.12
258.452	80.12
258.685	80.12
258.918	70.12
259.151	77.12
259.383	83.12
259.616	65.12
259.849	65.12
260.081	85.12
260.314	85.12
260.547	73.12
260.779	82.12
261.012	73.12
261.244	69.12
261.477	79.12
261.71	78.12
261.942	82.12
262.175	74.12
262.407	89.12
262.64	71.12
262.872	75.12
263.105	80.12
263.337	77.12
263.57	81.12
263.802	76.12
264.035	85.12
264.267	83.12
264.499	82.12
264.732	84.12
264.964	77.12
265.197	83.12
265.429	73.12
265.661	71.12
265.894	73.12
266.126	74.12
266.358	91.12
266.591	81.12
266.823	70.12
267.055	88.12
267.287	88.12
267.52	72.12
267.752	75.12
267.984	69.12
268.216	78.12
268.448	98.12
268.681	72.12
268.913	69.12
269.145	82.12
269.377	80.12
269.609	73.12
269.841	81.12
270.073	79.12
270.306	90.12
270.538	89.12
270.77	82.12
271.002	75.12
271.234	75.12
271.466	80.12
271.698	74.12
271.93	77.12
272.162	85.12
272.394	84.12
272.626	77.12
272.858	70.12
273.09	87.12
273.322	83.12
273.553	88.12
273.785	85.12
274.017	87.12
274.249	74.12
274.481	72.12
274.713	85.12
274.945	87.12
275.176	86.12
275.408	84.12
275.64	72.12
275.872	81.12
276.104	82.12
276.335	67.12
276.567	86.12
276.799	82.12
277.031	80.12
277.262	83.12
277.494	88.12
277.726	79.12
277.957	74.12
278.189	71.12
278.421	88.12
278.652	77.12
278.884	89.12
279.115	93.12
279.347	82.12
279.579	109.12
279.81	89.12
280.042	84.12
280.273	70.12
280.505	79.12
280.736	79.12
280.968	85.12
281.199	81.12
281.431	83.12
281.662	89.12
281.894	78.12
282.125	71.12
282.356	71.12
282.588	90.12
282.819	89.12
283.051	84.12
283.282	94.12
283.513	80.12
283.745	87.12
283.976	89.12
284.207	79.12
284.439	89.12
284.67	94.12
284.901	81.12
285.132	74.12
285.364	78.12
285.595	94.12
285.826	86.12
286.057	94.12
286.288	86.12
286.52	80.12
286.751	97.12
286.982	93.12
287.213	89.12
287.444	81.12
287.675	81.12
287.906	93.12
288.138	91.12
288.369	93.12
288.6	84.12
288.831	67.12
289.062	87.12
289.293	101.12
289.524	82.12
289.755	63.12
289.986	73.12
290.217	81.12
290.448	96.12
290.679	94.12
290.91	83.12
291.141	76.12
291.371	88.12
291.602	73.12
291.833	95.12
292.064	85.12
292.295	86.12
292.526	104.12
292.757	89.12
292.987	83.12
293.218	83.12
293.449	80.12
293.68	91.12
293.91	79.12
294.141	98.12
294.372	93.12
294.603	79.12
294.833	80.12
295.064	84.12
295.295	88.12
295.525	86.12
295.756	84.12
295.987	92.12
296.217	82.12
296.448	102.12
296.679	95.12
296.909	82.12
297.14	70.12
297.37	83.12
297.601	83.12
297.831	83.12
298.062	78.12
298.292	81.12
298.523	80.12
298.753	76.12
298.984	84.12
299.214	82.12
299.445	84.12
299.675	80.12
299.905	97.12
300.136	96.12
300.366	91.12
300.597	87.12
300.827	88.12
301.057	92.12
301.288	95.12
301.518	84.12
301.748	82.12
301.979	97.12
302.209	82.12
302.439	71.12
302.669	79.12
302.9	86.12
303.13	98.12
303.36	86.12
303.59	75.12
303.82	91.12
304.051	89.12
304.281	78.12
304.511	90.12
304.741	83.12
304.971	84.12
305.201	78.12
305.431	79.12
305.661	98.12
305.891	81.12
306.121	80.12
306.352	83.12
306.582	65.12
306.812	92.12
307.042	95.12
307.272	79.12
307.502	69.12
307.731	77.12
307.961	90.12
308.191	99.12
308.421	89.12
308.651	86.12
308.881	101.12
309.111	85.12
309.341	98.12
309.571	87.12
309.8	88.12
310.03	94.12
310.26	89.12
310.49	85.12
310.72	87.12
310.949	75.12
311.179	101.12
311.409	89.12
311.639	90.12
311.868	89.12
312.098	83.12
312.328	95.12
312.557	93.12
312.787	88.12
313.017	70.12
313.246	75.12
313.476	78.12
313.706	81.12
313.935	85.12
314.165	86.12
314.394	82.12
314.624	97.12
314.853	86.12
315.083	91.12
315.312	100.12
315.542	101.12
315.771	79.12
316.001	94.12
316.23	85.12
316.46	82.12
316.689	83.12
316.919	79.12
317.148	75.12
317.377	107.12
317.607	83.12
317.836	91.12
318.065	95.12
318.295	75.12
318.524	100.12
318.753	86.12
318.983	90.12
319.212	99.12
319.441	86.12
319.67	96.12
319.9	83.12
320.129	85.12
320.358	81.12
320.587	76.12
320.816	90.12
321.046	100.12
321.275	101.12
321.504	81.12
321.733	102.12
321.962	80.12
322.191	89.12
322.42	87.12
322.649	81.12
322.878	87.12
323.108	98.12
323.337	87.12
323.566	90.12
323.795	80.12
324.024	86.12
324.253	93.12
324.482	75.12
324.71	83.12
324.939	88.12
325.168	75.12
325.397	66.12
325.626	83.12
325.855	62.12
326.084	90.12
326.313	97.12
326.542	73.12
326.77	84.12
326.999	85.12
327.228	85.12
327.457	82.12
327.686	92.12
327.914	97.12
328.143	81.12
328.372	87.12
328.6	82.12
328.829	86.12
329.058	91.12
329.287	96.12
329.515	91.12
329.744	91.12
329.972	81.12
330.201	97.12
330.43	90.12
330.658	86.12
330.887	81.12
331.115	87.12
331.344	80.12
331.572	85.12
331.801	83.12
332.03	67.12
332.258	76.12
332.486	75.12
332.715	87.12
332.943	82.12
333.172	76.12
333.4	90.12
333.629	89.12
333.857	72.12
334.085	86.12
334.314	87.12
334.542	83.12
334.771	94.12
334.999	86.12
335.227	91.12
335.455	109.12
335.684	100.12
335.912	91.12
336.14	93.12
336.369	108.12
336.597	96.12
336.825	87.12
337.053	79.12
337.281	87.12
337.51	90.12
337.738	87.12
337.966	85.12
338.194	85.12
338.422	79.12
338.65	106.12
338.878	81.12
339.106	75.12
339.334	81.12
339.562	84.12
339.79	89.12
340.018	92.12
340.246	92.12
340.474	94.12
340.702	85.12
340.93	100.12
341.158	82.12
341.386	88.12
341.614	79.12
341.842	93.12
342.07	85.12
342.298	79.12
342.526	102.12
342.754	74.12
342.981	79.12
343.209	87.12
343.437	91.12
343.665	74.12
343.893	82.12
344.12	93.12
344.348	94.12
344.576	93.12
344.804	84.12
345.031	94.12
345.259	77.12
345.487	76.12
345.714	85.12
345.942	75.12
346.17	72.12
346.397	84.12
346.625	88.12
346.853	87.12
347.08	80.12
347.308	72.12
347.535	78.12
347.763	96.12
347.99	89.12
348.218	85.12
348.445	73.12
348.673	81.12
348.9	93.12
349.128	86.12
349.355	95.12
349.583	86.12
349.81	85.12
350.037	83.12
350.265	91.12
350.492	83.12
350.72	83.12
350.947	95.12
351.174	81.12
351.402	84.12
351.629	90.12
351.856	95.12
352.083	82.12
352.311	88.12
352.538	93.12
352.765	86.12
352.992	93.12
353.22	76.12
353.447	82.12
353.674	83.12
353.901	87.12
354.128	93.12
354.355	72.12
354.583	92.12
354.81	96.12
355.037	93.12
355.264	87.12
355.491	85.12
355.718	82.12
355.945	78.12
356.172	82.12
356.399	76.12
356.626	92.12
356.853	95.12
357.08	88.12
357.307	91.12
357.534	93.12
357.761	87.12
357.988	91.12
358.215	90.12
358.441	91.12
358.668	86.12
358.895	92.12
359.122	97.12
359.349	87.12
359.576	95.12
359.802	89.12
360.029	86.12
360.256	82.12
360.483	90.12
360.709	91.12
360.936	94.12
361.163	85.12
361.39	97.12
361.616	93.12
361.843	89.12
362.07	99.12
362.296	95.12
362.523	98.12
362.749	98.12
362.976	99.12
363.203	116.12
363.429	105.12
363.656	97.12
363.882	84.12
364.109	88.12
364.335	109.12
364.562	130.12
364.788	90.12
365.015	91.12
365.241	93.12
365.468	90.12
365.694	85.12
365.92	89.12
366.147	93.12
366.373	89.12
366.599	69.12
366.826	88.12
367.052	94.12
367.278	100.12
367.505	93.12
367.731	88.12
367.957	79.12
368.184	78.12
368.41	79.12
368.636	75.12
368.862	86.12
369.089	77.12
369.315	81.12
369.541	85.12
369.767	83.12
369.993	100.12
370.219	101.12
370.445	82.12
370.672	76.12
370.898	96.12
371.124	83.12
371.35	87.12
371.576	93.12
371.802	99.12
372.028	102.12
372.254	109.12
372.48	84.12
372.706	93.12
372.932	94.12
373.158	93.12
373.384	104.12
373.61	103.12
373.835	91.12
374.061	94.12
374.287	89.12
374.513	98.12
374.739	103.12
374.965	98.12
375.191	98.12
375.416	106.12
375.642	91.12
375.868	96.12
376.094	85.12
376.319	90.12
376.545	80.12
376.771	86.12
376.997	91.12
377.222	94.12
377.448	71.12
377.674	88.12
377.899	93.12
378.125	91.12
378.35	91.12
378.576	65.12
378.802	78.12
379.027	87.12
379.253	86.12
379.478	82.12
379.704	89.12
379.929	86.12
380.155	77.12
380.38	79.12
380.606	70.12
380.831	82.12
381.057	84.12
381.282	85.12
381.507	104.12
381.733	97.12
381.958	92.12
382.184	89.12
382.409	89.12
382.634	91.12
382.86	86.12
383.085	105.12
383.31	89.12
383.535	90.12
383.761	93.12
383.986	88.12
384.211	99.12
384.436	89.12
384.662	95.12
384.887	97.12
385.112	85.12
385.337	88.12
385.562	84.12
385.787	91.12
386.013	87.12
386.238	98.12
386.463	92.12
386.688	96.12
386.913	85.12
387.138	90.12
387.363	88.12
387.588	89.12
387.813	103.12
388.038	85.12
388.263	90.12
388.488	82.12
388.713	96.12
388.938	90.12
389.163	91.12
389.387	83.12
389.612	87.12
389.837	84.12
390.062	93.12
390.287	100.12
390.512	83.12
390.736	78.12
390.961	89.12
391.186	88.12
391.411	73.12
391.636	81.12
391.86	90.12
392.085	103.12
392.31	94.12
392.534	98.12
392.759	129.12
392.984	148.12
393.208	223.12
393.433	349.12
393.658	250.12
393.882	128.12
394.107	101.12
394.331	117.12
394.556	116.12
394.78	96.12
395.005	83.12
395.229	79.12
395.454	100.12
395.678	104.12
395.903	97.12
396.127	144.12
396.352	135.12
396.576	157.12
396.801	234.12
397.025	267.12
397.249	174.12
397.474	117.12
397.698	110.12
397.922	86.12
398.147	80.12
398.371	90.12
398.595	92.12
398.82	79.12
399.044	86.12
399.268	72.12
399.492	86.12
399.717	94.12
399.941	89.12
400.165	75.12
400.389	97.12
400.613	91.12
400.837	87.12
401.062	82.12
401.286	82.12
401.51	83.12
401.734	85.12
401.958	75.12
402.182	90.12
402.406	90.12
402.63	82.12
402.854	73.12
403.078	69.12
403.302	95.12
403.526	94.12
403.75	82.12
403.974	80.12
404.198	93.12
404.422	109.12
404.645	123.12
404.869	113.12
405.093	94.12
405.317	79.12
405.541	89.12
405.765	80.12
405.988	75.12
406.212	85.12
406.436	86.12
406.66	89.12
406.883	91.12
407.107	78.12
407.331	97.12
407.555	95.12
407.778	94.12
408.002	102.12
408.226	77.12
408.449	85.12
408.673	98.12
408.896	91.12
409.12	93.12
409.344	85.12
409.567	95.12
409.791	97.12
410.014	104.12
410.238	87.12
410.461	83.12
410.685	78.12
410.908	85.12
411.132	84.12
411.355	84.12
411.578	82.12
411.802	102.12
412.025	89.12
412.249	103.12
412.472	78.12
412.695	75.12
412.919	83.12
413.142	88.12
413.365	81.12
413.589	85.12
413.812	84.12
414.035	90.12
414.258	93.12
414.482	85.12
414.705	67.12
414.928	99.12
415.151	79.12
415.374	75.12
415.597	77.12
415.821	82.12
416.044	93.12
416.267	88.12
416.49	75.12
416.713	81.12
416.936	77.12
417.159	88.12
417.382	81.12
417.605	79.12
417.828	73.12
418.051	90.12
418.274	75.12
418.497	98.12
418.72	91.12
418.943	87.12
419.166	73.12
419.389	88.12
419.611	89.12
419.834	91.12
420.057	88.12
420.28	82.12
420.503	85.12
420.726	92.12
420.948	89.12
421.171	91.12
421.394	97.12
421.617	97.12
421.839	120.12
422.062	128.12
422.285	145.12
422.507	256.12
422.73	367.12
422.953	332.12
423.175	179.12
423.398	124.12
423.621	99.12
423.843	101.12
424.066	91.12
424.288	83.12
424.511	66.12
424.733	94.12
424.956	80.12
425.178	80.12
425.401	90.12
425.623	85.12
425.846	95.12
426.068	91.12
426.291	85.12
426.513	82.12
426.735	66.12
426.958	75.12
427.18	79.12
427.402	93.12
427.625	88.12
427.847	83.12
428.069	95.12
428.292	111.12
428.514	143.12
428.736	100.12
428.958	121.12
429.181	129.12
429.403	104.12
429.625	93.12
429.847	131.12
430.069	167.12
430.292	186.12
430.514	161.12
430.736	126.12
430.958	126.12
431.18	94.12
431.402	90.12
431.624	97.12
431.846	135.12
432.068	146.12
432.29	87.12
432.512	92.12
432.734	85.12
432.956	92.12
433.178	88.12
433.4	88.12
433.622	76.12
433.844	90.12
434.066	90.12
434.287	99.12
434.509	75.12
434.731	79.12
434.953	82.12
435.175	79.12
435.397	83.12
435.618	90.12
435.84	90.12
436.062	86.12
436.284	93.12
436.505	91.12
436.727	87.12
436.949	94.12
437.17	82.12
437.392	82.12
437.614	67.12
437.835	74.12
438.057	73.12
438.278	92.12
438.5	86.12
438.721	103.12
438.943	82.12
439.165	92.12
439.386	86.12
439.608	101.12
439.829	66.12
440.05	85.12
440.272	97.12
440.493	81.12
440.715	89.12
440.936	94.12
441.158	98.12
441.379	90.12
441.6	89.12
441.822	79.12
442.043	89.12
442.264	100.12
442.486	136.12
442.707	178.12
442.928	122.12
443.149	109.12
443.371	152.12
443.592	249.12
443.813	202.12
444.034	104.12
444.255	83.12
444.476	89.12
444.698	86.12
444.919	111.12
445.14	192.12
445.361	212.12
445.582	276.12
445.803	234.12
446.024	131.12
446.245	112.12
446.466	91.12
446.687	89.12
446.908	95.12
447.129	89.12
447.35	92.12
447.571	81.12
447.792	72.12
448.013	74.12
448.234	81.12
448.455	89.12
448.675	83.12
448.896	81.12
449.117	81.12
449.338	79.12
449.559	86.12
449.779	65.12
450	77.12
450.221	81.12
450.442	85.12
450.662	81.12
450.883	84.12
451.104	83.12
451.324	91.12
451.545	73.12
451.766	73.12
451.986	69.12
452.207	83.12
452.428	86.12
452.648	96.12
452.869	89.12
453.089	90.12
453.31	97.12
453.53	99.12
453.751	94.12
453.971	93.12
454.192	76.12
454.412	77.12
454.633	74.12
454.853	79.12
455.073	79.12
455.294	100.12
455.514	80.12
455.734	87.12
455.955	74.12
456.175	79.12
456.395	87.12
456.616	79.12
456.836	83.12
457.056	79.12
457.276	86.12
457.497	89.12
457.717	93.12
457.937	118.12
458.157	122.12
458.377	124.12
458.598	112.12
458.818	114.12
459.038	95.12
459.258	95.12
459.478	80.12
459.698	77.12
459.918	89.12
460.138	86.12
460.358	72.12
460.578	105.12
460.798	109.12
461.018	95.12
461.238	93.12
461.458	81.12
461.678	83.12
461.898	86.12
462.118	78.12
462.338	81.12
462.558	86.12
462.777	71.12
462.997	90.12
463.217	82.12
463.437	77.12
463.657	77.12
463.876	75.12
464.096	78.12
464.316	75.12
464.536	81.12
464.755	81.12
464.975	90.12
465.195	93.12
465.414	88.12
465.634	75.12
465.854	90.12
466.073	77.12
466.293	96.12
466.512	102.12
466.732	94.12
466.951	81.12
467.171	93.12
467.391	92.12
467.61	83.12
467.829	71.12
468.049	83.12
468.268	70.12
468.488	75.12
468.707	97.12
468.927	66.12
469.146	87.12
469.365	85.12
469.585	95.12
469.804	81.12
470.023	81.12
470.243	81.12
470.462	86.12
470.681	90.12
470.901	87.12
471.12	82.12
471.339	76.12
471.558	82.12
471.777	81.12
471.997	79.12
472.216	82.12
472.435	75.12
472.654	94.12
472.873	90.12
473.092	78.12
473.311	78.12
473.53	81.12
473.749	81.12
473.968	69.12
474.187	87.12
474.406	85.12
474.625	85.12
474.844	94.12
475.063	86.12
475.282	74.12
475.501	74.12
475.72	100.12
475.939	86.12
476.158	72.12
476.377	75.12
476.596	76.12
476.814	93.12
477.033	82.12
477.252	93.12
477.471	93.12
477.69	68.12
477.908	82.12
478.127	87.12
478.346	86.12
478.564	90.12
478.783	86.12
479.002	87.12
479.22	77.12
479.439	98.12
479.658	71.12
479.876	72.12
480.095	85.12
480.313	76.12
480.532	94.12
480.751	109.12
480.969	85.12
481.188	95.12
481.406	103.12
481.624	80.12
481.843	88.12
482.061	91.12
482.28	79.12
482.498	88.12
482.717	82.12
482.935	104.12
483.153	80.12
483.372	99.12
483.59	77.12
483.808	81.12
484.027	81.12
484.245	89.12
484.463	74.12
484.681	111.12
484.9	87.12
485.118	87.12
485.336	73.12
485.554	90.12
485.772	97.12
485.99	93.12
486.209	87.12
486.427	71.12
486.645	83.12
486.863	75.12
487.081	71.12
487.299	89.12
487.517	85.12
487.735	101.12
487.953	142.12
488.171	128.12
488.389	97.12
488.607	85.12
488.825	93.12
489.043	80.12
489.261	93.12
489.479	81.12
489.696	81.12
489.914	93.12
490.132	81.12
490.35	94.12
490.568	73.12
490.786	88.12
491.003	88.12
491.221	86.12
491.439	83.12
491.657	87.12
491.874	86.12
492.092	78.12
492.31	80.12
492.527	76.12
492.745	85.12
492.963	89.12
493.18	84.12
493.398	99.12
493.615	83.12
493.833	94.12
494.05	87.12
494.268	93.12
494.485	90.12
494.703	82.12
494.92	85.12
495.138	99.12
495.355	103.12
495.573	95.12
495.79	97.12
496.008	85.12
496.225	78.12
496.442	87.12
496.66	81.12
496.877	84.12
497.094	110.12
497.312	90.12
497.529	88.12
497.746	97.12
497.963	86.12
498.181	87.12
498.398	94.12
498.615	91.12
498.832	81.12
499.049	83.12
499.267	91.12
499.484	88.12
499.701	86.12
499.918	74.12
500.135	100.12
500.352	79.12
500.569	79.12
500.786	82.12
501.003	92.12
501.22	65.12
501.437	81.12
501.654	101.12
501.871	88.12
502.088	77.12
502.305	99.12
502.522	86.12
502.739	73.12
502.956	78.12
503.172	81.12
503.389	87.12
503.606	86.12
503.823	73.12
504.04	108.12
504.256	120.12
504.473	120.12
504.69	91.12
504.907	85.12
505.123	96.12
505.34	84.12
505.557	83.12
505.773	104.12
505.99	85.12
506.207	80.12
506.423	76.12
506.64	87.12
506.856	83.12
507.073	87.12
507.289	83.12
507.506	105.12
507.722	79.12
507.939	75.12
508.155	91.12
508.372	92.12
508.588	93.12
508.805	90.12
509.021	73.12
509.238	81.12
509.454	74.12
509.67	79.12
509.887	86.12
510.103	79.12
510.319	102.12
510.536	89.12
510.752	86.12
510.968	100.12
511.184	103.12
511.401	81.12
511.617	82.12
511.833	84.12
512.049	85.12
512.265	83.12
512.481	93.12
512.698	76.12
512.914	73.12
513.13	74.12
513.346	85.12
513.562	87.12
513.778	91.12
513.994	73.12
514.21	91.12
514.426	93.12
514.642	79.12
514.858	85.12
515.074	91.12
515.29	94.12
515.506	77.12
515.721	82.12
515.937	91.12
516.153	81.12
516.369	73.12
516.585	82.12
516.801	86.12
517.016	94.12
517.232	82.12
517.448	93.12
517.664	81.12
517.879	102.12
518.095	94.12
518.311	86.12
518.527	109.12
