Data from 237_2_HRD10591_00020.txt Node
Date: Mon Jan 19 14:11:40 EST 2026
User: Yrep
Spectrometer: HR+D1059
Trigger mode: 1
Integration Time (sec): 1.000000E-1
Scans to average: 1
Electric dark correction enabled: true
Nonlinearity correction enabled: false
Boxcar width: 0
XAxis mode: Wavelengths
Number of Pixels in Spectrum: 2048
>>>>>Begin Spectral Data<<<<<
223.165	-18.94
223.4	-18.94
223.635	-18.94
223.869	-12.94
224.104	-16.94
224.338	-14.94
224.573	-17.94
224.808	-13.94
225.042	-13.94
225.277	-16.94
225.511	7.06
225.746	11.06
225.98	9.06
226.215	19.06
226.449	26.06
226.683	9.06
226.918	22.06
227.152	23.06
227.387	37.06
227.621	24.06
227.856	52.06
228.09	53.06
228.324	54.06
228.559	64.06
228.793	46.06
229.027	71.06
229.262	63.06
229.496	71.06
229.73	69.06
229.964	74.06
230.199	86.06
230.433	67.06
230.667	85.06
230.901	70.06
231.136	67.06
231.37	71.06
231.604	79.06
231.838	81.06
232.072	81.06
232.306	73.06
232.541	82.06
232.775	83.06
233.009	89.06
233.243	88.06
233.477	71.06
233.711	76.06
233.945	85.06
234.179	78.06
234.413	91.06
234.647	81.06
234.881	73.06
235.115	82.06
235.349	73.06
235.583	73.06
235.817	58.06
236.051	64.06
236.285	65.06
236.519	76.06
236.753	70.06
236.987	81.06
237.221	78.06
237.455	73.06
237.689	84.06
237.922	79.06
238.156	88.06
238.39	86.06
238.624	69.06
238.858	70.06
239.091	68.06
239.325	87.06
239.559	85.06
239.793	76.06
240.027	86.06
240.26	80.06
240.494	87.06
240.728	71.06
240.961	76.06
241.195	74.06
241.429	97.06
241.662	73.06
241.896	75.06
242.13	72.06
242.363	67.06
242.597	73.06
242.83	82.06
243.064	72.06
243.298	72.06
243.531	85.06
243.765	75.06
243.998	83.06
244.232	80.06
244.465	80.06
244.699	71.06
244.932	81.06
245.166	75.06
245.399	78.06
245.633	73.06
245.866	79.06
246.099	73.06
246.333	69.06
246.566	64.06
246.8	75.06
247.033	67.06
247.266	71.06
247.5	73.06
247.733	85.06
247.966	83.06
248.2	85.06
248.433	78.06
248.666	77.06
248.899	75.06
249.133	68.06
249.366	93.06
249.599	74.06
249.832	67.06
250.066	79.06
250.299	86.06
250.532	73.06
250.765	81.06
250.998	86.06
251.231	65.06
251.465	88.06
251.698	83.06
251.931	76.06
252.164	73.06
252.397	71.06
252.63	94.06
252.863	85.06
253.096	73.06
253.329	70.06
253.562	65.06
253.795	82.06
254.028	73.06
254.261	91.06
254.494	63.06
254.727	85.06
254.96	68.06
255.193	79.06
255.426	66.06
255.659	73.06
255.892	89.06
256.124	72.06
256.357	87.06
256.59	85.06
256.823	81.06
257.056	93.06
257.289	76.06
257.521	69.06
257.754	75.06
257.987	81.06
258.22	94.06
258.452	75.06
258.685	70.06
258.918	71.06
259.151	87.06
259.383	85.06
259.616	85.06
259.849	83.06
260.081	74.06
260.314	79.06
260.547	67.06
260.779	83.06
261.012	79.06
261.244	81.06
261.477	86.06
261.71	81.06
261.942	66.06
262.175	81.06
262.407	75.06
262.64	65.06
262.872	69.06
263.105	83.06
263.337	80.06
263.57	89.06
263.802	89.06
264.035	73.06
264.267	92.06
264.499	89.06
264.732	85.06
264.964	78.06
265.197	81.06
265.429	74.06
265.661	81.06
265.894	83.06
266.126	82.06
266.358	66.06
266.591	74.06
266.823	72.06
267.055	71.06
267.287	71.06
267.52	82.06
267.752	74.06
267.984	89.06
268.216	82.06
268.448	89.06
268.681	70.06
268.913	77.06
269.145	86.06
269.377	92.06
269.609	74.06
269.841	77.06
270.073	82.06
270.306	106.06
270.538	74.06
270.77	84.06
271.002	84.06
271.234	64.06
271.466	79.06
271.698	69.06
271.93	80.06
272.162	85.06
272.394	92.06
272.626	85.06
272.858	61.06
273.09	68.06
273.322	76.06
273.553	88.06
273.785	88.06
274.017	92.06
274.249	59.06
274.481	75.06
274.713	83.06
274.945	87.06
275.176	62.06
275.408	74.06
275.64	68.06
275.872	79.06
276.104	79.06
276.335	88.06
276.567	73.06
276.799	83.06
277.031	64.06
277.262	84.06
277.494	92.06
277.726	85.06
277.957	81.06
278.189	81.06
278.421	81.06
278.652	83.06
278.884	76.06
279.115	92.06
279.347	105.06
279.579	86.06
279.81	84.06
280.042	93.06
280.273	85.06
280.505	92.06
280.736	73.06
280.968	87.06
281.199	78.06
281.431	90.06
281.662	67.06
281.894	85.06
282.125	89.06
282.356	97.06
282.588	80.06
282.819	83.06
283.051	88.06
283.282	80.06
283.513	96.06
283.745	85.06
283.976	85.06
284.207	90.06
284.439	90.06
284.67	86.06
284.901	98.06
285.132	85.06
285.364	101.06
285.595	90.06
285.826	77.06
286.057	85.06
286.288	91.06
286.52	78.06
286.751	79.06
286.982	88.06
287.213	72.06
287.444	81.06
287.675	89.06
287.906	80.06
288.138	85.06
288.369	95.06
288.6	87.06
288.831	91.06
289.062	96.06
289.293	98.06
289.524	84.06
289.755	82.06
289.986	80.06
290.217	76.06
290.448	89.06
290.679	85.06
290.91	76.06
291.141	79.06
291.371	83.06
291.602	77.06
291.833	79.06
292.064	85.06
292.295	67.06
292.526	85.06
292.757	83.06
292.987	93.06
293.218	79.06
293.449	74.06
293.68	80.06
293.91	69.06
294.141	103.06
294.372	77.06
294.603	78.06
294.833	87.06
295.064	94.06
295.295	81.06
295.525	93.06
295.756	92.06
295.987	89.06
296.217	87.06
296.448	88.06
296.679	87.06
296.909	86.06
297.14	73.06
297.37	89.06
297.601	91.06
297.831	66.06
298.062	88.06
298.292	89.06
298.523	93.06
298.753	73.06
298.984	91.06
299.214	76.06
299.445	78.06
299.675	84.06
299.905	81.06
300.136	105.06
300.366	83.06
300.597	92.06
300.827	65.06
301.057	88.06
301.288	82.06
301.518	91.06
301.748	78.06
301.979	87.06
302.209	91.06
302.439	82.06
302.669	73.06
302.9	75.06
303.13	77.06
303.36	69.06
303.59	107.06
303.82	95.06
304.051	81.06
304.281	94.06
304.511	82.06
304.741	80.06
304.971	102.06
305.201	75.06
305.431	69.06
305.661	89.06
305.891	72.06
306.121	85.06
306.352	82.06
306.582	89.06
306.812	84.06
307.042	102.06
307.272	81.06
307.502	73.06
307.731	84.06
307.961	90.06
308.191	90.06
308.421	99.06
308.651	83.06
308.881	96.06
309.111	96.06
309.341	103.06
309.571	99.06
309.8	92.06
310.03	75.06
310.26	75.06
310.49	89.06
310.72	86.06
310.949	89.06
311.179	104.06
311.409	76.06
311.639	85.06
311.868	76.06
312.098	87.06
312.328	103.06
312.557	73.06
312.787	70.06
313.017	98.06
313.246	88.06
313.476	89.06
313.706	85.06
313.935	92.06
314.165	85.06
314.394	75.06
314.624	77.06
314.853	74.06
315.083	76.06
315.312	89.06
315.542	80.06
315.771	91.06
316.001	97.06
316.23	110.06
316.46	89.06
316.689	94.06
316.919	101.06
317.148	75.06
317.377	99.06
317.607	75.06
317.836	102.06
318.065	119.06
318.295	108.06
318.524	91.06
318.753	88.06
318.983	72.06
319.212	80.06
319.441	82.06
319.67	78.06
319.9	90.06
320.129	79.06
320.358	85.06
320.587	85.06
320.816	63.06
321.046	72.06
321.275	82.06
321.504	83.06
321.733	102.06
321.962	89.06
322.191	86.06
322.42	84.06
322.649	98.06
322.878	97.06
323.108	81.06
323.337	69.06
323.566	95.06
323.795	97.06
324.024	85.06
324.253	98.06
324.482	100.06
324.71	99.06
324.939	85.06
325.168	82.06
325.397	93.06
325.626	81.06
325.855	89.06
326.084	91.06
326.313	75.06
326.542	98.06
326.77	107.06
326.999	79.06
327.228	84.06
327.457	89.06
327.686	93.06
327.914	92.06
328.143	80.06
328.372	83.06
328.6	79.06
328.829	78.06
329.058	78.06
329.287	76.06
329.515	89.06
329.744	85.06
329.972	83.06
330.201	74.06
330.43	95.06
330.658	84.06
330.887	91.06
331.115	93.06
331.344	83.06
331.572	83.06
331.801	73.06
332.03	96.06
332.258	85.06
332.486	86.06
332.715	98.06
332.943	80.06
333.172	72.06
333.4	83.06
333.629	81.06
333.857	87.06
334.085	89.06
334.314	89.06
334.542	88.06
334.771	102.06
334.999	101.06
335.227	77.06
335.455	86.06
335.684	70.06
335.912	88.06
336.14	86.06
336.369	99.06
336.597	101.06
336.825	78.06
337.053	81.06
337.281	79.06
337.51	81.06
337.738	94.06
337.966	81.06
338.194	86.06
338.422	87.06
338.65	81.06
338.878	82.06
339.106	73.06
339.334	81.06
339.562	85.06
339.79	89.06
340.018	92.06
340.246	70.06
340.474	76.06
340.702	81.06
340.93	97.06
341.158	90.06
341.386	81.06
341.614	78.06
341.842	89.06
342.07	84.06
342.298	79.06
342.526	89.06
342.754	102.06
342.981	82.06
343.209	85.06
343.437	93.06
343.665	79.06
343.893	100.06
344.12	89.06
344.348	90.06
344.576	85.06
344.804	86.06
345.031	92.06
345.259	85.06
345.487	90.06
345.714	90.06
345.942	82.06
346.17	83.06
346.397	74.06
346.625	75.06
346.853	61.06
347.08	86.06
347.308	71.06
347.535	96.06
347.763	95.06
347.99	90.06
348.218	77.06
348.445	75.06
348.673	83.06
348.9	87.06
349.128	81.06
349.355	79.06
349.583	75.06
349.81	82.06
350.037	104.06
350.265	73.06
350.492	81.06
350.72	82.06
350.947	79.06
351.174	84.06
351.402	89.06
351.629	93.06
351.856	91.06
352.083	89.06
352.311	80.06
352.538	81.06
352.765	92.06
352.992	93.06
353.22	94.06
353.447	86.06
353.674	88.06
353.901	86.06
354.128	93.06
354.355	79.06
354.583	88.06
354.81	81.06
355.037	90.06
355.264	84.06
355.491	88.06
355.718	88.06
355.945	75.06
356.172	83.06
356.399	92.06
356.626	100.06
356.853	79.06
357.08	90.06
357.307	100.06
357.534	105.06
357.761	86.06
357.988	103.06
358.215	97.06
358.441	92.06
358.668	76.06
358.895	86.06
359.122	82.06
359.349	90.06
359.576	81.06
359.802	74.06
360.029	87.06
360.256	98.06
360.483	88.06
360.709	71.06
360.936	93.06
361.163	70.06
361.39	97.06
361.616	98.06
361.843	89.06
362.07	96.06
362.296	100.06
362.523	94.06
362.749	99.06
362.976	116.06
363.203	122.06
363.429	98.06
363.656	91.06
363.882	85.06
364.109	101.06
364.335	118.06
364.562	117.06
364.788	100.06
365.015	93.06
365.241	96.06
365.468	81.06
365.694	72.06
365.92	81.06
366.147	101.06
366.373	88.06
366.599	87.06
366.826	96.06
367.052	77.06
367.278	83.06
367.505	76.06
367.731	94.06
367.957	77.06
368.184	91.06
368.41	68.06
368.636	93.06
368.862	89.06
369.089	71.06
369.315	85.06
369.541	79.06
369.767	91.06
369.993	71.06
370.219	112.06
370.445	93.06
370.672	98.06
370.898	92.06
371.124	74.06
371.35	81.06
371.576	83.06
371.802	94.06
372.028	101.06
372.254	99.06
372.48	102.06
372.706	98.06
372.932	89.06
373.158	79.06
373.384	115.06
373.61	125.06
373.835	136.06
374.061	97.06
374.287	87.06
374.513	86.06
374.739	105.06
374.965	97.06
375.191	88.06
375.416	97.06
375.642	87.06
375.868	103.06
376.094	90.06
376.319	91.06
376.545	97.06
376.771	102.06
376.997	93.06
377.222	79.06
377.448	85.06
377.674	89.06
377.899	93.06
378.125	88.06
378.35	90.06
378.576	88.06
378.802	94.06
379.027	87.06
379.253	87.06
379.478	80.06
379.704	67.06
379.929	96.06
380.155	86.06
380.38	81.06
380.606	88.06
380.831	91.06
381.057	96.06
381.282	85.06
381.507	86.06
381.733	88.06
381.958	95.06
382.184	89.06
382.409	90.06
382.634	88.06
382.86	103.06
383.085	105.06
383.31	95.06
383.535	102.06
383.761	102.06
383.986	102.06
384.211	87.06
384.436	90.06
384.662	91.06
384.887	97.06
385.112	90.06
385.337	94.06
385.562	86.06
385.787	111.06
386.013	101.06
386.238	113.06
386.463	93.06
386.688	98.06
386.913	91.06
387.138	95.06
387.363	104.06
387.588	95.06
387.813	99.06
388.038	100.06
388.263	95.06
388.488	83.06
388.713	106.06
388.938	94.06
389.163	94.06
389.387	81.06
389.612	79.06
389.837	77.06
390.062	86.06
390.287	83.06
390.512	84.06
390.736	94.06
390.961	91.06
391.186	91.06
391.411	89.06
391.636	85.06
391.86	103.06
392.085	97.06
392.31	97.06
392.534	110.06
392.759	129.06
392.984	211.06
393.208	395.06
393.433	608.06
393.658	441.06
393.882	164.06
394.107	125.06
394.331	118.06
394.556	132.06
394.78	106.06
395.005	109.06
395.229	88.06
395.454	82.06
395.678	98.06
395.903	134.06
396.127	157.06
396.352	177.06
396.576	233.06
396.801	393.06
397.025	455.06
397.249	221.06
397.474	116.06
397.698	107.06
397.922	92.06
398.147	94.06
398.371	94.06
398.595	81.06
398.82	75.06
399.044	90.06
399.268	98.06
399.492	81.06
399.717	83.06
399.941	88.06
400.165	80.06
400.389	100.06
400.613	99.06
400.837	89.06
401.062	88.06
401.286	89.06
401.51	76.06
401.734	91.06
401.958	79.06
402.182	86.06
402.406	87.06
402.63	67.06
402.854	79.06
403.078	95.06
403.302	95.06
403.526	88.06
403.75	85.06
403.974	87.06
404.198	88.06
404.422	96.06
404.645	119.06
404.869	109.06
405.093	75.06
405.317	83.06
405.541	86.06
405.765	98.06
405.988	74.06
406.212	83.06
406.436	84.06
406.66	97.06
406.883	99.06
407.107	101.06
407.331	88.06
407.555	88.06
407.778	126.06
408.002	129.06
408.226	80.06
408.449	74.06
408.673	82.06
408.896	82.06
409.12	91.06
409.344	105.06
409.567	95.06
409.791	111.06
410.014	94.06
410.238	94.06
410.461	97.06
410.685	82.06
410.908	83.06
411.132	86.06
411.355	84.06
411.578	83.06
411.802	83.06
412.025	78.06
412.249	80.06
412.472	82.06
412.695	72.06
412.919	90.06
413.142	87.06
413.365	103.06
413.589	102.06
413.812	75.06
414.035	80.06
414.258	81.06
414.482	65.06
414.705	82.06
414.928	98.06
415.151	94.06
415.374	81.06
415.597	85.06
415.821	82.06
416.044	89.06
416.267	87.06
416.49	92.06
416.713	72.06
416.936	105.06
417.159	93.06
417.382	80.06
417.605	92.06
417.828	81.06
418.051	81.06
418.274	95.06
418.497	74.06
418.72	75.06
418.943	88.06
419.166	83.06
419.389	81.06
419.611	104.06
419.834	92.06
420.057	94.06
420.28	104.06
420.503	83.06
420.726	85.06
420.948	96.06
421.171	87.06
421.394	91.06
421.617	111.06
421.839	108.06
422.062	122.06
422.285	164.06
422.507	299.06
422.73	498.06
422.953	413.06
423.175	184.06
423.398	129.06
423.621	103.06
423.843	84.06
424.066	82.06
424.288	75.06
424.511	89.06
424.733	86.06
424.956	84.06
425.178	89.06
425.401	91.06
425.623	92.06
425.846	88.06
426.068	83.06
426.291	91.06
426.513	81.06
426.735	90.06
426.958	93.06
427.18	79.06
427.402	90.06
427.625	73.06
427.847	90.06
428.069	116.06
428.292	134.06
428.514	134.06
428.736	114.06
428.958	115.06
429.181	130.06
429.403	93.06
429.625	111.06
429.847	130.06
430.069	184.06
430.292	209.06
430.514	200.06
430.736	155.06
430.958	157.06
431.18	99.06
431.402	90.06
431.624	96.06
431.846	134.06
432.068	146.06
432.29	106.06
432.512	81.06
432.734	85.06
432.956	85.06
433.178	76.06
433.4	83.06
433.622	89.06
433.844	98.06
434.066	91.06
434.287	80.06
434.509	85.06
434.731	93.06
434.953	76.06
435.175	87.06
435.397	83.06
435.618	84.06
435.84	94.06
436.062	79.06
436.284	77.06
436.505	75.06
436.727	86.06
436.949	89.06
437.17	95.06
437.392	87.06
437.614	89.06
437.835	81.06
438.057	93.06
438.278	90.06
438.5	97.06
438.721	87.06
438.943	90.06
439.165	88.06
439.386	80.06
439.608	95.06
439.829	93.06
440.05	83.06
440.272	86.06
440.493	94.06
440.715	83.06
440.936	81.06
441.158	88.06
441.379	91.06
441.6	100.06
441.822	89.06
442.043	85.06
442.264	94.06
442.486	127.06
442.707	193.06
442.928	129.06
443.149	103.06
443.371	174.06
443.592	304.06
443.813	248.06
444.034	114.06
444.255	98.06
444.476	87.06
444.698	95.06
444.919	90.06
445.14	191.06
445.361	228.06
445.582	321.06
445.803	271.06
446.024	123.06
446.245	96.06
446.466	89.06
446.687	87.06
446.908	76.06
447.129	82.06
447.35	85.06
447.571	84.06
447.792	84.06
448.013	78.06
448.234	88.06
448.455	88.06
448.675	93.06
448.896	67.06
449.117	79.06
449.338	86.06
449.559	85.06
449.779	94.06
450	83.06
450.221	99.06
450.442	83.06
450.662	91.06
450.883	90.06
451.104	68.06
451.324	88.06
451.545	77.06
451.766	88.06
451.986	86.06
452.207	83.06
452.428	70.06
452.648	85.06
452.869	99.06
453.089	85.06
453.31	94.06
453.53	88.06
453.751	90.06
453.971	95.06
454.192	80.06
454.412	76.06
454.633	79.06
454.853	89.06
455.073	74.06
455.294	87.06
455.514	87.06
455.734	89.06
455.955	82.06
456.175	83.06
456.395	92.06
456.616	92.06
456.836	94.06
457.056	99.06
457.276	89.06
457.497	83.06
457.717	95.06
457.937	89.06
458.157	115.06
458.377	126.06
458.598	109.06
458.818	127.06
459.038	96.06
459.258	92.06
459.478	90.06
459.698	88.06
459.918	85.06
460.138	77.06
460.358	87.06
460.578	85.06
460.798	120.06
461.018	102.06
461.238	78.06
461.458	79.06
461.678	81.06
461.898	87.06
462.118	78.06
462.338	82.06
462.558	82.06
462.777	73.06
462.997	73.06
463.217	84.06
463.437	84.06
463.657	75.06
463.876	75.06
464.096	79.06
464.316	75.06
464.536	84.06
464.755	88.06
464.975	83.06
465.195	83.06
465.414	81.06
465.634	82.06
465.854	92.06
466.073	61.06
466.293	87.06
466.512	81.06
466.732	74.06
466.951	79.06
467.171	89.06
467.391	86.06
467.61	89.06
467.829	78.06
468.049	81.06
468.268	93.06
468.488	98.06
468.707	75.06
468.927	85.06
469.146	102.06
469.365	93.06
469.585	87.06
469.804	104.06
470.023	93.06
470.243	72.06
470.462	83.06
470.681	101.06
470.901	86.06
471.12	89.06
471.339	77.06
471.558	84.06
471.777	90.06
471.997	68.06
472.216	84.06
472.435	78.06
472.654	81.06
472.873	98.06
473.092	81.06
473.311	89.06
473.53	76.06
473.749	89.06
473.968	90.06
474.187	78.06
474.406	65.06
474.625	93.06
474.844	98.06
475.063	87.06
475.282	69.06
475.501	92.06
475.72	93.06
475.939	88.06
476.158	85.06
476.377	87.06
476.596	86.06
476.814	89.06
477.033	81.06
477.252	78.06
477.471	70.06
477.69	71.06
477.908	82.06
478.127	101.06
478.346	74.06
478.564	82.06
478.783	91.06
479.002	81.06
479.22	70.06
479.439	82.06
479.658	93.06
479.876	79.06
480.095	89.06
480.313	77.06
480.532	85.06
480.751	90.06
480.969	78.06
481.188	79.06
481.406	86.06
481.624	83.06
481.843	103.06
482.061	86.06
482.28	90.06
482.498	86.06
482.717	95.06
482.935	70.06
483.153	88.06
483.372	94.06
483.59	86.06
483.808	85.06
484.027	81.06
484.245	85.06
484.463	85.06
484.681	87.06
484.9	89.06
485.118	67.06
485.336	97.06
485.554	83.06
485.772	84.06
485.99	82.06
486.209	97.06
486.427	106.06
486.645	100.06
486.863	87.06
487.081	73.06
487.299	88.06
487.517	96.06
487.735	114.06
487.953	173.06
488.171	148.06
488.389	87.06
488.607	72.06
488.825	91.06
489.043	96.06
489.261	93.06
489.479	86.06
489.696	100.06
489.914	81.06
490.132	70.06
490.35	97.06
490.568	87.06
490.786	81.06
491.003	85.06
491.221	84.06
491.439	83.06
491.657	75.06
491.874	80.06
492.092	89.06
492.31	90.06
492.527	93.06
492.745	81.06
492.963	83.06
493.18	101.06
493.398	96.06
493.615	88.06
493.833	75.06
494.05	86.06
494.268	92.06
494.485	75.06
494.703	74.06
494.92	83.06
495.138	86.06
495.355	73.06
495.573	92.06
495.79	85.06
496.008	103.06
496.225	96.06
496.442	81.06
496.66	89.06
496.877	90.06
497.094	83.06
497.312	81.06
497.529	69.06
497.746	87.06
497.963	80.06
498.181	79.06
498.398	91.06
498.615	74.06
498.832	85.06
499.049	80.06
499.267	83.06
499.484	92.06
499.701	93.06
499.918	79.06
500.135	97.06
500.352	80.06
500.569	87.06
500.786	86.06
501.003	95.06
501.22	83.06
501.437	109.06
501.654	90.06
501.871	81.06
502.088	89.06
502.305	89.06
502.522	80.06
502.739	81.06
502.956	98.06
503.172	83.06
503.389	99.06
503.606	78.06
503.823	79.06
504.04	94.06
504.256	116.06
504.473	120.06
504.69	88.06
504.907	94.06
505.123	85.06
505.34	78.06
505.557	76.06
505.773	88.06
505.99	79.06
506.207	85.06
506.423	82.06
506.64	85.06
506.856	88.06
507.073	75.06
507.289	94.06
507.506	101.06
507.722	67.06
507.939	88.06
508.155	90.06
508.372	87.06
508.588	85.06
508.805	83.06
509.021	67.06
509.238	99.06
509.454	94.06
509.67	86.06
509.887	114.06
510.103	81.06
510.319	89.06
510.536	73.06
510.752	75.06
510.968	91.06
511.184	97.06
511.401	81.06
511.617	89.06
511.833	91.06
512.049	74.06
512.265	87.06
512.481	85.06
512.698	70.06
512.914	86.06
513.13	72.06
513.346	79.06
513.562	76.06
513.778	96.06
513.994	93.06
514.21	78.06
514.426	87.06
514.642	82.06
514.858	82.06
515.074	88.06
515.29	86.06
515.506	95.06
515.721	84.06
515.937	87.06
516.153	84.06
516.369	90.06
516.585	86.06
516.801	85.06
517.016	81.06
517.232	87.06
517.448	85.06
517.664	86.06
517.879	89.06
518.095	86.06
