Data from 237_2_HRD10591_00047.txt Node
Date: Mon Jan 19 14:11:54 EST 2026
User: Yrep
Spectrometer: HR+D1059
Trigger mode: 1
Integration Time (sec): 1.000000E-1
Scans to average: 1
Electric dark correction enabled: true
Nonlinearity correction enabled: false
Boxcar width: 0
XAxis mode: Wavelengths
Number of Pixels in Spectrum: 2048
>>>>>Begin Spectral Data<<<<<
223.165	-10.69
223.4	-10.69
223.635	-10.69
223.869	-19.69
224.104	-32.69
224.338	-18.69
224.573	-12.69
224.808	-8.69
225.042	-2.69
225.277	4.31
225.511	4.31
225.746	3.31
225.98	6.31
226.215	22.31
226.449	7.31
226.683	11.31
226.918	16.31
227.152	30.31
227.387	38.31
227.621	43.31
227.856	39.31
228.09	44.31
228.324	74.31
228.559	70.31
228.793	66.31
229.027	65.31
229.262	70.31
229.496	67.31
229.73	65.31
229.964	81.31
230.199	72.31
230.433	79.31
230.667	79.31
230.901	71.31
231.136	72.31
231.37	68.31
231.604	86.31
231.838	87.31
232.072	90.31
232.306	70.31
232.541	82.31
232.775	71.31
233.009	75.31
233.243	98.31
233.477	80.31
233.711	81.31
233.945	72.31
234.179	84.31
234.413	85.31
234.647	85.31
234.881	75.31
235.115	73.31
235.349	77.31
235.583	83.31
235.817	86.31
236.051	84.31
236.285	74.31
236.519	90.31
236.753	80.31
236.987	79.31
237.221	81.31
237.455	73.31
237.689	82.31
237.922	89.31
238.156	78.31
238.39	58.31
238.624	66.31
238.858	70.31
239.091	79.31
239.325	83.31
239.559	80.31
239.793	84.31
240.027	70.31
240.26	72.31
240.494	73.31
240.728	75.31
240.961	72.31
241.195	76.31
241.429	77.31
241.662	90.31
241.896	78.31
242.13	64.31
242.363	75.31
242.597	81.31
242.83	76.31
243.064	64.31
243.298	65.31
243.531	68.31
243.765	78.31
243.998	82.31
244.232	72.31
244.465	64.31
244.699	69.31
244.932	67.31
245.166	67.31
245.399	68.31
245.633	80.31
245.866	71.31
246.099	80.31
246.333	73.31
246.566	81.31
246.8	76.31
247.033	92.31
247.266	73.31
247.5	78.31
247.733	67.31
247.966	79.31
248.2	88.31
248.433	91.31
248.666	76.31
248.899	71.31
249.133	70.31
249.366	76.31
249.599	81.31
249.832	79.31
250.066	77.31
250.299	78.31
250.532	72.31
250.765	84.31
250.998	77.31
251.231	83.31
251.465	78.31
251.698	75.31
251.931	83.31
252.164	72.31
252.397	92.31
252.63	87.31
252.863	85.31
253.096	83.31
253.329	83.31
253.562	75.31
253.795	78.31
254.028	87.31
254.261	90.31
254.494	79.31
254.727	86.31
254.96	78.31
255.193	76.31
255.426	81.31
255.659	82.31
255.892	79.31
256.124	85.31
256.357	74.31
256.59	75.31
256.823	88.31
257.056	92.31
257.289	66.31
257.521	75.31
257.754	73.31
257.987	67.31
258.22	92.31
258.452	84.31
258.685	87.31
258.918	75.31
259.151	81.31
259.383	71.31
259.616	72.31
259.849	83.31
260.081	76.31
260.314	76.31
260.547	76.31
260.779	87.31
261.012	82.31
261.244	84.31
261.477	74.31
261.71	80.31
261.942	66.31
262.175	93.31
262.407	84.31
262.64	73.31
262.872	71.31
263.105	88.31
263.337	78.31
263.57	75.31
263.802	81.31
264.035	77.31
264.267	82.31
264.499	87.31
264.732	87.31
264.964	75.31
265.197	87.31
265.429	76.31
265.661	74.31
265.894	83.31
266.126	82.31
266.358	77.31
266.591	75.31
266.823	91.31
267.055	86.31
267.287	79.31
267.52	74.31
267.752	83.31
267.984	71.31
268.216	68.31
268.448	83.31
268.681	87.31
268.913	89.31
269.145	81.31
269.377	75.31
269.609	85.31
269.841	80.31
270.073	77.31
270.306	83.31
270.538	87.31
270.77	96.31
271.002	72.31
271.234	73.31
271.466	88.31
271.698	89.31
271.93	92.31
272.162	99.31
272.394	87.31
272.626	83.31
272.858	76.31
273.09	83.31
273.322	88.31
273.553	88.31
273.785	90.31
274.017	77.31
274.249	80.31
274.481	72.31
274.713	85.31
274.945	89.31
275.176	87.31
275.408	81.31
275.64	90.31
275.872	77.31
276.104	84.31
276.335	84.31
276.567	78.31
276.799	82.31
277.031	76.31
277.262	83.31
277.494	97.31
277.726	80.31
277.957	73.31
278.189	83.31
278.421	84.31
278.652	79.31
278.884	95.31
279.115	98.31
279.347	90.31
279.579	88.31
279.81	99.31
280.042	74.31
280.273	94.31
280.505	91.31
280.736	80.31
280.968	70.31
281.199	92.31
281.431	81.31
281.662	79.31
281.894	96.31
282.125	83.31
282.356	84.31
282.588	83.31
282.819	90.31
283.051	85.31
283.282	91.31
283.513	88.31
283.745	83.31
283.976	92.31
284.207	87.31
284.439	72.31
284.67	84.31
284.901	72.31
285.132	92.31
285.364	87.31
285.595	87.31
285.826	88.31
286.057	89.31
286.288	82.31
286.52	94.31
286.751	78.31
286.982	75.31
287.213	83.31
287.444	73.31
287.675	75.31
287.906	91.31
288.138	89.31
288.369	87.31
288.6	82.31
288.831	76.31
289.062	91.31
289.293	81.31
289.524	80.31
289.755	88.31
289.986	84.31
290.217	83.31
290.448	85.31
290.679	89.31
290.91	91.31
291.141	96.31
291.371	87.31
291.602	80.31
291.833	71.31
292.064	87.31
292.295	72.31
292.526	85.31
292.757	75.31
292.987	76.31
293.218	66.31
293.449	85.31
293.68	75.31
293.91	84.31
294.141	83.31
294.372	84.31
294.603	84.31
294.833	69.31
295.064	87.31
295.295	89.31
295.525	87.31
295.756	95.31
295.987	77.31
296.217	69.31
296.448	70.31
296.679	83.31
296.909	71.31
297.14	75.31
297.37	82.31
297.601	77.31
297.831	80.31
298.062	99.31
298.292	95.31
298.523	90.31
298.753	81.31
298.984	90.31
299.214	74.31
299.445	89.31
299.675	82.31
299.905	85.31
300.136	85.31
300.366	77.31
300.597	101.31
300.827	84.31
301.057	95.31
301.288	89.31
301.518	90.31
301.748	83.31
301.979	94.31
302.209	71.31
302.439	92.31
302.669	96.31
302.9	85.31
303.13	79.31
303.36	87.31
303.59	88.31
303.82	73.31
304.051	73.31
304.281	71.31
304.511	92.31
304.741	76.31
304.971	91.31
305.201	86.31
305.431	89.31
305.661	89.31
305.891	85.31
306.121	88.31
306.352	96.31
306.582	83.31
306.812	84.31
307.042	91.31
307.272	83.31
307.502	78.31
307.731	99.31
307.961	100.31
308.191	89.31
308.421	86.31
308.651	93.31
308.881	93.31
309.111	102.31
309.341	79.31
309.571	93.31
309.8	83.31
310.03	91.31
310.26	92.31
310.49	93.31
310.72	68.31
310.949	76.31
311.179	92.31
311.409	74.31
311.639	76.31
311.868	87.31
312.098	87.31
312.328	77.31
312.557	89.31
312.787	70.31
313.017	89.31
313.246	88.31
313.476	90.31
313.706	83.31
313.935	78.31
314.165	92.31
314.394	84.31
314.624	76.31
314.853	85.31
315.083	89.31
315.312	93.31
315.542	77.31
315.771	103.31
316.001	74.31
316.23	90.31
316.46	86.31
316.689	83.31
316.919	70.31
317.148	85.31
317.377	97.31
317.607	89.31
317.836	93.31
318.065	92.31
318.295	96.31
318.524	89.31
318.753	75.31
318.983	83.31
319.212	93.31
319.441	87.31
319.67	88.31
319.9	98.31
320.129	85.31
320.358	86.31
320.587	101.31
320.816	88.31
321.046	91.31
321.275	94.31
321.504	97.31
321.733	83.31
321.962	77.31
322.191	83.31
322.42	100.31
322.649	85.31
322.878	94.31
323.108	83.31
323.337	88.31
323.566	101.31
323.795	81.31
324.024	77.31
324.253	91.31
324.482	85.31
324.71	72.31
324.939	72.31
325.168	88.31
325.397	77.31
325.626	85.31
325.855	86.31
326.084	89.31
326.313	91.31
326.542	80.31
326.77	82.31
326.999	91.31
327.228	85.31
327.457	76.31
327.686	84.31
327.914	89.31
328.143	69.31
328.372	81.31
328.6	86.31
328.829	75.31
329.058	92.31
329.287	84.31
329.515	76.31
329.744	91.31
329.972	89.31
330.201	93.31
330.43	80.31
330.658	86.31
330.887	97.31
331.115	97.31
331.344	77.31
331.572	97.31
331.801	89.31
332.03	79.31
332.258	80.31
332.486	74.31
332.715	97.31
332.943	83.31
333.172	71.31
333.4	81.31
333.629	75.31
333.857	88.31
334.085	96.31
334.314	80.31
334.542	81.31
334.771	89.31
334.999	81.31
335.227	88.31
335.455	89.31
335.684	85.31
335.912	89.31
336.14	103.31
336.369	107.31
336.597	94.31
336.825	81.31
337.053	70.31
337.281	80.31
337.51	73.31
337.738	91.31
337.966	88.31
338.194	80.31
338.422	75.31
338.65	91.31
338.878	82.31
339.106	91.31
339.334	96.31
339.562	97.31
339.79	74.31
340.018	79.31
340.246	91.31
340.474	86.31
340.702	99.31
340.93	87.31
341.158	86.31
341.386	94.31
341.614	76.31
341.842	91.31
342.07	85.31
342.298	87.31
342.526	92.31
342.754	89.31
342.981	85.31
343.209	85.31
343.437	92.31
343.665	79.31
343.893	80.31
344.12	84.31
344.348	92.31
344.576	79.31
344.804	89.31
345.031	92.31
345.259	87.31
345.487	85.31
345.714	85.31
345.942	82.31
346.17	94.31
346.397	83.31
346.625	88.31
346.853	87.31
347.08	92.31
347.308	92.31
347.535	89.31
347.763	83.31
347.99	89.31
348.218	88.31
348.445	76.31
348.673	89.31
348.9	84.31
349.128	81.31
349.355	90.31
349.583	88.31
349.81	91.31
350.037	95.31
350.265	89.31
350.492	87.31
350.72	71.31
350.947	98.31
351.174	77.31
351.402	77.31
351.629	76.31
351.856	78.31
352.083	81.31
352.311	94.31
352.538	82.31
352.765	102.31
352.992	92.31
353.22	90.31
353.447	67.31
353.674	75.31
353.901	79.31
354.128	84.31
354.355	84.31
354.583	83.31
354.81	88.31
355.037	93.31
355.264	80.31
355.491	80.31
355.718	93.31
355.945	88.31
356.172	76.31
356.399	84.31
356.626	78.31
356.853	78.31
357.08	91.31
357.307	84.31
357.534	91.31
357.761	98.31
357.988	82.31
358.215	92.31
358.441	95.31
358.668	97.31
358.895	80.31
359.122	66.31
359.349	94.31
359.576	99.31
359.802	83.31
360.029	65.31
360.256	78.31
360.483	83.31
360.709	90.31
360.936	95.31
361.163	90.31
361.39	91.31
361.616	88.31
361.843	83.31
362.07	76.31
362.296	84.31
362.523	98.31
362.749	96.31
362.976	92.31
363.203	111.31
363.429	83.31
363.656	90.31
363.882	82.31
364.109	92.31
364.335	106.31
364.562	106.31
364.788	88.31
365.015	94.31
365.241	103.31
365.468	91.31
365.694	94.31
365.92	82.31
366.147	78.31
366.373	82.31
366.599	72.31
366.826	77.31
367.052	83.31
367.278	73.31
367.505	79.31
367.731	88.31
367.957	82.31
368.184	78.31
368.41	73.31
368.636	73.31
368.862	86.31
369.089	83.31
369.315	91.31
369.541	91.31
369.767	99.31
369.993	83.31
370.219	78.31
370.445	84.31
370.672	99.31
370.898	84.31
371.124	95.31
371.35	91.31
371.576	90.31
371.802	86.31
372.028	100.31
372.254	92.31
372.48	89.31
372.706	95.31
372.932	66.31
373.158	101.31
373.384	107.31
373.61	101.31
373.835	117.31
374.061	89.31
374.287	96.31
374.513	96.31
374.739	85.31
374.965	85.31
375.191	89.31
375.416	89.31
375.642	82.31
375.868	104.31
376.094	95.31
376.319	89.31
376.545	96.31
376.771	84.31
376.997	92.31
377.222	84.31
377.448	94.31
377.674	71.31
377.899	90.31
378.125	78.31
378.35	95.31
378.576	86.31
378.802	96.31
379.027	71.31
379.253	96.31
379.478	86.31
379.704	84.31
379.929	81.31
380.155	86.31
380.38	73.31
380.606	83.31
380.831	89.31
381.057	91.31
381.282	98.31
381.507	81.31
381.733	81.31
381.958	85.31
382.184	88.31
382.409	88.31
382.634	95.31
382.86	82.31
383.085	94.31
383.31	95.31
383.535	101.31
383.761	101.31
383.986	85.31
384.211	82.31
384.436	81.31
384.662	74.31
384.887	77.31
385.112	84.31
385.337	96.31
385.562	93.31
385.787	103.31
386.013	95.31
386.238	92.31
386.463	92.31
386.688	102.31
386.913	80.31
387.138	89.31
387.363	103.31
387.588	99.31
387.813	81.31
388.038	89.31
388.263	78.31
388.488	101.31
388.713	79.31
388.938	83.31
389.163	83.31
389.387	99.31
389.612	88.31
389.837	93.31
390.062	90.31
390.287	80.31
390.512	77.31
390.736	90.31
390.961	83.31
391.186	88.31
391.411	81.31
391.636	80.31
391.86	97.31
392.085	99.31
392.31	91.31
392.534	87.31
392.759	92.31
392.984	139.31
393.208	219.31
393.433	347.31
393.658	270.31
393.882	137.31
394.107	87.31
394.331	103.31
394.556	107.31
394.78	100.31
395.005	84.31
395.229	82.31
395.454	91.31
395.678	107.31
395.903	102.31
396.127	130.31
396.352	132.31
396.576	139.31
396.801	216.31
397.025	266.31
397.249	139.31
397.474	113.31
397.698	92.31
397.922	81.31
398.147	91.31
398.371	88.31
398.595	91.31
398.82	79.31
399.044	73.31
399.268	88.31
399.492	83.31
399.717	82.31
399.941	77.31
400.165	83.31
400.389	89.31
400.613	72.31
400.837	90.31
401.062	87.31
401.286	78.31
401.51	105.31
401.734	71.31
401.958	93.31
402.182	72.31
402.406	83.31
402.63	89.31
402.854	90.31
403.078	77.31
403.302	103.31
403.526	89.31
403.75	89.31
403.974	69.31
404.198	80.31
404.422	92.31
404.645	88.31
404.869	87.31
405.093	81.31
405.317	83.31
405.541	100.31
405.765	84.31
405.988	68.31
406.212	81.31
406.436	81.31
406.66	101.31
406.883	81.31
407.107	84.31
407.331	75.31
407.555	91.31
407.778	98.31
408.002	108.31
408.226	76.31
408.449	81.31
408.673	76.31
408.896	91.31
409.12	87.31
409.344	90.31
409.567	91.31
409.791	88.31
410.014	77.31
410.238	91.31
410.461	82.31
410.685	92.31
410.908	77.31
411.132	63.31
411.355	81.31
411.578	86.31
411.802	75.31
412.025	76.31
412.249	72.31
412.472	82.31
412.695	90.31
412.919	80.31
413.142	73.31
413.365	91.31
413.589	89.31
413.812	81.31
414.035	68.31
414.258	82.31
414.482	86.31
414.705	84.31
414.928	86.31
415.151	107.31
415.374	96.31
415.597	81.31
415.821	75.31
416.044	82.31
416.267	83.31
416.49	94.31
416.713	89.31
416.936	100.31
417.159	82.31
417.382	81.31
417.605	81.31
417.828	96.31
418.051	81.31
418.274	76.31
418.497	93.31
418.72	94.31
418.943	103.31
419.166	87.31
419.389	95.31
419.611	75.31
419.834	91.31
420.057	75.31
420.28	76.31
420.503	81.31
420.726	88.31
420.948	102.31
421.171	90.31
421.394	103.31
421.617	97.31
421.839	108.31
422.062	101.31
422.285	109.31
422.507	191.31
422.73	305.31
422.953	283.31
423.175	143.31
423.398	95.31
423.621	80.31
423.843	89.31
424.066	93.31
424.288	83.31
424.511	97.31
424.733	95.31
424.956	83.31
425.178	89.31
425.401	81.31
425.623	85.31
425.846	96.31
426.068	94.31
426.291	80.31
426.513	80.31
426.735	75.31
426.958	85.31
427.18	94.31
427.402	87.31
427.625	89.31
427.847	82.31
428.069	93.31
428.292	120.31
428.514	122.31
428.736	97.31
428.958	125.31
429.181	124.31
429.403	89.31
429.625	83.31
429.847	99.31
430.069	115.31
430.292	135.31
430.514	139.31
430.736	112.31
430.958	128.31
431.18	92.31
431.402	94.31
431.624	89.31
431.846	107.31
432.068	114.31
432.29	95.31
432.512	89.31
432.734	88.31
432.956	88.31
433.178	80.31
433.4	84.31
433.622	90.31
433.844	76.31
434.066	77.31
434.287	69.31
434.509	68.31
434.731	82.31
434.953	77.31
435.175	91.31
435.397	91.31
435.618	72.31
435.84	81.31
436.062	83.31
436.284	88.31
436.505	83.31
436.727	87.31
436.949	91.31
437.17	78.31
437.392	85.31
437.614	85.31
437.835	83.31
438.057	85.31
438.278	88.31
438.5	94.31
438.721	83.31
438.943	83.31
439.165	91.31
439.386	79.31
439.608	79.31
439.829	87.31
440.05	85.31
440.272	88.31
440.493	78.31
440.715	92.31
440.936	94.31
441.158	101.31
441.379	87.31
441.6	83.31
441.822	85.31
442.043	106.31
442.264	68.31
442.486	106.31
442.707	125.31
442.928	105.31
443.149	95.31
443.371	113.31
443.592	191.31
443.813	155.31
444.034	102.31
444.255	92.31
444.476	79.31
444.698	81.31
444.919	94.31
445.14	189.31
445.361	168.31
445.582	195.31
445.803	159.31
446.024	107.31
446.245	85.31
446.466	97.31
446.687	79.31
446.908	88.31
447.129	87.31
447.35	80.31
447.571	81.31
447.792	69.31
448.013	82.31
448.234	80.31
448.455	80.31
448.675	99.31
448.896	81.31
449.117	76.31
449.338	79.31
449.559	93.31
449.779	77.31
450	86.31
450.221	85.31
450.442	70.31
450.662	78.31
450.883	70.31
451.104	80.31
451.324	79.31
451.545	73.31
451.766	76.31
451.986	72.31
452.207	83.31
452.428	85.31
452.648	84.31
452.869	93.31
453.089	85.31
453.31	75.31
453.53	89.31
453.751	80.31
453.971	74.31
454.192	89.31
454.412	89.31
454.633	65.31
454.853	73.31
455.073	97.31
455.294	76.31
455.514	81.31
455.734	83.31
455.955	85.31
456.175	76.31
456.395	99.31
456.616	92.31
456.836	92.31
457.056	81.31
457.276	83.31
457.497	96.31
457.717	87.31
457.937	92.31
458.157	104.31
458.377	106.31
458.598	93.31
458.818	97.31
459.038	73.31
459.258	84.31
459.478	97.31
459.698	85.31
459.918	69.31
460.138	98.31
460.358	94.31
460.578	99.31
460.798	104.31
461.018	96.31
461.238	73.31
461.458	74.31
461.678	94.31
461.898	83.31
462.118	79.31
462.338	96.31
462.558	77.31
462.777	83.31
462.997	83.31
463.217	82.31
463.437	80.31
463.657	74.31
463.876	83.31
464.096	85.31
464.316	77.31
464.536	84.31
464.755	70.31
464.975	72.31
465.195	86.31
465.414	95.31
465.634	75.31
465.854	93.31
466.073	77.31
466.293	76.31
466.512	80.31
466.732	83.31
466.951	95.31
467.171	88.31
467.391	79.31
467.61	88.31
467.829	76.31
468.049	83.31
468.268	81.31
468.488	96.31
468.707	94.31
468.927	83.31
469.146	84.31
469.365	84.31
469.585	84.31
469.804	81.31
470.023	79.31
470.243	73.31
470.462	75.31
470.681	78.31
470.901	88.31
471.12	75.31
471.339	85.31
471.558	70.31
471.777	91.31
471.997	85.31
472.216	69.31
472.435	91.31
472.654	68.31
472.873	85.31
473.092	83.31
473.311	84.31
473.53	78.31
473.749	70.31
473.968	89.31
474.187	80.31
474.406	75.31
474.625	82.31
474.844	72.31
475.063	75.31
475.282	69.31
475.501	92.31
475.72	86.31
475.939	81.31
476.158	65.31
476.377	78.31
476.596	93.31
476.814	77.31
477.033	85.31
477.252	90.31
477.471	81.31
477.69	76.31
477.908	87.31
478.127	85.31
478.346	77.31
478.564	89.31
478.783	87.31
479.002	88.31
479.22	99.31
479.439	93.31
479.658	100.31
479.876	83.31
480.095	82.31
480.313	75.31
480.532	69.31
480.751	85.31
480.969	97.31
481.188	93.31
481.406	86.31
481.624	93.31
481.843	74.31
482.061	76.31
482.28	92.31
482.498	84.31
482.717	83.31
482.935	82.31
483.153	78.31
483.372	74.31
483.59	93.31
483.808	93.31
484.027	80.31
484.245	87.31
484.463	70.31
484.681	78.31
484.9	92.31
485.118	100.31
485.336	91.31
485.554	73.31
485.772	91.31
485.99	78.31
486.209	89.31
486.427	91.31
486.645	96.31
486.863	89.31
487.081	83.31
487.299	89.31
487.517	87.31
487.735	95.31
487.953	120.31
488.171	107.31
488.389	101.31
488.607	75.31
488.825	86.31
489.043	76.31
489.261	77.31
489.479	84.31
489.696	80.31
489.914	90.31
490.132	81.31
490.35	94.31
490.568	70.31
490.786	80.31
491.003	67.31
491.221	73.31
491.439	85.31
491.657	89.31
491.874	87.31
492.092	84.31
492.31	82.31
492.527	86.31
492.745	74.31
492.963	87.31
493.18	94.31
493.398	78.31
493.615	94.31
493.833	73.31
494.05	83.31
494.268	97.31
494.485	88.31
494.703	85.31
494.92	73.31
495.138	83.31
495.355	78.31
495.573	80.31
495.79	87.31
496.008	84.31
496.225	85.31
496.442	88.31
496.66	99.31
496.877	81.31
497.094	84.31
497.312	77.31
497.529	88.31
497.746	70.31
497.963	91.31
498.181	91.31
498.398	84.31
498.615	85.31
498.832	83.31
499.049	83.31
499.267	95.31
499.484	104.31
499.701	80.31
499.918	90.31
500.135	85.31
500.352	81.31
500.569	82.31
500.786	86.31
501.003	90.31
501.22	91.31
501.437	84.31
501.654	90.31
501.871	83.31
502.088	80.31
502.305	79.31
502.522	108.31
502.739	77.31
502.956	83.31
503.172	91.31
503.389	96.31
503.606	78.31
503.823	86.31
504.04	89.31
504.256	109.31
504.473	101.31
504.69	83.31
504.907	92.31
505.123	92.31
505.34	100.31
505.557	89.31
505.773	85.31
505.99	84.31
506.207	89.31
506.423	91.31
506.64	90.31
506.856	78.31
507.073	88.31
507.289	87.31
507.506	84.31
507.722	68.31
507.939	91.31
508.155	86.31
508.372	91.31
508.588	86.31
508.805	80.31
509.021	90.31
509.238	82.31
509.454	95.31
509.67	84.31
509.887	78.31
510.103	90.31
510.319	77.31
510.536	92.31
510.752	80.31
510.968	78.31
511.184	91.31
511.401	95.31
511.617	81.31
511.833	73.31
512.049	80.31
512.265	84.31
512.481	92.31
512.698	99.31
512.914	79.31
513.13	95.31
513.346	68.31
513.562	96.31
513.778	85.31
513.994	76.31
514.21	86.31
514.426	84.31
514.642	83.31
514.858	83.31
515.074	89.31
515.29	93.31
515.506	94.31
515.721	73.31
515.937	83.31
516.153	85.31
516.369	92.31
516.585	80.31
516.801	88.31
517.016	84.31
517.232	86.31
517.448	87.31
517.664	100.31
517.879	83.31
518.095	84.31
518.311	96.31
518.527	85.31
518.742	93.31
518.958	117.31
