Data from 237_2_HRD10591_00009.txt Node
Date: Mon Jan 19 14:11:35 EST 2026
User: Yrep
Spectrometer: HR+D1059
Trigger mode: 1
Integration Time (sec): 1.000000E-1
Scans to average: 1
Electric dark correction enabled: true
Nonlinearity correction enabled: false
Boxcar width: 0
XAxis mode: Wavelengths
Number of Pixels in Spectrum: 2048
>>>>>Begin Spectral Data<<<<<
223.165	-23.94
223.4	-23.94
223.635	-23.94
223.869	-14.94
224.104	-20.94
224.338	-17.94
224.573	-13.94
224.808	-13.94
225.042	1.06
225.277	-12.94
225.511	-9.94
225.746	3.06
225.98	27.06
226.215	17.06
226.449	14.06
226.683	14.06
226.918	30.06
227.152	22.06
227.387	29.06
227.621	43.06
227.856	50.06
228.09	54.06
228.324	45.06
228.559	54.06
228.793	54.06
229.027	64.06
229.262	69.06
229.496	70.06
229.73	58.06
229.964	80.06
230.199	77.06
230.433	67.06
230.667	69.06
230.901	71.06
231.136	72.06
231.37	75.06
231.604	80.06
231.838	88.06
232.072	75.06
232.306	75.06
232.541	70.06
232.775	81.06
233.009	85.06
233.243	72.06
233.477	82.06
233.711	82.06
233.945	91.06
234.179	81.06
234.413	77.06
234.647	99.06
234.881	82.06
235.115	88.06
235.349	70.06
235.583	84.06
235.817	81.06
236.051	71.06
236.285	67.06
236.519	83.06
236.753	79.06
236.987	71.06
237.221	66.06
237.455	74.06
237.689	75.06
237.922	75.06
238.156	65.06
238.39	76.06
238.624	67.06
238.858	79.06
239.091	78.06
239.325	68.06
239.559	81.06
239.793	65.06
240.027	86.06
240.26	64.06
240.494	77.06
240.728	69.06
240.961	69.06
241.195	74.06
241.429	63.06
241.662	56.06
241.896	74.06
242.13	81.06
242.363	96.06
242.597	69.06
242.83	84.06
243.064	58.06
243.298	74.06
243.531	70.06
243.765	76.06
243.998	97.06
244.232	74.06
244.465	66.06
244.699	74.06
244.932	82.06
245.166	85.06
245.399	76.06
245.633	82.06
245.866	69.06
246.099	81.06
246.333	84.06
246.566	90.06
246.8	73.06
247.033	68.06
247.266	75.06
247.5	65.06
247.733	85.06
247.966	80.06
248.2	76.06
248.433	93.06
248.666	76.06
248.899	59.06
249.133	74.06
249.366	91.06
249.599	83.06
249.832	70.06
250.066	75.06
250.299	75.06
250.532	72.06
250.765	81.06
250.998	78.06
251.231	75.06
251.465	76.06
251.698	79.06
251.931	71.06
252.164	73.06
252.397	68.06
252.63	78.06
252.863	89.06
253.096	86.06
253.329	94.06
253.562	76.06
253.795	78.06
254.028	85.06
254.261	80.06
254.494	85.06
254.727	81.06
254.96	72.06
255.193	68.06
255.426	75.06
255.659	76.06
255.892	76.06
256.124	73.06
256.357	85.06
256.59	73.06
256.823	83.06
257.056	84.06
257.289	85.06
257.521	87.06
257.754	86.06
257.987	81.06
258.22	81.06
258.452	70.06
258.685	90.06
258.918	73.06
259.151	79.06
259.383	90.06
259.616	88.06
259.849	77.06
260.081	82.06
260.314	78.06
260.547	96.06
260.779	74.06
261.012	74.06
261.244	85.06
261.477	90.06
261.71	83.06
261.942	85.06
262.175	70.06
262.407	101.06
262.64	71.06
262.872	71.06
263.105	68.06
263.337	58.06
263.57	71.06
263.802	68.06
264.035	74.06
264.267	81.06
264.499	73.06
264.732	89.06
264.964	91.06
265.197	81.06
265.429	73.06
265.661	90.06
265.894	86.06
266.126	94.06
266.358	85.06
266.591	76.06
266.823	78.06
267.055	75.06
267.287	89.06
267.52	89.06
267.752	68.06
267.984	80.06
268.216	73.06
268.448	83.06
268.681	86.06
268.913	75.06
269.145	82.06
269.377	80.06
269.609	79.06
269.841	77.06
270.073	96.06
270.306	88.06
270.538	69.06
270.77	76.06
271.002	79.06
271.234	66.06
271.466	79.06
271.698	89.06
271.93	72.06
272.162	75.06
272.394	93.06
272.626	77.06
272.858	70.06
273.09	67.06
273.322	65.06
273.553	75.06
273.785	84.06
274.017	71.06
274.249	93.06
274.481	85.06
274.713	87.06
274.945	82.06
275.176	70.06
275.408	83.06
275.64	90.06
275.872	65.06
276.104	85.06
276.335	88.06
276.567	84.06
276.799	89.06
277.031	90.06
277.262	75.06
277.494	64.06
277.726	100.06
277.957	87.06
278.189	70.06
278.421	94.06
278.652	113.06
278.884	91.06
279.115	95.06
279.347	91.06
279.579	95.06
279.81	90.06
280.042	93.06
280.273	85.06
280.505	95.06
280.736	93.06
280.968	84.06
281.199	91.06
281.431	76.06
281.662	79.06
281.894	90.06
282.125	85.06
282.356	78.06
282.588	81.06
282.819	83.06
283.051	74.06
283.282	79.06
283.513	93.06
283.745	84.06
283.976	73.06
284.207	85.06
284.439	83.06
284.67	93.06
284.901	100.06
285.132	91.06
285.364	86.06
285.595	93.06
285.826	84.06
286.057	87.06
286.288	77.06
286.52	84.06
286.751	76.06
286.982	82.06
287.213	90.06
287.444	80.06
287.675	70.06
287.906	83.06
288.138	92.06
288.369	101.06
288.6	90.06
288.831	92.06
289.062	88.06
289.293	82.06
289.524	101.06
289.755	85.06
289.986	72.06
290.217	87.06
290.448	85.06
290.679	86.06
290.91	93.06
291.141	73.06
291.371	83.06
291.602	69.06
291.833	90.06
292.064	75.06
292.295	81.06
292.526	83.06
292.757	85.06
292.987	94.06
293.218	89.06
293.449	94.06
293.68	97.06
293.91	91.06
294.141	94.06
294.372	81.06
294.603	90.06
294.833	79.06
295.064	94.06
295.295	88.06
295.525	78.06
295.756	101.06
295.987	87.06
296.217	91.06
296.448	88.06
296.679	76.06
296.909	92.06
297.14	91.06
297.37	95.06
297.601	103.06
297.831	70.06
298.062	72.06
298.292	88.06
298.523	94.06
298.753	91.06
298.984	83.06
299.214	89.06
299.445	88.06
299.675	105.06
299.905	107.06
300.136	102.06
300.366	96.06
300.597	94.06
300.827	92.06
301.057	98.06
301.288	96.06
301.518	89.06
301.748	70.06
301.979	117.06
302.209	90.06
302.439	95.06
302.669	94.06
302.9	84.06
303.13	76.06
303.36	97.06
303.59	85.06
303.82	84.06
304.051	90.06
304.281	92.06
304.511	87.06
304.741	76.06
304.971	80.06
305.201	97.06
305.431	100.06
305.661	96.06
305.891	95.06
306.121	69.06
306.352	90.06
306.582	81.06
306.812	103.06
307.042	89.06
307.272	92.06
307.502	85.06
307.731	90.06
307.961	92.06
308.191	110.06
308.421	113.06
308.651	108.06
308.881	91.06
309.111	94.06
309.341	122.06
309.571	122.06
309.8	84.06
310.03	89.06
310.26	97.06
310.49	93.06
310.72	92.06
310.949	101.06
311.179	97.06
311.409	83.06
311.639	85.06
311.868	94.06
312.098	80.06
312.328	81.06
312.557	96.06
312.787	98.06
313.017	101.06
313.246	82.06
313.476	101.06
313.706	76.06
313.935	89.06
314.165	81.06
314.394	92.06
314.624	82.06
314.853	102.06
315.083	91.06
315.312	82.06
315.542	97.06
315.771	106.06
316.001	98.06
316.23	98.06
316.46	93.06
316.689	93.06
316.919	88.06
317.148	91.06
317.377	83.06
317.607	118.06
317.836	105.06
318.065	127.06
318.295	121.06
318.524	99.06
318.753	104.06
318.983	96.06
319.212	81.06
319.441	90.06
319.67	90.06
319.9	84.06
320.129	101.06
320.358	90.06
320.587	89.06
320.816	94.06
321.046	93.06
321.275	82.06
321.504	96.06
321.733	95.06
321.962	80.06
322.191	89.06
322.42	96.06
322.649	88.06
322.878	105.06
323.108	96.06
323.337	99.06
323.566	81.06
323.795	92.06
324.024	73.06
324.253	85.06
324.482	91.06
324.71	101.06
324.939	93.06
325.168	92.06
325.397	83.06
325.626	79.06
325.855	87.06
326.084	93.06
326.313	92.06
326.542	89.06
326.77	95.06
326.999	86.06
327.228	87.06
327.457	100.06
327.686	89.06
327.914	93.06
328.143	91.06
328.372	90.06
328.6	103.06
328.829	90.06
329.058	86.06
329.287	99.06
329.515	88.06
329.744	89.06
329.972	91.06
330.201	72.06
330.43	102.06
330.658	90.06
330.887	73.06
331.115	92.06
331.344	98.06
331.572	89.06
331.801	93.06
332.03	93.06
332.258	87.06
332.486	84.06
332.715	85.06
332.943	81.06
333.172	93.06
333.4	94.06
333.629	92.06
333.857	85.06
334.085	92.06
334.314	97.06
334.542	99.06
334.771	98.06
334.999	108.06
335.227	101.06
335.455	97.06
335.684	101.06
335.912	113.06
336.14	101.06
336.369	100.06
336.597	102.06
336.825	91.06
337.053	105.06
337.281	89.06
337.51	93.06
337.738	89.06
337.966	75.06
338.194	87.06
338.422	101.06
338.65	102.06
338.878	86.06
339.106	90.06
339.334	96.06
339.562	85.06
339.79	97.06
340.018	84.06
340.246	81.06
340.474	71.06
340.702	92.06
340.93	88.06
341.158	96.06
341.386	81.06
341.614	85.06
341.842	102.06
342.07	89.06
342.298	93.06
342.526	91.06
342.754	87.06
342.981	94.06
343.209	87.06
343.437	97.06
343.665	91.06
343.893	107.06
344.12	112.06
344.348	113.06
344.576	74.06
344.804	89.06
345.031	93.06
345.259	85.06
345.487	96.06
345.714	87.06
345.942	83.06
346.17	70.06
346.397	92.06
346.625	87.06
346.853	91.06
347.08	89.06
347.308	80.06
347.535	104.06
347.763	81.06
347.99	93.06
348.218	88.06
348.445	100.06
348.673	82.06
348.9	99.06
349.128	73.06
349.355	78.06
349.583	95.06
349.81	88.06
350.037	81.06
350.265	98.06
350.492	84.06
350.72	80.06
350.947	93.06
351.174	88.06
351.402	75.06
351.629	99.06
351.856	87.06
352.083	95.06
352.311	95.06
352.538	94.06
352.765	79.06
352.992	87.06
353.22	88.06
353.447	86.06
353.674	88.06
353.901	88.06
354.128	91.06
354.355	101.06
354.583	69.06
354.81	102.06
355.037	83.06
355.264	90.06
355.491	93.06
355.718	98.06
355.945	94.06
356.172	90.06
356.399	89.06
356.626	102.06
356.853	88.06
357.08	110.06
357.307	97.06
357.534	76.06
357.761	93.06
357.988	106.06
358.215	111.06
358.441	109.06
358.668	88.06
358.895	106.06
359.122	102.06
359.349	92.06
359.576	85.06
359.802	84.06
360.029	96.06
360.256	89.06
360.483	108.06
360.709	96.06
360.936	106.06
361.163	94.06
361.39	92.06
361.616	107.06
361.843	112.06
362.07	96.06
362.296	106.06
362.523	133.06
362.749	125.06
362.976	138.06
363.203	174.06
363.429	107.06
363.656	111.06
363.882	126.06
364.109	136.06
364.335	177.06
364.562	181.06
364.788	137.06
365.015	104.06
365.241	114.06
365.468	116.06
365.694	94.06
365.92	105.06
366.147	93.06
366.373	89.06
366.599	93.06
366.826	99.06
367.052	102.06
367.278	95.06
367.505	102.06
367.731	96.06
367.957	106.06
368.184	89.06
368.41	104.06
368.636	104.06
368.862	97.06
369.089	92.06
369.315	76.06
369.541	94.06
369.767	93.06
369.993	78.06
370.219	98.06
370.445	114.06
370.672	118.06
370.898	101.06
371.124	109.06
371.35	79.06
371.576	81.06
371.802	86.06
372.028	125.06
372.254	103.06
372.48	108.06
372.706	99.06
372.932	87.06
373.158	110.06
373.384	133.06
373.61	170.06
373.835	166.06
374.061	119.06
374.287	111.06
374.513	122.06
374.739	139.06
374.965	130.06
375.191	118.06
375.416	101.06
375.642	95.06
375.868	120.06
376.094	117.06
376.319	102.06
376.545	100.06
376.771	93.06
376.997	89.06
377.222	96.06
377.448	85.06
377.674	91.06
377.899	81.06
378.125	79.06
378.35	106.06
378.576	91.06
378.802	90.06
379.027	99.06
379.253	95.06
379.478	100.06
379.704	95.06
379.929	95.06
380.155	92.06
380.38	94.06
380.606	98.06
380.831	93.06
381.057	97.06
381.282	89.06
381.507	98.06
381.733	100.06
381.958	115.06
382.184	152.06
382.409	129.06
382.634	141.06
382.86	126.06
383.085	129.06
383.31	114.06
383.535	117.06
383.761	114.06
383.986	130.06
384.211	119.06
384.436	114.06
384.662	115.06
384.887	91.06
385.112	106.06
385.337	114.06
385.562	100.06
385.787	120.06
386.013	125.06
386.238	115.06
386.463	100.06
386.688	113.06
386.913	111.06
387.138	106.06
387.363	120.06
387.588	116.06
387.813	113.06
388.038	125.06
388.263	120.06
388.488	133.06
388.713	118.06
388.938	107.06
389.163	111.06
389.387	110.06
389.612	106.06
389.837	97.06
390.062	103.06
390.287	105.06
390.512	98.06
390.736	109.06
390.961	99.06
391.186	113.06
391.411	87.06
391.636	105.06
391.86	105.06
392.085	112.06
392.31	120.06
392.534	136.06
392.759	173.06
392.984	284.06
393.208	575.06
393.433	913.06
393.658	641.06
393.882	241.06
394.107	160.06
394.331	159.06
394.556	162.06
394.78	131.06
395.005	123.06
395.229	106.06
395.454	131.06
395.678	147.06
395.903	166.06
396.127	242.06
396.352	270.06
396.576	315.06
396.801	561.06
397.025	683.06
397.249	322.06
397.474	175.06
397.698	128.06
397.922	101.06
398.147	94.06
398.371	91.06
398.595	90.06
398.82	85.06
399.044	104.06
399.268	88.06
399.492	97.06
399.717	89.06
399.941	96.06
400.165	103.06
400.389	97.06
400.613	94.06
400.837	85.06
401.062	88.06
401.286	83.06
401.51	93.06
401.734	90.06
401.958	87.06
402.182	91.06
402.406	89.06
402.63	93.06
402.854	88.06
403.078	102.06
403.302	98.06
403.526	107.06
403.75	95.06
403.974	85.06
404.198	106.06
404.422	110.06
404.645	128.06
404.869	113.06
405.093	96.06
405.317	93.06
405.541	98.06
405.765	102.06
405.988	83.06
406.212	81.06
406.436	81.06
406.66	91.06
406.883	78.06
407.107	97.06
407.331	103.06
407.555	130.06
407.778	149.06
408.002	159.06
408.226	102.06
408.449	92.06
408.673	78.06
408.896	87.06
409.12	86.06
409.344	106.06
409.567	117.06
409.791	115.06
410.014	127.06
410.238	100.06
410.461	85.06
410.685	100.06
410.908	91.06
411.132	90.06
411.355	95.06
411.578	90.06
411.802	87.06
412.025	81.06
412.249	98.06
412.472	84.06
412.695	97.06
412.919	82.06
413.142	99.06
413.365	96.06
413.589	90.06
413.812	89.06
414.035	89.06
414.258	88.06
414.482	105.06
414.705	100.06
414.928	93.06
415.151	91.06
415.374	88.06
415.597	83.06
415.821	75.06
416.044	83.06
416.267	74.06
416.49	73.06
416.713	93.06
416.936	95.06
417.159	90.06
417.382	75.06
417.605	90.06
417.828	97.06
418.051	94.06
418.274	77.06
418.497	80.06
418.72	79.06
418.943	80.06
419.166	80.06
419.389	100.06
419.611	93.06
419.834	102.06
420.057	114.06
420.28	98.06
420.503	88.06
420.726	98.06
420.948	90.06
421.171	102.06
421.394	132.06
421.617	178.06
421.839	165.06
422.062	163.06
422.285	246.06
422.507	482.06
422.73	818.06
422.953	714.06
423.175	298.06
423.398	175.06
423.621	123.06
423.843	96.06
424.066	95.06
424.288	103.06
424.511	93.06
424.733	99.06
424.956	97.06
425.178	93.06
425.401	86.06
425.623	101.06
425.846	84.06
426.068	94.06
426.291	87.06
426.513	92.06
426.735	85.06
426.958	93.06
427.18	98.06
427.402	98.06
427.625	87.06
427.847	88.06
428.069	125.06
428.292	178.06
428.514	212.06
428.736	146.06
428.958	179.06
429.181	184.06
429.403	122.06
429.625	118.06
429.847	166.06
430.069	254.06
430.292	303.06
430.514	264.06
430.736	202.06
430.958	219.06
431.18	123.06
431.402	89.06
431.624	127.06
431.846	168.06
432.068	203.06
432.29	119.06
432.512	107.06
432.734	103.06
432.956	96.06
433.178	85.06
433.4	105.06
433.622	100.06
433.844	100.06
434.066	86.06
434.287	75.06
434.509	87.06
434.731	88.06
434.953	86.06
435.175	101.06
435.397	87.06
435.618	109.06
435.84	107.06
436.062	95.06
436.284	88.06
436.505	79.06
436.727	101.06
436.949	83.06
437.17	95.06
437.392	81.06
437.614	81.06
437.835	80.06
438.057	94.06
438.278	90.06
438.5	120.06
438.721	109.06
438.943	105.06
439.165	93.06
439.386	83.06
439.608	87.06
439.829	100.06
440.05	99.06
440.272	83.06
440.493	104.06
440.715	93.06
440.936	95.06
441.158	93.06
441.379	93.06
441.6	93.06
441.822	99.06
442.043	93.06
442.264	125.06
442.486	194.06
442.707	274.06
442.928	177.06
443.149	149.06
443.371	253.06
443.592	463.06
443.813	391.06
444.034	140.06
444.255	110.06
444.476	110.06
444.698	94.06
444.919	123.06
445.14	230.06
445.361	321.06
445.582	549.06
445.803	433.06
446.024	156.06
446.245	105.06
446.466	105.06
446.687	88.06
446.908	94.06
447.129	97.06
447.35	94.06
447.571	91.06
447.792	91.06
448.013	67.06
448.234	84.06
448.455	69.06
448.675	91.06
448.896	73.06
449.117	92.06
449.338	95.06
449.559	85.06
449.779	76.06
450	93.06
450.221	73.06
450.442	91.06
450.662	95.06
450.883	83.06
451.104	96.06
451.324	85.06
451.545	91.06
451.766	81.06
451.986	83.06
452.207	87.06
452.428	95.06
452.648	90.06
452.869	117.06
453.089	104.06
453.31	93.06
453.53	92.06
453.751	94.06
453.971	87.06
454.192	78.06
454.412	79.06
454.633	78.06
454.853	84.06
455.073	84.06
455.294	103.06
455.514	103.06
455.734	96.06
455.955	90.06
456.175	70.06
456.395	82.06
456.616	94.06
456.836	85.06
457.056	86.06
457.276	89.06
457.497	90.06
457.717	110.06
457.937	135.06
458.157	153.06
458.377	167.06
458.598	163.06
458.818	171.06
459.038	111.06
459.258	82.06
459.478	73.06
459.698	82.06
459.918	96.06
460.138	80.06
460.358	91.06
460.578	113.06
460.798	148.06
461.018	145.06
461.238	88.06
461.458	83.06
461.678	97.06
461.898	78.06
462.118	74.06
462.338	94.06
462.558	86.06
462.777	78.06
462.997	90.06
463.217	78.06
463.437	79.06
463.657	78.06
463.876	85.06
464.096	90.06
464.316	78.06
464.536	88.06
464.755	86.06
464.975	94.06
465.195	79.06
465.414	73.06
465.634	87.06
465.854	89.06
466.073	99.06
466.293	83.06
466.512	97.06
466.732	79.06
466.951	78.06
467.171	85.06
467.391	84.06
467.61	93.06
467.829	92.06
468.049	94.06
468.268	89.06
468.488	86.06
468.707	93.06
468.927	99.06
469.146	64.06
469.365	93.06
469.585	79.06
469.804	83.06
470.023	83.06
470.243	87.06
470.462	83.06
470.681	87.06
470.901	83.06
471.12	79.06
471.339	97.06
471.558	77.06
471.777	86.06
471.997	90.06
472.216	79.06
472.435	102.06
472.654	97.06
472.873	95.06
473.092	81.06
473.311	92.06
473.53	88.06
473.749	92.06
473.968	84.06
474.187	86.06
474.406	100.06
474.625	75.06
474.844	86.06
475.063	84.06
475.282	89.06
475.501	85.06
475.72	97.06
475.939	83.06
476.158	84.06
476.377	83.06
476.596	94.06
476.814	84.06
477.033	84.06
477.252	81.06
477.471	91.06
477.69	89.06
477.908	94.06
478.127	91.06
478.346	85.06
478.564	95.06
478.783	91.06
479.002	84.06
479.22	90.06
479.439	79.06
479.658	85.06
479.876	82.06
480.095	85.06
480.313	90.06
480.532	101.06
480.751	85.06
480.969	106.06
481.188	95.06
481.406	97.06
481.624	89.06
481.843	114.06
482.061	106.06
482.28	103.06
482.498	107.06
482.717	113.06
482.935	81.06
483.153	93.06
483.372	114.06
483.59	99.06
483.808	91.06
484.027	88.06
484.245	89.06
484.463	89.06
484.681	101.06
484.9	88.06
485.118	110.06
485.336	98.06
485.554	77.06
485.772	89.06
485.99	81.06
486.209	97.06
486.427	75.06
486.645	90.06
486.863	89.06
487.081	93.06
487.299	103.06
487.517	111.06
487.735	143.06
487.953	259.06
488.171	187.06
488.389	102.06
488.607	81.06
488.825	79.06
489.043	82.06
489.261	85.06
489.479	97.06
489.696	96.06
489.914	79.06
490.132	98.06
490.35	111.06
490.568	89.06
490.786	92.06
491.003	88.06
491.221	78.06
491.439	97.06
491.657	85.06
491.874	81.06
492.092	93.06
492.31	101.06
492.527	94.06
492.745	90.06
492.963	94.06
493.18	81.06
493.398	97.06
493.615	104.06
493.833	84.06
494.05	96.06
494.268	98.06
494.485	96.06
494.703	87.06
494.92	84.06
495.138	95.06
495.355	90.06
495.573	83.06
495.79	92.06
496.008	95.06
496.225	93.06
496.442	90.06
496.66	98.06
496.877	94.06
497.094	71.06
497.312	82.06
497.529	87.06
497.746	76.06
497.963	95.06
498.181	102.06
498.398	125.06
498.615	118.06
498.832	90.06
499.049	111.06
499.267	113.06
499.484	96.06
499.701	106.06
499.918	86.06
500.135	98.06
500.352	91.06
500.569	99.06
500.786	95.06
501.003	94.06
501.22	96.06
501.437	90.06
501.654	104.06
501.871	91.06
502.088	71.06
502.305	89.06
502.522	95.06
502.739	98.06
502.956	104.06
503.172	89.06
503.389	97.06
503.606	82.06
503.823	117.06
504.04	125.06
504.256	197.06
504.473	194.06
504.69	99.06
504.907	106.06
505.123	84.06
505.34	91.06
505.557	85.06
505.773	82.06
505.99	90.06
506.207	90.06
506.423	93.06
506.64	95.06
506.856	94.06
507.073	90.06
507.289	98.06
507.506	88.06
507.722	89.06
507.939	88.06
508.155	82.06
508.372	97.06
508.588	81.06
508.805	90.06
509.021	98.06
509.238	80.06
509.454	93.06
509.67	80.06
509.887	96.06
510.103	97.06
510.319	89.06
510.536	89.06
510.752	106.06
510.968	90.06
511.184	97.06
511.401	81.06
511.617	97.06
511.833	91.06
512.049	93.06
512.265	99.06
512.481	83.06
512.698	104.06
512.914	91.06
513.13	85.06
513.346	86.06
513.562	99.06
513.778	96.06
513.994	97.06
514.21	87.06
514.426	97.06
514.642	94.06
514.858	83.06
515.074	88.06
515.29	90.06
515.506	86.06
515.721	88.06
