Data from 237_2_HRD10591_00040.txt Node
Date: Mon Jan 19 14:11:50 EST 2026
User: Yrep
Spectrometer: HR+D1059
Trigger mode: 1
Integration Time (sec): 1.000000E-1
Scans to average: 1
Electric dark correction enabled: true
Nonlinearity correction enabled: false
Boxcar width: 0
XAxis mode: Wavelengths
Number of Pixels in Spectrum: 2048
>>>>>Begin Spectral Data<<<<<
223.165	-21.56
223.4	-21.56
223.635	-21.56
223.869	-19.56
224.104	-29.56
224.338	-6.56
224.573	-11.56
224.808	-14.56
225.042	-4.56
225.277	-4.56
225.511	4.44
225.746	1.44
225.98	-5.56
226.215	9.44
226.449	24.44
226.683	22.44
226.918	22.44
227.152	33.44
227.387	45.44
227.621	34.44
227.856	51.44
228.09	37.44
228.324	39.44
228.559	55.44
228.793	71.44
229.027	56.44
229.262	71.44
229.496	63.44
229.73	79.44
229.964	74.44
230.199	77.44
230.433	82.44
230.667	74.44
230.901	73.44
231.136	68.44
231.37	75.44
231.604	89.44
231.838	77.44
232.072	76.44
232.306	85.44
232.541	86.44
232.775	73.44
233.009	89.44
233.243	82.44
233.477	80.44
233.711	85.44
233.945	79.44
234.179	73.44
234.413	81.44
234.647	93.44
234.881	76.44
235.115	85.44
235.349	75.44
235.583	77.44
235.817	84.44
236.051	60.44
236.285	84.44
236.519	87.44
236.753	63.44
236.987	84.44
237.221	75.44
237.455	67.44
237.689	77.44
237.922	63.44
238.156	65.44
238.39	76.44
238.624	72.44
238.858	71.44
239.091	78.44
239.325	75.44
239.559	86.44
239.793	67.44
240.027	73.44
240.26	85.44
240.494	83.44
240.728	89.44
240.961	69.44
241.195	68.44
241.429	85.44
241.662	72.44
241.896	88.44
242.13	83.44
242.363	82.44
242.597	71.44
242.83	85.44
243.064	79.44
243.298	69.44
243.531	72.44
243.765	69.44
243.998	80.44
244.232	88.44
244.465	85.44
244.699	72.44
244.932	75.44
245.166	65.44
245.399	75.44
245.633	68.44
245.866	77.44
246.099	68.44
246.333	85.44
246.566	67.44
246.8	67.44
247.033	77.44
247.266	78.44
247.5	90.44
247.733	62.44
247.966	63.44
248.2	85.44
248.433	75.44
248.666	83.44
248.899	86.44
249.133	78.44
249.366	72.44
249.599	66.44
249.832	80.44
250.066	83.44
250.299	75.44
250.532	86.44
250.765	89.44
250.998	80.44
251.231	79.44
251.465	75.44
251.698	81.44
251.931	77.44
252.164	84.44
252.397	89.44
252.63	83.44
252.863	78.44
253.096	72.44
253.329	75.44
253.562	79.44
253.795	75.44
254.028	92.44
254.261	73.44
254.494	69.44
254.727	90.44
254.96	67.44
255.193	66.44
255.426	60.44
255.659	74.44
255.892	78.44
256.124	86.44
256.357	92.44
256.59	65.44
256.823	72.44
257.056	80.44
257.289	92.44
257.521	70.44
257.754	92.44
257.987	89.44
258.22	104.44
258.452	84.44
258.685	83.44
258.918	78.44
259.151	83.44
259.383	76.44
259.616	83.44
259.849	68.44
260.081	83.44
260.314	90.44
260.547	80.44
260.779	82.44
261.012	66.44
261.244	80.44
261.477	84.44
261.71	81.44
261.942	91.44
262.175	75.44
262.407	90.44
262.64	88.44
262.872	73.44
263.105	79.44
263.337	104.44
263.57	81.44
263.802	66.44
264.035	65.44
264.267	87.44
264.499	78.44
264.732	69.44
264.964	80.44
265.197	93.44
265.429	100.44
265.661	69.44
265.894	78.44
266.126	101.44
266.358	89.44
266.591	89.44
266.823	80.44
267.055	73.44
267.287	82.44
267.52	76.44
267.752	87.44
267.984	82.44
268.216	81.44
268.448	73.44
268.681	78.44
268.913	87.44
269.145	93.44
269.377	88.44
269.609	78.44
269.841	91.44
270.073	75.44
270.306	86.44
270.538	82.44
270.77	71.44
271.002	93.44
271.234	81.44
271.466	77.44
271.698	79.44
271.93	79.44
272.162	70.44
272.394	96.44
272.626	91.44
272.858	84.44
273.09	92.44
273.322	88.44
273.553	85.44
273.785	85.44
274.017	76.44
274.249	85.44
274.481	74.44
274.713	81.44
274.945	85.44
275.176	76.44
275.408	92.44
275.64	85.44
275.872	80.44
276.104	93.44
276.335	82.44
276.567	83.44
276.799	82.44
277.031	66.44
277.262	88.44
277.494	90.44
277.726	91.44
277.957	92.44
278.189	86.44
278.421	75.44
278.652	84.44
278.884	92.44
279.115	85.44
279.347	104.44
279.579	85.44
279.81	88.44
280.042	88.44
280.273	97.44
280.505	84.44
280.736	83.44
280.968	68.44
281.199	89.44
281.431	65.44
281.662	97.44
281.894	83.44
282.125	90.44
282.356	89.44
282.588	83.44
282.819	87.44
283.051	79.44
283.282	70.44
283.513	93.44
283.745	79.44
283.976	75.44
284.207	83.44
284.439	83.44
284.67	82.44
284.901	96.44
285.132	78.44
285.364	91.44
285.595	99.44
285.826	77.44
286.057	88.44
286.288	91.44
286.52	84.44
286.751	88.44
286.982	89.44
287.213	91.44
287.444	91.44
287.675	93.44
287.906	94.44
288.138	92.44
288.369	89.44
288.6	87.44
288.831	83.44
289.062	83.44
289.293	84.44
289.524	86.44
289.755	85.44
289.986	71.44
290.217	95.44
290.448	92.44
290.679	91.44
290.91	94.44
291.141	91.44
291.371	93.44
291.602	88.44
291.833	82.44
292.064	83.44
292.295	85.44
292.526	86.44
292.757	91.44
292.987	89.44
293.218	83.44
293.449	77.44
293.68	82.44
293.91	91.44
294.141	95.44
294.372	89.44
294.603	89.44
294.833	91.44
295.064	89.44
295.295	81.44
295.525	93.44
295.756	96.44
295.987	90.44
296.217	85.44
296.448	73.44
296.679	85.44
296.909	85.44
297.14	91.44
297.37	96.44
297.601	87.44
297.831	91.44
298.062	90.44
298.292	102.44
298.523	95.44
298.753	94.44
298.984	97.44
299.214	85.44
299.445	83.44
299.675	89.44
299.905	106.44
300.136	90.44
300.366	91.44
300.597	84.44
300.827	112.44
301.057	90.44
301.288	89.44
301.518	77.44
301.748	89.44
301.979	103.44
302.209	99.44
302.439	74.44
302.669	93.44
302.9	93.44
303.13	88.44
303.36	83.44
303.59	76.44
303.82	93.44
304.051	93.44
304.281	85.44
304.511	96.44
304.741	72.44
304.971	83.44
305.201	96.44
305.431	79.44
305.661	90.44
305.891	77.44
306.121	102.44
306.352	94.44
306.582	85.44
306.812	83.44
307.042	89.44
307.272	93.44
307.502	86.44
307.731	87.44
307.961	95.44
308.191	70.44
308.421	91.44
308.651	69.44
308.881	85.44
309.111	90.44
309.341	112.44
309.571	98.44
309.8	90.44
310.03	85.44
310.26	90.44
310.49	97.44
310.72	71.44
310.949	83.44
311.179	95.44
311.409	112.44
311.639	89.44
311.868	81.44
312.098	83.44
312.328	91.44
312.557	83.44
312.787	93.44
313.017	93.44
313.246	95.44
313.476	89.44
313.706	85.44
313.935	96.44
314.165	97.44
314.394	79.44
314.624	85.44
314.853	90.44
315.083	82.44
315.312	89.44
315.542	98.44
315.771	99.44
316.001	99.44
316.23	91.44
316.46	83.44
316.689	81.44
316.919	81.44
317.148	96.44
317.377	92.44
317.607	92.44
317.836	99.44
318.065	91.44
318.295	96.44
318.524	103.44
318.753	88.44
318.983	82.44
319.212	97.44
319.441	90.44
319.67	81.44
319.9	82.44
320.129	96.44
320.358	91.44
320.587	91.44
320.816	76.44
321.046	90.44
321.275	94.44
321.504	88.44
321.733	111.44
321.962	89.44
322.191	101.44
322.42	92.44
322.649	95.44
322.878	98.44
323.108	92.44
323.337	75.44
323.566	100.44
323.795	77.44
324.024	93.44
324.253	82.44
324.482	98.44
324.71	98.44
324.939	84.44
325.168	93.44
325.397	87.44
325.626	86.44
325.855	93.44
326.084	98.44
326.313	89.44
326.542	88.44
326.77	95.44
326.999	97.44
327.228	98.44
327.457	88.44
327.686	101.44
327.914	97.44
328.143	72.44
328.372	89.44
328.6	95.44
328.829	76.44
329.058	75.44
329.287	85.44
329.515	87.44
329.744	90.44
329.972	87.44
330.201	100.44
330.43	83.44
330.658	93.44
330.887	94.44
331.115	90.44
331.344	87.44
331.572	92.44
331.801	92.44
332.03	79.44
332.258	94.44
332.486	92.44
332.715	84.44
332.943	85.44
333.172	81.44
333.4	77.44
333.629	87.44
333.857	74.44
334.085	95.44
334.314	88.44
334.542	93.44
334.771	105.44
334.999	87.44
335.227	90.44
335.455	97.44
335.684	107.44
335.912	76.44
336.14	90.44
336.369	103.44
336.597	96.44
336.825	92.44
337.053	83.44
337.281	87.44
337.51	84.44
337.738	82.44
337.966	93.44
338.194	99.44
338.422	88.44
338.65	98.44
338.878	103.44
339.106	111.44
339.334	82.44
339.562	84.44
339.79	92.44
340.018	90.44
340.246	98.44
340.474	76.44
340.702	86.44
340.93	86.44
341.158	88.44
341.386	76.44
341.614	76.44
341.842	77.44
342.07	83.44
342.298	75.44
342.526	89.44
342.754	90.44
342.981	102.44
343.209	96.44
343.437	108.44
343.665	85.44
343.893	89.44
344.12	92.44
344.348	95.44
344.576	83.44
344.804	86.44
345.031	91.44
345.259	71.44
345.487	87.44
345.714	85.44
345.942	89.44
346.17	98.44
346.397	81.44
346.625	88.44
346.853	78.44
347.08	85.44
347.308	85.44
347.535	86.44
347.763	92.44
347.99	95.44
348.218	97.44
348.445	89.44
348.673	82.44
348.9	93.44
349.128	95.44
349.355	87.44
349.583	79.44
349.81	89.44
350.037	96.44
350.265	105.44
350.492	87.44
350.72	81.44
350.947	83.44
351.174	89.44
351.402	93.44
351.629	87.44
351.856	74.44
352.083	98.44
352.311	86.44
352.538	77.44
352.765	81.44
352.992	87.44
353.22	95.44
353.447	84.44
353.674	81.44
353.901	86.44
354.128	72.44
354.355	104.44
354.583	80.44
354.81	79.44
355.037	84.44
355.264	91.44
355.491	83.44
355.718	85.44
355.945	92.44
356.172	93.44
356.399	93.44
356.626	97.44
356.853	97.44
357.08	94.44
357.307	93.44
357.534	94.44
357.761	87.44
357.988	98.44
358.215	94.44
358.441	92.44
358.668	94.44
358.895	95.44
359.122	83.44
359.349	85.44
359.576	85.44
359.802	73.44
360.029	80.44
360.256	81.44
360.483	90.44
360.709	100.44
360.936	97.44
361.163	85.44
361.39	96.44
361.616	105.44
361.843	93.44
362.07	109.44
362.296	86.44
362.523	83.44
362.749	114.44
362.976	105.44
363.203	121.44
363.429	115.44
363.656	99.44
363.882	98.44
364.109	132.44
364.335	133.44
364.562	156.44
364.788	109.44
365.015	100.44
365.241	81.44
365.468	81.44
365.694	82.44
365.92	103.44
366.147	95.44
366.373	100.44
366.599	89.44
366.826	88.44
367.052	101.44
367.278	100.44
367.505	84.44
367.731	98.44
367.957	84.44
368.184	99.44
368.41	101.44
368.636	85.44
368.862	83.44
369.089	80.44
369.315	81.44
369.541	91.44
369.767	97.44
369.993	98.44
370.219	74.44
370.445	81.44
370.672	95.44
370.898	85.44
371.124	102.44
371.35	95.44
371.576	97.44
371.802	90.44
372.028	82.44
372.254	95.44
372.48	92.44
372.706	84.44
372.932	89.44
373.158	106.44
373.384	113.44
373.61	123.44
373.835	127.44
374.061	106.44
374.287	103.44
374.513	101.44
374.739	121.44
374.965	104.44
375.191	108.44
375.416	87.44
375.642	97.44
375.868	99.44
376.094	107.44
376.319	94.44
376.545	98.44
376.771	95.44
376.997	93.44
377.222	76.44
377.448	87.44
377.674	88.44
377.899	95.44
378.125	89.44
378.35	97.44
378.576	72.44
378.802	78.44
379.027	87.44
379.253	91.44
379.478	89.44
379.704	111.44
379.929	94.44
380.155	96.44
380.38	92.44
380.606	88.44
380.831	89.44
381.057	93.44
381.282	110.44
381.507	112.44
381.733	108.44
381.958	88.44
382.184	103.44
382.409	98.44
382.634	102.44
382.86	102.44
383.085	85.44
383.31	118.44
383.535	115.44
383.761	103.44
383.986	86.44
384.211	93.44
384.436	107.44
384.662	88.44
384.887	84.44
385.112	107.44
385.337	90.44
385.562	101.44
385.787	100.44
386.013	107.44
386.238	113.44
386.463	93.44
386.688	107.44
386.913	107.44
387.138	93.44
387.363	98.44
387.588	89.44
387.813	93.44
388.038	106.44
388.263	103.44
388.488	79.44
388.713	96.44
388.938	84.44
389.163	76.44
389.387	87.44
389.612	86.44
389.837	119.44
390.062	88.44
390.287	93.44
390.512	91.44
390.736	88.44
390.961	92.44
391.186	96.44
391.411	94.44
391.636	85.44
391.86	92.44
392.085	94.44
392.31	95.44
392.534	87.44
392.759	132.44
392.984	199.44
393.208	345.44
393.433	535.44
393.658	402.44
393.882	162.44
394.107	124.44
394.331	124.44
394.556	141.44
394.78	115.44
395.005	101.44
395.229	96.44
395.454	96.44
395.678	108.44
395.903	127.44
396.127	168.44
396.352	187.44
396.576	211.44
396.801	361.44
397.025	404.44
397.249	202.44
397.474	141.44
397.698	114.44
397.922	107.44
398.147	91.44
398.371	82.44
398.595	78.44
398.82	103.44
399.044	91.44
399.268	93.44
399.492	83.44
399.717	78.44
399.941	103.44
400.165	85.44
400.389	89.44
400.613	90.44
400.837	82.44
401.062	97.44
401.286	84.44
401.51	90.44
401.734	79.44
401.958	78.44
402.182	91.44
402.406	92.44
402.63	92.44
402.854	86.44
403.078	91.44
403.302	93.44
403.526	88.44
403.75	81.44
403.974	85.44
404.198	94.44
404.422	71.44
404.645	90.44
404.869	98.44
405.093	97.44
405.317	78.44
405.541	82.44
405.765	84.44
405.988	103.44
406.212	99.44
406.436	86.44
406.66	95.44
406.883	85.44
407.107	100.44
407.331	100.44
407.555	96.44
407.778	105.44
408.002	121.44
408.226	108.44
408.449	97.44
408.673	93.44
408.896	86.44
409.12	83.44
409.344	102.44
409.567	116.44
409.791	100.44
410.014	105.44
410.238	101.44
410.461	87.44
410.685	90.44
410.908	84.44
411.132	89.44
411.355	85.44
411.578	80.44
411.802	91.44
412.025	95.44
412.249	83.44
412.472	84.44
412.695	75.44
412.919	76.44
413.142	75.44
413.365	94.44
413.589	82.44
413.812	65.44
414.035	89.44
414.258	94.44
414.482	94.44
414.705	97.44
414.928	78.44
415.151	82.44
415.374	83.44
415.597	87.44
415.821	75.44
416.044	97.44
416.267	87.44
416.49	84.44
416.713	90.44
416.936	91.44
417.159	97.44
417.382	75.44
417.605	82.44
417.828	97.44
418.051	106.44
418.274	85.44
418.497	87.44
418.72	86.44
418.943	88.44
419.166	86.44
419.389	87.44
419.611	76.44
419.834	66.44
420.057	86.44
420.28	71.44
420.503	92.44
420.726	99.44
420.948	91.44
421.171	87.44
421.394	113.44
421.617	143.44
421.839	123.44
422.062	130.44
422.285	182.44
422.507	343.44
422.73	568.44
422.953	503.44
423.175	215.44
423.398	125.44
423.621	129.44
423.843	104.44
424.066	103.44
424.288	96.44
424.511	95.44
424.733	84.44
424.956	84.44
425.178	92.44
425.401	89.44
425.623	89.44
425.846	86.44
426.068	83.44
426.291	78.44
426.513	81.44
426.735	88.44
426.958	103.44
427.18	93.44
427.402	107.44
427.625	90.44
427.847	91.44
428.069	96.44
428.292	135.44
428.514	164.44
428.736	117.44
428.958	146.44
429.181	129.44
429.403	102.44
429.625	92.44
429.847	127.44
430.069	171.44
430.292	215.44
430.514	197.44
430.736	155.44
430.958	159.44
431.18	119.44
431.402	106.44
431.624	119.44
431.846	140.44
432.068	153.44
432.29	112.44
432.512	90.44
432.734	87.44
432.956	90.44
433.178	71.44
433.4	87.44
433.622	115.44
433.844	76.44
434.066	90.44
434.287	77.44
434.509	71.44
434.731	85.44
434.953	86.44
435.175	103.44
435.397	102.44
435.618	81.44
435.84	103.44
436.062	98.44
436.284	84.44
436.505	81.44
436.727	102.44
436.949	95.44
437.17	87.44
437.392	84.44
437.614	69.44
437.835	93.44
438.057	84.44
438.278	73.44
438.5	89.44
438.721	88.44
438.943	93.44
439.165	81.44
439.386	81.44
439.608	81.44
439.829	77.44
440.05	85.44
440.272	78.44
440.493	86.44
440.715	88.44
440.936	72.44
441.158	89.44
441.379	97.44
441.6	77.44
441.822	100.44
442.043	81.44
442.264	111.44
442.486	149.44
442.707	196.44
442.928	121.44
443.149	112.44
443.371	177.44
443.592	305.44
443.813	271.44
444.034	115.44
444.255	70.44
444.476	91.44
444.698	85.44
444.919	93.44
445.14	209.44
445.361	224.44
445.582	360.44
445.803	313.44
446.024	140.44
446.245	95.44
446.466	79.44
446.687	92.44
446.908	80.44
447.129	74.44
447.35	92.44
447.571	91.44
447.792	88.44
448.013	83.44
448.234	61.44
448.455	82.44
448.675	82.44
448.896	89.44
449.117	78.44
449.338	88.44
449.559	86.44
449.779	85.44
450	87.44
450.221	69.44
450.442	85.44
450.662	84.44
450.883	93.44
451.104	110.44
451.324	96.44
451.545	96.44
451.766	84.44
451.986	94.44
452.207	85.44
452.428	88.44
452.648	95.44
452.869	103.44
453.089	111.44
453.31	87.44
453.53	92.44
453.751	103.44
453.971	87.44
454.192	72.44
454.412	80.44
454.633	82.44
454.853	78.44
455.073	81.44
455.294	85.44
455.514	105.44
455.734	92.44
455.955	84.44
456.175	83.44
456.395	88.44
456.616	88.44
456.836	91.44
457.056	76.44
457.276	97.44
457.497	78.44
457.717	95.44
457.937	121.44
458.157	138.44
458.377	132.44
458.598	133.44
458.818	130.44
459.038	106.44
459.258	87.44
459.478	85.44
459.698	88.44
459.918	102.44
460.138	97.44
460.358	84.44
460.578	94.44
460.798	127.44
461.018	123.44
461.238	93.44
461.458	75.44
461.678	80.44
461.898	87.44
462.118	87.44
462.338	92.44
462.558	81.44
462.777	68.44
462.997	65.44
463.217	84.44
463.437	89.44
463.657	68.44
463.876	76.44
464.096	78.44
464.316	76.44
464.536	71.44
464.755	80.44
464.975	95.44
465.195	93.44
465.414	75.44
465.634	80.44
465.854	89.44
466.073	73.44
466.293	62.44
466.512	72.44
466.732	79.44
466.951	82.44
467.171	80.44
467.391	74.44
467.61	86.44
467.829	91.44
468.049	89.44
468.268	67.44
468.488	76.44
468.707	95.44
468.927	82.44
469.146	83.44
469.365	97.44
469.585	100.44
469.804	80.44
470.023	86.44
470.243	74.44
470.462	77.44
470.681	77.44
470.901	84.44
471.12	87.44
471.339	97.44
471.558	90.44
471.777	81.44
471.997	99.44
472.216	94.44
472.435	95.44
472.654	81.44
472.873	97.44
473.092	95.44
473.311	83.44
473.53	94.44
473.749	75.44
473.968	85.44
474.187	77.44
474.406	77.44
474.625	69.44
474.844	98.44
475.063	79.44
475.282	76.44
475.501	90.44
475.72	83.44
475.939	92.44
476.158	82.44
476.377	78.44
476.596	76.44
476.814	86.44
477.033	83.44
477.252	88.44
477.471	89.44
477.69	92.44
477.908	69.44
478.127	84.44
478.346	83.44
478.564	96.44
478.783	100.44
479.002	83.44
479.22	83.44
479.439	100.44
479.658	85.44
479.876	88.44
480.095	100.44
480.313	85.44
480.532	94.44
480.751	98.44
480.969	84.44
481.188	83.44
481.406	101.44
481.624	93.44
481.843	85.44
482.061	91.44
482.28	74.44
482.498	79.44
482.717	88.44
482.935	88.44
483.153	93.44
483.372	88.44
483.59	84.44
483.808	98.44
484.027	86.44
484.245	81.44
484.463	79.44
484.681	91.44
484.9	87.44
485.118	99.44
485.336	90.44
485.554	89.44
485.772	93.44
485.99	93.44
486.209	97.44
486.427	83.44
486.645	96.44
486.863	92.44
487.081	95.44
487.299	87.44
487.517	114.44
487.735	115.44
487.953	203.44
488.171	139.44
488.389	92.44
488.607	89.44
488.825	81.44
489.043	89.44
489.261	99.44
489.479	90.44
489.696	96.44
489.914	91.44
490.132	100.44
490.35	87.44
490.568	81.44
490.786	86.44
491.003	82.44
491.221	94.44
491.439	84.44
491.657	85.44
491.874	82.44
492.092	76.44
492.31	108.44
492.527	84.44
492.745	96.44
492.963	77.44
493.18	92.44
493.398	96.44
493.615	102.44
493.833	89.44
494.05	78.44
494.268	79.44
494.485	72.44
494.703	92.44
494.92	85.44
495.138	91.44
495.355	89.44
495.573	91.44
495.79	88.44
496.008	103.44
496.225	94.44
496.442	83.44
496.66	85.44
496.877	82.44
497.094	96.44
497.312	91.44
497.529	88.44
497.746	105.44
497.963	88.44
498.181	82.44
498.398	96.44
498.615	108.44
498.832	92.44
499.049	88.44
499.267	88.44
499.484	87.44
499.701	87.44
499.918	98.44
500.135	94.44
500.352	88.44
500.569	83.44
500.786	85.44
501.003	95.44
501.22	85.44
501.437	94.44
501.654	87.44
501.871	85.44
502.088	86.44
502.305	81.44
502.522	102.44
502.739	89.44
502.956	85.44
503.172	90.44
503.389	88.44
503.606	84.44
503.823	89.44
504.04	104.44
504.256	142.44
504.473	148.44
504.69	100.44
504.907	95.44
505.123	99.44
505.34	93.44
505.557	92.44
505.773	88.44
505.99	94.44
506.207	82.44
506.423	76.44
506.64	102.44
506.856	96.44
507.073	82.44
507.289	95.44
507.506	85.44
507.722	83.44
507.939	87.44
508.155	82.44
508.372	79.44
508.588	83.44
508.805	91.44
509.021	91.44
509.238	106.44
509.454	92.44
509.67	96.44
509.887	93.44
510.103	99.44
510.319	90.44
510.536	95.44
510.752	86.44
510.968	80.44
511.184	85.44
511.401	89.44
511.617	84.44
511.833	91.44
512.049	90.44
512.265	93.44
512.481	89.44
512.698	84.44
512.914	83.44
513.13	77.44
513.346	82.44
513.562	101.44
513.778	84.44
513.994	83.44
514.21	79.44
514.426	97.44
514.642	73.44
514.858	98.44
515.074	94.44
515.29	92.44
515.506	80.44
515.721	80.44
515.937	84.44
516.153	81.44
516.369	83.44
516.585	84.44
516.801	97.44
517.016	96.44
517.232	88.44
517.448	114.44
