Data from 237_2_HRD10591_00004.txt Node
Date: Mon Jan 19 14:11:32 EST 2026
User: Yrep
Spectrometer: HR+D1059
Trigger mode: 1
Integration Time (sec): 1.000000E-1
Scans to average: 1
Electric dark correction enabled: true
Nonlinearity correction enabled: false
Boxcar width: 0
XAxis mode: Wavelengths
Number of Pixels in Spectrum: 2048
>>>>>Begin Spectral Data<<<<<
223.165	-34.44
223.4	-34.44
223.635	-34.44
223.869	-28.44
224.104	-14.44
224.338	-16.44
224.573	-12.44
224.808	-25.44
225.042	-2.44
225.277	5.56
225.511	1.56
225.746	14.56
225.98	18.56
226.215	7.56
226.449	18.56
226.683	8.56
226.918	19.56
227.152	39.56
227.387	15.56
227.621	23.56
227.856	38.56
228.09	51.56
228.324	56.56
228.559	42.56
228.793	65.56
229.027	67.56
229.262	61.56
229.496	74.56
229.73	65.56
229.964	70.56
230.199	69.56
230.433	81.56
230.667	76.56
230.901	65.56
231.136	81.56
231.37	88.56
231.604	73.56
231.838	75.56
232.072	78.56
232.306	81.56
232.541	70.56
232.775	79.56
233.009	74.56
233.243	88.56
233.477	71.56
233.711	76.56
233.945	81.56
234.179	79.56
234.413	89.56
234.647	89.56
234.881	78.56
235.115	71.56
235.349	75.56
235.583	85.56
235.817	73.56
236.051	65.56
236.285	68.56
236.519	89.56
236.753	79.56
236.987	83.56
237.221	86.56
237.455	79.56
237.689	78.56
237.922	67.56
238.156	76.56
238.39	73.56
238.624	80.56
238.858	86.56
239.091	82.56
239.325	76.56
239.559	70.56
239.793	68.56
240.027	73.56
240.26	89.56
240.494	69.56
240.728	94.56
240.961	65.56
241.195	71.56
241.429	74.56
241.662	70.56
241.896	73.56
242.13	74.56
242.363	76.56
242.597	68.56
242.83	85.56
243.064	82.56
243.298	73.56
243.531	82.56
243.765	70.56
243.998	72.56
244.232	73.56
244.465	66.56
244.699	85.56
244.932	74.56
245.166	91.56
245.399	81.56
245.633	53.56
245.866	79.56
246.099	83.56
246.333	72.56
246.566	63.56
246.8	75.56
247.033	77.56
247.266	89.56
247.5	86.56
247.733	83.56
247.966	91.56
248.2	63.56
248.433	81.56
248.666	77.56
248.899	81.56
249.133	87.56
249.366	61.56
249.599	63.56
249.832	82.56
250.066	78.56
250.299	71.56
250.532	83.56
250.765	78.56
250.998	82.56
251.231	83.56
251.465	85.56
251.698	70.56
251.931	75.56
252.164	78.56
252.397	80.56
252.63	81.56
252.863	79.56
253.096	74.56
253.329	84.56
253.562	73.56
253.795	86.56
254.028	88.56
254.261	86.56
254.494	82.56
254.727	80.56
254.96	94.56
255.193	77.56
255.426	87.56
255.659	83.56
255.892	77.56
256.124	75.56
256.357	85.56
256.59	86.56
256.823	75.56
257.056	84.56
257.289	81.56
257.521	76.56
257.754	70.56
257.987	85.56
258.22	79.56
258.452	80.56
258.685	78.56
258.918	79.56
259.151	83.56
259.383	86.56
259.616	84.56
259.849	74.56
260.081	86.56
260.314	81.56
260.547	86.56
260.779	77.56
261.012	95.56
261.244	81.56
261.477	81.56
261.71	81.56
261.942	75.56
262.175	86.56
262.407	81.56
262.64	82.56
262.872	75.56
263.105	70.56
263.337	75.56
263.57	83.56
263.802	96.56
264.035	72.56
264.267	77.56
264.499	81.56
264.732	82.56
264.964	83.56
265.197	80.56
265.429	75.56
265.661	70.56
265.894	81.56
266.126	75.56
266.358	88.56
266.591	80.56
266.823	72.56
267.055	81.56
267.287	85.56
267.52	71.56
267.752	78.56
267.984	77.56
268.216	89.56
268.448	85.56
268.681	93.56
268.913	81.56
269.145	86.56
269.377	82.56
269.609	73.56
269.841	83.56
270.073	82.56
270.306	84.56
270.538	86.56
270.77	89.56
271.002	91.56
271.234	80.56
271.466	92.56
271.698	73.56
271.93	88.56
272.162	82.56
272.394	65.56
272.626	85.56
272.858	79.56
273.09	88.56
273.322	82.56
273.553	81.56
273.785	85.56
274.017	87.56
274.249	67.56
274.481	78.56
274.713	81.56
274.945	91.56
275.176	90.56
275.408	77.56
275.64	96.56
275.872	90.56
276.104	79.56
276.335	62.56
276.567	85.56
276.799	87.56
277.031	84.56
277.262	73.56
277.494	92.56
277.726	77.56
277.957	81.56
278.189	67.56
278.421	84.56
278.652	81.56
278.884	79.56
279.115	84.56
279.347	74.56
279.579	85.56
279.81	84.56
280.042	93.56
280.273	93.56
280.505	89.56
280.736	84.56
280.968	91.56
281.199	81.56
281.431	94.56
281.662	74.56
281.894	81.56
282.125	84.56
282.356	84.56
282.588	79.56
282.819	83.56
283.051	81.56
283.282	67.56
283.513	82.56
283.745	93.56
283.976	85.56
284.207	91.56
284.439	72.56
284.67	81.56
284.901	86.56
285.132	96.56
285.364	86.56
285.595	100.56
285.826	92.56
286.057	78.56
286.288	86.56
286.52	81.56
286.751	71.56
286.982	69.56
287.213	82.56
287.444	81.56
287.675	77.56
287.906	80.56
288.138	75.56
288.369	87.56
288.6	92.56
288.831	86.56
289.062	85.56
289.293	87.56
289.524	90.56
289.755	94.56
289.986	85.56
290.217	83.56
290.448	95.56
290.679	80.56
290.91	90.56
291.141	79.56
291.371	89.56
291.602	79.56
291.833	81.56
292.064	89.56
292.295	89.56
292.526	88.56
292.757	84.56
292.987	86.56
293.218	75.56
293.449	83.56
293.68	92.56
293.91	81.56
294.141	88.56
294.372	83.56
294.603	79.56
294.833	83.56
295.064	81.56
295.295	95.56
295.525	80.56
295.756	87.56
295.987	77.56
296.217	89.56
296.448	102.56
296.679	88.56
296.909	80.56
297.14	82.56
297.37	86.56
297.601	78.56
297.831	94.56
298.062	77.56
298.292	78.56
298.523	98.56
298.753	74.56
298.984	96.56
299.214	93.56
299.445	100.56
299.675	85.56
299.905	91.56
300.136	93.56
300.366	82.56
300.597	95.56
300.827	85.56
301.057	99.56
301.288	91.56
301.518	83.56
301.748	80.56
301.979	87.56
302.209	102.56
302.439	85.56
302.669	88.56
302.9	87.56
303.13	72.56
303.36	84.56
303.59	85.56
303.82	81.56
304.051	87.56
304.281	87.56
304.511	96.56
304.741	102.56
304.971	91.56
305.201	101.56
305.431	76.56
305.661	66.56
305.891	84.56
306.121	85.56
306.352	81.56
306.582	88.56
306.812	93.56
307.042	96.56
307.272	73.56
307.502	79.56
307.731	88.56
307.961	94.56
308.191	98.56
308.421	94.56
308.651	95.56
308.881	101.56
309.111	106.56
309.341	95.56
309.571	83.56
309.8	90.56
310.03	88.56
310.26	93.56
310.49	91.56
310.72	89.56
310.949	83.56
311.179	83.56
311.409	84.56
311.639	79.56
311.868	94.56
312.098	103.56
312.328	89.56
312.557	77.56
312.787	85.56
313.017	84.56
313.246	85.56
313.476	85.56
313.706	83.56
313.935	93.56
314.165	85.56
314.394	90.56
314.624	83.56
314.853	89.56
315.083	86.56
315.312	99.56
315.542	77.56
315.771	97.56
316.001	104.56
316.23	94.56
316.46	83.56
316.689	79.56
316.919	81.56
317.148	83.56
317.377	101.56
317.607	92.56
317.836	87.56
318.065	104.56
318.295	108.56
318.524	109.56
318.753	96.56
318.983	89.56
319.212	93.56
319.441	89.56
319.67	91.56
319.9	81.56
320.129	81.56
320.358	87.56
320.587	97.56
320.816	95.56
321.046	87.56
321.275	89.56
321.504	99.56
321.733	90.56
321.962	97.56
322.191	85.56
322.42	99.56
322.649	82.56
322.878	83.56
323.108	85.56
323.337	87.56
323.566	95.56
323.795	82.56
324.024	87.56
324.253	94.56
324.482	93.56
324.71	100.56
324.939	101.56
325.168	93.56
325.397	90.56
325.626	87.56
325.855	83.56
326.084	80.56
326.313	86.56
326.542	93.56
326.77	85.56
326.999	104.56
327.228	83.56
327.457	87.56
327.686	96.56
327.914	80.56
328.143	81.56
328.372	93.56
328.6	73.56
328.829	75.56
329.058	89.56
329.287	69.56
329.515	90.56
329.744	91.56
329.972	89.56
330.201	88.56
330.43	94.56
330.658	84.56
330.887	75.56
331.115	89.56
331.344	81.56
331.572	94.56
331.801	95.56
332.03	73.56
332.258	92.56
332.486	89.56
332.715	95.56
332.943	91.56
333.172	85.56
333.4	100.56
333.629	95.56
333.857	86.56
334.085	85.56
334.314	96.56
334.542	79.56
334.771	89.56
334.999	87.56
335.227	93.56
335.455	94.56
335.684	101.56
335.912	94.56
336.14	94.56
336.369	97.56
336.597	98.56
336.825	73.56
337.053	83.56
337.281	102.56
337.51	82.56
337.738	87.56
337.966	103.56
338.194	79.56
338.422	95.56
338.65	88.56
338.878	97.56
339.106	95.56
339.334	90.56
339.562	61.56
339.79	95.56
340.018	84.56
340.246	93.56
340.474	70.56
340.702	101.56
340.93	92.56
341.158	78.56
341.386	95.56
341.614	80.56
341.842	96.56
342.07	101.56
342.298	72.56
342.526	79.56
342.754	95.56
342.981	84.56
343.209	89.56
343.437	76.56
343.665	83.56
343.893	78.56
344.12	99.56
344.348	102.56
344.576	88.56
344.804	89.56
345.031	81.56
345.259	83.56
345.487	70.56
345.714	93.56
345.942	72.56
346.17	87.56
346.397	95.56
346.625	101.56
346.853	78.56
347.08	81.56
347.308	83.56
347.535	95.56
347.763	86.56
347.99	79.56
348.218	86.56
348.445	83.56
348.673	89.56
348.9	94.56
349.128	93.56
349.355	91.56
349.583	79.56
349.81	72.56
350.037	82.56
350.265	89.56
350.492	87.56
350.72	92.56
350.947	94.56
351.174	75.56
351.402	91.56
351.629	85.56
351.856	85.56
352.083	79.56
352.311	82.56
352.538	69.56
352.765	89.56
352.992	92.56
353.22	79.56
353.447	78.56
353.674	86.56
353.901	93.56
354.128	96.56
354.355	76.56
354.583	80.56
354.81	89.56
355.037	84.56
355.264	92.56
355.491	92.56
355.718	85.56
355.945	89.56
356.172	95.56
356.399	88.56
356.626	83.56
356.853	98.56
357.08	87.56
357.307	85.56
357.534	90.56
357.761	98.56
357.988	86.56
358.215	121.56
358.441	104.56
358.668	81.56
358.895	91.56
359.122	87.56
359.349	84.56
359.576	95.56
359.802	83.56
360.029	78.56
360.256	83.56
360.483	99.56
360.709	87.56
360.936	106.56
361.163	96.56
361.39	105.56
361.616	88.56
361.843	95.56
362.07	100.56
362.296	97.56
362.523	109.56
362.749	112.56
362.976	120.56
363.203	145.56
363.429	105.56
363.656	103.56
363.882	94.56
364.109	113.56
364.335	143.56
364.562	149.56
364.788	118.56
365.015	113.56
365.241	85.56
365.468	87.56
365.694	94.56
365.92	95.56
366.147	68.56
366.373	78.56
366.599	85.56
366.826	92.56
367.052	79.56
367.278	79.56
367.505	93.56
367.731	93.56
367.957	83.56
368.184	90.56
368.41	90.56
368.636	82.56
368.862	94.56
369.089	83.56
369.315	75.56
369.541	85.56
369.767	93.56
369.993	86.56
370.219	97.56
370.445	102.56
370.672	102.56
370.898	94.56
371.124	92.56
371.35	77.56
371.576	79.56
371.802	98.56
372.028	92.56
372.254	87.56
372.48	94.56
372.706	89.56
372.932	121.56
373.158	111.56
373.384	97.56
373.61	125.56
373.835	121.56
374.061	97.56
374.287	90.56
374.513	109.56
374.739	95.56
374.965	106.56
375.191	112.56
375.416	89.56
375.642	107.56
375.868	102.56
376.094	99.56
376.319	97.56
376.545	89.56
376.771	94.56
376.997	105.56
377.222	86.56
377.448	100.56
377.674	90.56
377.899	71.56
378.125	98.56
378.35	86.56
378.576	96.56
378.802	86.56
379.027	89.56
379.253	97.56
379.478	89.56
379.704	83.56
379.929	88.56
380.155	85.56
380.38	73.56
380.606	97.56
380.831	89.56
381.057	88.56
381.282	81.56
381.507	114.56
381.733	109.56
381.958	100.56
382.184	114.56
382.409	102.56
382.634	117.56
382.86	100.56
383.085	99.56
383.31	98.56
383.535	120.56
383.761	121.56
383.986	111.56
384.211	111.56
384.436	101.56
384.662	103.56
384.887	88.56
385.112	89.56
385.337	94.56
385.562	87.56
385.787	102.56
386.013	110.56
386.238	111.56
386.463	89.56
386.688	121.56
386.913	85.56
387.138	119.56
387.363	86.56
387.588	100.56
387.813	105.56
388.038	104.56
388.263	95.56
388.488	101.56
388.713	92.56
388.938	80.56
389.163	86.56
389.387	87.56
389.612	95.56
389.837	97.56
390.062	84.56
390.287	92.56
390.512	86.56
390.736	83.56
390.961	81.56
391.186	85.56
391.411	95.56
391.636	87.56
391.86	107.56
392.085	111.56
392.31	104.56
392.534	120.56
392.759	146.56
392.984	218.56
393.208	376.56
393.433	541.56
393.658	417.56
393.882	189.56
394.107	129.56
394.331	137.56
394.556	153.56
394.78	127.56
395.005	105.56
395.229	97.56
395.454	104.56
395.678	117.56
395.903	148.56
396.127	164.56
396.352	202.56
396.576	226.56
396.801	373.56
397.025	426.56
397.249	222.56
397.474	149.56
397.698	125.56
397.922	104.56
398.147	93.56
398.371	90.56
398.595	97.56
398.82	100.56
399.044	91.56
399.268	85.56
399.492	95.56
399.717	72.56
399.941	95.56
400.165	93.56
400.389	85.56
400.613	82.56
400.837	75.56
401.062	72.56
401.286	73.56
401.51	88.56
401.734	92.56
401.958	88.56
402.182	76.56
402.406	97.56
402.63	93.56
402.854	83.56
403.078	99.56
403.302	105.56
403.526	93.56
403.75	105.56
403.974	82.56
404.198	90.56
404.422	117.56
404.645	139.56
404.869	129.56
405.093	106.56
405.317	80.56
405.541	75.56
405.765	77.56
405.988	74.56
406.212	101.56
406.436	98.56
406.66	91.56
406.883	73.56
407.107	84.56
407.331	95.56
407.555	109.56
407.778	129.56
408.002	129.56
408.226	92.56
408.449	78.56
408.673	103.56
408.896	89.56
409.12	94.56
409.344	88.56
409.567	92.56
409.791	106.56
410.014	100.56
410.238	106.56
410.461	99.56
410.685	100.56
410.908	81.56
411.132	98.56
411.355	100.56
411.578	97.56
411.802	87.56
412.025	90.56
412.249	93.56
412.472	86.56
412.695	80.56
412.919	85.56
413.142	92.56
413.365	81.56
413.589	83.56
413.812	86.56
414.035	75.56
414.258	88.56
414.482	87.56
414.705	95.56
414.928	96.56
415.151	98.56
415.374	69.56
415.597	75.56
415.821	75.56
416.044	89.56
416.267	89.56
416.49	79.56
416.713	85.56
416.936	94.56
417.159	95.56
417.382	91.56
417.605	88.56
417.828	83.56
418.051	92.56
418.274	71.56
418.497	89.56
418.72	79.56
418.943	81.56
419.166	98.56
419.389	88.56
419.611	77.56
419.834	83.56
420.057	96.56
420.28	99.56
420.503	87.56
420.726	95.56
420.948	105.56
421.171	109.56
421.394	97.56
421.617	117.56
421.839	149.56
422.062	140.56
422.285	224.56
422.507	389.56
422.73	605.56
422.953	543.56
423.175	279.56
423.398	159.56
423.621	115.56
423.843	106.56
424.066	105.56
424.288	93.56
424.511	109.56
424.733	99.56
424.956	103.56
425.178	108.56
425.401	99.56
425.623	83.56
425.846	94.56
426.068	83.56
426.291	90.56
426.513	85.56
426.735	85.56
426.958	82.56
427.18	100.56
427.402	93.56
427.625	91.56
427.847	102.56
428.069	111.56
428.292	158.56
428.514	162.56
428.736	130.56
428.958	155.56
429.181	156.56
429.403	125.56
429.625	106.56
429.847	143.56
430.069	214.56
430.292	236.56
430.514	225.56
430.736	194.56
430.958	168.56
431.18	112.56
431.402	85.56
431.624	105.56
431.846	145.56
432.068	177.56
432.29	103.56
432.512	103.56
432.734	94.56
432.956	76.56
433.178	91.56
433.4	94.56
433.622	87.56
433.844	88.56
434.066	96.56
434.287	78.56
434.509	84.56
434.731	104.56
434.953	76.56
435.175	89.56
435.397	89.56
435.618	94.56
435.84	86.56
436.062	79.56
436.284	81.56
436.505	74.56
436.727	71.56
436.949	91.56
437.17	86.56
437.392	84.56
437.614	93.56
437.835	99.56
438.057	84.56
438.278	90.56
438.5	94.56
438.721	101.56
438.943	102.56
439.165	85.56
439.386	94.56
439.608	89.56
439.829	93.56
440.05	83.56
440.272	90.56
440.493	90.56
440.715	95.56
440.936	97.56
441.158	90.56
441.379	80.56
441.6	81.56
441.822	93.56
442.043	84.56
442.264	127.56
442.486	163.56
442.707	219.56
442.928	167.56
443.149	117.56
443.371	213.56
443.592	340.56
443.813	286.56
444.034	150.56
444.255	110.56
444.476	100.56
444.698	92.56
444.919	122.56
445.14	234.56
445.361	259.56
445.582	429.56
445.803	358.56
446.024	158.56
446.245	110.56
446.466	98.56
446.687	99.56
446.908	97.56
447.129	74.56
447.35	103.56
447.571	97.56
447.792	86.56
448.013	86.56
448.234	98.56
448.455	85.56
448.675	97.56
448.896	89.56
449.117	89.56
449.338	77.56
449.559	83.56
449.779	85.56
450	84.56
450.221	81.56
450.442	74.56
450.662	95.56
450.883	75.56
451.104	73.56
451.324	96.56
451.545	95.56
451.766	75.56
451.986	86.56
452.207	91.56
452.428	79.56
452.648	92.56
452.869	111.56
453.089	103.56
453.31	85.56
453.53	104.56
453.751	87.56
453.971	101.56
454.192	79.56
454.412	76.56
454.633	81.56
454.853	102.56
455.073	94.56
455.294	112.56
455.514	109.56
455.734	89.56
455.955	80.56
456.175	91.56
456.395	73.56
456.616	88.56
456.836	93.56
457.056	80.56
457.276	79.56
457.497	95.56
457.717	106.56
457.937	133.56
458.157	153.56
458.377	139.56
458.598	135.56
458.818	143.56
459.038	106.56
459.258	85.56
459.478	89.56
459.698	96.56
459.918	83.56
460.138	93.56
460.358	101.56
460.578	110.56
460.798	137.56
461.018	133.56
461.238	85.56
461.458	87.56
461.678	90.56
461.898	87.56
462.118	77.56
462.338	89.56
462.558	91.56
462.777	92.56
462.997	96.56
463.217	86.56
463.437	98.56
463.657	87.56
463.876	71.56
464.096	78.56
464.316	86.56
464.536	95.56
464.755	106.56
464.975	87.56
465.195	84.56
465.414	87.56
465.634	86.56
465.854	87.56
466.073	86.56
466.293	78.56
466.512	64.56
466.732	87.56
466.951	97.56
467.171	83.56
467.391	90.56
467.61	87.56
467.829	81.56
468.049	79.56
468.268	84.56
468.488	94.56
468.707	88.56
468.927	93.56
469.146	80.56
469.365	83.56
469.585	94.56
469.804	83.56
470.023	80.56
470.243	88.56
470.462	79.56
470.681	79.56
470.901	71.56
471.12	94.56
471.339	90.56
471.558	76.56
471.777	98.56
471.997	90.56
472.216	91.56
472.435	99.56
472.654	91.56
472.873	84.56
473.092	99.56
473.311	90.56
473.53	103.56
473.749	98.56
473.968	91.56
474.187	79.56
474.406	87.56
474.625	82.56
474.844	100.56
475.063	75.56
475.282	105.56
475.501	84.56
475.72	93.56
475.939	100.56
476.158	98.56
476.377	94.56
476.596	94.56
476.814	85.56
477.033	95.56
477.252	87.56
477.471	98.56
477.69	86.56
477.908	82.56
478.127	89.56
478.346	92.56
478.564	73.56
478.783	84.56
479.002	89.56
479.22	90.56
479.439	74.56
479.658	79.56
479.876	84.56
480.095	82.56
480.313	96.56
480.532	78.56
480.751	96.56
480.969	99.56
481.188	96.56
481.406	98.56
481.624	85.56
481.843	89.56
482.061	73.56
482.28	104.56
482.498	89.56
482.717	90.56
482.935	98.56
483.153	92.56
483.372	78.56
483.59	98.56
483.808	87.56
484.027	85.56
484.245	83.56
484.463	95.56
484.681	79.56
484.9	96.56
485.118	90.56
485.336	93.56
485.554	104.56
485.772	94.56
485.99	78.56
486.209	98.56
486.427	90.56
486.645	82.56
486.863	88.56
487.081	89.56
487.299	105.56
487.517	100.56
487.735	138.56
487.953	237.56
488.171	201.56
488.389	102.56
488.607	92.56
488.825	81.56
489.043	90.56
489.261	89.56
489.479	85.56
489.696	94.56
489.914	83.56
490.132	71.56
490.35	101.56
490.568	86.56
490.786	87.56
491.003	88.56
491.221	86.56
491.439	97.56
491.657	102.56
491.874	85.56
492.092	98.56
492.31	85.56
492.527	88.56
492.745	85.56
492.963	87.56
493.18	97.56
493.398	99.56
493.615	98.56
493.833	79.56
494.05	67.56
494.268	88.56
494.485	96.56
494.703	85.56
494.92	92.56
495.138	85.56
495.355	96.56
495.573	92.56
495.79	74.56
496.008	94.56
496.225	70.56
496.442	100.56
496.66	95.56
496.877	90.56
497.094	85.56
497.312	91.56
497.529	88.56
497.746	87.56
497.963	91.56
498.181	103.56
498.398	120.56
498.615	90.56
498.832	95.56
499.049	76.56
499.267	113.56
499.484	90.56
499.701	85.56
499.918	86.56
500.135	102.56
500.352	96.56
500.569	83.56
500.786	95.56
501.003	89.56
501.22	93.56
501.437	83.56
501.654	96.56
501.871	90.56
502.088	79.56
502.305	91.56
502.522	101.56
502.739	97.56
502.956	89.56
503.172	89.56
503.389	88.56
503.606	100.56
503.823	101.56
504.04	96.56
504.256	153.56
504.473	144.56
504.69	106.56
504.907	98.56
505.123	97.56
505.34	95.56
505.557	87.56
505.773	91.56
505.99	98.56
506.207	89.56
506.423	89.56
506.64	106.56
506.856	92.56
507.073	101.56
507.289	98.56
507.506	96.56
507.722	79.56
507.939	72.56
508.155	93.56
508.372	97.56
508.588	99.56
508.805	84.56
509.021	82.56
509.238	97.56
509.454	89.56
509.67	87.56
509.887	82.56
510.103	92.56
510.319	80.56
510.536	95.56
510.752	100.56
510.968	91.56
511.184	94.56
511.401	96.56
511.617	101.56
511.833	98.56
512.049	87.56
512.265	93.56
512.481	88.56
512.698	99.56
512.914	91.56
513.13	99.56
513.346	97.56
513.562	91.56
513.778	91.56
513.994	82.56
514.21	84.56
514.426	81.56
514.642	102.56
514.858	99.56
515.074	98.56
515.29	87.56
515.506	102.56
515.721	91.56
515.937	94.56
516.153	89.56
516.369	87.56
516.585	95.56
516.801	93.56
517.016	92.56
