Data from 237_2_HRD10591_00023.txt Node
Date: Mon Jan 19 14:11:42 EST 2026
User: Yrep
Spectrometer: HR+D1059
Trigger mode: 1
Integration Time (sec): 1.000000E-1
Scans to average: 1
Electric dark correction enabled: true
Nonlinearity correction enabled: false
Boxcar width: 0
XAxis mode: Wavelengths
Number of Pixels in Spectrum: 2048
>>>>>Begin Spectral Data<<<<<
223.165	-22.5
223.4	-22.5
223.635	-22.5
223.869	-32.5
224.104	-18.5
224.338	-12.5
224.573	0.5
224.808	-14.5
225.042	-13.5
225.277	-8.5
225.511	6.5
225.746	15.5
225.98	15.5
226.215	8.5
226.449	5.5
226.683	7.5
226.918	39.5
227.152	23.5
227.387	44.5
227.621	43.5
227.856	31.5
228.09	49.5
228.324	54.5
228.559	59.5
228.793	56.5
229.027	59.5
229.262	65.5
229.496	59.5
229.73	65.5
229.964	69.5
230.199	69.5
230.433	80.5
230.667	71.5
230.901	79.5
231.136	76.5
231.37	68.5
231.604	78.5
231.838	77.5
232.072	84.5
232.306	78.5
232.541	75.5
232.775	76.5
233.009	85.5
233.243	82.5
233.477	74.5
233.711	77.5
233.945	69.5
234.179	80.5
234.413	86.5
234.647	72.5
234.881	73.5
235.115	87.5
235.349	69.5
235.583	70.5
235.817	67.5
236.051	88.5
236.285	63.5
236.519	73.5
236.753	82.5
236.987	73.5
237.221	77.5
237.455	73.5
237.689	71.5
237.922	74.5
238.156	71.5
238.39	66.5
238.624	79.5
238.858	73.5
239.091	61.5
239.325	79.5
239.559	72.5
239.793	81.5
240.027	77.5
240.26	79.5
240.494	82.5
240.728	68.5
240.961	65.5
241.195	67.5
241.429	74.5
241.662	75.5
241.896	65.5
242.13	81.5
242.363	70.5
242.597	82.5
242.83	90.5
243.064	74.5
243.298	74.5
243.531	79.5
243.765	89.5
243.998	57.5
244.232	69.5
244.465	75.5
244.699	86.5
244.932	67.5
245.166	78.5
245.399	82.5
245.633	62.5
245.866	81.5
246.099	69.5
246.333	82.5
246.566	93.5
246.8	87.5
247.033	87.5
247.266	74.5
247.5	83.5
247.733	75.5
247.966	79.5
248.2	79.5
248.433	83.5
248.666	75.5
248.899	79.5
249.133	81.5
249.366	73.5
249.599	72.5
249.832	82.5
250.066	83.5
250.299	70.5
250.532	73.5
250.765	87.5
250.998	86.5
251.231	70.5
251.465	83.5
251.698	72.5
251.931	69.5
252.164	93.5
252.397	70.5
252.63	71.5
252.863	73.5
253.096	79.5
253.329	73.5
253.562	77.5
253.795	69.5
254.028	74.5
254.261	74.5
254.494	81.5
254.727	89.5
254.96	93.5
255.193	82.5
255.426	68.5
255.659	69.5
255.892	80.5
256.124	76.5
256.357	75.5
256.59	87.5
256.823	75.5
257.056	79.5
257.289	70.5
257.521	86.5
257.754	89.5
257.987	78.5
258.22	97.5
258.452	87.5
258.685	81.5
258.918	83.5
259.151	91.5
259.383	91.5
259.616	84.5
259.849	77.5
260.081	96.5
260.314	76.5
260.547	74.5
260.779	71.5
261.012	76.5
261.244	61.5
261.477	80.5
261.71	77.5
261.942	66.5
262.175	65.5
262.407	85.5
262.64	81.5
262.872	65.5
263.105	73.5
263.337	81.5
263.57	69.5
263.802	75.5
264.035	93.5
264.267	81.5
264.499	76.5
264.732	75.5
264.964	67.5
265.197	75.5
265.429	73.5
265.661	95.5
265.894	81.5
266.126	78.5
266.358	93.5
266.591	81.5
266.823	85.5
267.055	72.5
267.287	83.5
267.52	69.5
267.752	94.5
267.984	75.5
268.216	66.5
268.448	73.5
268.681	89.5
268.913	81.5
269.145	88.5
269.377	76.5
269.609	81.5
269.841	89.5
270.073	70.5
270.306	73.5
270.538	68.5
270.77	79.5
271.002	85.5
271.234	83.5
271.466	99.5
271.698	75.5
271.93	98.5
272.162	90.5
272.394	84.5
272.626	78.5
272.858	82.5
273.09	84.5
273.322	79.5
273.553	70.5
273.785	83.5
274.017	75.5
274.249	80.5
274.481	81.5
274.713	99.5
274.945	96.5
275.176	70.5
275.408	81.5
275.64	91.5
275.872	80.5
276.104	86.5
276.335	81.5
276.567	83.5
276.799	84.5
277.031	84.5
277.262	83.5
277.494	89.5
277.726	93.5
277.957	80.5
278.189	90.5
278.421	72.5
278.652	88.5
278.884	77.5
279.115	78.5
279.347	74.5
279.579	83.5
279.81	87.5
280.042	77.5
280.273	93.5
280.505	84.5
280.736	91.5
280.968	81.5
281.199	97.5
281.431	78.5
281.662	89.5
281.894	88.5
282.125	84.5
282.356	90.5
282.588	104.5
282.819	81.5
283.051	91.5
283.282	91.5
283.513	81.5
283.745	79.5
283.976	85.5
284.207	80.5
284.439	85.5
284.67	85.5
284.901	83.5
285.132	80.5
285.364	86.5
285.595	76.5
285.826	75.5
286.057	95.5
286.288	83.5
286.52	84.5
286.751	83.5
286.982	83.5
287.213	80.5
287.444	74.5
287.675	77.5
287.906	89.5
288.138	86.5
288.369	94.5
288.6	85.5
288.831	86.5
289.062	90.5
289.293	105.5
289.524	97.5
289.755	93.5
289.986	87.5
290.217	91.5
290.448	66.5
290.679	85.5
290.91	82.5
291.141	83.5
291.371	94.5
291.602	82.5
291.833	93.5
292.064	95.5
292.295	90.5
292.526	71.5
292.757	88.5
292.987	85.5
293.218	79.5
293.449	85.5
293.68	78.5
293.91	85.5
294.141	79.5
294.372	84.5
294.603	87.5
294.833	79.5
295.064	75.5
295.295	91.5
295.525	61.5
295.756	82.5
295.987	88.5
296.217	93.5
296.448	77.5
296.679	71.5
296.909	88.5
297.14	82.5
297.37	92.5
297.601	84.5
297.831	80.5
298.062	79.5
298.292	86.5
298.523	85.5
298.753	85.5
298.984	79.5
299.214	84.5
299.445	82.5
299.675	78.5
299.905	87.5
300.136	93.5
300.366	91.5
300.597	83.5
300.827	86.5
301.057	85.5
301.288	93.5
301.518	93.5
301.748	88.5
301.979	88.5
302.209	80.5
302.439	75.5
302.669	79.5
302.9	85.5
303.13	88.5
303.36	76.5
303.59	76.5
303.82	86.5
304.051	94.5
304.281	72.5
304.511	85.5
304.741	88.5
304.971	89.5
305.201	87.5
305.431	90.5
305.661	88.5
305.891	82.5
306.121	89.5
306.352	89.5
306.582	76.5
306.812	79.5
307.042	95.5
307.272	104.5
307.502	74.5
307.731	79.5
307.961	87.5
308.191	90.5
308.421	84.5
308.651	77.5
308.881	96.5
309.111	91.5
309.341	83.5
309.571	89.5
309.8	106.5
310.03	85.5
310.26	78.5
310.49	97.5
310.72	75.5
310.949	91.5
311.179	86.5
311.409	88.5
311.639	75.5
311.868	79.5
312.098	88.5
312.328	91.5
312.557	85.5
312.787	77.5
313.017	87.5
313.246	96.5
313.476	85.5
313.706	88.5
313.935	91.5
314.165	83.5
314.394	89.5
314.624	86.5
314.853	74.5
315.083	100.5
315.312	95.5
315.542	81.5
315.771	84.5
316.001	86.5
316.23	90.5
316.46	81.5
316.689	85.5
316.919	78.5
317.148	81.5
317.377	78.5
317.607	90.5
317.836	94.5
318.065	102.5
318.295	85.5
318.524	85.5
318.753	91.5
318.983	82.5
319.212	95.5
319.441	93.5
319.67	78.5
319.9	79.5
320.129	87.5
320.358	101.5
320.587	98.5
320.816	73.5
321.046	91.5
321.275	93.5
321.504	93.5
321.733	85.5
321.962	73.5
322.191	91.5
322.42	92.5
322.649	84.5
322.878	89.5
323.108	86.5
323.337	87.5
323.566	82.5
323.795	98.5
324.024	80.5
324.253	93.5
324.482	87.5
324.71	85.5
324.939	82.5
325.168	78.5
325.397	84.5
325.626	71.5
325.855	95.5
326.084	93.5
326.313	95.5
326.542	88.5
326.77	83.5
326.999	99.5
327.228	81.5
327.457	65.5
327.686	94.5
327.914	84.5
328.143	66.5
328.372	79.5
328.6	78.5
328.829	82.5
329.058	86.5
329.287	78.5
329.515	86.5
329.744	85.5
329.972	77.5
330.201	89.5
330.43	90.5
330.658	76.5
330.887	101.5
331.115	83.5
331.344	86.5
331.572	77.5
331.801	89.5
332.03	68.5
332.258	92.5
332.486	72.5
332.715	90.5
332.943	87.5
333.172	88.5
333.4	86.5
333.629	89.5
333.857	85.5
334.085	86.5
334.314	97.5
334.542	89.5
334.771	82.5
334.999	83.5
335.227	103.5
335.455	74.5
335.684	96.5
335.912	84.5
336.14	88.5
336.369	104.5
336.597	91.5
336.825	77.5
337.053	102.5
337.281	93.5
337.51	86.5
337.738	95.5
337.966	81.5
338.194	89.5
338.422	95.5
338.65	94.5
338.878	72.5
339.106	84.5
339.334	91.5
339.562	87.5
339.79	83.5
340.018	87.5
340.246	89.5
340.474	97.5
340.702	86.5
340.93	93.5
341.158	73.5
341.386	85.5
341.614	77.5
341.842	85.5
342.07	91.5
342.298	92.5
342.526	90.5
342.754	71.5
342.981	77.5
343.209	105.5
343.437	91.5
343.665	76.5
343.893	75.5
344.12	100.5
344.348	86.5
344.576	93.5
344.804	82.5
345.031	80.5
345.259	79.5
345.487	81.5
345.714	90.5
345.942	103.5
346.17	87.5
346.397	84.5
346.625	93.5
346.853	79.5
347.08	100.5
347.308	93.5
347.535	78.5
347.763	78.5
347.99	85.5
348.218	89.5
348.445	75.5
348.673	83.5
348.9	95.5
349.128	94.5
349.355	74.5
349.583	75.5
349.81	84.5
350.037	90.5
350.265	79.5
350.492	100.5
350.72	85.5
350.947	80.5
351.174	77.5
351.402	81.5
351.629	78.5
351.856	84.5
352.083	80.5
352.311	89.5
352.538	83.5
352.765	98.5
352.992	81.5
353.22	90.5
353.447	87.5
353.674	72.5
353.901	85.5
354.128	93.5
354.355	97.5
354.583	92.5
354.81	91.5
355.037	90.5
355.264	83.5
355.491	86.5
355.718	89.5
355.945	94.5
356.172	83.5
356.399	83.5
356.626	78.5
356.853	91.5
357.08	97.5
357.307	84.5
357.534	88.5
357.761	89.5
357.988	97.5
358.215	84.5
358.441	91.5
358.668	97.5
358.895	85.5
359.122	79.5
359.349	86.5
359.576	73.5
359.802	73.5
360.029	78.5
360.256	73.5
360.483	91.5
360.709	85.5
360.936	92.5
361.163	97.5
361.39	85.5
361.616	93.5
361.843	87.5
362.07	85.5
362.296	89.5
362.523	112.5
362.749	98.5
362.976	93.5
363.203	90.5
363.429	97.5
363.656	91.5
363.882	98.5
364.109	97.5
364.335	100.5
364.562	100.5
364.788	82.5
365.015	83.5
365.241	96.5
365.468	87.5
365.694	73.5
365.92	90.5
366.147	80.5
366.373	80.5
366.599	72.5
366.826	78.5
367.052	85.5
367.278	73.5
367.505	85.5
367.731	92.5
367.957	79.5
368.184	82.5
368.41	99.5
368.636	94.5
368.862	65.5
369.089	83.5
369.315	87.5
369.541	72.5
369.767	90.5
369.993	68.5
370.219	70.5
370.445	79.5
370.672	83.5
370.898	90.5
371.124	96.5
371.35	92.5
371.576	91.5
371.802	82.5
372.028	88.5
372.254	84.5
372.48	96.5
372.706	99.5
372.932	86.5
373.158	113.5
373.384	92.5
373.61	121.5
373.835	104.5
374.061	86.5
374.287	93.5
374.513	84.5
374.739	97.5
374.965	91.5
375.191	81.5
375.416	86.5
375.642	86.5
375.868	94.5
376.094	85.5
376.319	80.5
376.545	79.5
376.771	79.5
376.997	80.5
377.222	90.5
377.448	88.5
377.674	90.5
377.899	85.5
378.125	75.5
378.35	89.5
378.576	82.5
378.802	79.5
379.027	93.5
379.253	94.5
379.478	99.5
379.704	101.5
379.929	91.5
380.155	75.5
380.38	93.5
380.606	93.5
380.831	74.5
381.057	111.5
381.282	76.5
381.507	95.5
381.733	97.5
381.958	88.5
382.184	89.5
382.409	94.5
382.634	87.5
382.86	106.5
383.085	90.5
383.31	88.5
383.535	88.5
383.761	94.5
383.986	95.5
384.211	87.5
384.436	88.5
384.662	78.5
384.887	73.5
385.112	83.5
385.337	86.5
385.562	100.5
385.787	93.5
386.013	89.5
386.238	79.5
386.463	87.5
386.688	98.5
386.913	81.5
387.138	83.5
387.363	94.5
387.588	95.5
387.813	97.5
388.038	96.5
388.263	90.5
388.488	91.5
388.713	89.5
388.938	93.5
389.163	68.5
389.387	90.5
389.612	62.5
389.837	99.5
390.062	76.5
390.287	86.5
390.512	88.5
390.736	94.5
390.961	81.5
391.186	76.5
391.411	79.5
391.636	90.5
391.86	94.5
392.085	93.5
392.31	98.5
392.534	93.5
392.759	98.5
392.984	137.5
393.208	218.5
393.433	253.5
393.658	219.5
393.882	124.5
394.107	101.5
394.331	106.5
394.556	104.5
394.78	75.5
395.005	94.5
395.229	85.5
395.454	96.5
395.678	75.5
395.903	105.5
396.127	105.5
396.352	125.5
396.576	153.5
396.801	186.5
397.025	219.5
397.249	135.5
397.474	123.5
397.698	88.5
397.922	88.5
398.147	80.5
398.371	81.5
398.595	94.5
398.82	87.5
399.044	75.5
399.268	83.5
399.492	80.5
399.717	82.5
399.941	82.5
400.165	97.5
400.389	76.5
400.613	68.5
400.837	83.5
401.062	79.5
401.286	81.5
401.51	84.5
401.734	75.5
401.958	71.5
402.182	79.5
402.406	81.5
402.63	74.5
402.854	79.5
403.078	75.5
403.302	94.5
403.526	88.5
403.75	93.5
403.974	79.5
404.198	92.5
404.422	87.5
404.645	109.5
404.869	73.5
405.093	97.5
405.317	77.5
405.541	89.5
405.765	93.5
405.988	97.5
406.212	93.5
406.436	94.5
406.66	80.5
406.883	70.5
407.107	77.5
407.331	85.5
407.555	101.5
407.778	96.5
408.002	99.5
408.226	80.5
408.449	81.5
408.673	72.5
408.896	81.5
409.12	85.5
409.344	89.5
409.567	79.5
409.791	105.5
410.014	93.5
410.238	90.5
410.461	79.5
410.685	85.5
410.908	82.5
411.132	76.5
411.355	84.5
411.578	88.5
411.802	85.5
412.025	95.5
412.249	83.5
412.472	78.5
412.695	77.5
412.919	79.5
413.142	81.5
413.365	86.5
413.589	89.5
413.812	73.5
414.035	97.5
414.258	81.5
414.482	94.5
414.705	73.5
414.928	76.5
415.151	73.5
415.374	79.5
415.597	77.5
415.821	66.5
416.044	81.5
416.267	85.5
416.49	95.5
416.713	94.5
416.936	78.5
417.159	82.5
417.382	74.5
417.605	91.5
417.828	85.5
418.051	68.5
418.274	77.5
418.497	87.5
418.72	77.5
418.943	79.5
419.166	94.5
419.389	81.5
419.611	71.5
419.834	90.5
420.057	73.5
420.28	83.5
420.503	86.5
420.726	63.5
420.948	84.5
421.171	87.5
421.394	88.5
421.617	97.5
421.839	93.5
422.062	110.5
422.285	127.5
422.507	196.5
422.73	265.5
422.953	243.5
423.175	154.5
423.398	109.5
423.621	89.5
423.843	106.5
424.066	95.5
424.288	90.5
424.511	91.5
424.733	70.5
424.956	102.5
425.178	89.5
425.401	77.5
425.623	87.5
425.846	78.5
426.068	91.5
426.291	86.5
426.513	74.5
426.735	79.5
426.958	73.5
427.18	88.5
427.402	84.5
427.625	89.5
427.847	78.5
428.069	94.5
428.292	101.5
428.514	121.5
428.736	113.5
428.958	114.5
429.181	104.5
429.403	98.5
429.625	88.5
429.847	114.5
430.069	121.5
430.292	138.5
430.514	143.5
430.736	113.5
430.958	138.5
431.18	96.5
431.402	85.5
431.624	100.5
431.846	103.5
432.068	116.5
432.29	94.5
432.512	92.5
432.734	83.5
432.956	86.5
433.178	93.5
433.4	75.5
433.622	78.5
433.844	87.5
434.066	93.5
434.287	68.5
434.509	88.5
434.731	91.5
434.953	81.5
435.175	78.5
435.397	77.5
435.618	72.5
435.84	71.5
436.062	98.5
436.284	67.5
436.505	86.5
436.727	93.5
436.949	81.5
437.17	75.5
437.392	85.5
437.614	81.5
437.835	81.5
438.057	83.5
438.278	90.5
438.5	86.5
438.721	75.5
438.943	87.5
439.165	90.5
439.386	66.5
439.608	91.5
439.829	81.5
440.05	80.5
440.272	88.5
440.493	93.5
440.715	77.5
440.936	96.5
441.158	87.5
441.379	79.5
441.6	77.5
441.822	88.5
442.043	89.5
442.264	97.5
442.486	114.5
442.707	139.5
442.928	104.5
443.149	101.5
443.371	106.5
443.592	192.5
443.813	168.5
444.034	95.5
444.255	87.5
444.476	85.5
444.698	85.5
444.919	91.5
445.14	173.5
445.361	179.5
445.582	218.5
445.803	179.5
446.024	119.5
446.245	91.5
446.466	85.5
446.687	80.5
446.908	85.5
447.129	73.5
447.35	91.5
447.571	98.5
447.792	76.5
448.013	87.5
448.234	81.5
448.455	81.5
448.675	68.5
448.896	85.5
449.117	94.5
449.338	82.5
449.559	77.5
449.779	88.5
450	75.5
450.221	84.5
450.442	80.5
450.662	80.5
450.883	81.5
451.104	87.5
451.324	85.5
451.545	70.5
451.766	81.5
451.986	84.5
452.207	97.5
452.428	88.5
452.648	91.5
452.869	75.5
453.089	83.5
453.31	78.5
453.53	91.5
453.751	96.5
453.971	79.5
454.192	80.5
454.412	75.5
454.633	84.5
454.853	90.5
455.073	72.5
455.294	87.5
455.514	83.5
455.734	88.5
455.955	81.5
456.175	82.5
456.395	85.5
456.616	58.5
456.836	93.5
457.056	83.5
457.276	77.5
457.497	94.5
457.717	81.5
457.937	91.5
458.157	100.5
458.377	107.5
458.598	113.5
458.818	113.5
459.038	103.5
459.258	76.5
459.478	87.5
459.698	80.5
459.918	84.5
460.138	72.5
460.358	69.5
460.578	87.5
460.798	93.5
461.018	100.5
461.238	88.5
461.458	89.5
461.678	84.5
461.898	75.5
462.118	81.5
462.338	68.5
462.558	71.5
462.777	78.5
462.997	75.5
463.217	79.5
463.437	75.5
463.657	82.5
463.876	79.5
464.096	77.5
464.316	75.5
464.536	75.5
464.755	88.5
464.975	87.5
465.195	88.5
465.414	95.5
465.634	76.5
465.854	81.5
466.073	75.5
466.293	73.5
466.512	90.5
466.732	85.5
466.951	73.5
467.171	82.5
467.391	84.5
467.61	78.5
467.829	90.5
468.049	86.5
468.268	96.5
468.488	88.5
468.707	83.5
468.927	71.5
469.146	81.5
469.365	82.5
469.585	84.5
469.804	75.5
470.023	72.5
470.243	82.5
470.462	87.5
470.681	84.5
470.901	71.5
471.12	83.5
471.339	74.5
471.558	77.5
471.777	76.5
471.997	90.5
472.216	71.5
472.435	89.5
472.654	90.5
472.873	80.5
473.092	83.5
473.311	66.5
473.53	72.5
473.749	84.5
473.968	77.5
474.187	85.5
474.406	81.5
474.625	83.5
474.844	89.5
475.063	79.5
475.282	71.5
475.501	62.5
475.72	90.5
475.939	86.5
476.158	85.5
476.377	82.5
476.596	81.5
476.814	90.5
477.033	82.5
477.252	73.5
477.471	69.5
477.69	76.5
477.908	62.5
478.127	85.5
478.346	81.5
478.564	95.5
478.783	92.5
479.002	77.5
479.22	70.5
479.439	79.5
479.658	76.5
479.876	75.5
480.095	82.5
480.313	85.5
480.532	89.5
480.751	78.5
480.969	68.5
481.188	81.5
481.406	72.5
481.624	77.5
481.843	73.5
482.061	70.5
482.28	95.5
482.498	91.5
482.717	90.5
482.935	86.5
483.153	103.5
483.372	81.5
483.59	85.5
483.808	80.5
484.027	80.5
484.245	78.5
484.463	72.5
484.681	81.5
484.9	70.5
485.118	89.5
485.336	71.5
485.554	86.5
485.772	85.5
485.99	90.5
486.209	80.5
486.427	82.5
486.645	78.5
486.863	94.5
487.081	87.5
487.299	89.5
487.517	94.5
487.735	94.5
487.953	138.5
488.171	133.5
488.389	95.5
488.607	85.5
488.825	74.5
489.043	73.5
489.261	79.5
489.479	87.5
489.696	77.5
489.914	81.5
490.132	89.5
490.35	83.5
490.568	92.5
490.786	94.5
491.003	81.5
491.221	82.5
491.439	77.5
491.657	81.5
491.874	81.5
492.092	69.5
492.31	75.5
492.527	97.5
492.745	83.5
492.963	100.5
493.18	87.5
493.398	75.5
493.615	85.5
493.833	79.5
494.05	96.5
494.268	82.5
494.485	79.5
494.703	90.5
494.92	75.5
495.138	84.5
495.355	73.5
495.573	90.5
495.79	83.5
496.008	79.5
496.225	79.5
496.442	97.5
496.66	91.5
496.877	81.5
497.094	78.5
497.312	77.5
497.529	81.5
497.746	79.5
497.963	95.5
498.181	90.5
498.398	91.5
498.615	79.5
498.832	84.5
499.049	105.5
499.267	79.5
499.484	87.5
499.701	94.5
499.918	91.5
500.135	107.5
500.352	95.5
500.569	84.5
500.786	79.5
501.003	99.5
501.22	80.5
501.437	92.5
501.654	73.5
501.871	83.5
502.088	77.5
502.305	85.5
502.522	80.5
502.739	94.5
502.956	76.5
503.172	79.5
503.389	87.5
503.606	82.5
503.823	97.5
504.04	100.5
504.256	121.5
504.473	114.5
504.69	79.5
504.907	89.5
505.123	89.5
505.34	84.5
505.557	91.5
505.773	88.5
505.99	91.5
506.207	85.5
506.423	83.5
506.64	86.5
506.856	91.5
507.073	72.5
507.289	88.5
507.506	89.5
507.722	80.5
507.939	86.5
508.155	87.5
508.372	97.5
508.588	91.5
508.805	91.5
509.021	99.5
509.238	74.5
509.454	79.5
509.67	76.5
509.887	84.5
510.103	85.5
510.319	77.5
510.536	86.5
510.752	88.5
510.968	85.5
511.184	67.5
511.401	101.5
511.617	84.5
511.833	90.5
512.049	79.5
512.265	86.5
512.481	86.5
512.698	86.5
512.914	92.5
513.13	87.5
513.346	86.5
513.562	76.5
513.778	86.5
513.994	83.5
514.21	91.5
514.426	84.5
514.642	75.5
514.858	81.5
515.074	83.5
515.29	90.5
515.506	89.5
515.721	88.5
515.937	94.5
516.153	83.5
516.369	81.5
516.585	76.5
516.801	92.5
517.016	75.5
517.232	78.5
517.448	92.5
517.664	85.5
517.879	87.5
518.095	93.5
518.311	76.5
518.527	103.5
518.742	101.5
518.958	134.5
519.173	127.5
519.389	91.5
519.605	87.5
519.82	89.5
520.036	87.5
520.251	85.5
520.467	89.5
520.682	80.5
520.898	90.5
521.113	77.5
521.329	97.5
521.544	96.5
521.76	86.5
521.975	77.5
522.19	90.5
522.406	104.5
522.621	73.5
522.836	97.5
523.052	101.5
523.267	78.5
523.482	87.5
523.698	85.5
523.913	73.5
524.128	75.5
524.343	89.5
524.559	91.5
524.774	84.5
524.989	90.5
525.204	92.5
525.419	78.5
525.634	73.5
525.849	98.5
526.064	103.5
526.28	167.5
526.495	223.5
526.71	243.5
526.925	146.5
527.14	201.5
527.355	197.5
527.57	106.5
527.785	92.5
527.999	72.5
528.214	72.5
528.429	87.5
528.644	86.5
528.859	89.5
529.074	85.5
529.289	88.5
529.503	81.5
529.718	78.5
529.933	73.5
530.148	100.5
530.363	93.5
530.577	93.5
530.792	78.5
531.007	73.5
531.221	79.5
531.436	87.5
531.651	89.5
531.865	74.5
532.08	85.5
532.295	82.5
532.509	90.5
532.724	93.5
532.938	89.5
533.153	100.5
533.367	93.5
533.582	95.5
533.796	89.5
534.011	99.5
534.225	94.5
534.44	92.5
534.654	97.5
534.868	88.5
535.083	139.5
535.297	125.5
535.511	114.5
535.726	109.5
535.94	99.5
536.154	104.5
536.369	85.5
536.583	89.5
536.797	88.5
537.011	78.5
537.225	88.5
537.44	88.5
537.654	104.5
537.868	96.5
538.082	91.5
538.296	83.5
538.51	91.5
538.724	87.5
538.938	90.5
