Data from 237_2_HRD10591_00029.txt Node
Date: Mon Jan 19 14:11:45 EST 2026
User: Yrep
Spectrometer: HR+D1059
Trigger mode: 1
Integration Time (sec): 1.000000E-1
Scans to average: 1
Electric dark correction enabled: true
Nonlinearity correction enabled: false
Boxcar width: 0
XAxis mode: Wavelengths
Number of Pixels in Spectrum: 2048
>>>>>Begin Spectral Data<<<<<
223.165	-27
223.4	-27
223.635	-27
223.869	-13
224.104	-28
224.338	-13
224.573	-8
224.808	-13
225.042	-11
225.277	-19
225.511	-1
225.746	12
225.98	3
226.215	16
226.449	14
226.683	31
226.918	25
227.152	32
227.387	36
227.621	44
227.856	43
228.09	38
228.324	53
228.559	61
228.793	56
229.027	59
229.262	70
229.496	66
229.73	59
229.964	71
230.199	71
230.433	78
230.667	62
230.901	77
231.136	71
231.37	83
231.604	72
231.838	83
232.072	71
232.306	90
232.541	85
232.775	85
233.009	80
233.243	79
233.477	76
233.711	77
233.945	79
234.179	76
234.413	82
234.647	67
234.881	78
235.115	69
235.349	87
235.583	73
235.817	84
236.051	82
236.285	76
236.519	81
236.753	66
236.987	76
237.221	78
237.455	83
237.689	74
237.922	69
238.156	71
238.39	67
238.624	81
238.858	68
239.091	82
239.325	74
239.559	65
239.793	79
240.027	83
240.26	73
240.494	75
240.728	67
240.961	69
241.195	65
241.429	72
241.662	83
241.896	75
242.13	60
242.363	69
242.597	79
242.83	71
243.064	70
243.298	66
243.531	70
243.765	71
243.998	61
244.232	67
244.465	77
244.699	89
244.932	89
245.166	64
245.399	76
245.633	71
245.866	78
246.099	72
246.333	80
246.566	76
246.8	81
247.033	83
247.266	78
247.5	76
247.733	87
247.966	77
248.2	76
248.433	70
248.666	73
248.899	67
249.133	85
249.366	72
249.599	82
249.832	82
250.066	83
250.299	77
250.532	83
250.765	81
250.998	73
251.231	68
251.465	84
251.698	83
251.931	84
252.164	67
252.397	70
252.63	74
252.863	85
253.096	77
253.329	79
253.562	66
253.795	91
254.028	78
254.261	71
254.494	84
254.727	73
254.96	79
255.193	75
255.426	66
255.659	83
255.892	89
256.124	85
256.357	82
256.59	81
256.823	101
257.056	67
257.289	83
257.521	69
257.754	80
257.987	63
258.22	67
258.452	78
258.685	79
258.918	60
259.151	76
259.383	60
259.616	84
259.849	73
260.081	78
260.314	95
260.547	79
260.779	77
261.012	78
261.244	81
261.477	85
261.71	63
261.942	82
262.175	69
262.407	71
262.64	68
262.872	87
263.105	81
263.337	87
263.57	81
263.802	74
264.035	75
264.267	79
264.499	70
264.732	75
264.964	76
265.197	84
265.429	87
265.661	81
265.894	67
266.126	78
266.358	69
266.591	69
266.823	76
267.055	72
267.287	79
267.52	68
267.752	74
267.984	69
268.216	83
268.448	79
268.681	67
268.913	74
269.145	78
269.377	75
269.609	72
269.841	69
270.073	77
270.306	68
270.538	63
270.77	78
271.002	68
271.234	81
271.466	84
271.698	85
271.93	80
272.162	72
272.394	83
272.626	88
272.858	84
273.09	86
273.322	74
273.553	73
273.785	63
274.017	70
274.249	79
274.481	71
274.713	81
274.945	84
275.176	66
275.408	85
275.64	69
275.872	70
276.104	74
276.335	72
276.567	77
276.799	78
277.031	79
277.262	84
277.494	69
277.726	81
277.957	67
278.189	77
278.421	96
278.652	90
278.884	74
279.115	68
279.347	83
279.579	93
279.81	100
280.042	70
280.273	74
280.505	99
280.736	85
280.968	66
281.199	76
281.431	78
281.662	76
281.894	82
282.125	85
282.356	79
282.588	73
282.819	79
283.051	85
283.282	82
283.513	67
283.745	82
283.976	67
284.207	84
284.439	81
284.67	86
284.901	79
285.132	86
285.364	76
285.595	88
285.826	77
286.057	87
286.288	73
286.52	85
286.751	71
286.982	84
287.213	75
287.444	85
287.675	85
287.906	78
288.138	103
288.369	88
288.6	83
288.831	82
289.062	72
289.293	74
289.524	83
289.755	77
289.986	72
290.217	77
290.448	84
290.679	85
290.91	75
291.141	84
291.371	85
291.602	79
291.833	80
292.064	70
292.295	81
292.526	81
292.757	78
292.987	85
293.218	74
293.449	74
293.68	96
293.91	72
294.141	75
294.372	82
294.603	84
294.833	88
295.064	84
295.295	83
295.525	78
295.756	92
295.987	68
296.217	85
296.448	80
296.679	87
296.909	77
297.14	88
297.37	95
297.601	71
297.831	77
298.062	72
298.292	83
298.523	77
298.753	82
298.984	75
299.214	85
299.445	69
299.675	82
299.905	93
300.136	89
300.366	100
300.597	70
300.827	84
301.057	75
301.288	95
301.518	91
301.748	71
301.979	96
302.209	56
302.439	76
302.669	91
302.9	77
303.13	81
303.36	88
303.59	82
303.82	91
304.051	77
304.281	87
304.511	82
304.741	90
304.971	81
305.201	77
305.431	71
305.661	97
305.891	72
306.121	80
306.352	73
306.582	84
306.812	92
307.042	82
307.272	79
307.502	93
307.731	81
307.961	85
308.191	104
308.421	93
308.651	86
308.881	88
309.111	85
309.341	95
309.571	107
309.8	98
310.03	89
310.26	94
310.49	87
310.72	71
310.949	73
311.179	87
311.409	87
311.639	84
311.868	76
312.098	73
312.328	99
312.557	83
312.787	84
313.017	77
313.246	82
313.476	79
313.706	82
313.935	77
314.165	73
314.394	94
314.624	92
314.853	73
315.083	83
315.312	95
315.542	83
315.771	95
316.001	95
316.23	95
316.46	78
316.689	83
316.919	98
317.148	74
317.377	87
317.607	91
317.836	77
318.065	99
318.295	83
318.524	82
318.753	88
318.983	77
319.212	97
319.441	78
319.67	83
319.9	90
320.129	83
320.358	84
320.587	74
320.816	66
321.046	79
321.275	84
321.504	81
321.733	93
321.962	95
322.191	77
322.42	89
322.649	91
322.878	86
323.108	80
323.337	74
323.566	77
323.795	77
324.024	84
324.253	75
324.482	78
324.71	82
324.939	88
325.168	82
325.397	79
325.626	80
325.855	85
326.084	80
326.313	67
326.542	81
326.77	73
326.999	83
327.228	83
327.457	74
327.686	65
327.914	84
328.143	81
328.372	79
328.6	80
328.829	91
329.058	80
329.287	71
329.515	79
329.744	92
329.972	97
330.201	88
330.43	83
330.658	75
330.887	77
331.115	73
331.344	86
331.572	80
331.801	80
332.03	92
332.258	73
332.486	80
332.715	82
332.943	82
333.172	81
333.4	83
333.629	75
333.857	71
334.085	92
334.314	85
334.542	91
334.771	100
334.999	88
335.227	98
335.455	90
335.684	89
335.912	80
336.14	82
336.369	84
336.597	89
336.825	85
337.053	87
337.281	91
337.51	92
337.738	84
337.966	74
338.194	75
338.422	74
338.65	94
338.878	91
339.106	88
339.334	94
339.562	80
339.79	81
340.018	96
340.246	74
340.474	77
340.702	84
340.93	79
341.158	84
341.386	83
341.614	80
341.842	79
342.07	83
342.298	73
342.526	78
342.754	90
342.981	82
343.209	76
343.437	81
343.665	85
343.893	84
344.12	84
344.348	107
344.576	95
344.804	81
345.031	89
345.259	77
345.487	80
345.714	87
345.942	76
346.17	85
346.397	75
346.625	94
346.853	79
347.08	84
347.308	95
347.535	83
347.763	85
347.99	84
348.218	76
348.445	79
348.673	75
348.9	85
349.128	89
349.355	79
349.583	83
349.81	81
350.037	72
350.265	80
350.492	102
350.72	81
350.947	82
351.174	76
351.402	70
351.629	78
351.856	73
352.083	84
352.311	92
352.538	78
352.765	71
352.992	81
353.22	73
353.447	76
353.674	94
353.901	93
354.128	85
354.355	71
354.583	72
354.81	90
355.037	88
355.264	97
355.491	67
355.718	75
355.945	81
356.172	92
356.399	95
356.626	92
356.853	73
357.08	94
357.307	80
357.534	74
357.761	93
357.988	80
358.215	97
358.441	95
358.668	81
358.895	76
359.122	78
359.349	95
359.576	78
359.802	83
360.029	80
360.256	84
360.483	86
360.709	83
360.936	98
361.163	80
361.39	85
361.616	85
361.843	92
362.07	84
362.296	100
362.523	95
362.749	93
362.976	124
363.203	124
363.429	105
363.656	85
363.882	83
364.109	116
364.335	131
364.562	140
364.788	104
365.015	95
365.241	95
365.468	87
365.694	91
365.92	81
366.147	82
366.373	66
366.599	95
366.826	73
367.052	79
367.278	84
367.505	84
367.731	89
367.957	69
368.184	91
368.41	76
368.636	89
368.862	96
369.089	80
369.315	72
369.541	84
369.767	85
369.993	85
370.219	81
370.445	81
370.672	79
370.898	99
371.124	77
371.35	83
371.576	79
371.802	72
372.028	89
372.254	81
372.48	71
372.706	79
372.932	73
373.158	73
373.384	101
373.61	105
373.835	108
374.061	93
374.287	93
374.513	107
374.739	94
374.965	103
375.191	93
375.416	93
375.642	94
375.868	81
376.094	119
376.319	95
376.545	95
376.771	100
376.997	76
377.222	84
377.448	85
377.674	83
377.899	88
378.125	77
378.35	79
378.576	101
378.802	85
379.027	86
379.253	94
379.478	70
379.704	76
379.929	103
380.155	79
380.38	88
380.606	83
380.831	84
381.057	89
381.282	91
381.507	94
381.733	84
381.958	85
382.184	104
382.409	94
382.634	111
382.86	95
383.085	88
383.31	100
383.535	90
383.761	87
383.986	100
384.211	102
384.436	98
384.662	83
384.887	94
385.112	83
385.337	85
385.562	81
385.787	84
386.013	98
386.238	93
386.463	91
386.688	96
386.913	96
387.138	76
387.363	106
387.588	104
387.813	83
388.038	81
388.263	95
388.488	101
388.713	92
388.938	81
389.163	93
389.387	79
389.612	79
389.837	79
390.062	76
390.287	95
390.512	80
390.736	80
390.961	84
391.186	101
391.411	84
391.636	89
391.86	93
392.085	77
392.31	105
392.534	91
392.759	128
392.984	163
393.208	256
393.433	363
393.658	283
393.882	143
394.107	112
394.331	126
394.556	127
394.78	103
395.005	98
395.229	97
395.454	96
395.678	114
395.903	123
396.127	143
396.352	161
396.576	175
396.801	274
397.025	321
397.249	170
397.474	127
397.698	96
397.922	72
398.147	83
398.371	82
398.595	94
398.82	100
399.044	85
399.268	87
399.492	89
399.717	73
399.941	83
400.165	86
400.389	96
400.613	73
400.837	102
401.062	77
401.286	82
401.51	79
401.734	77
401.958	80
402.182	78
402.406	83
402.63	73
402.854	85
403.078	82
403.302	97
403.526	83
403.75	78
403.974	90
404.198	87
404.422	109
404.645	114
404.869	99
405.093	82
405.317	83
405.541	83
405.765	70
405.988	91
406.212	70
406.436	79
406.66	70
406.883	70
407.107	88
407.331	84
407.555	108
407.778	110
408.002	111
408.226	83
408.449	90
408.673	80
408.896	79
409.12	87
409.344	90
409.567	96
409.791	90
410.014	119
410.238	88
410.461	74
410.685	87
410.908	78
411.132	87
411.355	78
411.578	102
411.802	72
412.025	79
412.249	88
412.472	79
412.695	74
412.919	77
413.142	91
413.365	76
413.589	72
413.812	88
414.035	88
414.258	74
414.482	89
414.705	77
414.928	81
415.151	97
415.374	81
415.597	74
415.821	78
416.044	84
416.267	83
416.49	76
416.713	67
416.936	84
417.159	80
417.382	91
417.605	83
417.828	65
418.051	83
418.274	86
418.497	85
418.72	84
418.943	95
419.166	95
419.389	95
419.611	86
419.834	74
420.057	82
420.28	86
420.503	83
420.726	69
420.948	80
421.171	74
421.394	99
421.617	118
421.839	117
422.062	139
422.285	172
422.507	283
422.73	429
422.953	375
423.175	211
423.398	119
423.621	99
423.843	85
424.066	101
424.288	98
424.511	75
424.733	94
424.956	74
425.178	79
425.401	82
425.623	79
425.846	83
426.068	80
426.291	81
426.513	72
426.735	81
426.958	81
427.18	74
427.402	98
427.625	95
427.847	98
428.069	101
428.292	136
428.514	152
428.736	120
428.958	138
429.181	130
429.403	105
429.625	109
429.847	133
430.069	180
430.292	197
430.514	178
430.736	155
430.958	157
431.18	88
431.402	83
431.624	94
431.846	125
432.068	145
432.29	108
432.512	89
432.734	87
432.956	80
433.178	92
433.4	85
433.622	72
433.844	93
434.066	79
434.287	60
434.509	81
434.731	86
434.953	78
435.175	90
435.397	81
435.618	78
435.84	88
436.062	66
436.284	74
436.505	70
436.727	83
436.949	77
437.17	73
437.392	77
437.614	85
437.835	80
438.057	67
438.278	85
438.5	98
438.721	83
438.943	95
439.165	81
439.386	87
439.608	64
439.829	88
440.05	81
440.272	90
440.493	83
440.715	90
440.936	73
441.158	86
441.379	76
441.6	85
441.822	88
442.043	95
442.264	91
442.486	148
442.707	191
442.928	134
443.149	119
443.371	171
443.592	303
443.813	239
444.034	119
444.255	91
444.476	78
444.698	91
444.919	95
445.14	206
445.361	228
445.582	345
445.803	302
446.024	134
446.245	96
446.466	92
446.687	84
446.908	78
447.129	78
447.35	81
447.571	89
447.792	87
448.013	96
448.234	81
448.455	79
448.675	80
448.896	71
449.117	96
449.338	71
449.559	91
449.779	76
450	74
450.221	84
450.442	69
450.662	74
450.883	83
451.104	80
451.324	83
451.545	73
451.766	94
451.986	94
452.207	90
452.428	91
452.648	96
452.869	96
453.089	91
453.31	100
453.53	97
453.751	84
453.971	83
454.192	67
454.412	82
454.633	84
454.853	85
455.073	81
455.294	102
455.514	80
455.734	83
455.955	83
456.175	82
456.395	82
456.616	82
456.836	88
457.056	81
457.276	74
457.497	85
457.717	91
457.937	111
458.157	118
458.377	133
458.598	124
458.818	134
459.038	111
459.258	93
459.478	90
459.698	71
459.918	77
460.138	82
460.358	81
460.578	89
460.798	114
461.018	115
461.238	75
461.458	84
461.678	90
461.898	72
462.118	93
462.338	90
462.558	79
462.777	79
462.997	80
463.217	79
463.437	73
463.657	79
463.876	83
464.096	72
464.316	81
464.536	71
464.755	87
464.975	75
465.195	81
465.414	78
465.634	79
465.854	83
466.073	77
466.293	84
466.512	75
466.732	77
466.951	101
467.171	70
467.391	68
467.61	82
467.829	91
468.049	77
468.268	78
468.488	78
468.707	86
468.927	73
469.146	89
469.365	77
469.585	82
469.804	94
470.023	66
470.243	83
470.462	79
470.681	80
470.901	72
471.12	72
471.339	88
471.558	83
471.777	80
471.997	83
472.216	79
472.435	86
472.654	79
472.873	87
473.092	71
473.311	92
473.53	87
473.749	85
473.968	80
474.187	85
474.406	78
474.625	79
474.844	74
475.063	79
475.282	90
475.501	83
475.72	86
475.939	88
476.158	86
476.377	78
476.596	81
476.814	86
477.033	90
477.252	81
477.471	85
477.69	74
477.908	81
478.127	82
478.346	80
478.564	79
478.783	75
479.002	82
479.22	82
479.439	81
479.658	84
479.876	94
480.095	93
480.313	76
480.532	82
480.751	86
480.969	83
481.188	77
481.406	67
481.624	72
481.843	77
482.061	91
482.28	82
482.498	88
482.717	86
482.935	97
483.153	89
483.372	86
483.59	98
483.808	84
484.027	93
484.245	76
484.463	85
484.681	81
484.9	82
485.118	83
485.336	72
485.554	87
485.772	84
485.99	86
486.209	88
486.427	69
486.645	77
486.863	84
487.081	77
487.299	81
487.517	96
487.735	119
487.953	193
488.171	140
488.389	109
488.607	93
488.825	68
489.043	86
489.261	77
489.479	94
489.696	84
489.914	91
490.132	91
490.35	98
490.568	67
490.786	82
491.003	71
491.221	82
491.439	81
491.657	92
491.874	79
492.092	95
492.31	82
492.527	77
492.745	88
492.963	94
493.18	85
493.398	86
493.615	93
493.833	88
494.05	87
494.268	91
494.485	82
494.703	89
494.92	93
495.138	84
495.355	92
495.573	97
495.79	79
496.008	96
496.225	93
496.442	87
496.66	91
496.877	81
497.094	78
497.312	83
497.529	90
497.746	91
497.963	96
498.181	101
498.398	117
498.615	80
498.832	84
499.049	81
499.267	111
499.484	107
499.701	74
499.918	88
500.135	93
500.352	88
500.569	93
500.786	96
501.003	92
501.22	83
501.437	82
501.654	102
501.871	81
502.088	68
502.305	70
502.522	94
502.739	86
502.956	75
503.172	85
503.389	103
503.606	81
503.823	104
504.04	102
504.256	138
504.473	159
504.69	93
504.907	99
505.123	84
505.34	77
505.557	93
505.773	86
505.99	100
506.207	88
506.423	82
506.64	77
506.856	72
507.073	85
507.289	75
507.506	77
507.722	78
507.939	89
508.155	83
508.372	99
508.588	77
508.805	82
509.021	78
509.238	66
509.454	93
509.67	78
509.887	87
510.103	91
510.319	88
510.536	75
510.752	81
510.968	77
511.184	65
511.401	78
511.617	83
511.833	83
512.049	77
512.265	77
512.481	88
512.698	82
512.914	73
513.13	73
513.346	77
513.562	77
513.778	78
513.994	79
514.21	76
514.426	73
514.642	70
514.858	97
515.074	88
515.29	93
515.506	83
515.721	94
515.937	67
516.153	73
516.369	89
516.585	86
516.801	88
517.016	94
517.232	98
517.448	101
517.664	86
517.879	87
518.095	86
518.311	87
518.527	120
518.742	116
518.958	171
519.173	172
519.389	109
519.605	91
519.82	75
520.036	79
520.251	77
520.467	78
520.682	89
520.898	96
521.113	91
521.329	91
521.544	78
521.76	89
521.975	80
522.19	99
522.406	71
522.621	71
522.836	93
523.052	79
523.267	99
523.482	87
523.698	85
523.913	78
524.128	93
524.343	81
524.559	90
524.774	102
524.989	73
525.204	95
525.419	73
525.634	88
525.849	97
526.064	132
526.28	253
526.495	349
526.71	399
526.925	237
527.14	325
527.355	293
527.57	111
527.785	95
527.999	83
528.214	89
528.429	91
528.644	79
528.859	76
529.074	87
529.289	79
529.503	70
529.718	98
529.933	83
530.148	93
530.363	93
530.577	81
530.792	77
531.007	95
531.221	101
531.436	86
531.651	95
531.865	89
532.08	93
532.295	82
532.509	87
532.724	80
532.938	79
533.153	79
533.367	88
533.582	97
533.796	85
534.011	88
534.225	100
534.44	93
534.654	99
534.868	107
535.083	188
535.297	154
535.511	103
535.726	88
535.94	78
536.154	78
536.369	90
536.583	98
536.797	105
537.011	85
537.225	88
537.44	86
537.654	90
537.868	101
538.082	85
538.296	93
538.51	104
538.724	89
538.938	102
539.153	94
539.367	104
539.581	74
539.795	96
540.009	88
540.222	97
540.436	98
540.65	104
540.864	88
541.078	96
541.292	88
541.506	89
541.72	96
541.934	87
542.147	83
542.361	97
542.575	89
542.789	101
543.002	95
543.216	98
543.43	101
543.644	102
543.857	94
544.071	90
544.285	92
544.498	79
544.712	81
544.925	102
545.139	96
545.352	93
545.566	94
545.779	94
545.993	87
546.206	113
546.42	102
546.633	112
546.847	115
547.06	118
547.274	120
547.487	141
547.7	145
547.914	131
548.127	147
548.34	155
548.554	149
548.767	143
548.98	152
549.193	150
549.407	171
549.62	167
549.833	155
550.046	172
550.259	184
550.473	175
550.686	187
550.899	194
551.112	230
551.325	235
551.538	260
551.751	225
551.964	209
552.177	209
552.39	214
552.603	192
552.816	193
553.029	193
553.242	183
553.455	189
553.667	209
553.88	223
554.093	196
554.306	206
554.519	199
554.732	219
554.944	201
555.157	189
555.37	198
555.583	182
555.795	167
556.008	167
556.221	159
556.433	165
556.646	145
556.859	137
557.071	136
557.284	137
557.496	134
557.709	132
557.921	130
558.134	152
558.346	200
558.559	177
558.771	180
558.984	352
559.196	410
559.409	241
559.621	331
559.833	270
560.046	294
560.258	260
560.47	250
560.683	144
560.895	100
561.107	118
561.32	91
561.532	104
561.744	92
561.956	95
562.168	88
562.381	91
562.593	99
562.805	109
563.017	93
563.229	92
563.441	85
563.653	88
563.865	84
564.077	84
564.289	103
564.501	91
564.713	83
564.925	77
565.137	77
565.349	91
565.561	97
565.773	94
565.985	78
566.197	85
566.408	97
566.62	82
566.832	101
567.044	80
567.255	109
567.467	92
567.679	85
567.891	89
568.102	108
568.314	82
568.526	89
568.737	109
568.949	88
569.161	99
569.372	98
569.584	83
569.795	91
570.007	93
570.218	91
570.43	85
570.641	87
570.853	84
571.064	86
571.276	86
571.487	96
571.698	98
571.91	91
572.121	84
572.333	82
572.544	94
572.755	111
572.966	97
573.178	90
573.389	101
573.6	93
573.811	88
574.023	79
574.234	91
574.445	77
574.656	84
574.867	99
575.078	79
575.289	86
575.501	76
575.712	88
575.923	77
576.134	78
576.345	79
576.556	95
576.767	101
576.978	88
577.188	88
577.399	78
577.61	83
577.821	85
578.032	91
578.243	93
578.454	99
578.665	100
578.875	80
579.086	81
579.297	92
579.508	89
579.718	88
579.929	94
580.14	96
580.35	96
580.561	103
580.772	100
580.982	87
581.193	79
581.403	76
581.614	92
581.825	83
582.035	79
582.246	99
582.456	80
582.667	93
582.877	93
583.087	87
583.298	91
583.508	67
583.719	83
583.929	81
584.139	95
584.35	92
584.56	80
584.77	100
584.981	87
585.191	96
585.401	98
585.611	109
585.821	159
586.032	277
586.242	131
586.452	101
586.662	100
