Data from 237_2_HRD10591_00032.txt Node
Date: Mon Jan 19 14:11:46 EST 2026
User: Yrep
Spectrometer: HR+D1059
Trigger mode: 1
Integration Time (sec): 1.000000E-1
Scans to average: 1
Electric dark correction enabled: true
Nonlinearity correction enabled: false
Boxcar width: 0
XAxis mode: Wavelengths
Number of Pixels in Spectrum: 2048
>>>>>Begin Spectral Data<<<<<
223.165	-15.44
223.4	-15.44
223.635	-15.44
223.869	-16.44
224.104	-40.44
224.338	-11.44
224.573	-13.44
224.808	-10.44
225.042	-19.44
225.277	-16.44
225.511	-2.44
225.746	19.56
225.98	1.56
226.215	9.56
226.449	14.56
226.683	30.56
226.918	35.56
227.152	34.56
227.387	32.56
227.621	29.56
227.856	56.56
228.09	55.56
228.324	44.56
228.559	62.56
228.793	57.56
229.027	70.56
229.262	62.56
229.496	70.56
229.73	75.56
229.964	74.56
230.199	72.56
230.433	72.56
230.667	81.56
230.901	69.56
231.136	68.56
231.37	70.56
231.604	68.56
231.838	78.56
232.072	92.56
232.306	72.56
232.541	96.56
232.775	81.56
233.009	81.56
233.243	92.56
233.477	88.56
233.711	83.56
233.945	80.56
234.179	85.56
234.413	81.56
234.647	74.56
234.881	86.56
235.115	84.56
235.349	86.56
235.583	79.56
235.817	66.56
236.051	73.56
236.285	81.56
236.519	86.56
236.753	80.56
236.987	92.56
237.221	81.56
237.455	72.56
237.689	81.56
237.922	78.56
238.156	83.56
238.39	92.56
238.624	76.56
238.858	69.56
239.091	76.56
239.325	76.56
239.559	72.56
239.793	64.56
240.027	92.56
240.26	70.56
240.494	68.56
240.728	62.56
240.961	65.56
241.195	72.56
241.429	75.56
241.662	79.56
241.896	77.56
242.13	75.56
242.363	82.56
242.597	74.56
242.83	77.56
243.064	78.56
243.298	78.56
243.531	73.56
243.765	88.56
243.998	88.56
244.232	80.56
244.465	75.56
244.699	71.56
244.932	74.56
245.166	70.56
245.399	82.56
245.633	68.56
245.866	76.56
246.099	74.56
246.333	82.56
246.566	88.56
246.8	75.56
247.033	63.56
247.266	85.56
247.5	82.56
247.733	80.56
247.966	76.56
248.2	84.56
248.433	90.56
248.666	73.56
248.899	74.56
249.133	83.56
249.366	76.56
249.599	62.56
249.832	81.56
250.066	83.56
250.299	87.56
250.532	69.56
250.765	74.56
250.998	55.56
251.231	82.56
251.465	59.56
251.698	71.56
251.931	90.56
252.164	88.56
252.397	76.56
252.63	74.56
252.863	86.56
253.096	78.56
253.329	82.56
253.562	81.56
253.795	74.56
254.028	75.56
254.261	89.56
254.494	79.56
254.727	72.56
254.96	81.56
255.193	76.56
255.426	85.56
255.659	88.56
255.892	80.56
256.124	75.56
256.357	78.56
256.59	87.56
256.823	81.56
257.056	70.56
257.289	75.56
257.521	85.56
257.754	71.56
257.987	79.56
258.22	84.56
258.452	69.56
258.685	70.56
258.918	66.56
259.151	83.56
259.383	73.56
259.616	77.56
259.849	92.56
260.081	89.56
260.314	83.56
260.547	80.56
260.779	81.56
261.012	81.56
261.244	77.56
261.477	73.56
261.71	72.56
261.942	85.56
262.175	83.56
262.407	76.56
262.64	85.56
262.872	86.56
263.105	84.56
263.337	96.56
263.57	85.56
263.802	84.56
264.035	69.56
264.267	77.56
264.499	72.56
264.732	84.56
264.964	84.56
265.197	88.56
265.429	88.56
265.661	67.56
265.894	84.56
266.126	80.56
266.358	74.56
266.591	87.56
266.823	103.56
267.055	86.56
267.287	69.56
267.52	67.56
267.752	82.56
267.984	87.56
268.216	77.56
268.448	72.56
268.681	72.56
268.913	79.56
269.145	77.56
269.377	81.56
269.609	69.56
269.841	74.56
270.073	79.56
270.306	91.56
270.538	95.56
270.77	80.56
271.002	75.56
271.234	74.56
271.466	82.56
271.698	88.56
271.93	81.56
272.162	70.56
272.394	106.56
272.626	72.56
272.858	81.56
273.09	90.56
273.322	80.56
273.553	82.56
273.785	83.56
274.017	70.56
274.249	82.56
274.481	94.56
274.713	80.56
274.945	81.56
275.176	90.56
275.408	77.56
275.64	84.56
275.872	87.56
276.104	82.56
276.335	84.56
276.567	85.56
276.799	79.56
277.031	87.56
277.262	80.56
277.494	73.56
277.726	84.56
277.957	90.56
278.189	92.56
278.421	79.56
278.652	85.56
278.884	76.56
279.115	83.56
279.347	90.56
279.579	92.56
279.81	86.56
280.042	84.56
280.273	92.56
280.505	79.56
280.736	84.56
280.968	79.56
281.199	76.56
281.431	99.56
281.662	88.56
281.894	92.56
282.125	72.56
282.356	76.56
282.588	90.56
282.819	87.56
283.051	84.56
283.282	87.56
283.513	87.56
283.745	75.56
283.976	82.56
284.207	86.56
284.439	73.56
284.67	85.56
284.901	81.56
285.132	104.56
285.364	88.56
285.595	76.56
285.826	95.56
286.057	99.56
286.288	66.56
286.52	82.56
286.751	83.56
286.982	75.56
287.213	91.56
287.444	86.56
287.675	81.56
287.906	93.56
288.138	86.56
288.369	86.56
288.6	94.56
288.831	76.56
289.062	81.56
289.293	88.56
289.524	87.56
289.755	87.56
289.986	89.56
290.217	83.56
290.448	83.56
290.679	84.56
290.91	90.56
291.141	96.56
291.371	92.56
291.602	82.56
291.833	84.56
292.064	72.56
292.295	75.56
292.526	90.56
292.757	90.56
292.987	89.56
293.218	74.56
293.449	88.56
293.68	91.56
293.91	80.56
294.141	88.56
294.372	88.56
294.603	84.56
294.833	81.56
295.064	87.56
295.295	80.56
295.525	64.56
295.756	89.56
295.987	90.56
296.217	77.56
296.448	73.56
296.679	87.56
296.909	89.56
297.14	90.56
297.37	98.56
297.601	78.56
297.831	81.56
298.062	78.56
298.292	85.56
298.523	83.56
298.753	86.56
298.984	90.56
299.214	81.56
299.445	86.56
299.675	87.56
299.905	95.56
300.136	78.56
300.366	91.56
300.597	72.56
300.827	71.56
301.057	94.56
301.288	77.56
301.518	71.56
301.748	75.56
301.979	92.56
302.209	88.56
302.439	104.56
302.669	76.56
302.9	82.56
303.13	74.56
303.36	86.56
303.59	83.56
303.82	85.56
304.051	90.56
304.281	71.56
304.511	92.56
304.741	80.56
304.971	81.56
305.201	85.56
305.431	82.56
305.661	83.56
305.891	80.56
306.121	84.56
306.352	86.56
306.582	95.56
306.812	91.56
307.042	76.56
307.272	90.56
307.502	86.56
307.731	71.56
307.961	80.56
308.191	87.56
308.421	90.56
308.651	93.56
308.881	76.56
309.111	99.56
309.341	96.56
309.571	89.56
309.8	84.56
310.03	89.56
310.26	86.56
310.49	87.56
310.72	102.56
310.949	88.56
311.179	81.56
311.409	80.56
311.639	79.56
311.868	83.56
312.098	87.56
312.328	80.56
312.557	79.56
312.787	84.56
313.017	81.56
313.246	85.56
313.476	95.56
313.706	82.56
313.935	81.56
314.165	88.56
314.394	77.56
314.624	83.56
314.853	74.56
315.083	95.56
315.312	102.56
315.542	95.56
315.771	94.56
316.001	101.56
316.23	101.56
316.46	76.56
316.689	81.56
316.919	86.56
317.148	86.56
317.377	100.56
317.607	89.56
317.836	76.56
318.065	82.56
318.295	87.56
318.524	89.56
318.753	83.56
318.983	74.56
319.212	76.56
319.441	79.56
319.67	98.56
319.9	81.56
320.129	87.56
320.358	92.56
320.587	84.56
320.816	90.56
321.046	91.56
321.275	91.56
321.504	87.56
321.733	99.56
321.962	84.56
322.191	101.56
322.42	90.56
322.649	86.56
322.878	98.56
323.108	97.56
323.337	91.56
323.566	95.56
323.795	95.56
324.024	90.56
324.253	85.56
324.482	85.56
324.71	75.56
324.939	85.56
325.168	89.56
325.397	81.56
325.626	80.56
325.855	83.56
326.084	87.56
326.313	91.56
326.542	84.56
326.77	82.56
326.999	83.56
327.228	94.56
327.457	80.56
327.686	83.56
327.914	93.56
328.143	90.56
328.372	92.56
328.6	99.56
328.829	86.56
329.058	84.56
329.287	75.56
329.515	83.56
329.744	78.56
329.972	79.56
330.201	90.56
330.43	107.56
330.658	91.56
330.887	97.56
331.115	101.56
331.344	80.56
331.572	89.56
331.801	94.56
332.03	85.56
332.258	81.56
332.486	83.56
332.715	89.56
332.943	80.56
333.172	83.56
333.4	87.56
333.629	102.56
333.857	90.56
334.085	82.56
334.314	87.56
334.542	88.56
334.771	84.56
334.999	89.56
335.227	89.56
335.455	83.56
335.684	90.56
335.912	94.56
336.14	95.56
336.369	96.56
336.597	81.56
336.825	87.56
337.053	99.56
337.281	77.56
337.51	75.56
337.738	88.56
337.966	88.56
338.194	76.56
338.422	91.56
338.65	79.56
338.878	95.56
339.106	90.56
339.334	101.56
339.562	107.56
339.79	83.56
340.018	76.56
340.246	83.56
340.474	88.56
340.702	86.56
340.93	85.56
341.158	84.56
341.386	87.56
341.614	86.56
341.842	85.56
342.07	81.56
342.298	94.56
342.526	88.56
342.754	91.56
342.981	83.56
343.209	83.56
343.437	95.56
343.665	76.56
343.893	88.56
344.12	103.56
344.348	87.56
344.576	92.56
344.804	88.56
345.031	76.56
345.259	84.56
345.487	84.56
345.714	70.56
345.942	81.56
346.17	81.56
346.397	84.56
346.625	84.56
346.853	95.56
347.08	86.56
347.308	84.56
347.535	69.56
347.763	93.56
347.99	83.56
348.218	92.56
348.445	89.56
348.673	88.56
348.9	95.56
349.128	86.56
349.355	92.56
349.583	76.56
349.81	94.56
350.037	76.56
350.265	82.56
350.492	88.56
350.72	81.56
350.947	77.56
351.174	81.56
351.402	66.56
351.629	94.56
351.856	92.56
352.083	86.56
352.311	94.56
352.538	72.56
352.765	94.56
352.992	87.56
353.22	95.56
353.447	88.56
353.674	92.56
353.901	87.56
354.128	86.56
354.355	90.56
354.583	86.56
354.81	75.56
355.037	86.56
355.264	89.56
355.491	86.56
355.718	67.56
355.945	75.56
356.172	71.56
356.399	87.56
356.626	80.56
356.853	94.56
357.08	74.56
357.307	83.56
357.534	86.56
357.761	91.56
357.988	85.56
358.215	93.56
358.441	83.56
358.668	83.56
358.895	94.56
359.122	77.56
359.349	91.56
359.576	65.56
359.802	67.56
360.029	64.56
360.256	81.56
360.483	97.56
360.709	84.56
360.936	87.56
361.163	90.56
361.39	90.56
361.616	82.56
361.843	93.56
362.07	100.56
362.296	94.56
362.523	90.56
362.749	94.56
362.976	97.56
363.203	108.56
363.429	96.56
363.656	95.56
363.882	92.56
364.109	80.56
364.335	82.56
364.562	101.56
364.788	100.56
365.015	84.56
365.241	81.56
365.468	80.56
365.694	83.56
365.92	92.56
366.147	83.56
366.373	81.56
366.599	82.56
366.826	80.56
367.052	87.56
367.278	82.56
367.505	81.56
367.731	91.56
367.957	76.56
368.184	91.56
368.41	87.56
368.636	75.56
368.862	86.56
369.089	78.56
369.315	81.56
369.541	87.56
369.767	87.56
369.993	101.56
370.219	78.56
370.445	94.56
370.672	93.56
370.898	85.56
371.124	96.56
371.35	75.56
371.576	83.56
371.802	82.56
372.028	88.56
372.254	91.56
372.48	79.56
372.706	83.56
372.932	76.56
373.158	95.56
373.384	96.56
373.61	112.56
373.835	107.56
374.061	95.56
374.287	88.56
374.513	103.56
374.739	97.56
374.965	92.56
375.191	96.56
375.416	98.56
375.642	74.56
375.868	83.56
376.094	81.56
376.319	88.56
376.545	78.56
376.771	93.56
376.997	94.56
377.222	97.56
377.448	95.56
377.674	78.56
377.899	90.56
378.125	64.56
378.35	70.56
378.576	82.56
378.802	79.56
379.027	86.56
379.253	78.56
379.478	81.56
379.704	75.56
379.929	85.56
380.155	67.56
380.38	88.56
380.606	87.56
380.831	86.56
381.057	85.56
381.282	90.56
381.507	81.56
381.733	88.56
381.958	90.56
382.184	92.56
382.409	88.56
382.634	90.56
382.86	97.56
383.085	86.56
383.31	89.56
383.535	98.56
383.761	90.56
383.986	76.56
384.211	92.56
384.436	97.56
384.662	106.56
384.887	85.56
385.112	84.56
385.337	80.56
385.562	85.56
385.787	88.56
386.013	91.56
386.238	91.56
386.463	80.56
386.688	91.56
386.913	100.56
387.138	101.56
387.363	71.56
387.588	82.56
387.813	106.56
388.038	87.56
388.263	95.56
388.488	98.56
388.713	83.56
388.938	81.56
389.163	91.56
389.387	86.56
389.612	90.56
389.837	95.56
390.062	85.56
390.287	73.56
390.512	76.56
390.736	85.56
390.961	86.56
391.186	88.56
391.411	91.56
391.636	92.56
391.86	92.56
392.085	91.56
392.31	90.56
392.534	102.56
392.759	98.56
392.984	136.56
393.208	232.56
393.433	339.56
393.658	262.56
393.882	120.56
394.107	115.56
394.331	100.56
394.556	97.56
394.78	98.56
395.005	70.56
395.229	77.56
395.454	96.56
395.678	90.56
395.903	96.56
396.127	119.56
396.352	128.56
396.576	152.56
396.801	229.56
397.025	254.56
397.249	127.56
397.474	97.56
397.698	96.56
397.922	80.56
398.147	86.56
398.371	76.56
398.595	92.56
398.82	91.56
399.044	72.56
399.268	84.56
399.492	73.56
399.717	77.56
399.941	93.56
400.165	92.56
400.389	59.56
400.613	72.56
400.837	83.56
401.062	92.56
401.286	78.56
401.51	88.56
401.734	99.56
401.958	76.56
402.182	79.56
402.406	66.56
402.63	85.56
402.854	70.56
403.078	91.56
403.302	84.56
403.526	84.56
403.75	88.56
403.974	94.56
404.198	89.56
404.422	103.56
404.645	102.56
404.869	96.56
405.093	103.56
405.317	89.56
405.541	83.56
405.765	80.56
405.988	89.56
406.212	92.56
406.436	75.56
406.66	86.56
406.883	84.56
407.107	89.56
407.331	94.56
407.555	104.56
407.778	110.56
408.002	105.56
408.226	86.56
408.449	87.56
408.673	84.56
408.896	92.56
409.12	79.56
409.344	86.56
409.567	72.56
409.791	86.56
410.014	97.56
410.238	90.56
410.461	86.56
410.685	83.56
410.908	80.56
411.132	67.56
411.355	75.56
411.578	80.56
411.802	77.56
412.025	74.56
412.249	66.56
412.472	70.56
412.695	79.56
412.919	78.56
413.142	77.56
413.365	71.56
413.589	88.56
413.812	85.56
414.035	92.56
414.258	85.56
414.482	93.56
414.705	78.56
414.928	75.56
415.151	92.56
415.374	76.56
415.597	68.56
415.821	85.56
416.044	88.56
416.267	84.56
416.49	69.56
416.713	90.56
416.936	91.56
417.159	85.56
417.382	79.56
417.605	81.56
417.828	76.56
418.051	65.56
418.274	88.56
418.497	76.56
418.72	92.56
418.943	89.56
419.166	82.56
419.389	82.56
419.611	71.56
419.834	75.56
420.057	89.56
420.28	84.56
420.503	71.56
420.726	82.56
420.948	82.56
421.171	88.56
421.394	76.56
421.617	106.56
421.839	104.56
422.062	96.56
422.285	130.56
422.507	212.56
422.73	336.56
422.953	313.56
423.175	138.56
423.398	105.56
423.621	86.56
423.843	86.56
424.066	84.56
424.288	86.56
424.511	92.56
424.733	80.56
424.956	79.56
425.178	81.56
425.401	90.56
425.623	71.56
425.846	84.56
426.068	80.56
426.291	70.56
426.513	88.56
426.735	81.56
426.958	88.56
427.18	79.56
427.402	96.56
427.625	82.56
427.847	84.56
428.069	88.56
428.292	100.56
428.514	116.56
428.736	90.56
428.958	113.56
429.181	105.56
429.403	79.56
429.625	75.56
429.847	107.56
430.069	123.56
430.292	145.56
430.514	155.56
430.736	122.56
430.958	111.56
431.18	88.56
431.402	76.56
431.624	95.56
431.846	120.56
432.068	126.56
432.29	101.56
432.512	97.56
432.734	68.56
432.956	91.56
433.178	83.56
433.4	79.56
433.622	82.56
433.844	90.56
434.066	90.56
434.287	90.56
434.509	81.56
434.731	82.56
434.953	75.56
435.175	80.56
435.397	86.56
435.618	80.56
435.84	75.56
436.062	79.56
436.284	92.56
436.505	82.56
436.727	73.56
436.949	68.56
437.17	84.56
437.392	72.56
437.614	84.56
437.835	68.56
438.057	85.56
438.278	81.56
438.5	104.56
438.721	85.56
438.943	89.56
439.165	89.56
439.386	87.56
439.608	78.56
439.829	73.56
440.05	80.56
440.272	88.56
440.493	72.56
440.715	92.56
440.936	102.56
441.158	90.56
441.379	81.56
441.6	68.56
441.822	90.56
442.043	83.56
442.264	95.56
442.486	111.56
442.707	117.56
442.928	98.56
443.149	95.56
443.371	114.56
443.592	170.56
443.813	156.56
444.034	88.56
444.255	73.56
444.476	94.56
444.698	101.56
444.919	82.56
445.14	180.56
445.361	168.56
445.582	196.56
445.803	165.56
446.024	86.56
446.245	86.56
446.466	103.56
446.687	84.56
446.908	76.56
447.129	98.56
447.35	81.56
447.571	76.56
447.792	82.56
448.013	84.56
448.234	83.56
448.455	69.56
448.675	85.56
448.896	83.56
449.117	74.56
449.338	82.56
449.559	86.56
449.779	79.56
450	82.56
450.221	77.56
450.442	96.56
450.662	81.56
450.883	76.56
451.104	86.56
451.324	82.56
451.545	87.56
451.766	86.56
451.986	99.56
452.207	80.56
452.428	91.56
452.648	94.56
452.869	92.56
453.089	98.56
453.31	80.56
453.53	80.56
453.751	92.56
453.971	83.56
454.192	74.56
454.412	80.56
454.633	80.56
454.853	72.56
455.073	79.56
455.294	77.56
455.514	89.56
455.734	87.56
455.955	91.56
456.175	85.56
456.395	72.56
456.616	84.56
456.836	71.56
457.056	76.56
457.276	69.56
457.497	87.56
457.717	105.56
457.937	90.56
458.157	90.56
458.377	93.56
458.598	82.56
458.818	102.56
459.038	98.56
459.258	92.56
459.478	83.56
459.698	90.56
459.918	78.56
460.138	73.56
460.358	78.56
460.578	91.56
460.798	103.56
461.018	95.56
461.238	72.56
461.458	82.56
461.678	71.56
461.898	83.56
462.118	97.56
462.338	91.56
462.558	75.56
462.777	78.56
462.997	74.56
463.217	96.56
463.437	99.56
463.657	71.56
463.876	59.56
464.096	101.56
464.316	70.56
464.536	77.56
464.755	88.56
464.975	80.56
465.195	74.56
465.414	70.56
465.634	84.56
465.854	66.56
466.073	79.56
466.293	79.56
466.512	82.56
466.732	95.56
466.951	83.56
467.171	81.56
467.391	77.56
467.61	82.56
467.829	79.56
468.049	76.56
468.268	81.56
468.488	94.56
468.707	86.56
468.927	88.56
469.146	81.56
469.365	79.56
469.585	90.56
469.804	76.56
470.023	83.56
470.243	81.56
470.462	70.56
470.681	88.56
470.901	76.56
471.12	89.56
471.339	73.56
471.558	86.56
471.777	72.56
471.997	84.56
472.216	88.56
472.435	76.56
472.654	93.56
472.873	74.56
473.092	68.56
473.311	78.56
473.53	77.56
473.749	76.56
473.968	83.56
474.187	85.56
474.406	87.56
474.625	73.56
474.844	80.56
475.063	94.56
475.282	87.56
475.501	90.56
475.72	87.56
475.939	83.56
476.158	86.56
476.377	71.56
476.596	92.56
476.814	70.56
477.033	71.56
477.252	76.56
477.471	85.56
477.69	82.56
477.908	88.56
478.127	73.56
478.346	86.56
478.564	103.56
478.783	95.56
479.002	91.56
479.22	86.56
479.439	86.56
479.658	87.56
479.876	91.56
480.095	82.56
480.313	87.56
480.532	80.56
480.751	80.56
480.969	77.56
481.188	74.56
481.406	78.56
481.624	71.56
481.843	74.56
482.061	72.56
482.28	78.56
482.498	84.56
482.717	92.56
482.935	101.56
483.153	85.56
483.372	71.56
483.59	92.56
483.808	79.56
484.027	80.56
484.245	79.56
484.463	85.56
484.681	90.56
484.9	73.56
485.118	81.56
485.336	81.56
485.554	97.56
485.772	91.56
485.99	86.56
486.209	80.56
486.427	86.56
486.645	94.56
486.863	95.56
487.081	89.56
487.299	81.56
487.517	83.56
487.735	86.56
487.953	115.56
488.171	104.56
488.389	95.56
488.607	85.56
488.825	90.56
489.043	88.56
489.261	95.56
489.479	93.56
489.696	75.56
489.914	69.56
490.132	73.56
490.35	85.56
490.568	76.56
490.786	84.56
491.003	87.56
491.221	87.56
491.439	83.56
491.657	78.56
491.874	90.56
492.092	100.56
492.31	97.56
492.527	73.56
492.745	70.56
492.963	88.56
493.18	94.56
493.398	100.56
493.615	84.56
493.833	75.56
494.05	95.56
494.268	86.56
494.485	72.56
494.703	81.56
494.92	76.56
495.138	89.56
495.355	73.56
495.573	88.56
495.79	88.56
496.008	100.56
496.225	74.56
496.442	97.56
496.66	91.56
496.877	86.56
497.094	81.56
497.312	91.56
497.529	85.56
497.746	82.56
497.963	91.56
498.181	82.56
498.398	86.56
498.615	94.56
498.832	84.56
499.049	78.56
499.267	101.56
499.484	80.56
499.701	88.56
499.918	82.56
500.135	96.56
500.352	86.56
500.569	93.56
500.786	101.56
501.003	88.56
501.22	84.56
501.437	96.56
501.654	83.56
501.871	94.56
502.088	76.56
502.305	87.56
502.522	73.56
502.739	94.56
502.956	94.56
503.172	76.56
503.389	86.56
503.606	74.56
503.823	98.56
504.04	101.56
504.256	98.56
504.473	91.56
504.69	94.56
504.907	82.56
505.123	88.56
505.34	86.56
505.557	83.56
505.773	84.56
505.99	93.56
506.207	82.56
506.423	90.56
506.64	87.56
506.856	74.56
507.073	103.56
507.289	84.56
507.506	72.56
507.722	81.56
507.939	74.56
508.155	87.56
508.372	79.56
508.588	83.56
508.805	81.56
509.021	93.56
509.238	76.56
509.454	74.56
509.67	97.56
509.887	89.56
510.103	66.56
510.319	90.56
510.536	85.56
510.752	82.56
510.968	96.56
511.184	90.56
511.401	99.56
511.617	80.56
511.833	76.56
512.049	92.56
512.265	87.56
512.481	82.56
512.698	105.56
512.914	99.56
513.13	85.56
513.346	100.56
513.562	88.56
513.778	75.56
513.994	78.56
514.21	95.56
514.426	89.56
514.642	91.56
514.858	86.56
515.074	111.56
515.29	83.56
515.506	81.56
515.721	96.56
515.937	89.56
516.153	98.56
516.369	94.56
516.585	90.56
516.801	92.56
517.016	97.56
517.232	82.56
517.448	88.56
517.664	84.56
517.879	72.56
518.095	85.56
518.311	91.56
518.527	94.56
518.742	96.56
