Data from 237_2_HRD10591_00026.txt Node
Date: Mon Jan 19 14:11:43 EST 2026
User: Yrep
Spectrometer: HR+D1059
Trigger mode: 1
Integration Time (sec): 1.000000E-1
Scans to average: 1
Electric dark correction enabled: true
Nonlinearity correction enabled: false
Boxcar width: 0
XAxis mode: Wavelengths
Number of Pixels in Spectrum: 2048
>>>>>Begin Spectral Data<<<<<
223.165	-16.75
223.4	-16.75
223.635	-16.75
223.869	-18.75
224.104	-34.75
224.338	-13.75
224.573	-13.75
224.808	-9.75
225.042	11.25
225.277	-7.75
225.511	-2.75
225.746	13.25
225.98	7.25
226.215	7.25
226.449	17.25
226.683	27.25
226.918	-1.75
227.152	36.25
227.387	42.25
227.621	26.25
227.856	34.25
228.09	30.25
228.324	47.25
228.559	38.25
228.793	45.25
229.027	51.25
229.262	52.25
229.496	65.25
229.73	55.25
229.964	74.25
230.199	63.25
230.433	66.25
230.667	65.25
230.901	67.25
231.136	79.25
231.37	74.25
231.604	80.25
231.838	77.25
232.072	72.25
232.306	73.25
232.541	85.25
232.775	90.25
233.009	87.25
233.243	68.25
233.477	83.25
233.711	77.25
233.945	69.25
234.179	83.25
234.413	85.25
234.647	93.25
234.881	76.25
235.115	71.25
235.349	77.25
235.583	79.25
235.817	86.25
236.051	62.25
236.285	68.25
236.519	78.25
236.753	63.25
236.987	69.25
237.221	73.25
237.455	67.25
237.689	76.25
237.922	79.25
238.156	70.25
238.39	79.25
238.624	88.25
238.858	69.25
239.091	79.25
239.325	59.25
239.559	56.25
239.793	80.25
240.027	72.25
240.26	77.25
240.494	63.25
240.728	67.25
240.961	74.25
241.195	72.25
241.429	71.25
241.662	73.25
241.896	64.25
242.13	81.25
242.363	70.25
242.597	77.25
242.83	72.25
243.064	69.25
243.298	83.25
243.531	75.25
243.765	74.25
243.998	64.25
244.232	76.25
244.465	73.25
244.699	75.25
244.932	73.25
245.166	87.25
245.399	71.25
245.633	66.25
245.866	67.25
246.099	68.25
246.333	71.25
246.566	77.25
246.8	71.25
247.033	63.25
247.266	88.25
247.5	71.25
247.733	74.25
247.966	76.25
248.2	77.25
248.433	84.25
248.666	71.25
248.899	75.25
249.133	67.25
249.366	66.25
249.599	70.25
249.832	93.25
250.066	63.25
250.299	71.25
250.532	87.25
250.765	77.25
250.998	66.25
251.231	77.25
251.465	92.25
251.698	57.25
251.931	81.25
252.164	79.25
252.397	90.25
252.63	69.25
252.863	54.25
253.096	61.25
253.329	83.25
253.562	81.25
253.795	78.25
254.028	75.25
254.261	67.25
254.494	78.25
254.727	89.25
254.96	80.25
255.193	84.25
255.426	65.25
255.659	73.25
255.892	69.25
256.124	71.25
256.357	73.25
256.59	78.25
256.823	81.25
257.056	93.25
257.289	74.25
257.521	68.25
257.754	78.25
257.987	86.25
258.22	78.25
258.452	87.25
258.685	72.25
258.918	66.25
259.151	85.25
259.383	81.25
259.616	77.25
259.849	76.25
260.081	80.25
260.314	68.25
260.547	74.25
260.779	79.25
261.012	69.25
261.244	86.25
261.477	95.25
261.71	82.25
261.942	76.25
262.175	80.25
262.407	77.25
262.64	68.25
262.872	64.25
263.105	94.25
263.337	95.25
263.57	78.25
263.802	71.25
264.035	72.25
264.267	80.25
264.499	88.25
264.732	78.25
264.964	83.25
265.197	61.25
265.429	74.25
265.661	71.25
265.894	85.25
266.126	93.25
266.358	86.25
266.591	76.25
266.823	95.25
267.055	79.25
267.287	76.25
267.52	67.25
267.752	86.25
267.984	77.25
268.216	77.25
268.448	93.25
268.681	72.25
268.913	79.25
269.145	101.25
269.377	75.25
269.609	88.25
269.841	84.25
270.073	70.25
270.306	79.25
270.538	79.25
270.77	83.25
271.002	76.25
271.234	86.25
271.466	85.25
271.698	85.25
271.93	91.25
272.162	77.25
272.394	77.25
272.626	76.25
272.858	72.25
273.09	89.25
273.322	71.25
273.553	90.25
273.785	84.25
274.017	75.25
274.249	84.25
274.481	84.25
274.713	93.25
274.945	73.25
275.176	79.25
275.408	75.25
275.64	87.25
275.872	87.25
276.104	76.25
276.335	80.25
276.567	83.25
276.799	94.25
277.031	74.25
277.262	88.25
277.494	79.25
277.726	79.25
277.957	91.25
278.189	64.25
278.421	81.25
278.652	72.25
278.884	92.25
279.115	88.25
279.347	70.25
279.579	86.25
279.81	83.25
280.042	79.25
280.273	82.25
280.505	71.25
280.736	87.25
280.968	79.25
281.199	88.25
281.431	89.25
281.662	73.25
281.894	84.25
282.125	85.25
282.356	86.25
282.588	77.25
282.819	80.25
283.051	76.25
283.282	83.25
283.513	105.25
283.745	79.25
283.976	73.25
284.207	83.25
284.439	69.25
284.67	87.25
284.901	89.25
285.132	83.25
285.364	92.25
285.595	78.25
285.826	75.25
286.057	92.25
286.288	87.25
286.52	88.25
286.751	83.25
286.982	85.25
287.213	80.25
287.444	77.25
287.675	73.25
287.906	82.25
288.138	77.25
288.369	79.25
288.6	84.25
288.831	81.25
289.062	84.25
289.293	84.25
289.524	74.25
289.755	81.25
289.986	75.25
290.217	60.25
290.448	85.25
290.679	81.25
290.91	79.25
291.141	76.25
291.371	76.25
291.602	76.25
291.833	88.25
292.064	99.25
292.295	90.25
292.526	80.25
292.757	87.25
292.987	88.25
293.218	77.25
293.449	90.25
293.68	78.25
293.91	94.25
294.141	83.25
294.372	84.25
294.603	92.25
294.833	90.25
295.064	92.25
295.295	85.25
295.525	87.25
295.756	71.25
295.987	68.25
296.217	83.25
296.448	72.25
296.679	78.25
296.909	79.25
297.14	88.25
297.37	88.25
297.601	76.25
297.831	86.25
298.062	85.25
298.292	79.25
298.523	74.25
298.753	80.25
298.984	91.25
299.214	83.25
299.445	83.25
299.675	73.25
299.905	99.25
300.136	86.25
300.366	85.25
300.597	91.25
300.827	90.25
301.057	84.25
301.288	77.25
301.518	88.25
301.748	74.25
301.979	101.25
302.209	91.25
302.439	73.25
302.669	79.25
302.9	81.25
303.13	108.25
303.36	70.25
303.59	74.25
303.82	81.25
304.051	99.25
304.281	83.25
304.511	78.25
304.741	100.25
304.971	94.25
305.201	79.25
305.431	83.25
305.661	85.25
305.891	75.25
306.121	91.25
306.352	88.25
306.582	85.25
306.812	81.25
307.042	85.25
307.272	83.25
307.502	83.25
307.731	86.25
307.961	80.25
308.191	89.25
308.421	94.25
308.651	84.25
308.881	103.25
309.111	93.25
309.341	79.25
309.571	104.25
309.8	92.25
310.03	67.25
310.26	91.25
310.49	73.25
310.72	82.25
310.949	81.25
311.179	73.25
311.409	81.25
311.639	91.25
311.868	74.25
312.098	92.25
312.328	90.25
312.557	68.25
312.787	85.25
313.017	91.25
313.246	94.25
313.476	81.25
313.706	79.25
313.935	84.25
314.165	92.25
314.394	86.25
314.624	83.25
314.853	103.25
315.083	91.25
315.312	92.25
315.542	84.25
315.771	113.25
316.001	99.25
316.23	107.25
316.46	96.25
316.689	103.25
316.919	73.25
317.148	74.25
317.377	89.25
317.607	82.25
317.836	92.25
318.065	104.25
318.295	92.25
318.524	87.25
318.753	82.25
318.983	89.25
319.212	85.25
319.441	76.25
319.67	79.25
319.9	81.25
320.129	89.25
320.358	76.25
320.587	80.25
320.816	71.25
321.046	77.25
321.275	87.25
321.504	88.25
321.733	77.25
321.962	83.25
322.191	96.25
322.42	91.25
322.649	94.25
322.878	79.25
323.108	86.25
323.337	87.25
323.566	90.25
323.795	75.25
324.024	87.25
324.253	84.25
324.482	86.25
324.71	86.25
324.939	82.25
325.168	88.25
325.397	83.25
325.626	73.25
325.855	84.25
326.084	82.25
326.313	95.25
326.542	87.25
326.77	86.25
326.999	88.25
327.228	76.25
327.457	80.25
327.686	88.25
327.914	92.25
328.143	89.25
328.372	77.25
328.6	83.25
328.829	86.25
329.058	75.25
329.287	72.25
329.515	85.25
329.744	81.25
329.972	95.25
330.201	101.25
330.43	85.25
330.658	85.25
330.887	80.25
331.115	78.25
331.344	92.25
331.572	81.25
331.801	80.25
332.03	76.25
332.258	66.25
332.486	85.25
332.715	86.25
332.943	67.25
333.172	85.25
333.4	88.25
333.629	72.25
333.857	81.25
334.085	90.25
334.314	81.25
334.542	83.25
334.771	95.25
334.999	76.25
335.227	76.25
335.455	85.25
335.684	95.25
335.912	82.25
336.14	91.25
336.369	88.25
336.597	88.25
336.825	76.25
337.053	92.25
337.281	86.25
337.51	77.25
337.738	72.25
337.966	73.25
338.194	92.25
338.422	94.25
338.65	91.25
338.878	73.25
339.106	79.25
339.334	79.25
339.562	74.25
339.79	76.25
340.018	87.25
340.246	85.25
340.474	78.25
340.702	73.25
340.93	79.25
341.158	78.25
341.386	68.25
341.614	75.25
341.842	87.25
342.07	89.25
342.298	96.25
342.526	79.25
342.754	77.25
342.981	87.25
343.209	96.25
343.437	88.25
343.665	78.25
343.893	79.25
344.12	78.25
344.348	95.25
344.576	87.25
344.804	73.25
345.031	80.25
345.259	82.25
345.487	82.25
345.714	89.25
345.942	74.25
346.17	85.25
346.397	92.25
346.625	105.25
346.853	80.25
347.08	87.25
347.308	77.25
347.535	91.25
347.763	96.25
347.99	88.25
348.218	88.25
348.445	72.25
348.673	99.25
348.9	98.25
349.128	88.25
349.355	92.25
349.583	73.25
349.81	95.25
350.037	73.25
350.265	88.25
350.492	83.25
350.72	85.25
350.947	68.25
351.174	71.25
351.402	87.25
351.629	81.25
351.856	77.25
352.083	85.25
352.311	79.25
352.538	89.25
352.765	90.25
352.992	87.25
353.22	100.25
353.447	83.25
353.674	92.25
353.901	88.25
354.128	79.25
354.355	83.25
354.583	80.25
354.81	92.25
355.037	71.25
355.264	78.25
355.491	87.25
355.718	83.25
355.945	80.25
356.172	89.25
356.399	81.25
356.626	92.25
356.853	107.25
357.08	102.25
357.307	100.25
357.534	95.25
357.761	76.25
357.988	87.25
358.215	84.25
358.441	101.25
358.668	92.25
358.895	100.25
359.122	99.25
359.349	93.25
359.576	91.25
359.802	78.25
360.029	91.25
360.256	82.25
360.483	96.25
360.709	99.25
360.936	112.25
361.163	95.25
361.39	81.25
361.616	77.25
361.843	85.25
362.07	103.25
362.296	94.25
362.523	80.25
362.749	98.25
362.976	117.25
363.203	130.25
363.429	92.25
363.656	87.25
363.882	97.25
364.109	101.25
364.335	135.25
364.562	102.25
364.788	101.25
365.015	95.25
365.241	104.25
365.468	85.25
365.694	86.25
365.92	92.25
366.147	92.25
366.373	77.25
366.599	90.25
366.826	75.25
367.052	86.25
367.278	88.25
367.505	79.25
367.731	77.25
367.957	86.25
368.184	87.25
368.41	79.25
368.636	81.25
368.862	90.25
369.089	79.25
369.315	103.25
369.541	97.25
369.767	79.25
369.993	79.25
370.219	79.25
370.445	88.25
370.672	96.25
370.898	77.25
371.124	91.25
371.35	85.25
371.576	83.25
371.802	99.25
372.028	98.25
372.254	99.25
372.48	86.25
372.706	74.25
372.932	77.25
373.158	84.25
373.384	107.25
373.61	130.25
373.835	125.25
374.061	94.25
374.287	99.25
374.513	82.25
374.739	98.25
374.965	101.25
375.191	103.25
375.416	93.25
375.642	91.25
375.868	84.25
376.094	95.25
376.319	83.25
376.545	89.25
376.771	82.25
376.997	81.25
377.222	85.25
377.448	72.25
377.674	77.25
377.899	79.25
378.125	84.25
378.35	91.25
378.576	83.25
378.802	107.25
379.027	73.25
379.253	87.25
379.478	85.25
379.704	84.25
379.929	87.25
380.155	83.25
380.38	88.25
380.606	83.25
380.831	85.25
381.057	87.25
381.282	94.25
381.507	87.25
381.733	95.25
381.958	87.25
382.184	102.25
382.409	80.25
382.634	97.25
382.86	92.25
383.085	91.25
383.31	86.25
383.535	85.25
383.761	90.25
383.986	93.25
384.211	105.25
384.436	87.25
384.662	90.25
384.887	77.25
385.112	80.25
385.337	83.25
385.562	94.25
385.787	103.25
386.013	97.25
386.238	97.25
386.463	78.25
386.688	111.25
386.913	80.25
387.138	88.25
387.363	82.25
387.588	87.25
387.813	108.25
388.038	89.25
388.263	104.25
388.488	96.25
388.713	92.25
388.938	76.25
389.163	83.25
389.387	98.25
389.612	87.25
389.837	87.25
390.062	101.25
390.287	87.25
390.512	86.25
390.736	93.25
390.961	80.25
391.186	84.25
391.411	79.25
391.636	95.25
391.86	95.25
392.085	98.25
392.31	95.25
392.534	119.25
392.759	122.25
392.984	193.25
393.208	341.25
393.433	519.25
393.658	403.25
393.882	173.25
394.107	116.25
394.331	139.25
394.556	139.25
394.78	92.25
395.005	96.25
395.229	80.25
395.454	103.25
395.678	107.25
395.903	117.25
396.127	163.25
396.352	183.25
396.576	192.25
396.801	363.25
397.025	394.25
397.249	208.25
397.474	121.25
397.698	104.25
397.922	92.25
398.147	77.25
398.371	91.25
398.595	74.25
398.82	80.25
399.044	86.25
399.268	99.25
399.492	84.25
399.717	81.25
399.941	86.25
400.165	85.25
400.389	91.25
400.613	87.25
400.837	91.25
401.062	93.25
401.286	75.25
401.51	79.25
401.734	68.25
401.958	77.25
402.182	86.25
402.406	83.25
402.63	70.25
402.854	93.25
403.078	89.25
403.302	101.25
403.526	93.25
403.75	91.25
403.974	78.25
404.198	75.25
404.422	102.25
404.645	105.25
404.869	89.25
405.093	91.25
405.317	77.25
405.541	90.25
405.765	83.25
405.988	76.25
406.212	87.25
406.436	83.25
406.66	94.25
406.883	91.25
407.107	86.25
407.331	86.25
407.555	91.25
407.778	119.25
408.002	121.25
408.226	89.25
408.449	89.25
408.673	72.25
408.896	67.25
409.12	93.25
409.344	90.25
409.567	107.25
409.791	82.25
410.014	100.25
410.238	104.25
410.461	85.25
410.685	89.25
410.908	82.25
411.132	79.25
411.355	73.25
411.578	77.25
411.802	91.25
412.025	76.25
412.249	89.25
412.472	83.25
412.695	87.25
412.919	76.25
413.142	83.25
413.365	91.25
413.589	83.25
413.812	73.25
414.035	85.25
414.258	95.25
414.482	94.25
414.705	99.25
414.928	95.25
415.151	93.25
415.374	83.25
415.597	83.25
415.821	77.25
416.044	95.25
416.267	79.25
416.49	78.25
416.713	83.25
416.936	79.25
417.159	79.25
417.382	83.25
417.605	82.25
417.828	85.25
418.051	94.25
418.274	88.25
418.497	83.25
418.72	75.25
418.943	78.25
419.166	89.25
419.389	75.25
419.611	80.25
419.834	71.25
420.057	74.25
420.28	96.25
420.503	89.25
420.726	73.25
420.948	83.25
421.171	100.25
421.394	104.25
421.617	115.25
421.839	125.25
422.062	110.25
422.285	151.25
422.507	278.25
422.73	467.25
422.953	392.25
423.175	176.25
423.398	128.25
423.621	107.25
423.843	81.25
424.066	95.25
424.288	87.25
424.511	90.25
424.733	95.25
424.956	91.25
425.178	89.25
425.401	81.25
425.623	77.25
425.846	88.25
426.068	71.25
426.291	84.25
426.513	82.25
426.735	83.25
426.958	86.25
427.18	89.25
427.402	86.25
427.625	79.25
427.847	83.25
428.069	92.25
428.292	133.25
428.514	153.25
428.736	118.25
428.958	132.25
429.181	142.25
429.403	93.25
429.625	95.25
429.847	121.25
430.069	188.25
430.292	198.25
430.514	189.25
430.736	139.25
430.958	171.25
431.18	117.25
431.402	96.25
431.624	104.25
431.846	132.25
432.068	151.25
432.29	91.25
432.512	92.25
432.734	93.25
432.956	80.25
433.178	77.25
433.4	87.25
433.622	87.25
433.844	95.25
434.066	89.25
434.287	71.25
434.509	99.25
434.731	83.25
434.953	87.25
435.175	73.25
435.397	92.25
435.618	79.25
435.84	100.25
436.062	75.25
436.284	83.25
436.505	83.25
436.727	84.25
436.949	73.25
437.17	79.25
437.392	91.25
437.614	95.25
437.835	72.25
438.057	88.25
438.278	86.25
438.5	88.25
438.721	81.25
438.943	84.25
439.165	85.25
439.386	71.25
439.608	92.25
439.829	78.25
440.05	75.25
440.272	71.25
440.493	91.25
440.715	100.25
440.936	93.25
441.158	70.25
441.379	79.25
441.6	74.25
441.822	91.25
442.043	97.25
442.264	103.25
442.486	114.25
442.707	185.25
442.928	117.25
443.149	118.25
443.371	158.25
443.592	258.25
443.813	237.25
444.034	113.25
444.255	97.25
444.476	89.25
444.698	93.25
444.919	86.25
445.14	192.25
445.361	219.25
445.582	296.25
445.803	245.25
446.024	118.25
446.245	103.25
446.466	87.25
446.687	90.25
446.908	92.25
447.129	92.25
447.35	86.25
447.571	81.25
447.792	80.25
448.013	82.25
448.234	86.25
448.455	72.25
448.675	82.25
448.896	90.25
449.117	91.25
449.338	72.25
449.559	85.25
449.779	88.25
450	73.25
450.221	70.25
450.442	79.25
450.662	77.25
450.883	78.25
451.104	78.25
451.324	83.25
451.545	86.25
451.766	83.25
451.986	80.25
452.207	93.25
452.428	84.25
452.648	83.25
452.869	97.25
453.089	100.25
453.31	95.25
453.53	87.25
453.751	100.25
453.971	93.25
454.192	84.25
454.412	87.25
454.633	71.25
454.853	81.25
455.073	76.25
455.294	79.25
455.514	81.25
455.734	85.25
455.955	85.25
456.175	72.25
456.395	75.25
456.616	93.25
456.836	85.25
457.056	84.25
457.276	94.25
457.497	89.25
457.717	86.25
457.937	111.25
458.157	125.25
458.377	109.25
458.598	115.25
458.818	123.25
459.038	91.25
459.258	89.25
459.478	76.25
459.698	71.25
459.918	93.25
460.138	94.25
460.358	91.25
460.578	97.25
460.798	95.25
461.018	111.25
461.238	95.25
461.458	85.25
461.678	84.25
461.898	81.25
462.118	87.25
462.338	77.25
462.558	80.25
462.777	98.25
462.997	83.25
463.217	87.25
463.437	80.25
463.657	80.25
463.876	77.25
464.096	67.25
464.316	72.25
464.536	80.25
464.755	89.25
464.975	92.25
465.195	85.25
465.414	89.25
465.634	71.25
465.854	60.25
466.073	68.25
466.293	62.25
466.512	75.25
466.732	68.25
466.951	85.25
467.171	80.25
467.391	96.25
467.61	88.25
467.829	59.25
468.049	69.25
468.268	77.25
468.488	81.25
468.707	87.25
468.927	86.25
469.146	88.25
469.365	80.25
469.585	98.25
469.804	95.25
470.023	78.25
470.243	87.25
470.462	79.25
470.681	74.25
470.901	70.25
471.12	74.25
471.339	75.25
471.558	85.25
471.777	91.25
471.997	79.25
472.216	77.25
472.435	75.25
472.654	74.25
472.873	77.25
473.092	79.25
473.311	86.25
473.53	61.25
473.749	79.25
473.968	91.25
474.187	91.25
474.406	71.25
474.625	91.25
474.844	76.25
475.063	77.25
475.282	90.25
475.501	81.25
475.72	97.25
475.939	81.25
476.158	84.25
476.377	79.25
476.596	77.25
476.814	73.25
477.033	82.25
477.252	90.25
477.471	72.25
477.69	85.25
477.908	92.25
478.127	88.25
478.346	67.25
478.564	90.25
478.783	83.25
479.002	84.25
479.22	85.25
479.439	73.25
479.658	78.25
479.876	91.25
480.095	84.25
480.313	78.25
480.532	85.25
480.751	83.25
480.969	76.25
481.188	73.25
481.406	79.25
481.624	81.25
481.843	83.25
482.061	94.25
482.28	100.25
482.498	82.25
482.717	83.25
482.935	87.25
483.153	77.25
483.372	91.25
483.59	90.25
483.808	82.25
484.027	86.25
484.245	88.25
484.463	91.25
484.681	100.25
484.9	96.25
485.118	94.25
485.336	77.25
485.554	83.25
485.772	100.25
485.99	89.25
486.209	91.25
486.427	87.25
486.645	79.25
486.863	76.25
487.081	86.25
487.299	83.25
487.517	93.25
487.735	93.25
487.953	151.25
488.171	119.25
488.389	93.25
488.607	69.25
488.825	72.25
489.043	86.25
489.261	86.25
489.479	92.25
489.696	89.25
489.914	88.25
490.132	79.25
490.35	88.25
490.568	87.25
490.786	93.25
491.003	83.25
491.221	63.25
491.439	85.25
491.657	85.25
491.874	80.25
492.092	93.25
492.31	85.25
492.527	86.25
492.745	92.25
492.963	72.25
493.18	84.25
493.398	83.25
493.615	91.25
493.833	91.25
494.05	76.25
494.268	79.25
494.485	87.25
494.703	93.25
494.92	85.25
495.138	95.25
495.355	79.25
495.573	85.25
495.79	85.25
496.008	73.25
496.225	78.25
496.442	95.25
496.66	69.25
496.877	85.25
497.094	79.25
497.312	104.25
497.529	88.25
497.746	94.25
497.963	94.25
498.181	77.25
498.398	92.25
498.615	85.25
498.832	75.25
499.049	72.25
499.267	83.25
499.484	96.25
499.701	86.25
499.918	87.25
500.135	93.25
500.352	72.25
500.569	77.25
500.786	81.25
501.003	85.25
501.22	74.25
501.437	77.25
501.654	88.25
501.871	80.25
502.088	89.25
502.305	85.25
502.522	82.25
502.739	89.25
502.956	84.25
503.172	86.25
503.389	83.25
503.606	76.25
503.823	97.25
504.04	101.25
504.256	124.25
504.473	123.25
504.69	93.25
504.907	95.25
505.123	90.25
505.34	95.25
505.557	87.25
505.773	68.25
505.99	75.25
506.207	74.25
506.423	80.25
506.64	99.25
506.856	84.25
507.073	83.25
507.289	84.25
507.506	78.25
507.722	94.25
507.939	84.25
508.155	99.25
508.372	79.25
508.588	81.25
508.805	69.25
509.021	75.25
509.238	91.25
509.454	100.25
509.67	86.25
509.887	80.25
510.103	78.25
510.319	87.25
510.536	85.25
510.752	94.25
510.968	79.25
511.184	96.25
511.401	81.25
511.617	87.25
511.833	86.25
512.049	99.25
512.265	78.25
512.481	85.25
512.698	91.25
512.914	83.25
513.13	89.25
513.346	95.25
513.562	85.25
513.778	79.25
513.994	81.25
514.21	66.25
514.426	74.25
514.642	79.25
514.858	94.25
515.074	93.25
515.29	85.25
515.506	108.25
515.721	83.25
515.937	83.25
516.153	92.25
516.369	97.25
516.585	87.25
516.801	101.25
517.016	89.25
517.232	83.25
517.448	102.25
517.664	98.25
517.879	96.25
518.095	77.25
518.311	92.25
