Data from 237_2_HRD10591_00031.txt Node
Date: Mon Jan 19 14:11:46 EST 2026
User: Yrep
Spectrometer: HR+D1059
Trigger mode: 1
Integration Time (sec): 1.000000E-1
Scans to average: 1
Electric dark correction enabled: true
Nonlinearity correction enabled: false
Boxcar width: 0
XAxis mode: Wavelengths
Number of Pixels in Spectrum: 2048
>>>>>Begin Spectral Data<<<<<
223.165	-9.31
223.4	-9.31
223.635	-9.31
223.869	-25.31
224.104	-20.31
224.338	-19.31
224.573	-7.31
224.808	-12.31
225.042	-7.31
225.277	-11.31
225.511	-10.31
225.746	7.69
225.98	-1.31
226.215	23.69
226.449	18.69
226.683	16.69
226.918	21.69
227.152	35.69
227.387	35.69
227.621	32.69
227.856	33.69
228.09	61.69
228.324	41.69
228.559	53.69
228.793	47.69
229.027	67.69
229.262	53.69
229.496	61.69
229.73	57.69
229.964	80.69
230.199	73.69
230.433	72.69
230.667	67.69
230.901	57.69
231.136	75.69
231.37	68.69
231.604	65.69
231.838	76.69
232.072	64.69
232.306	68.69
232.541	81.69
232.775	80.69
233.009	70.69
233.243	87.69
233.477	80.69
233.711	84.69
233.945	78.69
234.179	77.69
234.413	81.69
234.647	76.69
234.881	74.69
235.115	77.69
235.349	68.69
235.583	75.69
235.817	83.69
236.051	80.69
236.285	58.69
236.519	69.69
236.753	69.69
236.987	77.69
237.221	56.69
237.455	85.69
237.689	82.69
237.922	62.69
238.156	85.69
238.39	64.69
238.624	82.69
238.858	73.69
239.091	88.69
239.325	70.69
239.559	65.69
239.793	70.69
240.027	72.69
240.26	74.69
240.494	55.69
240.728	69.69
240.961	62.69
241.195	68.69
241.429	65.69
241.662	81.69
241.896	74.69
242.13	68.69
242.363	71.69
242.597	62.69
242.83	89.69
243.064	75.69
243.298	80.69
243.531	72.69
243.765	66.69
243.998	78.69
244.232	72.69
244.465	68.69
244.699	84.69
244.932	72.69
245.166	72.69
245.399	75.69
245.633	73.69
245.866	66.69
246.099	67.69
246.333	92.69
246.566	64.69
246.8	55.69
247.033	82.69
247.266	69.69
247.5	81.69
247.733	76.69
247.966	77.69
248.2	69.69
248.433	72.69
248.666	70.69
248.899	82.69
249.133	74.69
249.366	70.69
249.599	62.69
249.832	87.69
250.066	77.69
250.299	93.69
250.532	72.69
250.765	72.69
250.998	71.69
251.231	62.69
251.465	73.69
251.698	61.69
251.931	75.69
252.164	67.69
252.397	88.69
252.63	80.69
252.863	70.69
253.096	76.69
253.329	81.69
253.562	73.69
253.795	68.69
254.028	77.69
254.261	87.69
254.494	95.69
254.727	89.69
254.96	83.69
255.193	78.69
255.426	76.69
255.659	72.69
255.892	76.69
256.124	78.69
256.357	84.69
256.59	86.69
256.823	84.69
257.056	78.69
257.289	63.69
257.521	96.69
257.754	62.69
257.987	83.69
258.22	72.69
258.452	72.69
258.685	77.69
258.918	94.69
259.151	80.69
259.383	78.69
259.616	77.69
259.849	75.69
260.081	73.69
260.314	74.69
260.547	69.69
260.779	84.69
261.012	74.69
261.244	71.69
261.477	75.69
261.71	74.69
261.942	80.69
262.175	80.69
262.407	81.69
262.64	82.69
262.872	85.69
263.105	73.69
263.337	77.69
263.57	82.69
263.802	82.69
264.035	86.69
264.267	79.69
264.499	78.69
264.732	77.69
264.964	64.69
265.197	80.69
265.429	88.69
265.661	96.69
265.894	86.69
266.126	75.69
266.358	72.69
266.591	93.69
266.823	82.69
267.055	76.69
267.287	80.69
267.52	71.69
267.752	74.69
267.984	76.69
268.216	78.69
268.448	84.69
268.681	85.69
268.913	87.69
269.145	68.69
269.377	90.69
269.609	73.69
269.841	89.69
270.073	80.69
270.306	77.69
270.538	82.69
270.77	63.69
271.002	74.69
271.234	80.69
271.466	85.69
271.698	82.69
271.93	72.69
272.162	82.69
272.394	81.69
272.626	88.69
272.858	73.69
273.09	81.69
273.322	70.69
273.553	82.69
273.785	86.69
274.017	70.69
274.249	90.69
274.481	67.69
274.713	83.69
274.945	72.69
275.176	86.69
275.408	73.69
275.64	75.69
275.872	84.69
276.104	77.69
276.335	78.69
276.567	62.69
276.799	75.69
277.031	87.69
277.262	68.69
277.494	71.69
277.726	76.69
277.957	83.69
278.189	80.69
278.421	79.69
278.652	78.69
278.884	75.69
279.115	78.69
279.347	75.69
279.579	81.69
279.81	84.69
280.042	82.69
280.273	78.69
280.505	79.69
280.736	87.69
280.968	85.69
281.199	73.69
281.431	88.69
281.662	73.69
281.894	84.69
282.125	82.69
282.356	78.69
282.588	77.69
282.819	62.69
283.051	71.69
283.282	83.69
283.513	84.69
283.745	74.69
283.976	89.69
284.207	76.69
284.439	81.69
284.67	92.69
284.901	72.69
285.132	88.69
285.364	103.69
285.595	84.69
285.826	80.69
286.057	86.69
286.288	73.69
286.52	93.69
286.751	88.69
286.982	89.69
287.213	87.69
287.444	90.69
287.675	77.69
287.906	80.69
288.138	81.69
288.369	88.69
288.6	84.69
288.831	88.69
289.062	81.69
289.293	84.69
289.524	84.69
289.755	81.69
289.986	83.69
290.217	81.69
290.448	69.69
290.679	73.69
290.91	68.69
291.141	92.69
291.371	90.69
291.602	80.69
291.833	88.69
292.064	79.69
292.295	74.69
292.526	72.69
292.757	79.69
292.987	94.69
293.218	83.69
293.449	76.69
293.68	88.69
293.91	72.69
294.141	71.69
294.372	85.69
294.603	75.69
294.833	85.69
295.064	80.69
295.295	89.69
295.525	86.69
295.756	89.69
295.987	80.69
296.217	80.69
296.448	81.69
296.679	72.69
296.909	94.69
297.14	89.69
297.37	82.69
297.601	77.69
297.831	70.69
298.062	69.69
298.292	90.69
298.523	93.69
298.753	88.69
298.984	81.69
299.214	92.69
299.445	105.69
299.675	83.69
299.905	94.69
300.136	87.69
300.366	80.69
300.597	88.69
300.827	83.69
301.057	89.69
301.288	101.69
301.518	76.69
301.748	92.69
301.979	93.69
302.209	89.69
302.439	81.69
302.669	87.69
302.9	87.69
303.13	85.69
303.36	78.69
303.59	81.69
303.82	89.69
304.051	84.69
304.281	91.69
304.511	84.69
304.741	84.69
304.971	82.69
305.201	74.69
305.431	92.69
305.661	64.69
305.891	92.69
306.121	79.69
306.352	81.69
306.582	70.69
306.812	72.69
307.042	74.69
307.272	65.69
307.502	78.69
307.731	73.69
307.961	98.69
308.191	100.69
308.421	117.69
308.651	84.69
308.881	88.69
309.111	89.69
309.341	115.69
309.571	113.69
309.8	88.69
310.03	85.69
310.26	83.69
310.49	85.69
310.72	79.69
310.949	93.69
311.179	87.69
311.409	86.69
311.639	90.69
311.868	80.69
312.098	92.69
312.328	87.69
312.557	96.69
312.787	80.69
313.017	86.69
313.246	87.69
313.476	86.69
313.706	78.69
313.935	69.69
314.165	88.69
314.394	75.69
314.624	87.69
314.853	78.69
315.083	86.69
315.312	96.69
315.542	78.69
315.771	90.69
316.001	114.69
316.23	98.69
316.46	82.69
316.689	89.69
316.919	84.69
317.148	66.69
317.377	96.69
317.607	101.69
317.836	104.69
318.065	85.69
318.295	101.69
318.524	98.69
318.753	89.69
318.983	68.69
319.212	92.69
319.441	89.69
319.67	85.69
319.9	93.69
320.129	72.69
320.358	74.69
320.587	75.69
320.816	83.69
321.046	88.69
321.275	94.69
321.504	91.69
321.733	85.69
321.962	89.69
322.191	92.69
322.42	92.69
322.649	92.69
322.878	81.69
323.108	89.69
323.337	78.69
323.566	87.69
323.795	98.69
324.024	98.69
324.253	85.69
324.482	97.69
324.71	95.69
324.939	87.69
325.168	71.69
325.397	89.69
325.626	89.69
325.855	73.69
326.084	90.69
326.313	86.69
326.542	84.69
326.77	82.69
326.999	75.69
327.228	89.69
327.457	79.69
327.686	95.69
327.914	90.69
328.143	86.69
328.372	88.69
328.6	82.69
328.829	74.69
329.058	91.69
329.287	80.69
329.515	80.69
329.744	85.69
329.972	77.69
330.201	81.69
330.43	101.69
330.658	82.69
330.887	88.69
331.115	82.69
331.344	85.69
331.572	91.69
331.801	85.69
332.03	98.69
332.258	80.69
332.486	90.69
332.715	79.69
332.943	72.69
333.172	78.69
333.4	76.69
333.629	97.69
333.857	92.69
334.085	94.69
334.314	102.69
334.542	93.69
334.771	100.69
334.999	101.69
335.227	106.69
335.455	81.69
335.684	91.69
335.912	92.69
336.14	105.69
336.369	114.69
336.597	90.69
336.825	97.69
337.053	100.69
337.281	86.69
337.51	88.69
337.738	92.69
337.966	82.69
338.194	83.69
338.422	99.69
338.65	102.69
338.878	83.69
339.106	78.69
339.334	81.69
339.562	86.69
339.79	89.69
340.018	74.69
340.246	84.69
340.474	85.69
340.702	96.69
340.93	92.69
341.158	85.69
341.386	82.69
341.614	77.69
341.842	72.69
342.07	84.69
342.298	92.69
342.526	84.69
342.754	95.69
342.981	88.69
343.209	96.69
343.437	115.69
343.665	88.69
343.893	92.69
344.12	94.69
344.348	83.69
344.576	90.69
344.804	100.69
345.031	77.69
345.259	88.69
345.487	89.69
345.714	83.69
345.942	78.69
346.17	94.69
346.397	86.69
346.625	74.69
346.853	95.69
347.08	89.69
347.308	98.69
347.535	102.69
347.763	88.69
347.99	80.69
348.218	80.69
348.445	88.69
348.673	87.69
348.9	101.69
349.128	96.69
349.355	79.69
349.583	81.69
349.81	84.69
350.037	87.69
350.265	95.69
350.492	82.69
350.72	85.69
350.947	92.69
351.174	96.69
351.402	80.69
351.629	80.69
351.856	80.69
352.083	91.69
352.311	81.69
352.538	92.69
352.765	84.69
352.992	87.69
353.22	104.69
353.447	93.69
353.674	88.69
353.901	86.69
354.128	73.69
354.355	80.69
354.583	80.69
354.81	93.69
355.037	83.69
355.264	88.69
355.491	71.69
355.718	84.69
355.945	94.69
356.172	86.69
356.399	95.69
356.626	106.69
356.853	92.69
357.08	120.69
357.307	102.69
357.534	88.69
357.761	78.69
357.988	101.69
358.215	106.69
358.441	96.69
358.668	88.69
358.895	99.69
359.122	76.69
359.349	88.69
359.576	92.69
359.802	88.69
360.029	83.69
360.256	91.69
360.483	81.69
360.709	94.69
360.936	114.69
361.163	90.69
361.39	85.69
361.616	97.69
361.843	88.69
362.07	112.69
362.296	124.69
362.523	124.69
362.749	133.69
362.976	152.69
363.203	168.69
363.429	136.69
363.656	110.69
363.882	119.69
364.109	132.69
364.335	187.69
364.562	188.69
364.788	121.69
365.015	106.69
365.241	105.69
365.468	103.69
365.694	100.69
365.92	90.69
366.147	88.69
366.373	74.69
366.599	80.69
366.826	75.69
367.052	85.69
367.278	101.69
367.505	91.69
367.731	81.69
367.957	88.69
368.184	78.69
368.41	87.69
368.636	84.69
368.862	94.69
369.089	78.69
369.315	82.69
369.541	92.69
369.767	109.69
369.993	90.69
370.219	92.69
370.445	96.69
370.672	108.69
370.898	102.69
371.124	97.69
371.35	89.69
371.576	87.69
371.802	117.69
372.028	111.69
372.254	112.69
372.48	88.69
372.706	97.69
372.932	102.69
373.158	103.69
373.384	126.69
373.61	149.69
373.835	125.69
374.061	115.69
374.287	112.69
374.513	112.69
374.739	133.69
374.965	120.69
375.191	106.69
375.416	103.69
375.642	105.69
375.868	116.69
376.094	98.69
376.319	88.69
376.545	105.69
376.771	97.69
376.997	95.69
377.222	88.69
377.448	94.69
377.674	92.69
377.899	94.69
378.125	90.69
378.35	80.69
378.576	84.69
378.802	89.69
379.027	93.69
379.253	97.69
379.478	81.69
379.704	83.69
379.929	105.69
380.155	89.69
380.38	83.69
380.606	95.69
380.831	78.69
381.057	103.69
381.282	86.69
381.507	88.69
381.733	95.69
381.958	111.69
382.184	120.69
382.409	97.69
382.634	120.69
382.86	109.69
383.085	110.69
383.31	126.69
383.535	123.69
383.761	131.69
383.986	132.69
384.211	125.69
384.436	103.69
384.662	96.69
384.887	101.69
385.112	96.69
385.337	106.69
385.562	113.69
385.787	105.69
386.013	106.69
386.238	115.69
386.463	96.69
386.688	108.69
386.913	108.69
387.138	106.69
387.363	116.69
387.588	120.69
387.813	97.69
388.038	117.69
388.263	109.69
388.488	117.69
388.713	119.69
388.938	80.69
389.163	87.69
389.387	97.69
389.612	101.69
389.837	101.69
390.062	101.69
390.287	109.69
390.512	113.69
390.736	92.69
390.961	86.69
391.186	101.69
391.411	78.69
391.636	109.69
391.86	101.69
392.085	108.69
392.31	128.69
392.534	135.69
392.759	159.69
392.984	240.69
393.208	484.69
393.433	706.69
393.658	531.69
393.882	202.69
394.107	153.69
394.331	152.69
394.556	197.69
394.78	132.69
395.005	117.69
395.229	95.69
395.454	120.69
395.678	132.69
395.903	164.69
396.127	205.69
396.352	254.69
396.576	285.69
396.801	473.69
397.025	571.69
397.249	278.69
397.474	167.69
397.698	131.69
397.922	104.69
398.147	108.69
398.371	101.69
398.595	94.69
398.82	96.69
399.044	124.69
399.268	98.69
399.492	84.69
399.717	104.69
399.941	105.69
400.165	101.69
400.389	93.69
400.613	92.69
400.837	100.69
401.062	96.69
401.286	93.69
401.51	81.69
401.734	78.69
401.958	90.69
402.182	84.69
402.406	85.69
402.63	81.69
402.854	87.69
403.078	86.69
403.302	96.69
403.526	107.69
403.75	87.69
403.974	78.69
404.198	99.69
404.422	98.69
404.645	108.69
404.869	103.69
405.093	90.69
405.317	96.69
405.541	98.69
405.765	94.69
405.988	103.69
406.212	87.69
406.436	103.69
406.66	120.69
406.883	88.69
407.107	90.69
407.331	110.69
407.555	110.69
407.778	128.69
408.002	140.69
408.226	106.69
408.449	88.69
408.673	90.69
408.896	94.69
409.12	93.69
409.344	117.69
409.567	115.69
409.791	117.69
410.014	133.69
410.238	99.69
410.461	96.69
410.685	101.69
410.908	94.69
411.132	88.69
411.355	74.69
411.578	94.69
411.802	95.69
412.025	84.69
412.249	76.69
412.472	92.69
412.695	83.69
412.919	68.69
413.142	80.69
413.365	100.69
413.589	80.69
413.812	91.69
414.035	93.69
414.258	73.69
414.482	82.69
414.705	98.69
414.928	84.69
415.151	97.69
415.374	84.69
415.597	78.69
415.821	81.69
416.044	77.69
416.267	83.69
416.49	79.69
416.713	80.69
416.936	87.69
417.159	92.69
417.382	65.69
417.605	83.69
417.828	90.69
418.051	96.69
418.274	98.69
418.497	103.69
418.72	92.69
418.943	88.69
419.166	75.69
419.389	89.69
419.611	85.69
419.834	100.69
420.057	92.69
420.28	88.69
420.503	98.69
420.726	96.69
420.948	99.69
421.171	110.69
421.394	124.69
421.617	141.69
421.839	155.69
422.062	163.69
422.285	238.69
422.507	479.69
422.73	776.69
422.953	671.69
423.175	332.69
423.398	172.69
423.621	148.69
423.843	113.69
424.066	106.69
424.288	97.69
424.511	100.69
424.733	128.69
424.956	102.69
425.178	100.69
425.401	100.69
425.623	95.69
425.846	94.69
426.068	101.69
426.291	87.69
426.513	108.69
426.735	88.69
426.958	96.69
427.18	89.69
427.402	95.69
427.625	89.69
427.847	96.69
428.069	111.69
428.292	174.69
428.514	208.69
428.736	143.69
428.958	172.69
429.181	175.69
429.403	128.69
429.625	122.69
429.847	168.69
430.069	266.69
430.292	302.69
430.514	274.69
430.736	212.69
430.958	220.69
431.18	130.69
431.402	91.69
431.624	108.69
431.846	156.69
432.068	204.69
432.29	131.69
432.512	94.69
432.734	90.69
432.956	85.69
433.178	83.69
433.4	96.69
433.622	109.69
433.844	88.69
434.066	80.69
434.287	82.69
434.509	94.69
434.731	85.69
434.953	92.69
435.175	86.69
435.397	110.69
435.618	109.69
435.84	125.69
436.062	88.69
436.284	94.69
436.505	79.69
436.727	92.69
436.949	78.69
437.17	89.69
437.392	81.69
437.614	81.69
437.835	90.69
438.057	91.69
438.278	98.69
438.5	108.69
438.721	88.69
438.943	88.69
439.165	67.69
439.386	77.69
439.608	89.69
439.829	86.69
440.05	103.69
440.272	96.69
440.493	82.69
440.715	85.69
440.936	91.69
441.158	107.69
441.379	100.69
441.6	84.69
441.822	101.69
442.043	91.69
442.264	115.69
442.486	204.69
442.707	277.69
442.928	172.69
443.149	135.69
443.371	247.69
443.592	455.69
443.813	408.69
444.034	137.69
444.255	102.69
444.476	91.69
444.698	93.69
444.919	121.69
445.14	236.69
445.361	308.69
445.582	551.69
445.803	487.69
446.024	168.69
446.245	101.69
446.466	98.69
446.687	88.69
446.908	74.69
447.129	80.69
447.35	86.69
447.571	85.69
447.792	81.69
448.013	85.69
448.234	85.69
448.455	75.69
448.675	90.69
448.896	101.69
449.117	96.69
449.338	82.69
449.559	88.69
449.779	89.69
450	78.69
450.221	74.69
450.442	69.69
450.662	86.69
450.883	86.69
451.104	95.69
451.324	90.69
451.545	73.69
451.766	92.69
451.986	82.69
452.207	88.69
452.428	98.69
452.648	106.69
452.869	120.69
453.089	110.69
453.31	94.69
453.53	115.69
453.751	118.69
453.971	95.69
454.192	102.69
454.412	92.69
454.633	78.69
454.853	82.69
455.073	83.69
455.294	86.69
455.514	117.69
455.734	101.69
455.955	88.69
456.175	94.69
456.395	96.69
456.616	80.69
456.836	86.69
457.056	100.69
457.276	92.69
457.497	100.69
457.717	107.69
457.937	134.69
458.157	181.69
458.377	182.69
458.598	178.69
458.818	197.69
459.038	118.69
459.258	110.69
459.478	91.69
459.698	94.69
459.918	86.69
460.138	81.69
460.358	96.69
460.578	104.69
460.798	140.69
461.018	146.69
461.238	87.69
461.458	88.69
461.678	98.69
461.898	80.69
462.118	93.69
462.338	78.69
462.558	98.69
462.777	75.69
462.997	95.69
463.217	85.69
463.437	94.69
463.657	92.69
463.876	74.69
464.096	87.69
464.316	82.69
464.536	94.69
464.755	79.69
464.975	79.69
465.195	87.69
465.414	100.69
465.634	87.69
465.854	89.69
466.073	91.69
466.293	72.69
466.512	89.69
466.732	78.69
466.951	76.69
467.171	87.69
467.391	65.69
467.61	81.69
467.829	87.69
468.049	88.69
468.268	102.69
468.488	97.69
468.707	89.69
468.927	88.69
469.146	90.69
469.365	98.69
469.585	80.69
469.804	88.69
470.023	74.69
470.243	87.69
470.462	101.69
470.681	77.69
470.901	81.69
471.12	91.69
471.339	94.69
471.558	84.69
471.777	66.69
471.997	93.69
472.216	86.69
472.435	82.69
472.654	83.69
472.873	92.69
473.092	97.69
473.311	86.69
473.53	90.69
473.749	87.69
473.968	91.69
474.187	77.69
474.406	73.69
474.625	86.69
474.844	88.69
475.063	85.69
475.282	88.69
475.501	90.69
475.72	90.69
475.939	85.69
476.158	85.69
476.377	94.69
476.596	75.69
476.814	92.69
477.033	87.69
477.252	78.69
477.471	97.69
477.69	77.69
477.908	84.69
478.127	95.69
478.346	76.69
478.564	85.69
478.783	85.69
479.002	109.69
479.22	87.69
479.439	86.69
479.658	82.69
479.876	93.69
480.095	92.69
480.313	82.69
480.532	69.69
480.751	74.69
480.969	84.69
481.188	97.69
481.406	80.69
481.624	88.69
481.843	76.69
482.061	76.69
482.28	96.69
482.498	99.69
482.717	78.69
482.935	83.69
483.153	99.69
483.372	104.69
483.59	106.69
483.808	90.69
484.027	93.69
484.245	91.69
484.463	92.69
484.681	86.69
484.9	94.69
485.118	112.69
485.336	83.69
485.554	101.69
485.772	93.69
485.99	77.69
486.209	96.69
486.427	95.69
486.645	77.69
486.863	97.69
487.081	103.69
487.299	113.69
487.517	118.69
487.735	149.69
487.953	291.69
488.171	220.69
488.389	96.69
488.607	93.69
488.825	104.69
489.043	77.69
489.261	86.69
489.479	93.69
489.696	81.69
489.914	80.69
490.132	82.69
490.35	89.69
490.568	94.69
490.786	79.69
491.003	79.69
491.221	87.69
491.439	81.69
491.657	86.69
491.874	101.69
492.092	101.69
492.31	93.69
492.527	78.69
492.745	96.69
492.963	89.69
493.18	89.69
493.398	103.69
493.615	110.69
493.833	96.69
494.05	96.69
494.268	84.69
494.485	105.69
494.703	80.69
494.92	84.69
495.138	93.69
495.355	87.69
495.573	83.69
495.79	92.69
496.008	87.69
496.225	92.69
496.442	94.69
496.66	92.69
496.877	92.69
497.094	94.69
497.312	100.69
497.529	105.69
497.746	96.69
497.963	95.69
498.181	100.69
498.398	133.69
498.615	99.69
498.832	90.69
499.049	91.69
499.267	124.69
499.484	91.69
499.701	86.69
499.918	108.69
500.135	130.69
500.352	100.69
500.569	96.69
500.786	96.69
501.003	118.69
501.22	81.69
501.437	98.69
501.654	125.69
501.871	95.69
502.088	82.69
502.305	83.69
502.522	100.69
502.739	95.69
502.956	96.69
503.172	96.69
503.389	95.69
503.606	87.69
503.823	111.69
504.04	126.69
504.256	208.69
504.473	209.69
504.69	98.69
504.907	90.69
505.123	81.69
505.34	79.69
505.557	82.69
505.773	80.69
505.99	78.69
506.207	84.69
506.423	92.69
506.64	80.69
506.856	89.69
507.073	85.69
507.289	88.69
507.506	82.69
507.722	80.69
507.939	94.69
508.155	90.69
508.372	80.69
508.588	81.69
508.805	89.69
509.021	94.69
509.238	75.69
509.454	90.69
509.67	72.69
509.887	75.69
510.103	87.69
510.319	84.69
510.536	90.69
510.752	87.69
510.968	85.69
511.184	87.69
511.401	94.69
511.617	96.69
511.833	68.69
512.049	86.69
512.265	78.69
512.481	88.69
512.698	80.69
512.914	103.69
513.13	87.69
513.346	102.69
513.562	88.69
513.778	88.69
513.994	92.69
514.21	88.69
514.426	87.69
514.642	98.69
514.858	110.69
515.074	79.69
515.29	98.69
515.506	97.69
515.721	89.69
515.937	92.69
516.153	88.69
