Data from 237_2_HRD10591_00011.txt Node
Date: Mon Jan 19 14:11:36 EST 2026
User: Yrep
Spectrometer: HR+D1059
Trigger mode: 1
Integration Time (sec): 1.000000E-1
Scans to average: 1
Electric dark correction enabled: true
Nonlinearity correction enabled: false
Boxcar width: 0
XAxis mode: Wavelengths
Number of Pixels in Spectrum: 2048
>>>>>Begin Spectral Data<<<<<
223.165	-5.62
223.4	-5.62
223.635	-5.62
223.869	-11.62
224.104	-30.62
224.338	-24.62
224.573	-12.62
224.808	-12.62
225.042	-6.62
225.277	-6.62
225.511	16.38
225.746	7.38
225.98	5.38
226.215	15.38
226.449	0.38
226.683	8.38
226.918	33.38
227.152	24.38
227.387	21.38
227.621	35.38
227.856	54.38
228.09	52.38
228.324	59.38
228.559	65.38
228.793	53.38
229.027	57.38
229.262	57.38
229.496	61.38
229.73	62.38
229.964	75.38
230.199	79.38
230.433	61.38
230.667	58.38
230.901	65.38
231.136	82.38
231.37	75.38
231.604	88.38
231.838	73.38
232.072	80.38
232.306	80.38
232.541	72.38
232.775	80.38
233.009	85.38
233.243	78.38
233.477	80.38
233.711	61.38
233.945	68.38
234.179	83.38
234.413	88.38
234.647	75.38
234.881	73.38
235.115	88.38
235.349	90.38
235.583	72.38
235.817	86.38
236.051	67.38
236.285	90.38
236.519	87.38
236.753	84.38
236.987	82.38
237.221	69.38
237.455	80.38
237.689	71.38
237.922	88.38
238.156	79.38
238.39	69.38
238.624	74.38
238.858	73.38
239.091	76.38
239.325	62.38
239.559	84.38
239.793	83.38
240.027	89.38
240.26	74.38
240.494	74.38
240.728	60.38
240.961	73.38
241.195	82.38
241.429	71.38
241.662	79.38
241.896	83.38
242.13	75.38
242.363	72.38
242.597	70.38
242.83	95.38
243.064	72.38
243.298	76.38
243.531	79.38
243.765	76.38
243.998	80.38
244.232	66.38
244.465	78.38
244.699	93.38
244.932	61.38
245.166	76.38
245.399	76.38
245.633	70.38
245.866	79.38
246.099	69.38
246.333	85.38
246.566	80.38
246.8	61.38
247.033	81.38
247.266	86.38
247.5	72.38
247.733	69.38
247.966	80.38
248.2	89.38
248.433	84.38
248.666	80.38
248.899	83.38
249.133	81.38
249.366	84.38
249.599	72.38
249.832	89.38
250.066	90.38
250.299	76.38
250.532	81.38
250.765	83.38
250.998	73.38
251.231	76.38
251.465	70.38
251.698	71.38
251.931	81.38
252.164	68.38
252.397	75.38
252.63	79.38
252.863	75.38
253.096	77.38
253.329	78.38
253.562	86.38
253.795	76.38
254.028	89.38
254.261	74.38
254.494	73.38
254.727	79.38
254.96	75.38
255.193	75.38
255.426	81.38
255.659	71.38
255.892	79.38
256.124	89.38
256.357	83.38
256.59	80.38
256.823	74.38
257.056	74.38
257.289	70.38
257.521	85.38
257.754	97.38
257.987	74.38
258.22	88.38
258.452	67.38
258.685	83.38
258.918	78.38
259.151	82.38
259.383	81.38
259.616	60.38
259.849	81.38
260.081	92.38
260.314	87.38
260.547	75.38
260.779	73.38
261.012	73.38
261.244	83.38
261.477	111.38
261.71	86.38
261.942	89.38
262.175	77.38
262.407	71.38
262.64	76.38
262.872	80.38
263.105	70.38
263.337	90.38
263.57	73.38
263.802	70.38
264.035	83.38
264.267	93.38
264.499	80.38
264.732	67.38
264.964	81.38
265.197	78.38
265.429	86.38
265.661	85.38
265.894	87.38
266.126	100.38
266.358	67.38
266.591	83.38
266.823	82.38
267.055	81.38
267.287	83.38
267.52	84.38
267.752	73.38
267.984	87.38
268.216	71.38
268.448	79.38
268.681	73.38
268.913	84.38
269.145	88.38
269.377	83.38
269.609	72.38
269.841	65.38
270.073	78.38
270.306	84.38
270.538	80.38
270.77	76.38
271.002	73.38
271.234	83.38
271.466	73.38
271.698	76.38
271.93	84.38
272.162	89.38
272.394	76.38
272.626	79.38
272.858	72.38
273.09	66.38
273.322	87.38
273.553	71.38
273.785	70.38
274.017	81.38
274.249	87.38
274.481	73.38
274.713	91.38
274.945	85.38
275.176	61.38
275.408	88.38
275.64	73.38
275.872	88.38
276.104	89.38
276.335	82.38
276.567	94.38
276.799	71.38
277.031	97.38
277.262	81.38
277.494	90.38
277.726	85.38
277.957	91.38
278.189	85.38
278.421	84.38
278.652	74.38
278.884	102.38
279.115	75.38
279.347	76.38
279.579	83.38
279.81	83.38
280.042	99.38
280.273	90.38
280.505	98.38
280.736	83.38
280.968	74.38
281.199	89.38
281.431	66.38
281.662	71.38
281.894	78.38
282.125	85.38
282.356	75.38
282.588	89.38
282.819	88.38
283.051	81.38
283.282	74.38
283.513	77.38
283.745	89.38
283.976	88.38
284.207	96.38
284.439	81.38
284.67	64.38
284.901	69.38
285.132	93.38
285.364	95.38
285.595	91.38
285.826	101.38
286.057	90.38
286.288	89.38
286.52	76.38
286.751	91.38
286.982	91.38
287.213	91.38
287.444	80.38
287.675	86.38
287.906	86.38
288.138	76.38
288.369	74.38
288.6	79.38
288.831	85.38
289.062	76.38
289.293	74.38
289.524	72.38
289.755	91.38
289.986	84.38
290.217	78.38
290.448	98.38
290.679	79.38
290.91	80.38
291.141	89.38
291.371	88.38
291.602	76.38
291.833	96.38
292.064	88.38
292.295	86.38
292.526	82.38
292.757	89.38
292.987	88.38
293.218	76.38
293.449	88.38
293.68	84.38
293.91	91.38
294.141	96.38
294.372	71.38
294.603	79.38
294.833	73.38
295.064	90.38
295.295	83.38
295.525	85.38
295.756	80.38
295.987	86.38
296.217	80.38
296.448	93.38
296.679	83.38
296.909	80.38
297.14	70.38
297.37	82.38
297.601	93.38
297.831	94.38
298.062	90.38
298.292	72.38
298.523	88.38
298.753	80.38
298.984	85.38
299.214	79.38
299.445	71.38
299.675	90.38
299.905	85.38
300.136	95.38
300.366	97.38
300.597	89.38
300.827	79.38
301.057	89.38
301.288	76.38
301.518	94.38
301.748	73.38
301.979	97.38
302.209	89.38
302.439	87.38
302.669	76.38
302.9	89.38
303.13	75.38
303.36	98.38
303.59	85.38
303.82	89.38
304.051	81.38
304.281	84.38
304.511	81.38
304.741	76.38
304.971	82.38
305.201	76.38
305.431	91.38
305.661	86.38
305.891	63.38
306.121	87.38
306.352	64.38
306.582	76.38
306.812	83.38
307.042	91.38
307.272	84.38
307.502	84.38
307.731	87.38
307.961	86.38
308.191	88.38
308.421	93.38
308.651	86.38
308.881	71.38
309.111	83.38
309.341	72.38
309.571	102.38
309.8	82.38
310.03	87.38
310.26	82.38
310.49	110.38
310.72	83.38
310.949	77.38
311.179	70.38
311.409	72.38
311.639	82.38
311.868	89.38
312.098	103.38
312.328	83.38
312.557	79.38
312.787	71.38
313.017	85.38
313.246	93.38
313.476	77.38
313.706	84.38
313.935	68.38
314.165	82.38
314.394	90.38
314.624	86.38
314.853	85.38
315.083	81.38
315.312	78.38
315.542	94.38
315.771	75.38
316.001	93.38
316.23	84.38
316.46	85.38
316.689	84.38
316.919	82.38
317.148	93.38
317.377	93.38
317.607	88.38
317.836	94.38
318.065	91.38
318.295	85.38
318.524	95.38
318.753	82.38
318.983	82.38
319.212	90.38
319.441	81.38
319.67	95.38
319.9	89.38
320.129	89.38
320.358	85.38
320.587	83.38
320.816	86.38
321.046	83.38
321.275	90.38
321.504	80.38
321.733	70.38
321.962	76.38
322.191	91.38
322.42	97.38
322.649	81.38
322.878	85.38
323.108	83.38
323.337	74.38
323.566	89.38
323.795	74.38
324.024	90.38
324.253	99.38
324.482	92.38
324.71	84.38
324.939	94.38
325.168	82.38
325.397	89.38
325.626	87.38
325.855	61.38
326.084	79.38
326.313	91.38
326.542	86.38
326.77	88.38
326.999	71.38
327.228	70.38
327.457	82.38
327.686	81.38
327.914	87.38
328.143	76.38
328.372	80.38
328.6	77.38
328.829	77.38
329.058	86.38
329.287	78.38
329.515	94.38
329.744	80.38
329.972	83.38
330.201	81.38
330.43	85.38
330.658	84.38
330.887	114.38
331.115	94.38
331.344	83.38
331.572	76.38
331.801	89.38
332.03	85.38
332.258	76.38
332.486	83.38
332.715	88.38
332.943	80.38
333.172	84.38
333.4	73.38
333.629	103.38
333.857	90.38
334.085	73.38
334.314	88.38
334.542	67.38
334.771	90.38
334.999	82.38
335.227	83.38
335.455	64.38
335.684	80.38
335.912	91.38
336.14	89.38
336.369	89.38
336.597	89.38
336.825	95.38
337.053	93.38
337.281	86.38
337.51	84.38
337.738	86.38
337.966	90.38
338.194	84.38
338.422	87.38
338.65	81.38
338.878	81.38
339.106	82.38
339.334	85.38
339.562	84.38
339.79	93.38
340.018	86.38
340.246	79.38
340.474	81.38
340.702	91.38
340.93	86.38
341.158	79.38
341.386	90.38
341.614	76.38
341.842	75.38
342.07	73.38
342.298	62.38
342.526	82.38
342.754	90.38
342.981	83.38
343.209	86.38
343.437	96.38
343.665	88.38
343.893	90.38
344.12	87.38
344.348	87.38
344.576	85.38
344.804	85.38
345.031	73.38
345.259	81.38
345.487	89.38
345.714	79.38
345.942	93.38
346.17	81.38
346.397	83.38
346.625	85.38
346.853	97.38
347.08	78.38
347.308	98.38
347.535	80.38
347.763	87.38
347.99	91.38
348.218	78.38
348.445	66.38
348.673	72.38
348.9	79.38
349.128	90.38
349.355	81.38
349.583	82.38
349.81	87.38
350.037	78.38
350.265	76.38
350.492	74.38
350.72	76.38
350.947	90.38
351.174	81.38
351.402	82.38
351.629	89.38
351.856	83.38
352.083	85.38
352.311	81.38
352.538	87.38
352.765	87.38
352.992	89.38
353.22	86.38
353.447	70.38
353.674	90.38
353.901	96.38
354.128	84.38
354.355	88.38
354.583	93.38
354.81	82.38
355.037	79.38
355.264	78.38
355.491	81.38
355.718	77.38
355.945	94.38
356.172	74.38
356.399	80.38
356.626	87.38
356.853	95.38
357.08	87.38
357.307	83.38
357.534	83.38
357.761	95.38
357.988	92.38
358.215	85.38
358.441	79.38
358.668	75.38
358.895	79.38
359.122	78.38
359.349	73.38
359.576	89.38
359.802	94.38
360.029	80.38
360.256	72.38
360.483	78.38
360.709	88.38
360.936	89.38
361.163	88.38
361.39	78.38
361.616	70.38
361.843	86.38
362.07	97.38
362.296	95.38
362.523	103.38
362.749	86.38
362.976	93.38
363.203	105.38
363.429	73.38
363.656	93.38
363.882	98.38
364.109	107.38
364.335	119.38
364.562	106.38
364.788	94.38
365.015	81.38
365.241	76.38
365.468	98.38
365.694	106.38
365.92	74.38
366.147	73.38
366.373	94.38
366.599	90.38
366.826	91.38
367.052	83.38
367.278	93.38
367.505	95.38
367.731	87.38
367.957	78.38
368.184	84.38
368.41	82.38
368.636	78.38
368.862	102.38
369.089	92.38
369.315	71.38
369.541	71.38
369.767	84.38
369.993	90.38
370.219	87.38
370.445	101.38
370.672	80.38
370.898	82.38
371.124	82.38
371.35	96.38
371.576	93.38
371.802	88.38
372.028	81.38
372.254	94.38
372.48	93.38
372.706	97.38
372.932	97.38
373.158	93.38
373.384	85.38
373.61	100.38
373.835	80.38
374.061	88.38
374.287	82.38
374.513	84.38
374.739	99.38
374.965	87.38
375.191	87.38
375.416	97.38
375.642	93.38
375.868	85.38
376.094	79.38
376.319	87.38
376.545	82.38
376.771	92.38
376.997	89.38
377.222	97.38
377.448	75.38
377.674	83.38
377.899	85.38
378.125	87.38
378.35	91.38
378.576	78.38
378.802	84.38
379.027	91.38
379.253	91.38
379.478	98.38
379.704	89.38
379.929	88.38
380.155	87.38
380.38	91.38
380.606	77.38
380.831	79.38
381.057	85.38
381.282	83.38
381.507	69.38
381.733	93.38
381.958	80.38
382.184	90.38
382.409	87.38
382.634	76.38
382.86	96.38
383.085	85.38
383.31	85.38
383.535	90.38
383.761	85.38
383.986	79.38
384.211	88.38
384.436	89.38
384.662	94.38
384.887	90.38
385.112	87.38
385.337	80.38
385.562	97.38
385.787	92.38
386.013	82.38
386.238	91.38
386.463	83.38
386.688	99.38
386.913	100.38
387.138	86.38
387.363	94.38
387.588	95.38
387.813	94.38
388.038	88.38
388.263	93.38
388.488	81.38
388.713	101.38
388.938	98.38
389.163	98.38
389.387	85.38
389.612	85.38
389.837	85.38
390.062	71.38
390.287	99.38
390.512	88.38
390.736	87.38
390.961	80.38
391.186	77.38
391.411	75.38
391.636	79.38
391.86	64.38
392.085	88.38
392.31	82.38
392.534	80.38
392.759	98.38
392.984	107.38
393.208	174.38
393.433	213.38
393.658	186.38
393.882	106.38
394.107	83.38
394.331	96.38
394.556	92.38
394.78	102.38
395.005	76.38
395.229	85.38
395.454	83.38
395.678	93.38
395.903	101.38
396.127	101.38
396.352	115.38
396.576	128.38
396.801	168.38
397.025	187.38
397.249	132.38
397.474	96.38
397.698	95.38
397.922	90.38
398.147	69.38
398.371	67.38
398.595	90.38
398.82	71.38
399.044	84.38
399.268	79.38
399.492	83.38
399.717	91.38
399.941	89.38
400.165	72.38
400.389	86.38
400.613	85.38
400.837	91.38
401.062	67.38
401.286	91.38
401.51	91.38
401.734	80.38
401.958	82.38
402.182	86.38
402.406	71.38
402.63	85.38
402.854	84.38
403.078	77.38
403.302	81.38
403.526	82.38
403.75	89.38
403.974	82.38
404.198	91.38
404.422	94.38
404.645	75.38
404.869	98.38
405.093	82.38
405.317	88.38
405.541	74.38
405.765	87.38
405.988	90.38
406.212	78.38
406.436	77.38
406.66	87.38
406.883	93.38
407.107	94.38
407.331	78.38
407.555	87.38
407.778	103.38
408.002	93.38
408.226	86.38
408.449	89.38
408.673	56.38
408.896	80.38
409.12	73.38
409.344	90.38
409.567	80.38
409.791	83.38
410.014	88.38
410.238	87.38
410.461	81.38
410.685	72.38
410.908	75.38
411.132	79.38
411.355	88.38
411.578	61.38
411.802	82.38
412.025	71.38
412.249	78.38
412.472	91.38
412.695	73.38
412.919	86.38
413.142	88.38
413.365	81.38
413.589	76.38
413.812	81.38
414.035	89.38
414.258	81.38
414.482	87.38
414.705	77.38
414.928	80.38
415.151	90.38
415.374	83.38
415.597	74.38
415.821	83.38
416.044	86.38
416.267	71.38
416.49	75.38
416.713	77.38
416.936	84.38
417.159	73.38
417.382	71.38
417.605	79.38
417.828	69.38
418.051	75.38
418.274	89.38
418.497	67.38
418.72	65.38
418.943	95.38
419.166	79.38
419.389	74.38
419.611	97.38
419.834	77.38
420.057	86.38
420.28	86.38
420.503	93.38
420.726	87.38
420.948	73.38
421.171	89.38
421.394	97.38
421.617	93.38
421.839	83.38
422.062	107.38
422.285	120.38
422.507	168.38
422.73	249.38
422.953	245.38
423.175	126.38
423.398	106.38
423.621	98.38
423.843	95.38
424.066	84.38
424.288	71.38
424.511	87.38
424.733	79.38
424.956	69.38
425.178	70.38
425.401	81.38
425.623	81.38
425.846	74.38
426.068	79.38
426.291	79.38
426.513	86.38
426.735	83.38
426.958	73.38
427.18	83.38
427.402	84.38
427.625	93.38
427.847	87.38
428.069	89.38
428.292	98.38
428.514	111.38
428.736	90.38
428.958	95.38
429.181	120.38
429.403	82.38
429.625	80.38
429.847	97.38
430.069	132.38
430.292	125.38
430.514	119.38
430.736	99.38
430.958	96.38
431.18	91.38
431.402	89.38
431.624	86.38
431.846	105.38
432.068	109.38
432.29	75.38
432.512	88.38
432.734	93.38
432.956	86.38
433.178	81.38
433.4	73.38
433.622	88.38
433.844	73.38
434.066	74.38
434.287	85.38
434.509	79.38
434.731	75.38
434.953	80.38
435.175	78.38
435.397	83.38
435.618	102.38
435.84	96.38
436.062	91.38
436.284	96.38
436.505	63.38
436.727	76.38
436.949	87.38
437.17	74.38
437.392	83.38
437.614	79.38
437.835	89.38
438.057	79.38
438.278	76.38
438.5	83.38
438.721	77.38
438.943	77.38
439.165	82.38
439.386	87.38
439.608	86.38
439.829	82.38
440.05	83.38
440.272	84.38
440.493	81.38
440.715	85.38
440.936	81.38
441.158	90.38
441.379	82.38
441.6	89.38
441.822	73.38
442.043	76.38
442.264	80.38
442.486	105.38
442.707	125.38
442.928	101.38
443.149	103.38
443.371	113.38
443.592	165.38
443.813	136.38
444.034	85.38
444.255	93.38
444.476	81.38
444.698	88.38
444.919	71.38
445.14	198.38
445.361	162.38
445.582	203.38
445.803	156.38
446.024	109.38
446.245	79.38
446.466	84.38
446.687	71.38
446.908	79.38
447.129	81.38
447.35	85.38
447.571	94.38
447.792	67.38
448.013	83.38
448.234	81.38
448.455	74.38
448.675	92.38
448.896	97.38
449.117	75.38
449.338	74.38
449.559	73.38
449.779	80.38
450	74.38
450.221	84.38
450.442	69.38
450.662	84.38
450.883	97.38
451.104	67.38
451.324	76.38
451.545	74.38
451.766	73.38
451.986	69.38
452.207	81.38
452.428	90.38
452.648	86.38
452.869	87.38
453.089	80.38
453.31	95.38
453.53	102.38
453.751	84.38
453.971	77.38
454.192	79.38
454.412	75.38
454.633	86.38
454.853	79.38
455.073	74.38
455.294	79.38
455.514	79.38
455.734	75.38
455.955	86.38
456.175	82.38
456.395	85.38
456.616	80.38
456.836	95.38
457.056	73.38
457.276	71.38
457.497	89.38
457.717	91.38
457.937	102.38
458.157	111.38
458.377	93.38
458.598	119.38
458.818	102.38
459.038	98.38
459.258	85.38
459.478	80.38
459.698	98.38
459.918	86.38
460.138	88.38
460.358	85.38
460.578	79.38
460.798	114.38
461.018	99.38
461.238	73.38
461.458	80.38
461.678	78.38
461.898	87.38
462.118	90.38
462.338	85.38
462.558	73.38
462.777	89.38
462.997	85.38
463.217	89.38
463.437	80.38
463.657	89.38
463.876	71.38
464.096	83.38
464.316	71.38
464.536	86.38
464.755	85.38
464.975	73.38
465.195	93.38
465.414	75.38
465.634	78.38
465.854	95.38
466.073	68.38
466.293	75.38
466.512	79.38
466.732	100.38
466.951	73.38
467.171	87.38
467.391	83.38
467.61	74.38
467.829	83.38
468.049	72.38
468.268	83.38
468.488	88.38
468.707	79.38
468.927	83.38
469.146	78.38
469.365	73.38
469.585	87.38
469.804	78.38
470.023	83.38
470.243	79.38
470.462	75.38
470.681	91.38
470.901	75.38
471.12	72.38
471.339	81.38
471.558	74.38
471.777	85.38
471.997	79.38
472.216	92.38
472.435	90.38
472.654	75.38
472.873	77.38
473.092	86.38
473.311	82.38
473.53	77.38
473.749	76.38
473.968	64.38
474.187	79.38
474.406	70.38
474.625	81.38
474.844	84.38
475.063	88.38
475.282	84.38
475.501	95.38
475.72	89.38
475.939	92.38
476.158	89.38
476.377	77.38
476.596	81.38
476.814	86.38
477.033	80.38
477.252	83.38
477.471	78.38
477.69	89.38
477.908	74.38
478.127	75.38
478.346	85.38
478.564	85.38
478.783	87.38
479.002	88.38
479.22	94.38
479.439	81.38
479.658	69.38
479.876	101.38
480.095	74.38
480.313	72.38
480.532	85.38
480.751	75.38
480.969	85.38
481.188	95.38
481.406	71.38
481.624	81.38
481.843	74.38
482.061	84.38
482.28	78.38
482.498	93.38
482.717	102.38
482.935	81.38
483.153	93.38
483.372	97.38
483.59	91.38
483.808	86.38
484.027	87.38
484.245	89.38
484.463	89.38
484.681	85.38
484.9	92.38
485.118	89.38
485.336	70.38
485.554	75.38
485.772	79.38
485.99	103.38
486.209	82.38
486.427	81.38
486.645	73.38
486.863	95.38
487.081	83.38
487.299	64.38
487.517	91.38
487.735	101.38
487.953	118.38
488.171	106.38
488.389	96.38
488.607	90.38
488.825	80.38
489.043	87.38
489.261	89.38
489.479	80.38
489.696	87.38
489.914	98.38
490.132	90.38
490.35	82.38
490.568	77.38
490.786	83.38
491.003	60.38
491.221	77.38
491.439	76.38
491.657	84.38
491.874	75.38
492.092	80.38
492.31	80.38
492.527	93.38
492.745	69.38
492.963	88.38
493.18	72.38
493.398	86.38
493.615	90.38
493.833	110.38
494.05	90.38
494.268	92.38
494.485	84.38
494.703	99.38
494.92	69.38
495.138	74.38
495.355	85.38
495.573	75.38
495.79	83.38
496.008	84.38
496.225	88.38
496.442	88.38
496.66	85.38
496.877	87.38
497.094	90.38
497.312	78.38
497.529	90.38
497.746	104.38
497.963	92.38
498.181	93.38
498.398	88.38
498.615	76.38
498.832	61.38
499.049	88.38
499.267	89.38
499.484	85.38
499.701	84.38
499.918	93.38
500.135	75.38
500.352	113.38
500.569	79.38
500.786	93.38
501.003	90.38
501.22	78.38
501.437	73.38
501.654	93.38
501.871	70.38
502.088	82.38
502.305	75.38
502.522	93.38
502.739	84.38
502.956	93.38
503.172	74.38
503.389	95.38
503.606	86.38
503.823	82.38
504.04	89.38
504.256	104.38
504.473	96.38
504.69	85.38
504.907	97.38
505.123	68.38
505.34	92.38
505.557	85.38
505.773	87.38
505.99	81.38
506.207	77.38
506.423	81.38
506.64	81.38
506.856	110.38
507.073	83.38
507.289	91.38
507.506	103.38
507.722	75.38
507.939	78.38
508.155	83.38
508.372	76.38
508.588	90.38
508.805	98.38
509.021	79.38
509.238	73.38
509.454	86.38
509.67	85.38
509.887	88.38
510.103	78.38
510.319	90.38
510.536	88.38
510.752	89.38
510.968	83.38
511.184	84.38
511.401	86.38
511.617	69.38
511.833	73.38
512.049	84.38
512.265	93.38
512.481	87.38
512.698	79.38
512.914	88.38
513.13	96.38
513.346	76.38
513.562	85.38
513.778	101.38
513.994	86.38
514.21	73.38
514.426	93.38
514.642	78.38
514.858	97.38
515.074	63.38
515.29	92.38
515.506	84.38
515.721	74.38
515.937	88.38
516.153	85.38
516.369	71.38
516.585	101.38
516.801	79.38
517.016	84.38
517.232	88.38
517.448	94.38
517.664	88.38
517.879	83.38
518.095	74.38
518.311	72.38
518.527	90.38
518.742	88.38
518.958	112.38
519.173	113.38
