Data from 237_2_HRD10591_00001.txt Node
Date: Mon Jan 19 14:11:31 EST 2026
User: Yrep
Spectrometer: HR+D1059
Trigger mode: 1
Integration Time (sec): 1.000000E-1
Scans to average: 1
Electric dark correction enabled: true
Nonlinearity correction enabled: false
Boxcar width: 0
XAxis mode: Wavelengths
Number of Pixels in Spectrum: 2048
>>>>>Begin Spectral Data<<<<<
223.165	-13.5
223.4	-13.5
223.635	-13.5
223.869	-21.5
224.104	-11.5
224.338	-26.5
224.573	-11.5
224.808	-22.5
225.042	-3.5
225.277	-8.5
225.511	-5.5
225.746	0.5
225.98	3.5
226.215	17.5
226.449	27.5
226.683	21.5
226.918	19.5
227.152	34.5
227.387	33.5
227.621	36.5
227.856	54.5
228.09	50.5
228.324	63.5
228.559	62.5
228.793	59.5
229.027	55.5
229.262	70.5
229.496	57.5
229.73	76.5
229.964	84.5
230.199	67.5
230.433	77.5
230.667	70.5
230.901	86.5
231.136	80.5
231.37	85.5
231.604	73.5
231.838	81.5
232.072	82.5
232.306	80.5
232.541	98.5
232.775	78.5
233.009	94.5
233.243	93.5
233.477	83.5
233.711	74.5
233.945	95.5
234.179	79.5
234.413	92.5
234.647	80.5
234.881	90.5
235.115	84.5
235.349	97.5
235.583	87.5
235.817	82.5
236.051	98.5
236.285	84.5
236.519	86.5
236.753	71.5
236.987	83.5
237.221	81.5
237.455	88.5
237.689	77.5
237.922	69.5
238.156	88.5
238.39	82.5
238.624	79.5
238.858	77.5
239.091	83.5
239.325	74.5
239.559	88.5
239.793	92.5
240.027	82.5
240.26	74.5
240.494	78.5
240.728	72.5
240.961	74.5
241.195	81.5
241.429	78.5
241.662	66.5
241.896	77.5
242.13	71.5
242.363	71.5
242.597	80.5
242.83	84.5
243.064	90.5
243.298	92.5
243.531	95.5
243.765	87.5
243.998	77.5
244.232	82.5
244.465	78.5
244.699	90.5
244.932	75.5
245.166	73.5
245.399	79.5
245.633	73.5
245.866	96.5
246.099	85.5
246.333	72.5
246.566	85.5
246.8	74.5
247.033	80.5
247.266	87.5
247.5	82.5
247.733	81.5
247.966	79.5
248.2	90.5
248.433	82.5
248.666	76.5
248.899	79.5
249.133	79.5
249.366	93.5
249.599	84.5
249.832	78.5
250.066	80.5
250.299	77.5
250.532	79.5
250.765	91.5
250.998	81.5
251.231	85.5
251.465	85.5
251.698	78.5
251.931	91.5
252.164	98.5
252.397	80.5
252.63	69.5
252.863	85.5
253.096	90.5
253.329	75.5
253.562	86.5
253.795	87.5
254.028	87.5
254.261	85.5
254.494	85.5
254.727	87.5
254.96	91.5
255.193	88.5
255.426	92.5
255.659	94.5
255.892	80.5
256.124	86.5
256.357	86.5
256.59	89.5
256.823	90.5
257.056	78.5
257.289	78.5
257.521	91.5
257.754	93.5
257.987	70.5
258.22	90.5
258.452	69.5
258.685	76.5
258.918	74.5
259.151	79.5
259.383	94.5
259.616	84.5
259.849	80.5
260.081	85.5
260.314	75.5
260.547	98.5
260.779	74.5
261.012	74.5
261.244	86.5
261.477	86.5
261.71	84.5
261.942	92.5
262.175	78.5
262.407	74.5
262.64	87.5
262.872	78.5
263.105	85.5
263.337	93.5
263.57	81.5
263.802	97.5
264.035	88.5
264.267	74.5
264.499	94.5
264.732	91.5
264.964	93.5
265.197	87.5
265.429	80.5
265.661	89.5
265.894	88.5
266.126	88.5
266.358	83.5
266.591	73.5
266.823	72.5
267.055	95.5
267.287	105.5
267.52	88.5
267.752	80.5
267.984	104.5
268.216	90.5
268.448	95.5
268.681	83.5
268.913	83.5
269.145	69.5
269.377	80.5
269.609	98.5
269.841	88.5
270.073	106.5
270.306	77.5
270.538	85.5
270.77	94.5
271.002	78.5
271.234	78.5
271.466	79.5
271.698	83.5
271.93	82.5
272.162	92.5
272.394	78.5
272.626	78.5
272.858	95.5
273.09	77.5
273.322	81.5
273.553	82.5
273.785	87.5
274.017	84.5
274.249	93.5
274.481	86.5
274.713	93.5
274.945	90.5
275.176	78.5
275.408	100.5
275.64	80.5
275.872	77.5
276.104	83.5
276.335	78.5
276.567	98.5
276.799	85.5
277.031	79.5
277.262	79.5
277.494	84.5
277.726	92.5
277.957	83.5
278.189	75.5
278.421	80.5
278.652	79.5
278.884	67.5
279.115	87.5
279.347	88.5
279.579	88.5
279.81	77.5
280.042	89.5
280.273	84.5
280.505	90.5
280.736	82.5
280.968	88.5
281.199	89.5
281.431	79.5
281.662	80.5
281.894	90.5
282.125	88.5
282.356	80.5
282.588	83.5
282.819	83.5
283.051	88.5
283.282	96.5
283.513	90.5
283.745	86.5
283.976	86.5
284.207	78.5
284.439	88.5
284.67	90.5
284.901	79.5
285.132	82.5
285.364	87.5
285.595	96.5
285.826	95.5
286.057	87.5
286.288	92.5
286.52	86.5
286.751	82.5
286.982	89.5
287.213	75.5
287.444	88.5
287.675	94.5
287.906	94.5
288.138	90.5
288.369	86.5
288.6	76.5
288.831	91.5
289.062	95.5
289.293	94.5
289.524	76.5
289.755	72.5
289.986	94.5
290.217	84.5
290.448	86.5
290.679	96.5
290.91	93.5
291.141	109.5
291.371	88.5
291.602	88.5
291.833	68.5
292.064	91.5
292.295	90.5
292.526	89.5
292.757	88.5
292.987	90.5
293.218	84.5
293.449	80.5
293.68	90.5
293.91	85.5
294.141	112.5
294.372	93.5
294.603	86.5
294.833	91.5
295.064	89.5
295.295	95.5
295.525	79.5
295.756	74.5
295.987	94.5
296.217	89.5
296.448	85.5
296.679	94.5
296.909	85.5
297.14	102.5
297.37	93.5
297.601	94.5
297.831	95.5
298.062	84.5
298.292	85.5
298.523	88.5
298.753	77.5
298.984	88.5
299.214	86.5
299.445	92.5
299.675	95.5
299.905	76.5
300.136	90.5
300.366	90.5
300.597	81.5
300.827	88.5
301.057	85.5
301.288	94.5
301.518	92.5
301.748	91.5
301.979	92.5
302.209	88.5
302.439	98.5
302.669	77.5
302.9	87.5
303.13	76.5
303.36	88.5
303.59	86.5
303.82	86.5
304.051	80.5
304.281	92.5
304.511	93.5
304.741	98.5
304.971	78.5
305.201	89.5
305.431	99.5
305.661	100.5
305.891	104.5
306.121	92.5
306.352	79.5
306.582	101.5
306.812	81.5
307.042	102.5
307.272	87.5
307.502	79.5
307.731	88.5
307.961	91.5
308.191	100.5
308.421	96.5
308.651	80.5
308.881	99.5
309.111	100.5
309.341	94.5
309.571	88.5
309.8	98.5
310.03	86.5
310.26	87.5
310.49	103.5
310.72	87.5
310.949	93.5
311.179	80.5
311.409	84.5
311.639	80.5
311.868	101.5
312.098	88.5
312.328	95.5
312.557	93.5
312.787	93.5
313.017	94.5
313.246	86.5
313.476	94.5
313.706	91.5
313.935	92.5
314.165	90.5
314.394	84.5
314.624	78.5
314.853	95.5
315.083	86.5
315.312	84.5
315.542	80.5
315.771	81.5
316.001	89.5
316.23	84.5
316.46	100.5
316.689	94.5
316.919	93.5
317.148	90.5
317.377	83.5
317.607	86.5
317.836	87.5
318.065	86.5
318.295	79.5
318.524	90.5
318.753	86.5
318.983	91.5
319.212	95.5
319.441	103.5
319.67	84.5
319.9	84.5
320.129	83.5
320.358	94.5
320.587	100.5
320.816	87.5
321.046	84.5
321.275	86.5
321.504	92.5
321.733	95.5
321.962	91.5
322.191	75.5
322.42	88.5
322.649	85.5
322.878	77.5
323.108	79.5
323.337	94.5
323.566	103.5
323.795	85.5
324.024	81.5
324.253	90.5
324.482	105.5
324.71	89.5
324.939	89.5
325.168	104.5
325.397	72.5
325.626	79.5
325.855	91.5
326.084	95.5
326.313	89.5
326.542	79.5
326.77	99.5
326.999	101.5
327.228	99.5
327.457	80.5
327.686	99.5
327.914	86.5
328.143	90.5
328.372	70.5
328.6	98.5
328.829	86.5
329.058	89.5
329.287	84.5
329.515	90.5
329.744	91.5
329.972	84.5
330.201	84.5
330.43	80.5
330.658	92.5
330.887	90.5
331.115	90.5
331.344	67.5
331.572	96.5
331.801	80.5
332.03	96.5
332.258	72.5
332.486	92.5
332.715	87.5
332.943	95.5
333.172	86.5
333.4	74.5
333.629	96.5
333.857	90.5
334.085	102.5
334.314	102.5
334.542	109.5
334.771	102.5
334.999	105.5
335.227	99.5
335.455	102.5
335.684	97.5
335.912	86.5
336.14	87.5
336.369	98.5
336.597	86.5
336.825	88.5
337.053	91.5
337.281	98.5
337.51	97.5
337.738	81.5
337.966	99.5
338.194	87.5
338.422	92.5
338.65	82.5
338.878	87.5
339.106	88.5
339.334	107.5
339.562	91.5
339.79	84.5
340.018	91.5
340.246	80.5
340.474	96.5
340.702	83.5
340.93	90.5
341.158	76.5
341.386	87.5
341.614	84.5
341.842	90.5
342.07	93.5
342.298	90.5
342.526	94.5
342.754	88.5
342.981	88.5
343.209	89.5
343.437	108.5
343.665	81.5
343.893	95.5
344.12	89.5
344.348	78.5
344.576	90.5
344.804	92.5
345.031	86.5
345.259	98.5
345.487	101.5
345.714	82.5
345.942	80.5
346.17	94.5
346.397	90.5
346.625	89.5
346.853	92.5
347.08	77.5
347.308	89.5
347.535	98.5
347.763	94.5
347.99	98.5
348.218	94.5
348.445	78.5
348.673	72.5
348.9	92.5
349.128	92.5
349.355	92.5
349.583	96.5
349.81	93.5
350.037	86.5
350.265	89.5
350.492	101.5
350.72	81.5
350.947	93.5
351.174	91.5
351.402	98.5
351.629	94.5
351.856	86.5
352.083	101.5
352.311	89.5
352.538	85.5
352.765	86.5
352.992	102.5
353.22	78.5
353.447	87.5
353.674	95.5
353.901	91.5
354.128	86.5
354.355	81.5
354.583	99.5
354.81	95.5
355.037	93.5
355.264	88.5
355.491	94.5
355.718	84.5
355.945	94.5
356.172	88.5
356.399	98.5
356.626	78.5
356.853	79.5
357.08	82.5
357.307	87.5
357.534	76.5
357.761	88.5
357.988	93.5
358.215	107.5
358.441	95.5
358.668	100.5
358.895	100.5
359.122	90.5
359.349	87.5
359.576	94.5
359.802	99.5
360.029	86.5
360.256	94.5
360.483	91.5
360.709	85.5
360.936	97.5
361.163	93.5
361.39	105.5
361.616	108.5
361.843	100.5
362.07	95.5
362.296	103.5
362.523	91.5
362.749	107.5
362.976	132.5
363.203	117.5
363.429	102.5
363.656	118.5
363.882	106.5
364.109	110.5
364.335	125.5
364.562	124.5
364.788	104.5
365.015	92.5
365.241	88.5
365.468	108.5
365.694	98.5
365.92	99.5
366.147	95.5
366.373	88.5
366.599	85.5
366.826	95.5
367.052	94.5
367.278	91.5
367.505	79.5
367.731	97.5
367.957	100.5
368.184	87.5
368.41	91.5
368.636	103.5
368.862	103.5
369.089	93.5
369.315	94.5
369.541	103.5
369.767	103.5
369.993	80.5
370.219	88.5
370.445	83.5
370.672	97.5
370.898	92.5
371.124	85.5
371.35	84.5
371.576	86.5
371.802	99.5
372.028	104.5
372.254	101.5
372.48	100.5
372.706	91.5
372.932	95.5
373.158	99.5
373.384	98.5
373.61	99.5
373.835	110.5
374.061	101.5
374.287	109.5
374.513	101.5
374.739	95.5
374.965	100.5
375.191	100.5
375.416	88.5
375.642	88.5
375.868	93.5
376.094	104.5
376.319	106.5
376.545	102.5
376.771	77.5
376.997	72.5
377.222	83.5
377.448	75.5
377.674	89.5
377.899	84.5
378.125	81.5
378.35	95.5
378.576	100.5
378.802	86.5
379.027	96.5
379.253	88.5
379.478	95.5
379.704	103.5
379.929	98.5
380.155	98.5
380.38	92.5
380.606	87.5
380.831	87.5
381.057	103.5
381.282	94.5
381.507	92.5
381.733	80.5
381.958	83.5
382.184	108.5
382.409	84.5
382.634	114.5
382.86	87.5
383.085	95.5
383.31	108.5
383.535	90.5
383.761	98.5
383.986	104.5
384.211	117.5
384.436	84.5
384.662	88.5
384.887	92.5
385.112	88.5
385.337	94.5
385.562	91.5
385.787	105.5
386.013	113.5
386.238	88.5
386.463	94.5
386.688	103.5
386.913	94.5
387.138	98.5
387.363	98.5
387.588	95.5
387.813	98.5
388.038	98.5
388.263	94.5
388.488	84.5
388.713	94.5
388.938	106.5
389.163	94.5
389.387	90.5
389.612	74.5
389.837	88.5
390.062	105.5
390.287	98.5
390.512	79.5
390.736	87.5
390.961	95.5
391.186	100.5
391.411	94.5
391.636	80.5
391.86	92.5
392.085	87.5
392.31	89.5
392.534	97.5
392.759	110.5
392.984	123.5
393.208	183.5
393.433	233.5
393.658	196.5
393.882	118.5
394.107	106.5
394.331	108.5
394.556	111.5
394.78	93.5
395.005	98.5
395.229	101.5
395.454	100.5
395.678	108.5
395.903	123.5
396.127	118.5
396.352	131.5
396.576	146.5
396.801	178.5
397.025	206.5
397.249	144.5
397.474	108.5
397.698	106.5
397.922	92.5
398.147	97.5
398.371	82.5
398.595	98.5
398.82	82.5
399.044	107.5
399.268	92.5
399.492	80.5
399.717	88.5
399.941	87.5
400.165	87.5
400.389	87.5
400.613	74.5
400.837	95.5
401.062	87.5
401.286	87.5
401.51	82.5
401.734	84.5
401.958	91.5
402.182	102.5
402.406	79.5
402.63	86.5
402.854	92.5
403.078	90.5
403.302	99.5
403.526	98.5
403.75	79.5
403.974	74.5
404.198	88.5
404.422	112.5
404.645	118.5
404.869	106.5
405.093	100.5
405.317	89.5
405.541	84.5
405.765	81.5
405.988	86.5
406.212	92.5
406.436	97.5
406.66	98.5
406.883	99.5
407.107	100.5
407.331	96.5
407.555	94.5
407.778	103.5
408.002	110.5
408.226	99.5
408.449	84.5
408.673	91.5
408.896	95.5
409.12	85.5
409.344	101.5
409.567	123.5
409.791	93.5
410.014	97.5
410.238	115.5
410.461	90.5
410.685	94.5
410.908	78.5
411.132	89.5
411.355	94.5
411.578	92.5
411.802	85.5
412.025	85.5
412.249	87.5
412.472	93.5
412.695	91.5
412.919	77.5
413.142	94.5
413.365	94.5
413.589	94.5
413.812	85.5
414.035	86.5
414.258	89.5
414.482	86.5
414.705	86.5
414.928	78.5
415.151	82.5
415.374	98.5
415.597	89.5
415.821	83.5
416.044	101.5
416.267	94.5
416.49	87.5
416.713	104.5
416.936	80.5
417.159	74.5
417.382	71.5
417.605	96.5
417.828	93.5
418.051	102.5
418.274	74.5
418.497	99.5
418.72	76.5
418.943	92.5
419.166	92.5
419.389	96.5
419.611	88.5
419.834	93.5
420.057	93.5
420.28	90.5
420.503	85.5
420.726	102.5
420.948	88.5
421.171	93.5
421.394	89.5
421.617	117.5
421.839	124.5
422.062	132.5
422.285	170.5
422.507	258.5
422.73	356.5
422.953	334.5
423.175	202.5
423.398	141.5
423.621	118.5
423.843	100.5
424.066	110.5
424.288	103.5
424.511	97.5
424.733	99.5
424.956	89.5
425.178	103.5
425.401	89.5
425.623	95.5
425.846	108.5
426.068	91.5
426.291	77.5
426.513	94.5
426.735	97.5
426.958	70.5
427.18	102.5
427.402	93.5
427.625	90.5
427.847	80.5
428.069	123.5
428.292	125.5
428.514	143.5
428.736	130.5
428.958	128.5
429.181	147.5
429.403	110.5
429.625	109.5
429.847	140.5
430.069	164.5
430.292	182.5
430.514	156.5
430.736	147.5
430.958	136.5
431.18	107.5
431.402	106.5
431.624	101.5
431.846	139.5
432.068	130.5
432.29	98.5
432.512	106.5
432.734	92.5
432.956	90.5
433.178	92.5
433.4	93.5
433.622	91.5
433.844	88.5
434.066	95.5
434.287	76.5
434.509	89.5
434.731	108.5
434.953	90.5
435.175	87.5
435.397	99.5
435.618	91.5
435.84	101.5
436.062	95.5
436.284	79.5
436.505	84.5
436.727	98.5
436.949	91.5
437.17	90.5
437.392	89.5
437.614	104.5
437.835	87.5
438.057	91.5
438.278	100.5
438.5	105.5
438.721	100.5
438.943	79.5
439.165	94.5
439.386	86.5
439.608	87.5
439.829	90.5
440.05	106.5
440.272	88.5
440.493	105.5
440.715	91.5
440.936	87.5
441.158	90.5
441.379	109.5
441.6	97.5
441.822	102.5
442.043	100.5
442.264	94.5
442.486	132.5
442.707	156.5
442.928	111.5
443.149	123.5
443.371	142.5
443.592	239.5
443.813	218.5
444.034	118.5
444.255	90.5
444.476	92.5
444.698	85.5
444.919	109.5
445.14	216.5
445.361	218.5
445.582	273.5
445.803	238.5
446.024	109.5
446.245	99.5
446.466	92.5
446.687	90.5
446.908	94.5
447.129	90.5
447.35	82.5
447.571	71.5
447.792	87.5
448.013	91.5
448.234	84.5
448.455	86.5
448.675	90.5
448.896	86.5
449.117	81.5
449.338	109.5
449.559	84.5
449.779	92.5
450	88.5
450.221	90.5
450.442	83.5
450.662	88.5
450.883	96.5
451.104	98.5
451.324	79.5
451.545	86.5
451.766	88.5
451.986	97.5
452.207	90.5
452.428	93.5
452.648	106.5
452.869	99.5
453.089	84.5
453.31	96.5
453.53	89.5
453.751	86.5
453.971	100.5
454.192	96.5
454.412	78.5
454.633	91.5
454.853	98.5
455.073	84.5
455.294	90.5
455.514	95.5
455.734	99.5
455.955	97.5
456.175	79.5
456.395	77.5
456.616	87.5
456.836	90.5
457.056	79.5
457.276	88.5
457.497	100.5
457.717	97.5
457.937	128.5
458.157	119.5
458.377	132.5
458.598	119.5
458.818	147.5
459.038	91.5
459.258	79.5
459.478	92.5
459.698	99.5
459.918	91.5
460.138	92.5
460.358	95.5
460.578	99.5
460.798	122.5
461.018	114.5
461.238	93.5
461.458	87.5
461.678	78.5
461.898	96.5
462.118	102.5
462.338	94.5
462.558	94.5
462.777	87.5
462.997	94.5
463.217	77.5
463.437	80.5
463.657	99.5
463.876	80.5
464.096	86.5
464.316	69.5
464.536	79.5
464.755	86.5
464.975	82.5
465.195	85.5
465.414	94.5
465.634	91.5
465.854	94.5
466.073	107.5
466.293	93.5
466.512	79.5
466.732	92.5
466.951	73.5
467.171	77.5
467.391	83.5
467.61	89.5
467.829	103.5
468.049	92.5
468.268	96.5
468.488	75.5
468.707	91.5
468.927	103.5
469.146	87.5
469.365	88.5
469.585	85.5
469.804	101.5
470.023	83.5
470.243	99.5
470.462	79.5
470.681	88.5
470.901	98.5
471.12	78.5
471.339	75.5
471.558	80.5
471.777	98.5
471.997	82.5
472.216	73.5
472.435	86.5
472.654	99.5
472.873	105.5
473.092	84.5
473.311	78.5
473.53	106.5
473.749	72.5
473.968	106.5
474.187	86.5
474.406	82.5
474.625	83.5
474.844	88.5
475.063	91.5
475.282	89.5
475.501	83.5
475.72	100.5
475.939	86.5
476.158	100.5
476.377	91.5
476.596	96.5
476.814	92.5
477.033	104.5
477.252	104.5
477.471	91.5
477.69	96.5
477.908	99.5
478.127	81.5
478.346	102.5
478.564	90.5
478.783	75.5
479.002	65.5
479.22	95.5
479.439	96.5
479.658	87.5
479.876	83.5
480.095	83.5
480.313	89.5
480.532	87.5
480.751	87.5
480.969	80.5
481.188	70.5
481.406	93.5
481.624	86.5
481.843	92.5
482.061	86.5
482.28	108.5
482.498	86.5
482.717	96.5
482.935	105.5
483.153	82.5
483.372	83.5
483.59	96.5
483.808	87.5
484.027	94.5
484.245	97.5
484.463	89.5
484.681	89.5
484.9	80.5
485.118	101.5
485.336	102.5
485.554	92.5
485.772	98.5
485.99	90.5
486.209	98.5
486.427	97.5
486.645	86.5
486.863	101.5
487.081	95.5
487.299	101.5
487.517	97.5
487.735	112.5
487.953	159.5
488.171	142.5
488.389	109.5
488.607	94.5
488.825	96.5
489.043	91.5
489.261	104.5
489.479	97.5
489.696	97.5
489.914	94.5
490.132	104.5
490.35	98.5
490.568	87.5
490.786	88.5
491.003	108.5
491.221	94.5
491.439	93.5
491.657	89.5
491.874	94.5
492.092	95.5
492.31	93.5
492.527	83.5
492.745	94.5
492.963	80.5
493.18	85.5
493.398	91.5
493.615	96.5
493.833	102.5
494.05	90.5
494.268	91.5
494.485	98.5
494.703	86.5
494.92	85.5
495.138	89.5
495.355	102.5
495.573	107.5
495.79	97.5
496.008	91.5
496.225	94.5
496.442	107.5
496.66	102.5
496.877	100.5
497.094	88.5
497.312	90.5
497.529	107.5
497.746	90.5
497.963	87.5
498.181	92.5
498.398	107.5
498.615	101.5
498.832	81.5
499.049	98.5
499.267	82.5
499.484	78.5
499.701	98.5
499.918	109.5
500.135	104.5
500.352	100.5
500.569	85.5
500.786	94.5
501.003	99.5
501.22	82.5
501.437	90.5
501.654	86.5
501.871	94.5
502.088	86.5
502.305	88.5
502.522	102.5
502.739	106.5
502.956	96.5
503.172	94.5
503.389	88.5
503.606	89.5
503.823	99.5
504.04	100.5
504.256	137.5
504.473	151.5
504.69	94.5
504.907	108.5
505.123	92.5
505.34	82.5
505.557	95.5
505.773	100.5
505.99	88.5
506.207	93.5
506.423	92.5
506.64	95.5
506.856	92.5
507.073	85.5
507.289	97.5
507.506	94.5
507.722	98.5
507.939	95.5
508.155	100.5
508.372	86.5
508.588	90.5
508.805	92.5
509.021	72.5
509.238	90.5
509.454	99.5
509.67	98.5
509.887	98.5
510.103	91.5
510.319	95.5
510.536	97.5
510.752	101.5
510.968	92.5
511.184	84.5
511.401	93.5
511.617	92.5
511.833	87.5
512.049	93.5
512.265	102.5
512.481	78.5
512.698	82.5
512.914	91.5
513.13	94.5
513.346	86.5
513.562	86.5
513.778	98.5
513.994	98.5
514.21	94.5
514.426	100.5
514.642	89.5
514.858	90.5
515.074	89.5
515.29	102.5
515.506	93.5
515.721	84.5
515.937	77.5
516.153	100.5
516.369	82.5
516.585	94.5
516.801	93.5
517.016	106.5
517.232	96.5
517.448	91.5
517.664	89.5
517.879	85.5
518.095	77.5
518.311	94.5
518.527	93.5
518.742	137.5
518.958	139.5
519.173	174.5
519.389	103.5
519.605	92.5
519.82	104.5
520.036	89.5
520.251	95.5
520.467	104.5
520.682	103.5
520.898	103.5
521.113	86.5
521.329	96.5
521.544	102.5
521.76	80.5
521.975	90.5
522.19	99.5
522.406	77.5
522.621	114.5
522.836	90.5
523.052	90.5
523.267	94.5
523.482	94.5
523.698	99.5
523.913	96.5
524.128	88.5
524.343	86.5
524.559	107.5
524.774	101.5
524.989	102.5
525.204	91.5
525.419	90.5
525.634	92.5
525.849	101.5
526.064	119.5
526.28	214.5
526.495	300.5
526.71	346.5
526.925	230.5
527.14	266.5
527.355	270.5
527.57	123.5
527.785	89.5
527.999	98.5
528.214	103.5
528.429	87.5
528.644	84.5
528.859	93.5
529.074	93.5
529.289	114.5
529.503	87.5
529.718	100.5
529.933	95.5
530.148	87.5
530.363	93.5
530.577	107.5
530.792	102.5
531.007	83.5
531.221	100.5
531.436	94.5
531.651	103.5
531.865	98.5
532.08	95.5
532.295	98.5
532.509	94.5
532.724	90.5
532.938	101.5
533.153	92.5
533.367	100.5
533.582	103.5
533.796	110.5
534.011	103.5
534.225	94.5
534.44	106.5
534.654	119.5
534.868	123.5
535.083	148.5
535.297	160.5
535.511	120.5
535.726	103.5
535.94	94.5
536.154	104.5
536.369	101.5
