Data from 237_2_HRD10591_00027.txt Node
Date: Mon Jan 19 14:11:44 EST 2026
User: Yrep
Spectrometer: HR+D1059
Trigger mode: 1
Integration Time (sec): 1.000000E-1
Scans to average: 1
Electric dark correction enabled: true
Nonlinearity correction enabled: false
Boxcar width: 0
XAxis mode: Wavelengths
Number of Pixels in Spectrum: 2048
>>>>>Begin Spectral Data<<<<<
223.165	-16.12
223.4	-16.12
223.635	-16.12
223.869	-24.12
224.104	-25.12
224.338	-28.12
224.573	-14.12
224.808	-7.12
225.042	0.88
225.277	2.88
225.511	-5.12
225.746	6.88
225.98	3.88
226.215	8.88
226.449	21.88
226.683	27.88
226.918	16.88
227.152	29.88
227.387	44.88
227.621	56.88
227.856	46.88
228.09	55.88
228.324	36.88
228.559	52.88
228.793	41.88
229.027	68.88
229.262	55.88
229.496	66.88
229.73	76.88
229.964	81.88
230.199	73.88
230.433	68.88
230.667	87.88
230.901	82.88
231.136	80.88
231.37	75.88
231.604	82.88
231.838	90.88
232.072	80.88
232.306	68.88
232.541	72.88
232.775	75.88
233.009	84.88
233.243	80.88
233.477	75.88
233.711	88.88
233.945	91.88
234.179	94.88
234.413	82.88
234.647	80.88
234.881	87.88
235.115	71.88
235.349	76.88
235.583	70.88
235.817	90.88
236.051	75.88
236.285	70.88
236.519	77.88
236.753	74.88
236.987	82.88
237.221	79.88
237.455	75.88
237.689	80.88
237.922	72.88
238.156	76.88
238.39	78.88
238.624	84.88
238.858	88.88
239.091	69.88
239.325	65.88
239.559	74.88
239.793	74.88
240.027	84.88
240.26	86.88
240.494	72.88
240.728	73.88
240.961	78.88
241.195	67.88
241.429	82.88
241.662	67.88
241.896	83.88
242.13	75.88
242.363	75.88
242.597	69.88
242.83	75.88
243.064	78.88
243.298	56.88
243.531	67.88
243.765	76.88
243.998	66.88
244.232	76.88
244.465	82.88
244.699	84.88
244.932	65.88
245.166	81.88
245.399	79.88
245.633	74.88
245.866	63.88
246.099	81.88
246.333	54.88
246.566	67.88
246.8	65.88
247.033	79.88
247.266	78.88
247.5	79.88
247.733	79.88
247.966	76.88
248.2	87.88
248.433	75.88
248.666	78.88
248.899	86.88
249.133	74.88
249.366	82.88
249.599	91.88
249.832	58.88
250.066	72.88
250.299	73.88
250.532	72.88
250.765	74.88
250.998	84.88
251.231	85.88
251.465	72.88
251.698	75.88
251.931	83.88
252.164	68.88
252.397	73.88
252.63	98.88
252.863	82.88
253.096	85.88
253.329	78.88
253.562	71.88
253.795	74.88
254.028	81.88
254.261	79.88
254.494	68.88
254.727	76.88
254.96	67.88
255.193	70.88
255.426	80.88
255.659	76.88
255.892	85.88
256.124	82.88
256.357	78.88
256.59	71.88
256.823	75.88
257.056	68.88
257.289	79.88
257.521	72.88
257.754	81.88
257.987	73.88
258.22	86.88
258.452	72.88
258.685	58.88
258.918	73.88
259.151	99.88
259.383	84.88
259.616	96.88
259.849	87.88
260.081	78.88
260.314	74.88
260.547	79.88
260.779	72.88
261.012	92.88
261.244	83.88
261.477	84.88
261.71	98.88
261.942	82.88
262.175	75.88
262.407	83.88
262.64	73.88
262.872	83.88
263.105	77.88
263.337	83.88
263.57	68.88
263.802	92.88
264.035	79.88
264.267	83.88
264.499	66.88
264.732	86.88
264.964	78.88
265.197	91.88
265.429	87.88
265.661	83.88
265.894	87.88
266.126	88.88
266.358	85.88
266.591	89.88
266.823	82.88
267.055	88.88
267.287	81.88
267.52	65.88
267.752	89.88
267.984	74.88
268.216	83.88
268.448	88.88
268.681	76.88
268.913	82.88
269.145	68.88
269.377	90.88
269.609	77.88
269.841	83.88
270.073	93.88
270.306	70.88
270.538	85.88
270.77	91.88
271.002	79.88
271.234	85.88
271.466	94.88
271.698	80.88
271.93	84.88
272.162	83.88
272.394	65.88
272.626	78.88
272.858	78.88
273.09	83.88
273.322	81.88
273.553	87.88
273.785	83.88
274.017	78.88
274.249	96.88
274.481	82.88
274.713	77.88
274.945	93.88
275.176	84.88
275.408	91.88
275.64	82.88
275.872	86.88
276.104	84.88
276.335	85.88
276.567	70.88
276.799	84.88
277.031	86.88
277.262	68.88
277.494	91.88
277.726	82.88
277.957	81.88
278.189	73.88
278.421	78.88
278.652	66.88
278.884	71.88
279.115	85.88
279.347	92.88
279.579	90.88
279.81	91.88
280.042	87.88
280.273	85.88
280.505	88.88
280.736	85.88
280.968	85.88
281.199	58.88
281.431	74.88
281.662	70.88
281.894	88.88
282.125	74.88
282.356	88.88
282.588	71.88
282.819	77.88
283.051	95.88
283.282	86.88
283.513	89.88
283.745	82.88
283.976	82.88
284.207	65.88
284.439	88.88
284.67	82.88
284.901	75.88
285.132	92.88
285.364	89.88
285.595	80.88
285.826	86.88
286.057	82.88
286.288	69.88
286.52	89.88
286.751	75.88
286.982	88.88
287.213	86.88
287.444	83.88
287.675	75.88
287.906	80.88
288.138	85.88
288.369	82.88
288.6	86.88
288.831	99.88
289.062	86.88
289.293	80.88
289.524	72.88
289.755	81.88
289.986	78.88
290.217	86.88
290.448	77.88
290.679	83.88
290.91	91.88
291.141	83.88
291.371	90.88
291.602	92.88
291.833	80.88
292.064	73.88
292.295	88.88
292.526	81.88
292.757	75.88
292.987	87.88
293.218	83.88
293.449	77.88
293.68	79.88
293.91	92.88
294.141	90.88
294.372	72.88
294.603	84.88
294.833	90.88
295.064	80.88
295.295	76.88
295.525	80.88
295.756	91.88
295.987	96.88
296.217	87.88
296.448	92.88
296.679	89.88
296.909	77.88
297.14	90.88
297.37	86.88
297.601	98.88
297.831	80.88
298.062	66.88
298.292	92.88
298.523	84.88
298.753	81.88
298.984	85.88
299.214	93.88
299.445	93.88
299.675	87.88
299.905	92.88
300.136	88.88
300.366	77.88
300.597	72.88
300.827	79.88
301.057	74.88
301.288	74.88
301.518	70.88
301.748	85.88
301.979	90.88
302.209	73.88
302.439	100.88
302.669	87.88
302.9	85.88
303.13	87.88
303.36	74.88
303.59	66.88
303.82	90.88
304.051	96.88
304.281	93.88
304.511	77.88
304.741	83.88
304.971	90.88
305.201	90.88
305.431	83.88
305.661	83.88
305.891	69.88
306.121	72.88
306.352	83.88
306.582	92.88
306.812	83.88
307.042	86.88
307.272	75.88
307.502	89.88
307.731	89.88
307.961	97.88
308.191	94.88
308.421	72.88
308.651	88.88
308.881	91.88
309.111	80.88
309.341	82.88
309.571	76.88
309.8	74.88
310.03	89.88
310.26	89.88
310.49	88.88
310.72	94.88
310.949	78.88
311.179	81.88
311.409	82.88
311.639	87.88
311.868	79.88
312.098	95.88
312.328	84.88
312.557	85.88
312.787	92.88
313.017	95.88
313.246	105.88
313.476	75.88
313.706	92.88
313.935	73.88
314.165	96.88
314.394	85.88
314.624	88.88
314.853	79.88
315.083	85.88
315.312	76.88
315.542	90.88
315.771	84.88
316.001	90.88
316.23	72.88
316.46	79.88
316.689	84.88
316.919	88.88
317.148	90.88
317.377	101.88
317.607	85.88
317.836	88.88
318.065	101.88
318.295	70.88
318.524	74.88
318.753	80.88
318.983	82.88
319.212	84.88
319.441	71.88
319.67	82.88
319.9	85.88
320.129	90.88
320.358	87.88
320.587	76.88
320.816	95.88
321.046	75.88
321.275	100.88
321.504	78.88
321.733	89.88
321.962	78.88
322.191	80.88
322.42	70.88
322.649	78.88
322.878	86.88
323.108	90.88
323.337	81.88
323.566	83.88
323.795	88.88
324.024	92.88
324.253	88.88
324.482	73.88
324.71	78.88
324.939	82.88
325.168	88.88
325.397	75.88
325.626	89.88
325.855	77.88
326.084	75.88
326.313	75.88
326.542	83.88
326.77	88.88
326.999	95.88
327.228	89.88
327.457	77.88
327.686	82.88
327.914	89.88
328.143	101.88
328.372	72.88
328.6	72.88
328.829	74.88
329.058	97.88
329.287	83.88
329.515	90.88
329.744	94.88
329.972	87.88
330.201	90.88
330.43	83.88
330.658	91.88
330.887	70.88
331.115	81.88
331.344	80.88
331.572	95.88
331.801	87.88
332.03	80.88
332.258	80.88
332.486	82.88
332.715	94.88
332.943	84.88
333.172	86.88
333.4	87.88
333.629	79.88
333.857	82.88
334.085	91.88
334.314	83.88
334.542	88.88
334.771	84.88
334.999	71.88
335.227	103.88
335.455	89.88
335.684	84.88
335.912	90.88
336.14	89.88
336.369	94.88
336.597	77.88
336.825	90.88
337.053	83.88
337.281	77.88
337.51	81.88
337.738	85.88
337.966	88.88
338.194	83.88
338.422	99.88
338.65	77.88
338.878	78.88
339.106	83.88
339.334	68.88
339.562	84.88
339.79	70.88
340.018	88.88
340.246	92.88
340.474	78.88
340.702	91.88
340.93	70.88
341.158	84.88
341.386	84.88
341.614	80.88
341.842	76.88
342.07	84.88
342.298	81.88
342.526	85.88
342.754	89.88
342.981	96.88
343.209	89.88
343.437	98.88
343.665	104.88
343.893	92.88
344.12	88.88
344.348	83.88
344.576	94.88
344.804	72.88
345.031	88.88
345.259	78.88
345.487	68.88
345.714	90.88
345.942	74.88
346.17	102.88
346.397	84.88
346.625	87.88
346.853	75.88
347.08	74.88
347.308	88.88
347.535	82.88
347.763	86.88
347.99	87.88
348.218	94.88
348.445	81.88
348.673	83.88
348.9	92.88
349.128	83.88
349.355	82.88
349.583	83.88
349.81	90.88
350.037	85.88
350.265	94.88
350.492	82.88
350.72	91.88
350.947	83.88
351.174	76.88
351.402	81.88
351.629	76.88
351.856	83.88
352.083	91.88
352.311	95.88
352.538	74.88
352.765	86.88
352.992	96.88
353.22	78.88
353.447	91.88
353.674	90.88
353.901	68.88
354.128	80.88
354.355	85.88
354.583	86.88
354.81	87.88
355.037	79.88
355.264	81.88
355.491	99.88
355.718	95.88
355.945	87.88
356.172	95.88
356.399	83.88
356.626	89.88
356.853	88.88
357.08	80.88
357.307	71.88
357.534	87.88
357.761	87.88
357.988	79.88
358.215	78.88
358.441	96.88
358.668	100.88
358.895	90.88
359.122	76.88
359.349	93.88
359.576	88.88
359.802	86.88
360.029	88.88
360.256	91.88
360.483	84.88
360.709	91.88
360.936	96.88
361.163	84.88
361.39	68.88
361.616	83.88
361.843	88.88
362.07	93.88
362.296	82.88
362.523	83.88
362.749	82.88
362.976	83.88
363.203	100.88
363.429	88.88
363.656	90.88
363.882	94.88
364.109	95.88
364.335	117.88
364.562	114.88
364.788	97.88
365.015	99.88
365.241	83.88
365.468	86.88
365.694	87.88
365.92	75.88
366.147	83.88
366.373	73.88
366.599	80.88
366.826	80.88
367.052	73.88
367.278	91.88
367.505	89.88
367.731	91.88
367.957	96.88
368.184	68.88
368.41	90.88
368.636	88.88
368.862	74.88
369.089	74.88
369.315	84.88
369.541	88.88
369.767	85.88
369.993	82.88
370.219	72.88
370.445	81.88
370.672	86.88
370.898	99.88
371.124	79.88
371.35	76.88
371.576	85.88
371.802	84.88
372.028	101.88
372.254	84.88
372.48	88.88
372.706	80.88
372.932	83.88
373.158	82.88
373.384	104.88
373.61	87.88
373.835	81.88
374.061	88.88
374.287	82.88
374.513	87.88
374.739	96.88
374.965	99.88
375.191	82.88
375.416	86.88
375.642	88.88
375.868	95.88
376.094	84.88
376.319	95.88
376.545	80.88
376.771	80.88
376.997	92.88
377.222	80.88
377.448	84.88
377.674	88.88
377.899	77.88
378.125	85.88
378.35	100.88
378.576	77.88
378.802	77.88
379.027	66.88
379.253	79.88
379.478	82.88
379.704	80.88
379.929	86.88
380.155	79.88
380.38	90.88
380.606	84.88
380.831	89.88
381.057	95.88
381.282	85.88
381.507	90.88
381.733	92.88
381.958	83.88
382.184	94.88
382.409	102.88
382.634	85.88
382.86	94.88
383.085	92.88
383.31	84.88
383.535	90.88
383.761	77.88
383.986	90.88
384.211	85.88
384.436	81.88
384.662	83.88
384.887	90.88
385.112	87.88
385.337	94.88
385.562	99.88
385.787	103.88
386.013	102.88
386.238	94.88
386.463	82.88
386.688	102.88
386.913	76.88
387.138	73.88
387.363	76.88
387.588	96.88
387.813	91.88
388.038	91.88
388.263	77.88
388.488	84.88
388.713	81.88
388.938	101.88
389.163	87.88
389.387	96.88
389.612	81.88
389.837	80.88
390.062	81.88
390.287	90.88
390.512	80.88
390.736	95.88
390.961	84.88
391.186	92.88
391.411	73.88
391.636	71.88
391.86	88.88
392.085	87.88
392.31	90.88
392.534	94.88
392.759	92.88
392.984	124.88
393.208	195.88
393.433	280.88
393.658	205.88
393.882	110.88
394.107	105.88
394.331	106.88
394.556	115.88
394.78	89.88
395.005	94.88
395.229	100.88
395.454	89.88
395.678	88.88
395.903	127.88
396.127	110.88
396.352	124.88
396.576	120.88
396.801	197.88
397.025	232.88
397.249	149.88
397.474	100.88
397.698	92.88
397.922	92.88
398.147	87.88
398.371	81.88
398.595	95.88
398.82	89.88
399.044	78.88
399.268	77.88
399.492	103.88
399.717	91.88
399.941	84.88
400.165	92.88
400.389	81.88
400.613	86.88
400.837	80.88
401.062	87.88
401.286	88.88
401.51	76.88
401.734	76.88
401.958	88.88
402.182	82.88
402.406	90.88
402.63	87.88
402.854	79.88
403.078	93.88
403.302	79.88
403.526	87.88
403.75	77.88
403.974	84.88
404.198	97.88
404.422	95.88
404.645	101.88
404.869	85.88
405.093	77.88
405.317	95.88
405.541	89.88
405.765	71.88
405.988	78.88
406.212	90.88
406.436	91.88
406.66	89.88
406.883	70.88
407.107	82.88
407.331	84.88
407.555	95.88
407.778	95.88
408.002	107.88
408.226	79.88
408.449	78.88
408.673	95.88
408.896	88.88
409.12	93.88
409.344	83.88
409.567	102.88
409.791	90.88
410.014	89.88
410.238	89.88
410.461	87.88
410.685	89.88
410.908	91.88
411.132	82.88
411.355	82.88
411.578	81.88
411.802	86.88
412.025	93.88
412.249	80.88
412.472	80.88
412.695	93.88
412.919	76.88
413.142	88.88
413.365	80.88
413.589	72.88
413.812	83.88
414.035	75.88
414.258	82.88
414.482	84.88
414.705	66.88
414.928	87.88
415.151	90.88
415.374	101.88
415.597	76.88
415.821	85.88
416.044	82.88
416.267	97.88
416.49	90.88
416.713	95.88
416.936	84.88
417.159	83.88
417.382	94.88
417.605	74.88
417.828	88.88
418.051	83.88
418.274	87.88
418.497	82.88
418.72	88.88
418.943	84.88
419.166	82.88
419.389	84.88
419.611	89.88
419.834	85.88
420.057	93.88
420.28	89.88
420.503	90.88
420.726	90.88
420.948	84.88
421.171	94.88
421.394	87.88
421.617	104.88
421.839	104.88
422.062	112.88
422.285	128.88
422.507	175.88
422.73	277.88
422.953	242.88
423.175	143.88
423.398	94.88
423.621	88.88
423.843	96.88
424.066	91.88
424.288	85.88
424.511	83.88
424.733	86.88
424.956	89.88
425.178	78.88
425.401	89.88
425.623	89.88
425.846	80.88
426.068	90.88
426.291	84.88
426.513	97.88
426.735	80.88
426.958	91.88
427.18	83.88
427.402	96.88
427.625	72.88
427.847	88.88
428.069	89.88
428.292	103.88
428.514	129.88
428.736	88.88
428.958	118.88
429.181	115.88
429.403	83.88
429.625	94.88
429.847	114.88
430.069	136.88
430.292	138.88
430.514	126.88
430.736	108.88
430.958	123.88
431.18	90.88
431.402	89.88
431.624	98.88
431.846	100.88
432.068	108.88
432.29	83.88
432.512	87.88
432.734	91.88
432.956	60.88
433.178	90.88
433.4	87.88
433.622	85.88
433.844	77.88
434.066	81.88
434.287	94.88
434.509	95.88
434.731	80.88
434.953	86.88
435.175	79.88
435.397	64.88
435.618	80.88
435.84	88.88
436.062	77.88
436.284	92.88
436.505	94.88
436.727	105.88
436.949	86.88
437.17	82.88
437.392	91.88
437.614	94.88
437.835	77.88
438.057	89.88
438.278	77.88
438.5	86.88
438.721	88.88
438.943	78.88
439.165	82.88
439.386	107.88
439.608	89.88
439.829	80.88
440.05	84.88
440.272	81.88
440.493	79.88
440.715	95.88
440.936	77.88
441.158	77.88
441.379	81.88
441.6	74.88
441.822	72.88
442.043	89.88
442.264	81.88
442.486	118.88
442.707	134.88
442.928	107.88
443.149	102.88
443.371	120.88
443.592	172.88
443.813	168.88
444.034	85.88
444.255	71.88
444.476	94.88
444.698	85.88
444.919	88.88
445.14	171.88
445.361	158.88
445.582	197.88
445.803	158.88
446.024	90.88
446.245	89.88
446.466	90.88
446.687	77.88
446.908	93.88
447.129	83.88
447.35	89.88
447.571	91.88
447.792	83.88
448.013	79.88
448.234	99.88
448.455	90.88
448.675	90.88
448.896	73.88
449.117	91.88
449.338	70.88
449.559	76.88
449.779	81.88
450	77.88
450.221	80.88
450.442	75.88
450.662	83.88
450.883	79.88
451.104	91.88
451.324	76.88
451.545	80.88
451.766	88.88
451.986	83.88
452.207	95.88
452.428	79.88
452.648	81.88
452.869	83.88
453.089	73.88
453.31	81.88
453.53	92.88
453.751	94.88
453.971	82.88
454.192	92.88
454.412	88.88
454.633	96.88
454.853	88.88
455.073	80.88
455.294	83.88
455.514	90.88
455.734	83.88
455.955	89.88
456.175	89.88
456.395	75.88
456.616	72.88
456.836	88.88
457.056	91.88
457.276	82.88
457.497	87.88
457.717	82.88
457.937	89.88
458.157	94.88
458.377	94.88
458.598	73.88
458.818	110.88
459.038	98.88
459.258	93.88
459.478	82.88
459.698	85.88
459.918	67.88
460.138	92.88
460.358	102.88
460.578	82.88
460.798	115.88
461.018	97.88
461.238	77.88
461.458	96.88
461.678	90.88
461.898	88.88
462.118	102.88
462.338	96.88
462.558	91.88
462.777	81.88
462.997	74.88
463.217	75.88
463.437	87.88
463.657	78.88
463.876	89.88
464.096	72.88
464.316	68.88
464.536	80.88
464.755	80.88
464.975	99.88
465.195	82.88
465.414	81.88
465.634	78.88
465.854	82.88
466.073	83.88
466.293	75.88
466.512	91.88
466.732	69.88
466.951	82.88
467.171	83.88
467.391	66.88
467.61	87.88
467.829	94.88
468.049	87.88
468.268	91.88
468.488	86.88
468.707	91.88
468.927	77.88
469.146	80.88
469.365	82.88
469.585	89.88
469.804	96.88
470.023	74.88
470.243	77.88
470.462	88.88
470.681	96.88
470.901	69.88
471.12	73.88
471.339	90.88
471.558	92.88
471.777	87.88
471.997	78.88
472.216	82.88
472.435	89.88
472.654	77.88
472.873	96.88
473.092	82.88
473.311	77.88
473.53	81.88
473.749	86.88
473.968	84.88
474.187	82.88
474.406	75.88
474.625	90.88
474.844	86.88
475.063	95.88
475.282	86.88
475.501	74.88
475.72	95.88
475.939	92.88
476.158	83.88
476.377	79.88
476.596	86.88
476.814	81.88
477.033	89.88
477.252	89.88
477.471	83.88
477.69	68.88
477.908	77.88
478.127	90.88
478.346	77.88
478.564	79.88
478.783	88.88
479.002	94.88
479.22	87.88
479.439	86.88
479.658	77.88
479.876	78.88
480.095	81.88
480.313	77.88
480.532	84.88
480.751	83.88
480.969	100.88
481.188	81.88
481.406	87.88
481.624	82.88
481.843	85.88
482.061	80.88
482.28	91.88
482.498	78.88
482.717	88.88
482.935	69.88
483.153	86.88
483.372	72.88
483.59	95.88
483.808	72.88
484.027	80.88
484.245	82.88
484.463	107.88
484.681	98.88
484.9	86.88
485.118	94.88
485.336	87.88
485.554	90.88
485.772	90.88
485.99	81.88
486.209	76.88
486.427	78.88
486.645	77.88
486.863	88.88
487.081	74.88
487.299	74.88
487.517	88.88
487.735	90.88
487.953	124.88
488.171	103.88
488.389	91.88
488.607	69.88
488.825	88.88
489.043	87.88
489.261	79.88
489.479	83.88
489.696	94.88
489.914	81.88
490.132	83.88
490.35	79.88
490.568	92.88
490.786	89.88
491.003	83.88
491.221	88.88
491.439	83.88
491.657	70.88
491.874	76.88
492.092	79.88
492.31	88.88
492.527	72.88
492.745	86.88
492.963	94.88
493.18	71.88
493.398	85.88
493.615	84.88
493.833	81.88
494.05	104.88
494.268	92.88
494.485	92.88
494.703	97.88
494.92	82.88
495.138	72.88
495.355	97.88
495.573	84.88
495.79	85.88
496.008	89.88
496.225	80.88
496.442	76.88
496.66	84.88
496.877	85.88
497.094	84.88
497.312	75.88
497.529	88.88
497.746	86.88
497.963	83.88
498.181	90.88
498.398	98.88
498.615	89.88
498.832	86.88
499.049	72.88
499.267	92.88
499.484	70.88
499.701	85.88
499.918	91.88
500.135	86.88
500.352	73.88
500.569	85.88
500.786	97.88
501.003	92.88
501.22	80.88
501.437	93.88
501.654	89.88
501.871	88.88
502.088	80.88
502.305	80.88
502.522	79.88
502.739	70.88
502.956	77.88
503.172	96.88
503.389	84.88
503.606	97.88
503.823	93.88
504.04	96.88
504.256	99.88
504.473	89.88
504.69	75.88
504.907	86.88
505.123	80.88
505.34	83.88
505.557	89.88
505.773	78.88
505.99	92.88
506.207	92.88
506.423	72.88
506.64	82.88
506.856	81.88
507.073	81.88
507.289	84.88
507.506	74.88
507.722	86.88
507.939	72.88
508.155	92.88
508.372	83.88
508.588	79.88
508.805	86.88
509.021	84.88
509.238	74.88
509.454	67.88
509.67	75.88
509.887	79.88
510.103	75.88
510.319	71.88
510.536	69.88
510.752	94.88
510.968	88.88
511.184	75.88
511.401	71.88
511.617	81.88
511.833	77.88
512.049	88.88
512.265	80.88
512.481	91.88
512.698	83.88
512.914	79.88
513.13	67.88
513.346	87.88
513.562	93.88
513.778	89.88
513.994	89.88
514.21	82.88
514.426	91.88
514.642	83.88
514.858	86.88
515.074	83.88
515.29	99.88
515.506	95.88
515.721	82.88
515.937	92.88
516.153	98.88
516.369	100.88
516.585	89.88
516.801	85.88
517.016	79.88
517.232	74.88
517.448	84.88
517.664	81.88
517.879	81.88
518.095	89.88
518.311	93.88
518.527	80.88
518.742	102.88
518.958	106.88
519.173	115.88
