Data from 237_2_HRD10591_00034.txt Node
Date: Mon Jan 19 14:11:47 EST 2026
User: Yrep
Spectrometer: HR+D1059
Trigger mode: 1
Integration Time (sec): 1.000000E-1
Scans to average: 1
Electric dark correction enabled: true
Nonlinearity correction enabled: false
Boxcar width: 0
XAxis mode: Wavelengths
Number of Pixels in Spectrum: 2048
>>>>>Begin Spectral Data<<<<<
223.165	-5.06
223.4	-5.06
223.635	-5.06
223.869	-20.06
224.104	-14.06
224.338	-24.06
224.573	-13.06
224.808	-21.06
225.042	-25.06
225.277	-3.06
225.511	21.94
225.746	-4.06
225.98	10.94
226.215	4.94
226.449	11.94
226.683	23.94
226.918	21.94
227.152	33.94
227.387	56.94
227.621	34.94
227.856	51.94
228.09	47.94
228.324	65.94
228.559	57.94
228.793	49.94
229.027	61.94
229.262	61.94
229.496	71.94
229.73	67.94
229.964	66.94
230.199	65.94
230.433	60.94
230.667	67.94
230.901	76.94
231.136	78.94
231.37	75.94
231.604	87.94
231.838	77.94
232.072	88.94
232.306	86.94
232.541	82.94
232.775	69.94
233.009	79.94
233.243	82.94
233.477	74.94
233.711	78.94
233.945	73.94
234.179	79.94
234.413	78.94
234.647	77.94
234.881	71.94
235.115	81.94
235.349	71.94
235.583	73.94
235.817	76.94
236.051	82.94
236.285	81.94
236.519	79.94
236.753	69.94
236.987	66.94
237.221	72.94
237.455	81.94
237.689	61.94
237.922	61.94
238.156	74.94
238.39	69.94
238.624	69.94
238.858	84.94
239.091	73.94
239.325	61.94
239.559	72.94
239.793	81.94
240.027	85.94
240.26	78.94
240.494	76.94
240.728	76.94
240.961	65.94
241.195	81.94
241.429	67.94
241.662	68.94
241.896	68.94
242.13	80.94
242.363	69.94
242.597	68.94
242.83	78.94
243.064	63.94
243.298	87.94
243.531	49.94
243.765	75.94
243.998	74.94
244.232	67.94
244.465	66.94
244.699	89.94
244.932	79.94
245.166	90.94
245.399	64.94
245.633	74.94
245.866	81.94
246.099	65.94
246.333	67.94
246.566	70.94
246.8	77.94
247.033	88.94
247.266	75.94
247.5	69.94
247.733	61.94
247.966	77.94
248.2	65.94
248.433	73.94
248.666	71.94
248.899	84.94
249.133	81.94
249.366	82.94
249.599	67.94
249.832	83.94
250.066	88.94
250.299	82.94
250.532	87.94
250.765	78.94
250.998	78.94
251.231	83.94
251.465	76.94
251.698	72.94
251.931	78.94
252.164	75.94
252.397	69.94
252.63	81.94
252.863	75.94
253.096	85.94
253.329	78.94
253.562	79.94
253.795	76.94
254.028	79.94
254.261	74.94
254.494	75.94
254.727	80.94
254.96	82.94
255.193	86.94
255.426	74.94
255.659	71.94
255.892	70.94
256.124	74.94
256.357	80.94
256.59	63.94
256.823	78.94
257.056	88.94
257.289	82.94
257.521	80.94
257.754	72.94
257.987	89.94
258.22	84.94
258.452	78.94
258.685	84.94
258.918	73.94
259.151	91.94
259.383	86.94
259.616	78.94
259.849	73.94
260.081	79.94
260.314	73.94
260.547	70.94
260.779	71.94
261.012	73.94
261.244	78.94
261.477	77.94
261.71	95.94
261.942	79.94
262.175	83.94
262.407	89.94
262.64	77.94
262.872	79.94
263.105	87.94
263.337	87.94
263.57	87.94
263.802	74.94
264.035	73.94
264.267	81.94
264.499	96.94
264.732	83.94
264.964	84.94
265.197	73.94
265.429	75.94
265.661	74.94
265.894	64.94
266.126	80.94
266.358	81.94
266.591	86.94
266.823	81.94
267.055	74.94
267.287	71.94
267.52	67.94
267.752	89.94
267.984	73.94
268.216	85.94
268.448	72.94
268.681	89.94
268.913	64.94
269.145	80.94
269.377	73.94
269.609	81.94
269.841	81.94
270.073	82.94
270.306	83.94
270.538	91.94
270.77	78.94
271.002	86.94
271.234	75.94
271.466	94.94
271.698	85.94
271.93	82.94
272.162	83.94
272.394	76.94
272.626	85.94
272.858	89.94
273.09	75.94
273.322	83.94
273.553	70.94
273.785	70.94
274.017	88.94
274.249	74.94
274.481	77.94
274.713	79.94
274.945	89.94
275.176	72.94
275.408	63.94
275.64	74.94
275.872	74.94
276.104	100.94
276.335	66.94
276.567	78.94
276.799	75.94
277.031	89.94
277.262	84.94
277.494	90.94
277.726	84.94
277.957	90.94
278.189	88.94
278.421	89.94
278.652	76.94
278.884	71.94
279.115	78.94
279.347	97.94
279.579	97.94
279.81	86.94
280.042	79.94
280.273	80.94
280.505	73.94
280.736	79.94
280.968	94.94
281.199	90.94
281.431	76.94
281.662	90.94
281.894	97.94
282.125	85.94
282.356	84.94
282.588	97.94
282.819	82.94
283.051	89.94
283.282	79.94
283.513	100.94
283.745	93.94
283.976	91.94
284.207	73.94
284.439	69.94
284.67	83.94
284.901	83.94
285.132	81.94
285.364	79.94
285.595	79.94
285.826	86.94
286.057	77.94
286.288	92.94
286.52	88.94
286.751	70.94
286.982	90.94
287.213	81.94
287.444	87.94
287.675	76.94
287.906	85.94
288.138	78.94
288.369	89.94
288.6	86.94
288.831	80.94
289.062	82.94
289.293	97.94
289.524	89.94
289.755	85.94
289.986	75.94
290.217	82.94
290.448	81.94
290.679	79.94
290.91	96.94
291.141	75.94
291.371	78.94
291.602	83.94
291.833	83.94
292.064	82.94
292.295	95.94
292.526	81.94
292.757	92.94
292.987	84.94
293.218	82.94
293.449	89.94
293.68	87.94
293.91	89.94
294.141	83.94
294.372	80.94
294.603	85.94
294.833	79.94
295.064	72.94
295.295	90.94
295.525	84.94
295.756	63.94
295.987	81.94
296.217	103.94
296.448	89.94
296.679	79.94
296.909	81.94
297.14	79.94
297.37	72.94
297.601	86.94
297.831	73.94
298.062	85.94
298.292	89.94
298.523	82.94
298.753	79.94
298.984	93.94
299.214	82.94
299.445	74.94
299.675	90.94
299.905	78.94
300.136	79.94
300.366	90.94
300.597	88.94
300.827	84.94
301.057	82.94
301.288	83.94
301.518	83.94
301.748	82.94
301.979	96.94
302.209	93.94
302.439	79.94
302.669	91.94
302.9	83.94
303.13	70.94
303.36	89.94
303.59	85.94
303.82	84.94
304.051	81.94
304.281	93.94
304.511	91.94
304.741	67.94
304.971	71.94
305.201	78.94
305.431	81.94
305.661	78.94
305.891	87.94
306.121	88.94
306.352	82.94
306.582	81.94
306.812	99.94
307.042	86.94
307.272	85.94
307.502	83.94
307.731	87.94
307.961	100.94
308.191	82.94
308.421	77.94
308.651	81.94
308.881	79.94
309.111	85.94
309.341	82.94
309.571	79.94
309.8	84.94
310.03	83.94
310.26	90.94
310.49	98.94
310.72	85.94
310.949	94.94
311.179	85.94
311.409	64.94
311.639	64.94
311.868	94.94
312.098	81.94
312.328	74.94
312.557	81.94
312.787	82.94
313.017	78.94
313.246	80.94
313.476	86.94
313.706	82.94
313.935	82.94
314.165	84.94
314.394	86.94
314.624	84.94
314.853	82.94
315.083	78.94
315.312	74.94
315.542	85.94
315.771	65.94
316.001	88.94
316.23	79.94
316.46	76.94
316.689	77.94
316.919	96.94
317.148	89.94
317.377	96.94
317.607	89.94
317.836	79.94
318.065	81.94
318.295	87.94
318.524	76.94
318.753	79.94
318.983	80.94
319.212	91.94
319.441	97.94
319.67	88.94
319.9	63.94
320.129	91.94
320.358	83.94
320.587	92.94
320.816	81.94
321.046	72.94
321.275	85.94
321.504	89.94
321.733	99.94
321.962	81.94
322.191	82.94
322.42	82.94
322.649	81.94
322.878	85.94
323.108	91.94
323.337	81.94
323.566	83.94
323.795	85.94
324.024	73.94
324.253	78.94
324.482	62.94
324.71	76.94
324.939	74.94
325.168	83.94
325.397	81.94
325.626	84.94
325.855	80.94
326.084	87.94
326.313	86.94
326.542	82.94
326.77	87.94
326.999	65.94
327.228	87.94
327.457	89.94
327.686	83.94
327.914	73.94
328.143	74.94
328.372	84.94
328.6	90.94
328.829	73.94
329.058	77.94
329.287	95.94
329.515	85.94
329.744	86.94
329.972	90.94
330.201	79.94
330.43	78.94
330.658	69.94
330.887	66.94
331.115	74.94
331.344	78.94
331.572	90.94
331.801	86.94
332.03	78.94
332.258	77.94
332.486	80.94
332.715	88.94
332.943	80.94
333.172	100.94
333.4	85.94
333.629	79.94
333.857	89.94
334.085	79.94
334.314	100.94
334.542	82.94
334.771	73.94
334.999	90.94
335.227	92.94
335.455	93.94
335.684	85.94
335.912	75.94
336.14	88.94
336.369	79.94
336.597	80.94
336.825	81.94
337.053	67.94
337.281	76.94
337.51	59.94
337.738	71.94
337.966	75.94
338.194	75.94
338.422	84.94
338.65	74.94
338.878	71.94
339.106	79.94
339.334	86.94
339.562	73.94
339.79	75.94
340.018	80.94
340.246	70.94
340.474	83.94
340.702	85.94
340.93	77.94
341.158	80.94
341.386	97.94
341.614	84.94
341.842	78.94
342.07	91.94
342.298	82.94
342.526	90.94
342.754	83.94
342.981	72.94
343.209	90.94
343.437	91.94
343.665	80.94
343.893	90.94
344.12	94.94
344.348	76.94
344.576	83.94
344.804	81.94
345.031	70.94
345.259	65.94
345.487	87.94
345.714	93.94
345.942	69.94
346.17	93.94
346.397	80.94
346.625	81.94
346.853	91.94
347.08	82.94
347.308	96.94
347.535	82.94
347.763	85.94
347.99	87.94
348.218	70.94
348.445	81.94
348.673	89.94
348.9	84.94
349.128	88.94
349.355	88.94
349.583	94.94
349.81	83.94
350.037	84.94
350.265	81.94
350.492	78.94
350.72	87.94
350.947	82.94
351.174	77.94
351.402	73.94
351.629	91.94
351.856	73.94
352.083	87.94
352.311	90.94
352.538	90.94
352.765	89.94
352.992	86.94
353.22	73.94
353.447	84.94
353.674	82.94
353.901	79.94
354.128	86.94
354.355	74.94
354.583	76.94
354.81	87.94
355.037	79.94
355.264	77.94
355.491	67.94
355.718	73.94
355.945	72.94
356.172	73.94
356.399	76.94
356.626	83.94
356.853	79.94
357.08	87.94
357.307	93.94
357.534	91.94
357.761	94.94
357.988	80.94
358.215	78.94
358.441	76.94
358.668	63.94
358.895	87.94
359.122	93.94
359.349	75.94
359.576	71.94
359.802	81.94
360.029	107.94
360.256	87.94
360.483	84.94
360.709	67.94
360.936	87.94
361.163	87.94
361.39	89.94
361.616	77.94
361.843	74.94
362.07	95.94
362.296	93.94
362.523	95.94
362.749	72.94
362.976	79.94
363.203	93.94
363.429	88.94
363.656	81.94
363.882	69.94
364.109	72.94
364.335	107.94
364.562	90.94
364.788	73.94
365.015	87.94
365.241	73.94
365.468	79.94
365.694	82.94
365.92	84.94
366.147	86.94
366.373	83.94
366.599	87.94
366.826	90.94
367.052	80.94
367.278	91.94
367.505	86.94
367.731	75.94
367.957	81.94
368.184	79.94
368.41	75.94
368.636	94.94
368.862	84.94
369.089	84.94
369.315	73.94
369.541	70.94
369.767	94.94
369.993	79.94
370.219	81.94
370.445	80.94
370.672	82.94
370.898	86.94
371.124	93.94
371.35	84.94
371.576	76.94
371.802	76.94
372.028	84.94
372.254	74.94
372.48	79.94
372.706	73.94
372.932	91.94
373.158	91.94
373.384	95.94
373.61	90.94
373.835	97.94
374.061	74.94
374.287	81.94
374.513	89.94
374.739	84.94
374.965	96.94
375.191	83.94
375.416	77.94
375.642	84.94
375.868	93.94
376.094	87.94
376.319	95.94
376.545	94.94
376.771	92.94
376.997	79.94
377.222	89.94
377.448	86.94
377.674	84.94
377.899	87.94
378.125	80.94
378.35	85.94
378.576	82.94
378.802	88.94
379.027	79.94
379.253	79.94
379.478	94.94
379.704	83.94
379.929	85.94
380.155	98.94
380.38	80.94
380.606	82.94
380.831	71.94
381.057	96.94
381.282	76.94
381.507	94.94
381.733	86.94
381.958	86.94
382.184	80.94
382.409	89.94
382.634	83.94
382.86	76.94
383.085	88.94
383.31	101.94
383.535	83.94
383.761	85.94
383.986	78.94
384.211	82.94
384.436	78.94
384.662	73.94
384.887	85.94
385.112	78.94
385.337	89.94
385.562	84.94
385.787	75.94
386.013	83.94
386.238	72.94
386.463	76.94
386.688	93.94
386.913	84.94
387.138	90.94
387.363	76.94
387.588	82.94
387.813	87.94
388.038	89.94
388.263	95.94
388.488	86.94
388.713	97.94
388.938	88.94
389.163	91.94
389.387	82.94
389.612	83.94
389.837	75.94
390.062	94.94
390.287	72.94
390.512	84.94
390.736	76.94
390.961	94.94
391.186	89.94
391.411	73.94
391.636	65.94
391.86	89.94
392.085	83.94
392.31	85.94
392.534	74.94
392.759	93.94
392.984	100.94
393.208	141.94
393.433	200.94
393.658	189.94
393.882	109.94
394.107	101.94
394.331	81.94
394.556	87.94
394.78	89.94
395.005	85.94
395.229	89.94
395.454	81.94
395.678	87.94
395.903	91.94
396.127	114.94
396.352	104.94
396.576	111.94
396.801	136.94
397.025	188.94
397.249	111.94
397.474	90.94
397.698	82.94
397.922	81.94
398.147	80.94
398.371	74.94
398.595	85.94
398.82	85.94
399.044	74.94
399.268	99.94
399.492	76.94
399.717	93.94
399.941	74.94
400.165	71.94
400.389	62.94
400.613	69.94
400.837	61.94
401.062	81.94
401.286	62.94
401.51	75.94
401.734	79.94
401.958	82.94
402.182	65.94
402.406	84.94
402.63	77.94
402.854	87.94
403.078	79.94
403.302	76.94
403.526	63.94
403.75	65.94
403.974	76.94
404.198	74.94
404.422	93.94
404.645	87.94
404.869	70.94
405.093	83.94
405.317	84.94
405.541	77.94
405.765	71.94
405.988	88.94
406.212	93.94
406.436	82.94
406.66	81.94
406.883	69.94
407.107	92.94
407.331	92.94
407.555	83.94
407.778	90.94
408.002	86.94
408.226	75.94
408.449	75.94
408.673	85.94
408.896	75.94
409.12	85.94
409.344	92.94
409.567	83.94
409.791	93.94
410.014	81.94
410.238	80.94
410.461	82.94
410.685	71.94
410.908	88.94
411.132	89.94
411.355	78.94
411.578	78.94
411.802	69.94
412.025	85.94
412.249	80.94
412.472	72.94
412.695	66.94
412.919	63.94
413.142	69.94
413.365	90.94
413.589	81.94
413.812	76.94
414.035	79.94
414.258	73.94
414.482	97.94
414.705	82.94
414.928	85.94
415.151	74.94
415.374	72.94
415.597	78.94
415.821	89.94
416.044	75.94
416.267	79.94
416.49	91.94
416.713	80.94
416.936	82.94
417.159	75.94
417.382	68.94
417.605	77.94
417.828	67.94
418.051	89.94
418.274	77.94
418.497	77.94
418.72	78.94
418.943	81.94
419.166	92.94
419.389	85.94
419.611	92.94
419.834	74.94
420.057	84.94
420.28	78.94
420.503	83.94
420.726	74.94
420.948	77.94
421.171	83.94
421.394	98.94
421.617	98.94
421.839	87.94
422.062	87.94
422.285	85.94
422.507	131.94
422.73	211.94
422.953	184.94
423.175	109.94
423.398	71.94
423.621	87.94
423.843	71.94
424.066	89.94
424.288	85.94
424.511	82.94
424.733	89.94
424.956	72.94
425.178	77.94
425.401	73.94
425.623	87.94
425.846	85.94
426.068	84.94
426.291	90.94
426.513	79.94
426.735	66.94
426.958	81.94
427.18	81.94
427.402	75.94
427.625	72.94
427.847	82.94
428.069	82.94
428.292	96.94
428.514	104.94
428.736	87.94
428.958	94.94
429.181	81.94
429.403	69.94
429.625	87.94
429.847	84.94
430.069	95.94
430.292	111.94
430.514	114.94
430.736	100.94
430.958	96.94
431.18	98.94
431.402	76.94
431.624	77.94
431.846	98.94
432.068	85.94
432.29	85.94
432.512	88.94
432.734	79.94
432.956	89.94
433.178	89.94
433.4	96.94
433.622	90.94
433.844	78.94
434.066	80.94
434.287	77.94
434.509	67.94
434.731	83.94
434.953	71.94
435.175	87.94
435.397	84.94
435.618	86.94
435.84	88.94
436.062	79.94
436.284	69.94
436.505	77.94
436.727	87.94
436.949	77.94
437.17	92.94
437.392	72.94
437.614	81.94
437.835	79.94
438.057	80.94
438.278	73.94
438.5	88.94
438.721	99.94
438.943	79.94
439.165	87.94
439.386	73.94
439.608	85.94
439.829	74.94
440.05	78.94
440.272	87.94
440.493	89.94
440.715	81.94
440.936	80.94
441.158	75.94
441.379	79.94
441.6	93.94
441.822	79.94
442.043	73.94
442.264	96.94
442.486	96.94
442.707	97.94
442.928	105.94
443.149	86.94
443.371	93.94
443.592	105.94
443.813	100.94
444.034	94.94
444.255	86.94
444.476	85.94
444.698	82.94
444.919	85.94
445.14	147.94
445.361	129.94
445.582	143.94
445.803	135.94
446.024	88.94
446.245	91.94
446.466	91.94
446.687	86.94
446.908	75.94
447.129	74.94
447.35	66.94
447.571	77.94
447.792	61.94
448.013	66.94
448.234	84.94
448.455	69.94
448.675	83.94
448.896	84.94
449.117	70.94
449.338	73.94
449.559	78.94
449.779	71.94
450	76.94
450.221	83.94
450.442	91.94
450.662	78.94
450.883	87.94
451.104	81.94
451.324	73.94
451.545	81.94
451.766	80.94
451.986	88.94
452.207	83.94
452.428	71.94
452.648	83.94
452.869	96.94
453.089	81.94
453.31	62.94
453.53	85.94
453.751	69.94
453.971	74.94
454.192	87.94
454.412	81.94
454.633	87.94
454.853	75.94
455.073	80.94
455.294	91.94
455.514	84.94
455.734	81.94
455.955	72.94
456.175	65.94
456.395	89.94
456.616	79.94
456.836	69.94
457.056	85.94
457.276	73.94
457.497	95.94
457.717	81.94
457.937	84.94
458.157	81.94
458.377	91.94
458.598	79.94
458.818	94.94
459.038	69.94
459.258	71.94
459.478	73.94
459.698	71.94
459.918	72.94
460.138	81.94
460.358	74.94
460.578	86.94
460.798	83.94
461.018	86.94
461.238	80.94
461.458	70.94
461.678	79.94
461.898	76.94
462.118	85.94
462.338	85.94
462.558	78.94
462.777	99.94
462.997	96.94
463.217	68.94
463.437	78.94
463.657	84.94
463.876	84.94
464.096	80.94
464.316	85.94
464.536	76.94
464.755	89.94
464.975	86.94
465.195	89.94
465.414	93.94
465.634	81.94
465.854	83.94
466.073	77.94
466.293	73.94
466.512	80.94
466.732	88.94
466.951	86.94
467.171	79.94
467.391	85.94
467.61	67.94
467.829	83.94
468.049	77.94
468.268	85.94
468.488	83.94
468.707	77.94
468.927	81.94
469.146	84.94
469.365	85.94
469.585	83.94
469.804	92.94
470.023	87.94
470.243	61.94
470.462	75.94
470.681	88.94
470.901	80.94
471.12	82.94
471.339	74.94
471.558	78.94
471.777	81.94
471.997	94.94
472.216	85.94
472.435	76.94
472.654	78.94
472.873	69.94
473.092	74.94
473.311	97.94
473.53	84.94
473.749	79.94
473.968	75.94
474.187	88.94
474.406	73.94
474.625	65.94
474.844	77.94
475.063	83.94
475.282	74.94
475.501	73.94
475.72	86.94
475.939	84.94
476.158	81.94
476.377	85.94
476.596	89.94
476.814	86.94
477.033	77.94
477.252	83.94
477.471	82.94
477.69	79.94
477.908	83.94
478.127	87.94
478.346	87.94
478.564	73.94
478.783	85.94
479.002	86.94
479.22	81.94
479.439	84.94
479.658	81.94
479.876	83.94
480.095	73.94
480.313	78.94
480.532	88.94
480.751	85.94
480.969	91.94
481.188	78.94
481.406	85.94
481.624	81.94
481.843	71.94
482.061	94.94
482.28	74.94
482.498	81.94
482.717	81.94
482.935	81.94
483.153	83.94
483.372	86.94
483.59	70.94
483.808	78.94
484.027	89.94
484.245	85.94
484.463	81.94
484.681	83.94
484.9	85.94
485.118	81.94
485.336	93.94
485.554	81.94
485.772	86.94
485.99	85.94
486.209	91.94
486.427	86.94
486.645	78.94
486.863	89.94
487.081	80.94
487.299	73.94
487.517	81.94
487.735	90.94
487.953	102.94
488.171	84.94
488.389	81.94
488.607	102.94
488.825	65.94
489.043	85.94
489.261	100.94
489.479	88.94
489.696	66.94
489.914	91.94
490.132	88.94
490.35	70.94
490.568	81.94
490.786	81.94
491.003	78.94
491.221	65.94
491.439	82.94
491.657	83.94
491.874	85.94
492.092	75.94
492.31	91.94
492.527	83.94
492.745	72.94
492.963	81.94
493.18	77.94
493.398	75.94
493.615	85.94
493.833	75.94
494.05	77.94
494.268	71.94
494.485	85.94
494.703	78.94
494.92	90.94
495.138	84.94
495.355	91.94
495.573	86.94
495.79	80.94
496.008	67.94
496.225	70.94
496.442	82.94
496.66	83.94
496.877	82.94
497.094	90.94
497.312	84.94
497.529	82.94
497.746	80.94
497.963	90.94
498.181	70.94
498.398	70.94
498.615	89.94
498.832	91.94
499.049	83.94
499.267	97.94
499.484	74.94
499.701	98.94
499.918	86.94
500.135	87.94
500.352	82.94
500.569	79.94
500.786	91.94
501.003	75.94
501.22	79.94
501.437	85.94
501.654	78.94
501.871	84.94
502.088	74.94
502.305	88.94
502.522	87.94
502.739	87.94
502.956	91.94
503.172	82.94
503.389	58.94
503.606	79.94
503.823	95.94
504.04	89.94
504.256	82.94
504.473	83.94
504.69	65.94
504.907	86.94
505.123	89.94
505.34	71.94
505.557	87.94
505.773	89.94
505.99	97.94
506.207	83.94
506.423	70.94
506.64	75.94
506.856	83.94
507.073	82.94
507.289	72.94
507.506	81.94
507.722	75.94
507.939	84.94
508.155	72.94
508.372	96.94
508.588	85.94
508.805	76.94
509.021	79.94
509.238	80.94
509.454	79.94
509.67	73.94
509.887	86.94
510.103	90.94
510.319	82.94
510.536	82.94
510.752	81.94
510.968	90.94
511.184	77.94
511.401	82.94
511.617	89.94
511.833	90.94
512.049	92.94
512.265	79.94
512.481	88.94
512.698	95.94
512.914	75.94
513.13	81.94
513.346	75.94
513.562	71.94
513.778	87.94
513.994	96.94
514.21	97.94
514.426	83.94
514.642	74.94
514.858	81.94
515.074	83.94
515.29	85.94
515.506	85.94
515.721	78.94
515.937	77.94
516.153	86.94
516.369	73.94
516.585	85.94
516.801	92.94
517.016	78.94
517.232	87.94
517.448	76.94
517.664	94.94
517.879	80.94
518.095	82.94
518.311	76.94
518.527	94.94
518.742	93.94
518.958	81.94
519.173	98.94
519.389	90.94
519.605	66.94
519.82	96.94
