Data from 237_2_HRD10591_00048.txt Node
Date: Mon Jan 19 14:11:54 EST 2026
User: Yrep
Spectrometer: HR+D1059
Trigger mode: 1
Integration Time (sec): 1.000000E-1
Scans to average: 1
Electric dark correction enabled: true
Nonlinearity correction enabled: false
Boxcar width: 0
XAxis mode: Wavelengths
Number of Pixels in Spectrum: 2048
>>>>>Begin Spectral Data<<<<<
223.165	-26.56
223.4	-26.56
223.635	-26.56
223.869	-28.56
224.104	0.44
224.338	-23.56
224.573	-10.56
224.808	-13.56
225.042	-6.56
225.277	-5.56
225.511	-5.56
225.746	12.44
225.98	8.44
226.215	10.44
226.449	5.44
226.683	20.44
226.918	20.44
227.152	42.44
227.387	31.44
227.621	26.44
227.856	43.44
228.09	49.44
228.324	47.44
228.559	64.44
228.793	48.44
229.027	33.44
229.262	60.44
229.496	64.44
229.73	63.44
229.964	67.44
230.199	73.44
230.433	56.44
230.667	65.44
230.901	69.44
231.136	80.44
231.37	75.44
231.604	68.44
231.838	66.44
232.072	78.44
232.306	85.44
232.541	76.44
232.775	71.44
233.009	69.44
233.243	80.44
233.477	70.44
233.711	82.44
233.945	68.44
234.179	74.44
234.413	78.44
234.647	79.44
234.881	82.44
235.115	68.44
235.349	67.44
235.583	66.44
235.817	75.44
236.051	62.44
236.285	61.44
236.519	65.44
236.753	75.44
236.987	66.44
237.221	65.44
237.455	72.44
237.689	85.44
237.922	68.44
238.156	64.44
238.39	73.44
238.624	64.44
238.858	71.44
239.091	48.44
239.325	64.44
239.559	78.44
239.793	80.44
240.027	81.44
240.26	82.44
240.494	65.44
240.728	66.44
240.961	60.44
241.195	75.44
241.429	54.44
241.662	68.44
241.896	78.44
242.13	81.44
242.363	76.44
242.597	58.44
242.83	60.44
243.064	61.44
243.298	75.44
243.531	81.44
243.765	67.44
243.998	72.44
244.232	81.44
244.465	63.44
244.699	78.44
244.932	74.44
245.166	76.44
245.399	78.44
245.633	74.44
245.866	60.44
246.099	77.44
246.333	76.44
246.566	70.44
246.8	82.44
247.033	70.44
247.266	68.44
247.5	76.44
247.733	72.44
247.966	73.44
248.2	65.44
248.433	77.44
248.666	63.44
248.899	78.44
249.133	67.44
249.366	71.44
249.599	76.44
249.832	67.44
250.066	80.44
250.299	76.44
250.532	71.44
250.765	72.44
250.998	70.44
251.231	96.44
251.465	71.44
251.698	70.44
251.931	76.44
252.164	78.44
252.397	81.44
252.63	70.44
252.863	70.44
253.096	66.44
253.329	68.44
253.562	77.44
253.795	63.44
254.028	80.44
254.261	59.44
254.494	85.44
254.727	78.44
254.96	83.44
255.193	68.44
255.426	54.44
255.659	70.44
255.892	69.44
256.124	68.44
256.357	82.44
256.59	75.44
256.823	71.44
257.056	81.44
257.289	83.44
257.521	70.44
257.754	72.44
257.987	55.44
258.22	85.44
258.452	71.44
258.685	68.44
258.918	67.44
259.151	80.44
259.383	80.44
259.616	69.44
259.849	84.44
260.081	62.44
260.314	64.44
260.547	79.44
260.779	74.44
261.012	87.44
261.244	86.44
261.477	72.44
261.71	70.44
261.942	78.44
262.175	78.44
262.407	77.44
262.64	82.44
262.872	75.44
263.105	71.44
263.337	79.44
263.57	73.44
263.802	86.44
264.035	76.44
264.267	78.44
264.499	67.44
264.732	68.44
264.964	70.44
265.197	80.44
265.429	84.44
265.661	78.44
265.894	62.44
266.126	77.44
266.358	81.44
266.591	74.44
266.823	71.44
267.055	67.44
267.287	68.44
267.52	82.44
267.752	82.44
267.984	81.44
268.216	81.44
268.448	74.44
268.681	76.44
268.913	76.44
269.145	72.44
269.377	74.44
269.609	76.44
269.841	68.44
270.073	82.44
270.306	80.44
270.538	73.44
270.77	60.44
271.002	66.44
271.234	78.44
271.466	62.44
271.698	76.44
271.93	74.44
272.162	78.44
272.394	74.44
272.626	70.44
272.858	76.44
273.09	74.44
273.322	80.44
273.553	85.44
273.785	77.44
274.017	89.44
274.249	83.44
274.481	82.44
274.713	86.44
274.945	85.44
275.176	74.44
275.408	64.44
275.64	84.44
275.872	77.44
276.104	77.44
276.335	60.44
276.567	89.44
276.799	67.44
277.031	65.44
277.262	86.44
277.494	91.44
277.726	83.44
277.957	74.44
278.189	70.44
278.421	75.44
278.652	82.44
278.884	56.44
279.115	74.44
279.347	72.44
279.579	63.44
279.81	74.44
280.042	90.44
280.273	85.44
280.505	86.44
280.736	81.44
280.968	77.44
281.199	66.44
281.431	75.44
281.662	86.44
281.894	76.44
282.125	77.44
282.356	89.44
282.588	80.44
282.819	81.44
283.051	69.44
283.282	67.44
283.513	78.44
283.745	79.44
283.976	79.44
284.207	84.44
284.439	92.44
284.67	84.44
284.901	77.44
285.132	69.44
285.364	91.44
285.595	83.44
285.826	76.44
286.057	84.44
286.288	72.44
286.52	76.44
286.751	63.44
286.982	87.44
287.213	72.44
287.444	77.44
287.675	80.44
287.906	70.44
288.138	76.44
288.369	62.44
288.6	93.44
288.831	86.44
289.062	60.44
289.293	85.44
289.524	76.44
289.755	87.44
289.986	80.44
290.217	76.44
290.448	100.44
290.679	65.44
290.91	91.44
291.141	76.44
291.371	84.44
291.602	80.44
291.833	86.44
292.064	67.44
292.295	80.44
292.526	88.44
292.757	70.44
292.987	75.44
293.218	82.44
293.449	67.44
293.68	74.44
293.91	83.44
294.141	86.44
294.372	73.44
294.603	79.44
294.833	75.44
295.064	82.44
295.295	82.44
295.525	75.44
295.756	64.44
295.987	85.44
296.217	78.44
296.448	82.44
296.679	83.44
296.909	83.44
297.14	89.44
297.37	88.44
297.601	78.44
297.831	64.44
298.062	78.44
298.292	84.44
298.523	78.44
298.753	75.44
298.984	70.44
299.214	76.44
299.445	69.44
299.675	70.44
299.905	77.44
300.136	68.44
300.366	70.44
300.597	78.44
300.827	90.44
301.057	67.44
301.288	85.44
301.518	87.44
301.748	76.44
301.979	86.44
302.209	93.44
302.439	88.44
302.669	85.44
302.9	74.44
303.13	82.44
303.36	88.44
303.59	71.44
303.82	66.44
304.051	92.44
304.281	79.44
304.511	73.44
304.741	96.44
304.971	77.44
305.201	104.44
305.431	89.44
305.661	84.44
305.891	78.44
306.121	77.44
306.352	73.44
306.582	82.44
306.812	73.44
307.042	82.44
307.272	82.44
307.502	87.44
307.731	72.44
307.961	75.44
308.191	84.44
308.421	67.44
308.651	88.44
308.881	76.44
309.111	77.44
309.341	92.44
309.571	92.44
309.8	76.44
310.03	79.44
310.26	72.44
310.49	67.44
310.72	73.44
310.949	93.44
311.179	85.44
311.409	88.44
311.639	64.44
311.868	89.44
312.098	81.44
312.328	84.44
312.557	72.44
312.787	64.44
313.017	71.44
313.246	66.44
313.476	87.44
313.706	80.44
313.935	98.44
314.165	95.44
314.394	84.44
314.624	76.44
314.853	87.44
315.083	75.44
315.312	88.44
315.542	66.44
315.771	76.44
316.001	84.44
316.23	81.44
316.46	92.44
316.689	80.44
316.919	85.44
317.148	90.44
317.377	76.44
317.607	79.44
317.836	97.44
318.065	90.44
318.295	71.44
318.524	68.44
318.753	70.44
318.983	82.44
319.212	83.44
319.441	78.44
319.67	74.44
319.9	93.44
320.129	82.44
320.358	78.44
320.587	83.44
320.816	73.44
321.046	86.44
321.275	74.44
321.504	74.44
321.733	85.44
321.962	83.44
322.191	77.44
322.42	86.44
322.649	82.44
322.878	84.44
323.108	87.44
323.337	81.44
323.566	91.44
323.795	96.44
324.024	76.44
324.253	73.44
324.482	81.44
324.71	77.44
324.939	80.44
325.168	82.44
325.397	84.44
325.626	79.44
325.855	76.44
326.084	83.44
326.313	78.44
326.542	76.44
326.77	73.44
326.999	77.44
327.228	80.44
327.457	63.44
327.686	80.44
327.914	85.44
328.143	86.44
328.372	85.44
328.6	85.44
328.829	84.44
329.058	71.44
329.287	82.44
329.515	76.44
329.744	91.44
329.972	74.44
330.201	91.44
330.43	83.44
330.658	76.44
330.887	80.44
331.115	85.44
331.344	78.44
331.572	84.44
331.801	75.44
332.03	84.44
332.258	89.44
332.486	71.44
332.715	80.44
332.943	85.44
333.172	72.44
333.4	76.44
333.629	76.44
333.857	83.44
334.085	90.44
334.314	70.44
334.542	68.44
334.771	73.44
334.999	89.44
335.227	76.44
335.455	78.44
335.684	85.44
335.912	76.44
336.14	80.44
336.369	96.44
336.597	81.44
336.825	84.44
337.053	76.44
337.281	77.44
337.51	86.44
337.738	81.44
337.966	83.44
338.194	80.44
338.422	71.44
338.65	88.44
338.878	83.44
339.106	65.44
339.334	71.44
339.562	79.44
339.79	76.44
340.018	80.44
340.246	63.44
340.474	76.44
340.702	85.44
340.93	75.44
341.158	86.44
341.386	78.44
341.614	66.44
341.842	76.44
342.07	72.44
342.298	71.44
342.526	84.44
342.754	86.44
342.981	81.44
343.209	61.44
343.437	77.44
343.665	79.44
343.893	82.44
344.12	95.44
344.348	72.44
344.576	76.44
344.804	66.44
345.031	88.44
345.259	78.44
345.487	78.44
345.714	68.44
345.942	62.44
346.17	68.44
346.397	86.44
346.625	76.44
346.853	81.44
347.08	94.44
347.308	82.44
347.535	72.44
347.763	97.44
347.99	86.44
348.218	85.44
348.445	92.44
348.673	95.44
348.9	88.44
349.128	78.44
349.355	76.44
349.583	73.44
349.81	76.44
350.037	80.44
350.265	78.44
350.492	90.44
350.72	73.44
350.947	90.44
351.174	73.44
351.402	68.44
351.629	68.44
351.856	77.44
352.083	76.44
352.311	90.44
352.538	78.44
352.765	80.44
352.992	71.44
353.22	83.44
353.447	66.44
353.674	76.44
353.901	80.44
354.128	88.44
354.355	71.44
354.583	75.44
354.81	85.44
355.037	88.44
355.264	94.44
355.491	82.44
355.718	88.44
355.945	80.44
356.172	80.44
356.399	89.44
356.626	84.44
356.853	76.44
357.08	76.44
357.307	84.44
357.534	72.44
357.761	78.44
357.988	69.44
358.215	88.44
358.441	77.44
358.668	93.44
358.895	76.44
359.122	101.44
359.349	65.44
359.576	81.44
359.802	78.44
360.029	72.44
360.256	75.44
360.483	80.44
360.709	77.44
360.936	90.44
361.163	78.44
361.39	82.44
361.616	76.44
361.843	86.44
362.07	81.44
362.296	93.44
362.523	72.44
362.749	84.44
362.976	92.44
363.203	105.44
363.429	87.44
363.656	88.44
363.882	75.44
364.109	84.44
364.335	84.44
364.562	97.44
364.788	93.44
365.015	71.44
365.241	73.44
365.468	87.44
365.694	74.44
365.92	84.44
366.147	78.44
366.373	67.44
366.599	85.44
366.826	76.44
367.052	87.44
367.278	78.44
367.505	82.44
367.731	76.44
367.957	86.44
368.184	72.44
368.41	72.44
368.636	87.44
368.862	91.44
369.089	83.44
369.315	64.44
369.541	75.44
369.767	69.44
369.993	77.44
370.219	80.44
370.445	78.44
370.672	77.44
370.898	76.44
371.124	73.44
371.35	67.44
371.576	76.44
371.802	76.44
372.028	84.44
372.254	92.44
372.48	94.44
372.706	82.44
372.932	87.44
373.158	97.44
373.384	81.44
373.61	74.44
373.835	86.44
374.061	94.44
374.287	91.44
374.513	80.44
374.739	78.44
374.965	80.44
375.191	78.44
375.416	76.44
375.642	86.44
375.868	89.44
376.094	77.44
376.319	71.44
376.545	80.44
376.771	76.44
376.997	74.44
377.222	90.44
377.448	97.44
377.674	82.44
377.899	76.44
378.125	79.44
378.35	86.44
378.576	78.44
378.802	81.44
379.027	81.44
379.253	77.44
379.478	84.44
379.704	83.44
379.929	78.44
380.155	75.44
380.38	91.44
380.606	85.44
380.831	67.44
381.057	75.44
381.282	81.44
381.507	79.44
381.733	86.44
381.958	80.44
382.184	79.44
382.409	84.44
382.634	89.44
382.86	90.44
383.085	78.44
383.31	77.44
383.535	88.44
383.761	78.44
383.986	88.44
384.211	72.44
384.436	89.44
384.662	69.44
384.887	88.44
385.112	86.44
385.337	88.44
385.562	84.44
385.787	74.44
386.013	90.44
386.238	76.44
386.463	68.44
386.688	80.44
386.913	67.44
387.138	60.44
387.363	89.44
387.588	77.44
387.813	74.44
388.038	70.44
388.263	75.44
388.488	78.44
388.713	95.44
388.938	82.44
389.163	60.44
389.387	92.44
389.612	74.44
389.837	73.44
390.062	67.44
390.287	74.44
390.512	78.44
390.736	80.44
390.961	88.44
391.186	64.44
391.411	91.44
391.636	85.44
391.86	80.44
392.085	74.44
392.31	108.44
392.534	95.44
392.759	96.44
392.984	121.44
393.208	223.44
393.433	284.44
393.658	232.44
393.882	107.44
394.107	70.44
394.331	99.44
394.556	94.44
394.78	82.44
395.005	91.44
395.229	91.44
395.454	88.44
395.678	89.44
395.903	102.44
396.127	100.44
396.352	117.44
396.576	135.44
396.801	198.44
397.025	231.44
397.249	138.44
397.474	108.44
397.698	82.44
397.922	89.44
398.147	86.44
398.371	75.44
398.595	87.44
398.82	80.44
399.044	79.44
399.268	71.44
399.492	80.44
399.717	72.44
399.941	77.44
400.165	78.44
400.389	71.44
400.613	79.44
400.837	70.44
401.062	76.44
401.286	71.44
401.51	68.44
401.734	74.44
401.958	71.44
402.182	61.44
402.406	80.44
402.63	74.44
402.854	82.44
403.078	86.44
403.302	70.44
403.526	56.44
403.75	70.44
403.974	74.44
404.198	83.44
404.422	80.44
404.645	74.44
404.869	73.44
405.093	84.44
405.317	74.44
405.541	68.44
405.765	80.44
405.988	74.44
406.212	78.44
406.436	86.44
406.66	86.44
406.883	70.44
407.107	70.44
407.331	82.44
407.555	73.44
407.778	88.44
408.002	98.44
408.226	84.44
408.449	82.44
408.673	66.44
408.896	87.44
409.12	84.44
409.344	74.44
409.567	90.44
409.791	84.44
410.014	76.44
410.238	79.44
410.461	82.44
410.685	96.44
410.908	84.44
411.132	81.44
411.355	80.44
411.578	70.44
411.802	80.44
412.025	72.44
412.249	80.44
412.472	82.44
412.695	76.44
412.919	78.44
413.142	73.44
413.365	77.44
413.589	82.44
413.812	64.44
414.035	82.44
414.258	71.44
414.482	78.44
414.705	79.44
414.928	85.44
415.151	78.44
415.374	87.44
415.597	74.44
415.821	73.44
416.044	77.44
416.267	83.44
416.49	66.44
416.713	80.44
416.936	86.44
417.159	82.44
417.382	65.44
417.605	65.44
417.828	75.44
418.051	74.44
418.274	80.44
418.497	80.44
418.72	79.44
418.943	80.44
419.166	62.44
419.389	64.44
419.611	80.44
419.834	71.44
420.057	82.44
420.28	66.44
420.503	86.44
420.726	90.44
420.948	74.44
421.171	83.44
421.394	82.44
421.617	83.44
421.839	88.44
422.062	77.44
422.285	122.44
422.507	158.44
422.73	273.44
422.953	238.44
423.175	131.44
423.398	94.44
423.621	91.44
423.843	75.44
424.066	88.44
424.288	78.44
424.511	70.44
424.733	69.44
424.956	86.44
425.178	76.44
425.401	79.44
425.623	78.44
425.846	81.44
426.068	93.44
426.291	84.44
426.513	92.44
426.735	77.44
426.958	82.44
427.18	79.44
427.402	76.44
427.625	80.44
427.847	78.44
428.069	92.44
428.292	107.44
428.514	102.44
428.736	108.44
428.958	97.44
429.181	102.44
429.403	82.44
429.625	84.44
429.847	92.44
430.069	113.44
430.292	129.44
430.514	117.44
430.736	106.44
430.958	108.44
431.18	91.44
431.402	85.44
431.624	82.44
431.846	93.44
432.068	90.44
432.29	82.44
432.512	89.44
432.734	62.44
432.956	73.44
433.178	66.44
433.4	79.44
433.622	70.44
433.844	72.44
434.066	78.44
434.287	75.44
434.509	75.44
434.731	81.44
434.953	82.44
435.175	75.44
435.397	72.44
435.618	77.44
435.84	70.44
436.062	75.44
436.284	70.44
436.505	84.44
436.727	69.44
436.949	86.44
437.17	66.44
437.392	88.44
437.614	74.44
437.835	67.44
438.057	70.44
438.278	65.44
438.5	86.44
438.721	72.44
438.943	89.44
439.165	78.44
439.386	74.44
439.608	74.44
439.829	85.44
440.05	70.44
440.272	78.44
440.493	71.44
440.715	91.44
440.936	76.44
441.158	81.44
441.379	98.44
441.6	68.44
441.822	66.44
442.043	90.44
442.264	76.44
442.486	94.44
442.707	123.44
442.928	87.44
443.149	93.44
443.371	98.44
443.592	150.44
443.813	142.44
444.034	98.44
444.255	76.44
444.476	92.44
444.698	84.44
444.919	81.44
445.14	177.44
445.361	163.44
445.582	170.44
445.803	148.44
446.024	104.44
446.245	59.44
446.466	76.44
446.687	66.44
446.908	82.44
447.129	60.44
447.35	92.44
447.571	87.44
447.792	73.44
448.013	70.44
448.234	58.44
448.455	64.44
448.675	77.44
448.896	70.44
449.117	85.44
449.338	66.44
449.559	82.44
449.779	79.44
450	93.44
450.221	64.44
450.442	80.44
450.662	61.44
450.883	84.44
451.104	78.44
451.324	68.44
451.545	82.44
451.766	81.44
451.986	80.44
452.207	70.44
452.428	73.44
452.648	68.44
452.869	83.44
453.089	90.44
453.31	86.44
453.53	89.44
453.751	82.44
453.971	66.44
454.192	62.44
454.412	86.44
454.633	84.44
454.853	68.44
455.073	78.44
455.294	90.44
455.514	80.44
455.734	75.44
455.955	78.44
456.175	78.44
456.395	77.44
456.616	76.44
456.836	92.44
457.056	76.44
457.276	81.44
457.497	70.44
457.717	78.44
457.937	81.44
458.157	104.44
458.377	86.44
458.598	88.44
458.818	97.44
459.038	93.44
459.258	76.44
459.478	61.44
459.698	66.44
459.918	76.44
460.138	61.44
460.358	72.44
460.578	85.44
460.798	92.44
461.018	98.44
461.238	75.44
461.458	78.44
461.678	78.44
461.898	93.44
462.118	86.44
462.338	78.44
462.558	81.44
462.777	66.44
462.997	72.44
463.217	65.44
463.437	88.44
463.657	76.44
463.876	73.44
464.096	68.44
464.316	72.44
464.536	83.44
464.755	65.44
464.975	76.44
465.195	78.44
465.414	73.44
465.634	80.44
465.854	74.44
466.073	70.44
466.293	80.44
466.512	79.44
466.732	74.44
466.951	89.44
467.171	81.44
467.391	71.44
467.61	69.44
467.829	77.44
468.049	84.44
468.268	74.44
468.488	64.44
468.707	82.44
468.927	82.44
469.146	67.44
469.365	78.44
469.585	92.44
469.804	77.44
470.023	76.44
470.243	71.44
470.462	67.44
470.681	76.44
470.901	83.44
471.12	75.44
471.339	92.44
471.558	79.44
471.777	70.44
471.997	74.44
472.216	83.44
472.435	78.44
472.654	84.44
472.873	68.44
473.092	80.44
473.311	76.44
473.53	76.44
473.749	75.44
473.968	82.44
474.187	73.44
474.406	85.44
474.625	77.44
474.844	69.44
475.063	75.44
475.282	78.44
475.501	83.44
475.72	94.44
475.939	86.44
476.158	70.44
476.377	69.44
476.596	69.44
476.814	82.44
477.033	74.44
477.252	81.44
477.471	70.44
477.69	84.44
477.908	72.44
478.127	82.44
478.346	70.44
478.564	70.44
478.783	66.44
479.002	71.44
479.22	78.44
479.439	79.44
479.658	68.44
479.876	78.44
480.095	68.44
480.313	76.44
480.532	74.44
480.751	84.44
480.969	77.44
481.188	74.44
481.406	88.44
481.624	70.44
481.843	80.44
482.061	90.44
482.28	79.44
482.498	74.44
482.717	59.44
482.935	86.44
483.153	76.44
483.372	85.44
483.59	76.44
483.808	84.44
484.027	92.44
484.245	81.44
484.463	87.44
484.681	80.44
484.9	72.44
485.118	90.44
485.336	82.44
485.554	76.44
485.772	90.44
485.99	80.44
486.209	84.44
486.427	76.44
486.645	92.44
486.863	75.44
487.081	82.44
487.299	77.44
487.517	80.44
487.735	70.44
487.953	100.44
488.171	82.44
488.389	87.44
488.607	74.44
488.825	86.44
489.043	69.44
489.261	88.44
489.479	73.44
489.696	78.44
489.914	77.44
490.132	77.44
490.35	83.44
490.568	60.44
490.786	76.44
491.003	73.44
491.221	75.44
491.439	72.44
491.657	82.44
491.874	78.44
492.092	78.44
492.31	77.44
492.527	76.44
492.745	79.44
492.963	72.44
493.18	70.44
493.398	76.44
493.615	94.44
493.833	82.44
494.05	74.44
494.268	85.44
494.485	77.44
494.703	74.44
494.92	74.44
495.138	80.44
495.355	74.44
495.573	70.44
495.79	89.44
496.008	84.44
496.225	80.44
496.442	86.44
496.66	89.44
496.877	62.44
497.094	76.44
497.312	74.44
497.529	88.44
497.746	63.44
497.963	70.44
498.181	72.44
498.398	77.44
498.615	74.44
498.832	70.44
499.049	80.44
499.267	75.44
499.484	77.44
499.701	85.44
499.918	69.44
500.135	71.44
500.352	61.44
500.569	73.44
500.786	76.44
501.003	85.44
501.22	70.44
501.437	82.44
501.654	84.44
501.871	95.44
502.088	87.44
502.305	85.44
502.522	89.44
502.739	88.44
502.956	72.44
503.172	76.44
503.389	79.44
503.606	88.44
503.823	70.44
504.04	86.44
504.256	88.44
504.473	90.44
504.69	83.44
504.907	67.44
505.123	81.44
505.34	84.44
505.557	69.44
505.773	75.44
505.99	94.44
506.207	75.44
506.423	67.44
506.64	71.44
506.856	73.44
507.073	77.44
507.289	65.44
507.506	74.44
507.722	70.44
507.939	69.44
508.155	82.44
508.372	73.44
508.588	83.44
508.805	83.44
509.021	79.44
509.238	74.44
509.454	81.44
509.67	90.44
509.887	82.44
510.103	67.44
510.319	87.44
510.536	72.44
510.752	71.44
510.968	79.44
511.184	76.44
511.401	76.44
511.617	73.44
511.833	84.44
512.049	68.44
512.265	80.44
512.481	82.44
512.698	81.44
512.914	83.44
513.13	97.44
513.346	71.44
513.562	81.44
513.778	76.44
513.994	77.44
514.21	83.44
514.426	79.44
514.642	85.44
514.858	89.44
515.074	90.44
515.29	88.44
515.506	73.44
515.721	82.44
515.937	80.44
516.153	79.44
516.369	68.44
516.585	71.44
516.801	80.44
517.016	83.44
517.232	77.44
517.448	96.44
517.664	86.44
517.879	84.44
518.095	79.44
518.311	73.44
518.527	90.44
518.742	96.44
518.958	92.44
519.173	108.44
519.389	82.44
519.605	74.44
519.82	64.44
