Data from 237_2_HRD10591_00003.txt Node
Date: Mon Jan 19 14:11:32 EST 2026
User: Yrep
Spectrometer: HR+D1059
Trigger mode: 1
Integration Time (sec): 1.000000E-1
Scans to average: 1
Electric dark correction enabled: true
Nonlinearity correction enabled: false
Boxcar width: 0
XAxis mode: Wavelengths
Number of Pixels in Spectrum: 2048
>>>>>Begin Spectral Data<<<<<
223.165	-23.06
223.4	-23.06
223.635	-23.06
223.869	-17.06
224.104	-26.06
224.338	-21.06
224.573	-14.06
224.808	3.94
225.042	-15.06
225.277	-22.06
225.511	4.94
225.746	8.94
225.98	-6.06
226.215	22.94
226.449	10.94
226.683	33.94
226.918	21.94
227.152	36.94
227.387	28.94
227.621	42.94
227.856	41.94
228.09	31.94
228.324	45.94
228.559	64.94
228.793	57.94
229.027	59.94
229.262	65.94
229.496	75.94
229.73	64.94
229.964	71.94
230.199	66.94
230.433	87.94
230.667	71.94
230.901	79.94
231.136	69.94
231.37	72.94
231.604	80.94
231.838	85.94
232.072	71.94
232.306	98.94
232.541	80.94
232.775	76.94
233.009	69.94
233.243	79.94
233.477	82.94
233.711	73.94
233.945	92.94
234.179	86.94
234.413	97.94
234.647	69.94
234.881	76.94
235.115	66.94
235.349	84.94
235.583	89.94
235.817	72.94
236.051	66.94
236.285	75.94
236.519	82.94
236.753	65.94
236.987	78.94
237.221	57.94
237.455	72.94
237.689	77.94
237.922	62.94
238.156	79.94
238.39	62.94
238.624	78.94
238.858	78.94
239.091	70.94
239.325	74.94
239.559	78.94
239.793	78.94
240.027	84.94
240.26	87.94
240.494	68.94
240.728	60.94
240.961	71.94
241.195	68.94
241.429	68.94
241.662	71.94
241.896	67.94
242.13	68.94
242.363	80.94
242.597	70.94
242.83	70.94
243.064	73.94
243.298	74.94
243.531	77.94
243.765	66.94
243.998	74.94
244.232	75.94
244.465	85.94
244.699	61.94
244.932	69.94
245.166	85.94
245.399	67.94
245.633	71.94
245.866	82.94
246.099	80.94
246.333	59.94
246.566	79.94
246.8	70.94
247.033	68.94
247.266	72.94
247.5	67.94
247.733	73.94
247.966	80.94
248.2	65.94
248.433	73.94
248.666	71.94
248.899	72.94
249.133	75.94
249.366	73.94
249.599	66.94
249.832	85.94
250.066	70.94
250.299	74.94
250.532	70.94
250.765	92.94
250.998	72.94
251.231	86.94
251.465	85.94
251.698	70.94
251.931	78.94
252.164	87.94
252.397	73.94
252.63	80.94
252.863	60.94
253.096	92.94
253.329	89.94
253.562	67.94
253.795	70.94
254.028	78.94
254.261	79.94
254.494	73.94
254.727	76.94
254.96	90.94
255.193	84.94
255.426	81.94
255.659	87.94
255.892	95.94
256.124	86.94
256.357	77.94
256.59	63.94
256.823	68.94
257.056	80.94
257.289	87.94
257.521	80.94
257.754	82.94
257.987	61.94
258.22	71.94
258.452	86.94
258.685	73.94
258.918	84.94
259.151	81.94
259.383	67.94
259.616	60.94
259.849	73.94
260.081	64.94
260.314	71.94
260.547	75.94
260.779	86.94
261.012	73.94
261.244	70.94
261.477	77.94
261.71	79.94
261.942	73.94
262.175	62.94
262.407	81.94
262.64	70.94
262.872	80.94
263.105	78.94
263.337	80.94
263.57	96.94
263.802	78.94
264.035	82.94
264.267	67.94
264.499	72.94
264.732	77.94
264.964	91.94
265.197	74.94
265.429	78.94
265.661	84.94
265.894	67.94
266.126	89.94
266.358	77.94
266.591	82.94
266.823	73.94
267.055	65.94
267.287	89.94
267.52	86.94
267.752	86.94
267.984	77.94
268.216	78.94
268.448	72.94
268.681	83.94
268.913	82.94
269.145	84.94
269.377	84.94
269.609	80.94
269.841	84.94
270.073	66.94
270.306	80.94
270.538	81.94
270.77	73.94
271.002	85.94
271.234	69.94
271.466	70.94
271.698	81.94
271.93	85.94
272.162	80.94
272.394	91.94
272.626	85.94
272.858	87.94
273.09	72.94
273.322	72.94
273.553	88.94
273.785	90.94
274.017	80.94
274.249	83.94
274.481	74.94
274.713	78.94
274.945	77.94
275.176	74.94
275.408	72.94
275.64	76.94
275.872	93.94
276.104	92.94
276.335	98.94
276.567	61.94
276.799	82.94
277.031	61.94
277.262	73.94
277.494	83.94
277.726	73.94
277.957	84.94
278.189	70.94
278.421	86.94
278.652	92.94
278.884	80.94
279.115	88.94
279.347	65.94
279.579	81.94
279.81	85.94
280.042	80.94
280.273	85.94
280.505	82.94
280.736	80.94
280.968	81.94
281.199	86.94
281.431	78.94
281.662	77.94
281.894	80.94
282.125	83.94
282.356	82.94
282.588	81.94
282.819	87.94
283.051	84.94
283.282	93.94
283.513	82.94
283.745	85.94
283.976	81.94
284.207	73.94
284.439	91.94
284.67	83.94
284.901	102.94
285.132	91.94
285.364	88.94
285.595	79.94
285.826	79.94
286.057	89.94
286.288	72.94
286.52	72.94
286.751	82.94
286.982	86.94
287.213	75.94
287.444	94.94
287.675	79.94
287.906	100.94
288.138	74.94
288.369	103.94
288.6	78.94
288.831	76.94
289.062	81.94
289.293	73.94
289.524	73.94
289.755	84.94
289.986	70.94
290.217	81.94
290.448	69.94
290.679	86.94
290.91	94.94
291.141	79.94
291.371	88.94
291.602	80.94
291.833	83.94
292.064	74.94
292.295	81.94
292.526	78.94
292.757	73.94
292.987	68.94
293.218	84.94
293.449	86.94
293.68	72.94
293.91	77.94
294.141	86.94
294.372	88.94
294.603	90.94
294.833	81.94
295.064	81.94
295.295	71.94
295.525	75.94
295.756	76.94
295.987	70.94
296.217	106.94
296.448	66.94
296.679	85.94
296.909	84.94
297.14	78.94
297.37	82.94
297.601	86.94
297.831	86.94
298.062	88.94
298.292	81.94
298.523	72.94
298.753	90.94
298.984	81.94
299.214	95.94
299.445	84.94
299.675	88.94
299.905	94.94
300.136	82.94
300.366	91.94
300.597	84.94
300.827	81.94
301.057	100.94
301.288	88.94
301.518	77.94
301.748	96.94
301.979	97.94
302.209	89.94
302.439	75.94
302.669	80.94
302.9	83.94
303.13	78.94
303.36	66.94
303.59	96.94
303.82	96.94
304.051	64.94
304.281	82.94
304.511	73.94
304.741	59.94
304.971	79.94
305.201	74.94
305.431	71.94
305.661	89.94
305.891	89.94
306.121	75.94
306.352	80.94
306.582	82.94
306.812	86.94
307.042	91.94
307.272	80.94
307.502	75.94
307.731	93.94
307.961	82.94
308.191	87.94
308.421	98.94
308.651	86.94
308.881	87.94
309.111	83.94
309.341	114.94
309.571	79.94
309.8	96.94
310.03	92.94
310.26	78.94
310.49	90.94
310.72	89.94
310.949	73.94
311.179	82.94
311.409	92.94
311.639	78.94
311.868	90.94
312.098	84.94
312.328	86.94
312.557	92.94
312.787	90.94
313.017	80.94
313.246	87.94
313.476	88.94
313.706	85.94
313.935	70.94
314.165	79.94
314.394	91.94
314.624	84.94
314.853	83.94
315.083	69.94
315.312	89.94
315.542	94.94
315.771	87.94
316.001	78.94
316.23	78.94
316.46	75.94
316.689	85.94
316.919	79.94
317.148	83.94
317.377	100.94
317.607	93.94
317.836	87.94
318.065	101.94
318.295	88.94
318.524	101.94
318.753	88.94
318.983	88.94
319.212	88.94
319.441	87.94
319.67	78.94
319.9	72.94
320.129	83.94
320.358	88.94
320.587	87.94
320.816	91.94
321.046	86.94
321.275	80.94
321.504	74.94
321.733	85.94
321.962	84.94
322.191	97.94
322.42	91.94
322.649	75.94
322.878	74.94
323.108	81.94
323.337	81.94
323.566	81.94
323.795	92.94
324.024	83.94
324.253	91.94
324.482	67.94
324.71	92.94
324.939	95.94
325.168	84.94
325.397	87.94
325.626	93.94
325.855	73.94
326.084	88.94
326.313	89.94
326.542	86.94
326.77	89.94
326.999	92.94
327.228	84.94
327.457	74.94
327.686	85.94
327.914	84.94
328.143	94.94
328.372	82.94
328.6	80.94
328.829	85.94
329.058	84.94
329.287	73.94
329.515	87.94
329.744	82.94
329.972	84.94
330.201	109.94
330.43	96.94
330.658	80.94
330.887	80.94
331.115	87.94
331.344	80.94
331.572	78.94
331.801	69.94
332.03	87.94
332.258	80.94
332.486	96.94
332.715	73.94
332.943	98.94
333.172	79.94
333.4	84.94
333.629	87.94
333.857	89.94
334.085	90.94
334.314	84.94
334.542	82.94
334.771	90.94
334.999	90.94
335.227	100.94
335.455	81.94
335.684	103.94
335.912	92.94
336.14	105.94
336.369	103.94
336.597	97.94
336.825	81.94
337.053	84.94
337.281	88.94
337.51	77.94
337.738	86.94
337.966	77.94
338.194	92.94
338.422	93.94
338.65	79.94
338.878	96.94
339.106	79.94
339.334	84.94
339.562	81.94
339.79	99.94
340.018	84.94
340.246	81.94
340.474	85.94
340.702	94.94
340.93	72.94
341.158	84.94
341.386	70.94
341.614	92.94
341.842	74.94
342.07	92.94
342.298	70.94
342.526	78.94
342.754	77.94
342.981	90.94
343.209	72.94
343.437	112.94
343.665	96.94
343.893	100.94
344.12	96.94
344.348	96.94
344.576	81.94
344.804	99.94
345.031	81.94
345.259	80.94
345.487	74.94
345.714	81.94
345.942	87.94
346.17	69.94
346.397	88.94
346.625	97.94
346.853	88.94
347.08	68.94
347.308	89.94
347.535	96.94
347.763	94.94
347.99	94.94
348.218	70.94
348.445	81.94
348.673	76.94
348.9	88.94
349.128	90.94
349.355	78.94
349.583	91.94
349.81	84.94
350.037	72.94
350.265	87.94
350.492	72.94
350.72	93.94
350.947	80.94
351.174	71.94
351.402	85.94
351.629	78.94
351.856	92.94
352.083	79.94
352.311	83.94
352.538	91.94
352.765	84.94
352.992	97.94
353.22	83.94
353.447	87.94
353.674	86.94
353.901	73.94
354.128	77.94
354.355	89.94
354.583	82.94
354.81	84.94
355.037	81.94
355.264	85.94
355.491	87.94
355.718	87.94
355.945	79.94
356.172	101.94
356.399	88.94
356.626	92.94
356.853	97.94
357.08	112.94
357.307	101.94
357.534	90.94
357.761	90.94
357.988	100.94
358.215	109.94
358.441	86.94
358.668	82.94
358.895	63.94
359.122	103.94
359.349	77.94
359.576	72.94
359.802	84.94
360.029	79.94
360.256	83.94
360.483	91.94
360.709	88.94
360.936	87.94
361.163	114.94
361.39	85.94
361.616	88.94
361.843	95.94
362.07	107.94
362.296	103.94
362.523	114.94
362.749	132.94
362.976	126.94
363.203	136.94
363.429	124.94
363.656	94.94
363.882	106.94
364.109	125.94
364.335	167.94
364.562	191.94
364.788	120.94
365.015	112.94
365.241	92.94
365.468	90.94
365.694	78.94
365.92	90.94
366.147	91.94
366.373	101.94
366.599	82.94
366.826	68.94
367.052	82.94
367.278	92.94
367.505	98.94
367.731	95.94
367.957	98.94
368.184	85.94
368.41	92.94
368.636	95.94
368.862	96.94
369.089	80.94
369.315	79.94
369.541	86.94
369.767	85.94
369.993	83.94
370.219	81.94
370.445	116.94
370.672	92.94
370.898	100.94
371.124	90.94
371.35	77.94
371.576	96.94
371.802	81.94
372.028	93.94
372.254	93.94
372.48	88.94
372.706	88.94
372.932	80.94
373.158	101.94
373.384	109.94
373.61	109.94
373.835	107.94
374.061	108.94
374.287	104.94
374.513	103.94
374.739	118.94
374.965	118.94
375.191	102.94
375.416	96.94
375.642	89.94
375.868	88.94
376.094	93.94
376.319	79.94
376.545	101.94
376.771	84.94
376.997	91.94
377.222	85.94
377.448	82.94
377.674	84.94
377.899	91.94
378.125	92.94
378.35	95.94
378.576	92.94
378.802	84.94
379.027	90.94
379.253	74.94
379.478	89.94
379.704	96.94
379.929	96.94
380.155	86.94
380.38	72.94
380.606	80.94
380.831	96.94
381.057	96.94
381.282	87.94
381.507	110.94
381.733	102.94
381.958	104.94
382.184	102.94
382.409	103.94
382.634	120.94
382.86	106.94
383.085	103.94
383.31	98.94
383.535	99.94
383.761	105.94
383.986	129.94
384.211	91.94
384.436	81.94
384.662	94.94
384.887	71.94
385.112	99.94
385.337	99.94
385.562	118.94
385.787	99.94
386.013	97.94
386.238	109.94
386.463	106.94
386.688	106.94
386.913	95.94
387.138	105.94
387.363	119.94
387.588	100.94
387.813	100.94
388.038	102.94
388.263	92.94
388.488	98.94
388.713	90.94
388.938	96.94
389.163	88.94
389.387	88.94
389.612	74.94
389.837	85.94
390.062	86.94
390.287	103.94
390.512	101.94
390.736	89.94
390.961	88.94
391.186	92.94
391.411	73.94
391.636	93.94
391.86	81.94
392.085	108.94
392.31	110.94
392.534	133.94
392.759	133.94
392.984	198.94
393.208	383.94
393.433	553.94
393.658	423.94
393.882	182.94
394.107	144.94
394.331	148.94
394.556	149.94
394.78	128.94
395.005	114.94
395.229	92.94
395.454	115.94
395.678	109.94
395.903	144.94
396.127	179.94
396.352	188.94
396.576	216.94
396.801	377.94
397.025	446.94
397.249	244.94
397.474	147.94
397.698	109.94
397.922	84.94
398.147	87.94
398.371	92.94
398.595	99.94
398.82	88.94
399.044	89.94
399.268	88.94
399.492	105.94
399.717	94.94
399.941	103.94
400.165	92.94
400.389	84.94
400.613	80.94
400.837	79.94
401.062	91.94
401.286	95.94
401.51	78.94
401.734	80.94
401.958	86.94
402.182	82.94
402.406	93.94
402.63	68.94
402.854	80.94
403.078	80.94
403.302	83.94
403.526	89.94
403.75	96.94
403.974	89.94
404.198	96.94
404.422	130.94
404.645	132.94
404.869	115.94
405.093	92.94
405.317	84.94
405.541	87.94
405.765	84.94
405.988	98.94
406.212	93.94
406.436	100.94
406.66	102.94
406.883	74.94
407.107	89.94
407.331	101.94
407.555	102.94
407.778	125.94
408.002	123.94
408.226	84.94
408.449	97.94
408.673	85.94
408.896	94.94
409.12	104.94
409.344	95.94
409.567	109.94
409.791	124.94
410.014	124.94
410.238	108.94
410.461	97.94
410.685	88.94
410.908	84.94
411.132	85.94
411.355	89.94
411.578	90.94
411.802	92.94
412.025	79.94
412.249	60.94
412.472	74.94
412.695	84.94
412.919	78.94
413.142	84.94
413.365	92.94
413.589	92.94
413.812	81.94
414.035	94.94
414.258	91.94
414.482	97.94
414.705	84.94
414.928	79.94
415.151	79.94
415.374	93.94
415.597	87.94
415.821	87.94
416.044	87.94
416.267	90.94
416.49	86.94
416.713	86.94
416.936	91.94
417.159	95.94
417.382	90.94
417.605	87.94
417.828	102.94
418.051	79.94
418.274	83.94
418.497	85.94
418.72	73.94
418.943	84.94
419.166	99.94
419.389	105.94
419.611	81.94
419.834	90.94
420.057	101.94
420.28	78.94
420.503	83.94
420.726	86.94
420.948	105.94
421.171	93.94
421.394	103.94
421.617	146.94
421.839	141.94
422.062	144.94
422.285	238.94
422.507	438.94
422.73	672.94
422.953	626.94
423.175	312.94
423.398	157.94
423.621	112.94
423.843	116.94
424.066	113.94
424.288	113.94
424.511	87.94
424.733	89.94
424.956	96.94
425.178	88.94
425.401	92.94
425.623	83.94
425.846	94.94
426.068	95.94
426.291	93.94
426.513	99.94
426.735	89.94
426.958	89.94
427.18	94.94
427.402	107.94
427.625	98.94
427.847	103.94
428.069	105.94
428.292	162.94
428.514	182.94
428.736	135.94
428.958	165.94
429.181	185.94
429.403	118.94
429.625	109.94
429.847	146.94
430.069	243.94
430.292	272.94
430.514	240.94
430.736	169.94
430.958	194.94
431.18	121.94
431.402	87.94
431.624	95.94
431.846	151.94
432.068	183.94
432.29	109.94
432.512	108.94
432.734	103.94
432.956	84.94
433.178	96.94
433.4	72.94
433.622	66.94
433.844	95.94
434.066	88.94
434.287	82.94
434.509	87.94
434.731	95.94
434.953	92.94
435.175	95.94
435.397	96.94
435.618	93.94
435.84	93.94
436.062	81.94
436.284	86.94
436.505	85.94
436.727	65.94
436.949	78.94
437.17	102.94
437.392	90.94
437.614	103.94
437.835	99.94
438.057	88.94
438.278	95.94
438.5	98.94
438.721	91.94
438.943	95.94
439.165	76.94
439.386	86.94
439.608	93.94
439.829	92.94
440.05	89.94
440.272	86.94
440.493	92.94
440.715	96.94
440.936	94.94
441.158	92.94
441.379	69.94
441.6	112.94
441.822	82.94
442.043	88.94
442.264	114.94
442.486	177.94
442.707	246.94
442.928	162.94
443.149	120.94
443.371	229.94
443.592	437.94
443.813	350.94
444.034	148.94
444.255	97.94
444.476	94.94
444.698	99.94
444.919	112.94
445.14	232.94
445.361	288.94
445.582	489.94
445.803	424.94
446.024	170.94
446.245	93.94
446.466	85.94
446.687	82.94
446.908	86.94
447.129	89.94
447.35	85.94
447.571	79.94
447.792	72.94
448.013	68.94
448.234	88.94
448.455	104.94
448.675	78.94
448.896	96.94
449.117	87.94
449.338	71.94
449.559	102.94
449.779	83.94
450	87.94
450.221	87.94
450.442	82.94
450.662	101.94
450.883	72.94
451.104	75.94
451.324	89.94
451.545	92.94
451.766	78.94
451.986	82.94
452.207	86.94
452.428	84.94
452.648	99.94
452.869	124.94
453.089	102.94
453.31	98.94
453.53	109.94
453.751	104.94
453.971	100.94
454.192	84.94
454.412	87.94
454.633	94.94
454.853	90.94
455.073	90.94
455.294	95.94
455.514	101.94
455.734	87.94
455.955	71.94
456.175	85.94
456.395	91.94
456.616	72.94
456.836	83.94
457.056	86.94
457.276	94.94
457.497	99.94
457.717	97.94
457.937	119.94
458.157	148.94
458.377	140.94
458.598	127.94
458.818	158.94
459.038	97.94
459.258	104.94
459.478	98.94
459.698	83.94
459.918	90.94
460.138	93.94
460.358	85.94
460.578	118.94
460.798	153.94
461.018	137.94
461.238	91.94
461.458	81.94
461.678	82.94
461.898	88.94
462.118	96.94
462.338	82.94
462.558	89.94
462.777	92.94
462.997	77.94
463.217	87.94
463.437	84.94
463.657	70.94
463.876	78.94
464.096	81.94
464.316	75.94
464.536	80.94
464.755	71.94
464.975	81.94
465.195	90.94
465.414	85.94
465.634	81.94
465.854	79.94
466.073	94.94
466.293	69.94
466.512	81.94
466.732	88.94
466.951	84.94
467.171	86.94
467.391	86.94
467.61	88.94
467.829	70.94
468.049	88.94
468.268	94.94
468.488	94.94
468.707	97.94
468.927	95.94
469.146	86.94
469.365	86.94
469.585	90.94
469.804	89.94
470.023	88.94
470.243	75.94
470.462	77.94
470.681	87.94
470.901	88.94
471.12	85.94
471.339	88.94
471.558	103.94
471.777	79.94
471.997	84.94
472.216	92.94
472.435	80.94
472.654	89.94
472.873	80.94
473.092	78.94
473.311	89.94
473.53	83.94
473.749	83.94
473.968	83.94
474.187	85.94
474.406	80.94
474.625	78.94
474.844	83.94
475.063	71.94
475.282	83.94
475.501	88.94
475.72	80.94
475.939	92.94
476.158	96.94
476.377	79.94
476.596	92.94
476.814	72.94
477.033	89.94
477.252	95.94
477.471	91.94
477.69	73.94
477.908	96.94
478.127	75.94
478.346	91.94
478.564	85.94
478.783	88.94
479.002	75.94
479.22	79.94
479.439	79.94
479.658	100.94
479.876	89.94
480.095	80.94
480.313	80.94
480.532	93.94
480.751	84.94
480.969	82.94
481.188	78.94
481.406	109.94
481.624	94.94
481.843	78.94
482.061	79.94
482.28	91.94
482.498	86.94
482.717	95.94
482.935	86.94
483.153	84.94
483.372	92.94
483.59	105.94
483.808	85.94
484.027	93.94
484.245	90.94
484.463	89.94
484.681	86.94
484.9	100.94
485.118	93.94
485.336	101.94
485.554	83.94
485.772	95.94
485.99	80.94
486.209	97.94
486.427	88.94
486.645	98.94
486.863	106.94
487.081	93.94
487.299	110.94
487.517	99.94
487.735	136.94
487.953	248.94
488.171	197.94
488.389	97.94
488.607	105.94
488.825	92.94
489.043	85.94
489.261	89.94
489.479	86.94
489.696	93.94
489.914	83.94
490.132	89.94
490.35	88.94
490.568	93.94
490.786	102.94
491.003	93.94
491.221	97.94
491.439	93.94
491.657	108.94
491.874	100.94
492.092	106.94
492.31	96.94
492.527	89.94
492.745	88.94
492.963	89.94
493.18	91.94
493.398	97.94
493.615	99.94
493.833	86.94
494.05	101.94
494.268	92.94
494.485	81.94
494.703	84.94
494.92	82.94
495.138	109.94
495.355	97.94
495.573	94.94
495.79	83.94
496.008	88.94
496.225	80.94
496.442	99.94
496.66	116.94
496.877	81.94
497.094	74.94
497.312	82.94
497.529	94.94
497.746	89.94
497.963	97.94
498.181	93.94
498.398	118.94
498.615	114.94
498.832	83.94
499.049	89.94
499.267	108.94
499.484	100.94
499.701	90.94
499.918	102.94
500.135	99.94
500.352	112.94
500.569	92.94
500.786	101.94
501.003	92.94
501.22	82.94
501.437	95.94
501.654	98.94
501.871	87.94
502.088	85.94
502.305	79.94
502.522	101.94
502.739	70.94
502.956	95.94
503.172	92.94
503.389	94.94
503.606	102.94
503.823	100.94
504.04	111.94
504.256	169.94
504.473	178.94
504.69	102.94
504.907	109.94
505.123	96.94
505.34	98.94
505.557	87.94
505.773	92.94
505.99	86.94
506.207	87.94
506.423	86.94
506.64	91.94
506.856	78.94
507.073	88.94
507.289	77.94
507.506	79.94
507.722	80.94
507.939	83.94
508.155	92.94
508.372	80.94
508.588	89.94
508.805	101.94
509.021	90.94
509.238	88.94
509.454	106.94
509.67	89.94
509.887	88.94
510.103	95.94
510.319	96.94
510.536	96.94
510.752	82.94
510.968	79.94
511.184	86.94
511.401	88.94
511.617	94.94
511.833	80.94
512.049	89.94
512.265	84.94
512.481	76.94
512.698	88.94
512.914	106.94
513.13	88.94
513.346	89.94
513.562	96.94
513.778	90.94
513.994	83.94
514.21	74.94
514.426	86.94
514.642	89.94
514.858	84.94
515.074	95.94
515.29	89.94
515.506	79.94
515.721	83.94
515.937	83.94
516.153	96.94
516.369	87.94
516.585	98.94
516.801	94.94
517.016	104.94
