Data from 237_2_HRD10591_00041.txt Node
Date: Mon Jan 19 14:11:51 EST 2026
User: Yrep
Spectrometer: HR+D1059
Trigger mode: 1
Integration Time (sec): 1.000000E-1
Scans to average: 1
Electric dark correction enabled: true
Nonlinearity correction enabled: false
Boxcar width: 0
XAxis mode: Wavelengths
Number of Pixels in Spectrum: 2048
>>>>>Begin Spectral Data<<<<<
223.165	-11
223.4	-11
223.635	-11
223.869	-14
224.104	-18
224.338	-8
224.573	6
224.808	2
225.042	2
225.277	-24
225.511	-2
225.746	-2
225.98	22
226.215	-5
226.449	4
226.683	8
226.918	17
227.152	23
227.387	39
227.621	52
227.856	37
228.09	47
228.324	43
228.559	61
228.793	68
229.027	73
229.262	64
229.496	73
229.73	68
229.964	68
230.199	82
230.433	79
230.667	68
230.901	83
231.136	88
231.37	93
231.604	75
231.838	68
232.072	80
232.306	68
232.541	71
232.775	83
233.009	83
233.243	97
233.477	79
233.711	71
233.945	72
234.179	67
234.413	80
234.647	78
234.881	74
235.115	59
235.349	81
235.583	77
235.817	70
236.051	64
236.285	83
236.519	74
236.753	64
236.987	89
237.221	92
237.455	78
237.689	77
237.922	76
238.156	61
238.39	70
238.624	79
238.858	79
239.091	75
239.325	74
239.559	73
239.793	63
240.027	84
240.26	66
240.494	80
240.728	69
240.961	77
241.195	73
241.429	78
241.662	82
241.896	79
242.13	76
242.363	70
242.597	81
242.83	67
243.064	85
243.298	71
243.531	79
243.765	94
243.998	88
244.232	71
244.465	80
244.699	70
244.932	72
245.166	70
245.399	73
245.633	89
245.866	72
246.099	66
246.333	78
246.566	82
246.8	80
247.033	68
247.266	59
247.5	72
247.733	78
247.966	82
248.2	74
248.433	82
248.666	77
248.899	72
249.133	79
249.366	90
249.599	72
249.832	86
250.066	64
250.299	77
250.532	77
250.765	73
250.998	75
251.231	67
251.465	72
251.698	76
251.931	77
252.164	81
252.397	68
252.63	65
252.863	87
253.096	82
253.329	64
253.562	73
253.795	81
254.028	83
254.261	66
254.494	75
254.727	82
254.96	71
255.193	81
255.426	80
255.659	89
255.892	88
256.124	84
256.357	82
256.59	88
256.823	68
257.056	64
257.289	74
257.521	73
257.754	78
257.987	78
258.22	73
258.452	72
258.685	66
258.918	86
259.151	80
259.383	95
259.616	71
259.849	70
260.081	74
260.314	83
260.547	76
260.779	86
261.012	80
261.244	69
261.477	81
261.71	73
261.942	82
262.175	78
262.407	70
262.64	79
262.872	74
263.105	72
263.337	87
263.57	86
263.802	77
264.035	77
264.267	78
264.499	93
264.732	88
264.964	84
265.197	91
265.429	77
265.661	68
265.894	72
266.126	73
266.358	76
266.591	86
266.823	85
267.055	78
267.287	87
267.52	81
267.752	76
267.984	87
268.216	95
268.448	86
268.681	78
268.913	85
269.145	73
269.377	65
269.609	73
269.841	72
270.073	78
270.306	92
270.538	88
270.77	85
271.002	73
271.234	83
271.466	84
271.698	97
271.93	78
272.162	93
272.394	74
272.626	70
272.858	92
273.09	70
273.322	81
273.553	92
273.785	88
274.017	81
274.249	88
274.481	96
274.713	85
274.945	96
275.176	97
275.408	75
275.64	75
275.872	78
276.104	82
276.335	74
276.567	88
276.799	92
277.031	84
277.262	78
277.494	80
277.726	82
277.957	80
278.189	102
278.421	74
278.652	84
278.884	73
279.115	81
279.347	87
279.579	74
279.81	98
280.042	92
280.273	91
280.505	83
280.736	86
280.968	80
281.199	74
281.431	60
281.662	88
281.894	96
282.125	84
282.356	75
282.588	73
282.819	74
283.051	74
283.282	77
283.513	87
283.745	92
283.976	84
284.207	79
284.439	68
284.67	87
284.901	82
285.132	87
285.364	90
285.595	96
285.826	87
286.057	74
286.288	86
286.52	81
286.751	83
286.982	78
287.213	93
287.444	77
287.675	77
287.906	79
288.138	84
288.369	84
288.6	90
288.831	72
289.062	64
289.293	80
289.524	77
289.755	80
289.986	91
290.217	84
290.448	82
290.679	85
290.91	80
291.141	83
291.371	82
291.602	81
291.833	65
292.064	73
292.295	80
292.526	79
292.757	92
292.987	88
293.218	78
293.449	81
293.68	86
293.91	88
294.141	89
294.372	84
294.603	76
294.833	94
295.064	86
295.295	72
295.525	80
295.756	85
295.987	75
296.217	80
296.448	93
296.679	78
296.909	72
297.14	85
297.37	86
297.601	100
297.831	77
298.062	82
298.292	94
298.523	84
298.753	93
298.984	81
299.214	67
299.445	79
299.675	80
299.905	70
300.136	80
300.366	101
300.597	86
300.827	89
301.057	95
301.288	92
301.518	74
301.748	87
301.979	102
302.209	88
302.439	90
302.669	83
302.9	89
303.13	90
303.36	80
303.59	81
303.82	84
304.051	75
304.281	77
304.511	98
304.741	86
304.971	81
305.201	74
305.431	87
305.661	88
305.891	88
306.121	76
306.352	96
306.582	91
306.812	78
307.042	85
307.272	71
307.502	81
307.731	76
307.961	88
308.191	79
308.421	106
308.651	96
308.881	85
309.111	96
309.341	108
309.571	101
309.8	88
310.03	92
310.26	89
310.49	87
310.72	87
310.949	82
311.179	97
311.409	85
311.639	89
311.868	86
312.098	68
312.328	75
312.557	64
312.787	86
313.017	74
313.246	81
313.476	76
313.706	74
313.935	87
314.165	86
314.394	82
314.624	72
314.853	79
315.083	92
315.312	73
315.542	86
315.771	88
316.001	96
316.23	82
316.46	79
316.689	79
316.919	89
317.148	95
317.377	89
317.607	90
317.836	104
318.065	92
318.295	93
318.524	79
318.753	93
318.983	78
319.212	94
319.441	91
319.67	96
319.9	92
320.129	77
320.358	81
320.587	59
320.816	74
321.046	71
321.275	83
321.504	76
321.733	83
321.962	86
322.191	97
322.42	74
322.649	82
322.878	90
323.108	90
323.337	70
323.566	94
323.795	82
324.024	87
324.253	85
324.482	98
324.71	74
324.939	83
325.168	89
325.397	91
325.626	95
325.855	77
326.084	78
326.313	77
326.542	86
326.77	71
326.999	91
327.228	87
327.457	99
327.686	90
327.914	84
328.143	88
328.372	85
328.6	74
328.829	89
329.058	76
329.287	78
329.515	73
329.744	86
329.972	85
330.201	75
330.43	107
330.658	93
330.887	80
331.115	87
331.344	82
331.572	93
331.801	84
332.03	74
332.258	78
332.486	85
332.715	77
332.943	85
333.172	82
333.4	87
333.629	90
333.857	85
334.085	85
334.314	92
334.542	86
334.771	93
334.999	96
335.227	89
335.455	94
335.684	63
335.912	85
336.14	111
336.369	101
336.597	90
336.825	80
337.053	84
337.281	93
337.51	84
337.738	76
337.966	89
338.194	85
338.422	69
338.65	80
338.878	95
339.106	81
339.334	78
339.562	79
339.79	79
340.018	77
340.246	78
340.474	83
340.702	86
340.93	81
341.158	89
341.386	100
341.614	87
341.842	83
342.07	82
342.298	83
342.526	82
342.754	75
342.981	76
343.209	85
343.437	97
343.665	82
343.893	81
344.12	96
344.348	86
344.576	88
344.804	86
345.031	89
345.259	65
345.487	74
345.714	82
345.942	76
346.17	73
346.397	85
346.625	88
346.853	82
347.08	83
347.308	84
347.535	75
347.763	83
347.99	97
348.218	83
348.445	77
348.673	81
348.9	83
349.128	80
349.355	78
349.583	80
349.81	81
350.037	87
350.265	86
350.492	72
350.72	81
350.947	82
351.174	83
351.402	74
351.629	80
351.856	66
352.083	88
352.311	74
352.538	79
352.765	84
352.992	82
353.22	89
353.447	74
353.674	88
353.901	76
354.128	66
354.355	71
354.583	86
354.81	95
355.037	94
355.264	80
355.491	87
355.718	71
355.945	85
356.172	88
356.399	84
356.626	96
356.853	92
357.08	101
357.307	81
357.534	85
357.761	81
357.988	92
358.215	86
358.441	85
358.668	92
358.895	90
359.122	95
359.349	103
359.576	84
359.802	74
360.029	86
360.256	77
360.483	79
360.709	85
360.936	104
361.163	85
361.39	87
361.616	84
361.843	78
362.07	89
362.296	89
362.523	86
362.749	112
362.976	104
363.203	131
363.429	97
363.656	96
363.882	93
364.109	93
364.335	123
364.562	124
364.788	96
365.015	92
365.241	96
365.468	82
365.694	90
365.92	80
366.147	80
366.373	78
366.599	81
366.826	79
367.052	77
367.278	78
367.505	92
367.731	81
367.957	75
368.184	90
368.41	88
368.636	96
368.862	78
369.089	86
369.315	80
369.541	86
369.767	80
369.993	77
370.219	75
370.445	97
370.672	72
370.898	101
371.124	70
371.35	79
371.576	68
371.802	102
372.028	91
372.254	101
372.48	88
372.706	82
372.932	82
373.158	96
373.384	103
373.61	112
373.835	105
374.061	94
374.287	90
374.513	96
374.739	83
374.965	88
375.191	104
375.416	88
375.642	89
375.868	99
376.094	88
376.319	92
376.545	78
376.771	89
376.997	76
377.222	78
377.448	80
377.674	75
377.899	74
378.125	78
378.35	94
378.576	81
378.802	78
379.027	86
379.253	77
379.478	89
379.704	81
379.929	87
380.155	83
380.38	83
380.606	80
380.831	78
381.057	82
381.282	83
381.507	99
381.733	95
381.958	109
382.184	103
382.409	87
382.634	105
382.86	93
383.085	88
383.31	88
383.535	86
383.761	108
383.986	112
384.211	99
384.436	80
384.662	84
384.887	89
385.112	83
385.337	88
385.562	100
385.787	93
386.013	101
386.238	90
386.463	73
386.688	93
386.913	80
387.138	93
387.363	85
387.588	85
387.813	96
388.038	82
388.263	84
388.488	97
388.713	85
388.938	88
389.163	90
389.387	74
389.612	89
389.837	85
390.062	90
390.287	94
390.512	103
390.736	98
390.961	79
391.186	68
391.411	87
391.636	84
391.86	84
392.085	93
392.31	89
392.534	101
392.759	115
392.984	164
393.208	291
393.433	431
393.658	344
393.882	156
394.107	116
394.331	113
394.556	123
394.78	94
395.005	91
395.229	99
395.454	102
395.678	112
395.903	128
396.127	158
396.352	165
396.576	199
396.801	317
397.025	340
397.249	193
397.474	122
397.698	108
397.922	94
398.147	92
398.371	88
398.595	106
398.82	88
399.044	81
399.268	60
399.492	81
399.717	85
399.941	74
400.165	76
400.389	72
400.613	85
400.837	86
401.062	85
401.286	81
401.51	80
401.734	71
401.958	81
402.182	86
402.406	72
402.63	92
402.854	87
403.078	96
403.302	100
403.526	89
403.75	88
403.974	81
404.198	79
404.422	98
404.645	105
404.869	98
405.093	72
405.317	75
405.541	92
405.765	95
405.988	79
406.212	75
406.436	94
406.66	86
406.883	76
407.107	83
407.331	84
407.555	91
407.778	96
408.002	112
408.226	89
408.449	80
408.673	81
408.896	81
409.12	84
409.344	84
409.567	97
409.791	93
410.014	100
410.238	95
410.461	98
410.685	88
410.908	83
411.132	79
411.355	72
411.578	78
411.802	80
412.025	75
412.249	76
412.472	88
412.695	78
412.919	90
413.142	82
413.365	95
413.589	77
413.812	85
414.035	80
414.258	72
414.482	85
414.705	90
414.928	84
415.151	86
415.374	74
415.597	90
415.821	86
416.044	91
416.267	76
416.49	63
416.713	76
416.936	76
417.159	89
417.382	85
417.605	80
417.828	84
418.051	82
418.274	89
418.497	73
418.72	92
418.943	87
419.166	79
419.389	72
419.611	70
419.834	80
420.057	88
420.28	92
420.503	95
420.726	79
420.948	85
421.171	87
421.394	101
421.617	113
421.839	107
422.062	118
422.285	157
422.507	308
422.73	482
422.953	401
423.175	184
423.398	111
423.621	94
423.843	93
424.066	94
424.288	98
424.511	74
424.733	101
424.956	92
425.178	86
425.401	87
425.623	74
425.846	91
426.068	84
426.291	94
426.513	93
426.735	84
426.958	73
427.18	75
427.402	83
427.625	88
427.847	93
428.069	95
428.292	132
428.514	157
428.736	113
428.958	119
429.181	142
429.403	103
429.625	92
429.847	110
430.069	159
430.292	187
430.514	179
430.736	145
430.958	150
431.18	102
431.402	92
431.624	89
431.846	126
432.068	136
432.29	105
432.512	89
432.734	94
432.956	80
433.178	82
433.4	88
433.622	86
433.844	87
434.066	89
434.287	72
434.509	74
434.731	77
434.953	86
435.175	101
435.397	87
435.618	85
435.84	74
436.062	92
436.284	66
436.505	85
436.727	88
436.949	76
437.17	85
437.392	80
437.614	87
437.835	73
438.057	69
438.278	81
438.5	102
438.721	78
438.943	76
439.165	75
439.386	90
439.608	75
439.829	92
440.05	88
440.272	66
440.493	75
440.715	96
440.936	98
441.158	87
441.379	86
441.6	95
441.822	78
442.043	96
442.264	87
442.486	135
442.707	175
442.928	131
443.149	102
443.371	159
443.592	280
443.813	234
444.034	115
444.255	92
444.476	97
444.698	72
444.919	89
445.14	203
445.361	218
445.582	314
445.803	253
446.024	119
446.245	80
446.466	81
446.687	92
446.908	87
447.129	90
447.35	76
447.571	87
447.792	83
448.013	82
448.234	69
448.455	72
448.675	88
448.896	74
449.117	78
449.338	81
449.559	65
449.779	80
450	75
450.221	63
450.442	73
450.662	73
450.883	78
451.104	83
451.324	85
451.545	87
451.766	68
451.986	83
452.207	78
452.428	95
452.648	96
452.869	105
453.089	99
453.31	64
453.53	96
453.751	85
453.971	84
454.192	84
454.412	82
454.633	79
454.853	80
455.073	87
455.294	84
455.514	83
455.734	83
455.955	62
456.175	94
456.395	90
456.616	86
456.836	94
457.056	93
457.276	73
457.497	84
457.717	94
457.937	98
458.157	142
458.377	119
458.598	100
458.818	126
459.038	92
459.258	83
459.478	93
459.698	85
459.918	80
460.138	78
460.358	77
460.578	88
460.798	116
461.018	120
461.238	86
461.458	93
461.678	80
461.898	67
462.118	100
462.338	76
462.558	99
462.777	94
462.997	80
463.217	69
463.437	95
463.657	76
463.876	85
464.096	90
464.316	78
464.536	81
464.755	64
464.975	82
465.195	89
465.414	88
465.634	97
465.854	81
466.073	81
466.293	73
466.512	81
466.732	85
466.951	82
467.171	89
467.391	74
467.61	82
467.829	68
468.049	78
468.268	83
468.488	89
468.707	77
468.927	92
469.146	77
469.365	83
469.585	88
469.804	78
470.023	80
470.243	89
470.462	77
470.681	84
470.901	85
471.12	93
471.339	81
471.558	75
471.777	74
471.997	81
472.216	104
472.435	87
472.654	88
472.873	98
473.092	105
473.311	97
473.53	90
473.749	84
473.968	87
474.187	78
474.406	75
474.625	83
474.844	80
475.063	79
475.282	82
475.501	83
475.72	71
475.939	71
476.158	77
476.377	77
476.596	77
476.814	83
477.033	73
477.252	86
477.471	86
477.69	87
477.908	91
478.127	94
478.346	78
478.564	92
478.783	86
479.002	84
479.22	72
479.439	72
479.658	87
479.876	80
480.095	85
480.313	77
480.532	77
480.751	86
480.969	80
481.188	97
481.406	82
481.624	82
481.843	82
482.061	73
482.28	82
482.498	75
482.717	96
482.935	90
483.153	83
483.372	79
483.59	85
483.808	80
484.027	98
484.245	92
484.463	88
484.681	94
484.9	87
485.118	85
485.336	94
485.554	90
485.772	81
485.99	71
486.209	78
486.427	80
486.645	93
486.863	84
487.081	72
487.299	78
487.517	103
487.735	119
487.953	162
488.171	139
488.389	83
488.607	73
488.825	88
489.043	80
489.261	91
489.479	86
489.696	92
489.914	75
490.132	89
490.35	94
490.568	74
490.786	82
491.003	84
491.221	82
491.439	87
491.657	93
491.874	90
492.092	94
492.31	96
492.527	82
492.745	94
492.963	92
493.18	88
493.398	99
493.615	93
493.833	76
494.05	80
494.268	83
494.485	89
494.703	78
494.92	82
495.138	85
495.355	84
495.573	96
495.79	78
496.008	87
496.225	83
496.442	97
496.66	100
496.877	73
497.094	99
497.312	72
497.529	90
497.746	81
497.963	81
498.181	90
498.398	108
498.615	91
498.832	90
499.049	89
499.267	96
499.484	88
499.701	94
499.918	80
500.135	71
500.352	89
500.569	94
500.786	86
501.003	98
501.22	88
501.437	94
501.654	84
501.871	82
502.088	74
502.305	78
502.522	78
502.739	79
502.956	86
503.172	81
503.389	77
503.606	91
503.823	101
504.04	101
504.256	150
504.473	149
504.69	93
504.907	95
505.123	91
505.34	86
505.557	81
505.773	94
505.99	80
506.207	79
506.423	82
506.64	97
506.856	69
507.073	72
507.289	93
507.506	84
507.722	88
507.939	95
508.155	83
508.372	72
508.588	87
508.805	89
509.021	84
509.238	86
509.454	89
509.67	89
509.887	85
510.103	83
510.319	88
510.536	78
510.752	84
510.968	72
511.184	81
511.401	86
511.617	86
511.833	87
512.049	85
512.265	96
512.481	84
512.698	88
512.914	89
513.13	86
513.346	86
513.562	79
513.778	102
513.994	89
514.21	95
514.426	82
514.642	97
514.858	82
515.074	83
515.29	89
515.506	82
515.721	74
515.937	88
516.153	97
516.369	84
516.585	96
516.801	89
517.016	74
517.232	105
517.448	97
517.664	84
517.879	97
518.095	92
518.311	94
518.527	101
518.742	118
518.958	155
519.173	176
519.389	108
519.605	69
519.82	104
520.036	88
520.251	74
520.467	97
520.682	105
520.898	84
521.113	78
521.329	86
521.544	75
521.76	78
521.975	88
522.19	90
522.406	101
522.621	86
522.836	88
523.052	94
523.267	73
523.482	72
523.698	86
523.913	90
524.128	88
524.343	86
524.559	98
524.774	75
524.989	85
525.204	85
525.419	86
525.634	94
525.849	102
526.064	114
526.28	241
526.495	311
526.71	358
526.925	240
527.14	302
527.355	273
527.57	104
527.785	95
527.999	81
528.214	98
528.429	79
528.644	73
528.859	88
529.074	92
529.289	100
529.503	108
529.718	90
529.933	95
530.148	84
530.363	98
530.577	88
530.792	96
531.007	84
531.221	88
531.436	94
531.651	81
531.865	87
532.08	92
532.295	96
532.509	104
532.724	75
532.938	101
533.153	87
533.367	83
533.582	85
533.796	101
534.011	102
534.225	98
534.44	100
534.654	104
534.868	111
535.083	164
535.297	148
535.511	96
535.726	108
535.94	93
536.154	96
536.369	94
536.583	101
536.797	105
537.011	95
537.225	90
537.44	92
537.654	103
537.868	104
538.082	108
538.296	80
538.51	86
538.724	86
538.938	89
539.153	92
539.367	91
539.581	96
539.795	101
540.009	98
540.222	96
540.436	96
540.65	109
540.864	98
541.078	98
541.292	98
541.506	101
541.72	105
541.934	90
542.147	103
542.361	104
542.575	84
542.789	90
543.002	105
543.216	110
543.43	99
543.644	91
543.857	82
544.071	88
544.285	109
544.498	100
544.712	90
544.925	99
545.139	96
545.352	97
545.566	106
545.779	89
545.993	114
546.206	108
546.42	106
546.633	122
546.847	129
547.06	106
547.274	138
547.487	174
547.7	148
547.914	164
548.127	208
548.34	182
548.554	212
548.767	192
548.98	173
549.193	193
549.407	174
549.62	189
549.833	201
550.046	213
550.259	223
550.473	220
550.686	242
550.899	247
551.112	274
551.325	284
551.538	289
551.751	272
551.964	256
552.177	233
552.39	219
552.603	236
552.816	220
553.029	240
553.242	236
553.455	234
553.667	226
553.88	243
554.093	263
554.306	227
554.519	239
554.732	248
554.944	247
555.157	230
555.37	205
555.583	196
555.795	207
556.008	191
556.221	188
556.433	190
556.646	156
556.859	156
557.071	163
557.284	148
557.496	152
557.709	145
557.921	142
558.134	154
558.346	212
558.559	200
558.771	166
558.984	331
559.196	413
559.409	212
559.621	308
559.833	228
560.046	296
560.258	238
560.47	233
560.683	144
560.895	100
561.107	108
561.32	93
561.532	105
561.744	109
561.956	96
562.168	111
562.381	104
562.593	84
562.805	98
563.017	90
563.229	95
563.441	96
563.653	111
563.865	89
564.077	80
564.289	92
564.501	103
564.713	102
564.925	92
565.137	79
565.349	103
565.561	86
565.773	85
565.985	92
566.197	87
566.408	102
566.62	105
566.832	93
567.044	73
567.255	93
567.467	98
567.679	97
567.891	93
568.102	98
568.314	95
568.526	111
568.737	96
568.949	98
569.161	98
569.372	88
569.584	103
569.795	93
570.007	105
570.218	81
570.43	90
570.641	92
570.853	86
571.064	83
571.276	86
571.487	102
571.698	87
571.91	98
572.121	88
572.333	87
572.544	91
572.755	96
572.966	73
573.178	92
573.389	88
573.6	86
573.811	101
574.023	103
574.234	78
574.445	81
574.656	94
574.867	96
575.078	94
575.289	96
575.501	90
575.712	72
575.923	96
576.134	84
576.345	88
576.556	81
576.767	90
576.978	92
577.188	86
577.399	95
577.61	80
577.821	94
578.032	80
578.243	80
578.454	102
578.665	107
578.875	81
579.086	93
579.297	87
579.508	86
579.718	88
579.929	85
580.14	88
580.35	87
580.561	84
580.772	93
580.982	85
581.193	90
581.403	88
581.614	90
581.825	82
582.035	104
582.246	88
582.456	96
582.667	95
582.877	94
583.087	98
583.298	96
583.508	99
583.719	88
583.929	95
584.139	91
584.35	105
584.56	99
584.77	94
584.981	95
585.191	78
585.401	94
585.611	104
585.821	151
586.032	276
586.242	120
586.452	101
