Data from 237_2_HRD10591_00024.txt Node
Date: Mon Jan 19 14:11:42 EST 2026
User: Yrep
Spectrometer: HR+D1059
Trigger mode: 1
Integration Time (sec): 1.000000E-1
Scans to average: 1
Electric dark correction enabled: true
Nonlinearity correction enabled: false
Boxcar width: 0
XAxis mode: Wavelengths
Number of Pixels in Spectrum: 2048
>>>>>Begin Spectral Data<<<<<
223.165	-11.06
223.4	-11.06
223.635	-11.06
223.869	-11.06
224.104	-10.06
224.338	-30.06
224.573	-15.06
224.808	-6.06
225.042	-13.06
225.277	-15.06
225.511	-4.06
225.746	-0.06
225.98	-11.06
226.215	21.94
226.449	26.94
226.683	28.94
226.918	18.94
227.152	29.94
227.387	40.94
227.621	51.94
227.856	42.94
228.09	50.94
228.324	50.94
228.559	52.94
228.793	68.94
229.027	66.94
229.262	69.94
229.496	59.94
229.73	74.94
229.964	72.94
230.199	66.94
230.433	73.94
230.667	77.94
230.901	90.94
231.136	74.94
231.37	76.94
231.604	93.94
231.838	74.94
232.072	82.94
232.306	86.94
232.541	86.94
232.775	86.94
233.009	81.94
233.243	83.94
233.477	84.94
233.711	87.94
233.945	76.94
234.179	79.94
234.413	78.94
234.647	76.94
234.881	72.94
235.115	93.94
235.349	70.94
235.583	79.94
235.817	80.94
236.051	88.94
236.285	79.94
236.519	83.94
236.753	87.94
236.987	56.94
237.221	72.94
237.455	72.94
237.689	81.94
237.922	85.94
238.156	88.94
238.39	66.94
238.624	90.94
238.858	74.94
239.091	87.94
239.325	74.94
239.559	87.94
239.793	70.94
240.027	83.94
240.26	75.94
240.494	76.94
240.728	73.94
240.961	70.94
241.195	88.94
241.429	88.94
241.662	61.94
241.896	64.94
242.13	80.94
242.363	68.94
242.597	82.94
242.83	68.94
243.064	77.94
243.298	74.94
243.531	65.94
243.765	72.94
243.998	66.94
244.232	86.94
244.465	74.94
244.699	73.94
244.932	84.94
245.166	76.94
245.399	74.94
245.633	82.94
245.866	85.94
246.099	90.94
246.333	74.94
246.566	87.94
246.8	89.94
247.033	84.94
247.266	83.94
247.5	78.94
247.733	90.94
247.966	77.94
248.2	78.94
248.433	67.94
248.666	73.94
248.899	96.94
249.133	86.94
249.366	88.94
249.599	69.94
249.832	84.94
250.066	70.94
250.299	81.94
250.532	68.94
250.765	78.94
250.998	78.94
251.231	72.94
251.465	85.94
251.698	68.94
251.931	74.94
252.164	77.94
252.397	74.94
252.63	83.94
252.863	77.94
253.096	86.94
253.329	79.94
253.562	68.94
253.795	67.94
254.028	92.94
254.261	66.94
254.494	88.94
254.727	83.94
254.96	67.94
255.193	78.94
255.426	76.94
255.659	71.94
255.892	76.94
256.124	91.94
256.357	84.94
256.59	87.94
256.823	74.94
257.056	78.94
257.289	75.94
257.521	82.94
257.754	88.94
257.987	78.94
258.22	77.94
258.452	79.94
258.685	76.94
258.918	74.94
259.151	80.94
259.383	75.94
259.616	74.94
259.849	92.94
260.081	82.94
260.314	75.94
260.547	70.94
260.779	81.94
261.012	86.94
261.244	74.94
261.477	89.94
261.71	83.94
261.942	77.94
262.175	91.94
262.407	84.94
262.64	89.94
262.872	84.94
263.105	84.94
263.337	96.94
263.57	81.94
263.802	76.94
264.035	77.94
264.267	87.94
264.499	86.94
264.732	84.94
264.964	84.94
265.197	74.94
265.429	84.94
265.661	83.94
265.894	75.94
266.126	71.94
266.358	69.94
266.591	85.94
266.823	59.94
267.055	75.94
267.287	79.94
267.52	72.94
267.752	75.94
267.984	90.94
268.216	94.94
268.448	84.94
268.681	79.94
268.913	76.94
269.145	89.94
269.377	93.94
269.609	82.94
269.841	84.94
270.073	91.94
270.306	81.94
270.538	77.94
270.77	82.94
271.002	70.94
271.234	82.94
271.466	91.94
271.698	77.94
271.93	92.94
272.162	85.94
272.394	93.94
272.626	86.94
272.858	81.94
273.09	88.94
273.322	93.94
273.553	72.94
273.785	86.94
274.017	78.94
274.249	84.94
274.481	93.94
274.713	84.94
274.945	85.94
275.176	73.94
275.408	79.94
275.64	72.94
275.872	69.94
276.104	96.94
276.335	73.94
276.567	93.94
276.799	92.94
277.031	91.94
277.262	68.94
277.494	79.94
277.726	88.94
277.957	82.94
278.189	87.94
278.421	82.94
278.652	75.94
278.884	81.94
279.115	93.94
279.347	73.94
279.579	76.94
279.81	82.94
280.042	71.94
280.273	75.94
280.505	100.94
280.736	89.94
280.968	83.94
281.199	86.94
281.431	96.94
281.662	72.94
281.894	96.94
282.125	86.94
282.356	84.94
282.588	67.94
282.819	85.94
283.051	83.94
283.282	74.94
283.513	82.94
283.745	92.94
283.976	82.94
284.207	75.94
284.439	82.94
284.67	77.94
284.901	92.94
285.132	88.94
285.364	96.94
285.595	82.94
285.826	85.94
286.057	93.94
286.288	78.94
286.52	90.94
286.751	73.94
286.982	90.94
287.213	84.94
287.444	78.94
287.675	90.94
287.906	71.94
288.138	89.94
288.369	100.94
288.6	93.94
288.831	82.94
289.062	89.94
289.293	83.94
289.524	78.94
289.755	84.94
289.986	82.94
290.217	61.94
290.448	79.94
290.679	93.94
290.91	80.94
291.141	91.94
291.371	86.94
291.602	88.94
291.833	94.94
292.064	85.94
292.295	84.94
292.526	84.94
292.757	84.94
292.987	75.94
293.218	94.94
293.449	86.94
293.68	85.94
293.91	92.94
294.141	85.94
294.372	84.94
294.603	82.94
294.833	100.94
295.064	85.94
295.295	100.94
295.525	93.94
295.756	93.94
295.987	87.94
296.217	83.94
296.448	75.94
296.679	94.94
296.909	87.94
297.14	92.94
297.37	93.94
297.601	96.94
297.831	80.94
298.062	90.94
298.292	91.94
298.523	74.94
298.753	76.94
298.984	84.94
299.214	89.94
299.445	87.94
299.675	99.94
299.905	98.94
300.136	86.94
300.366	82.94
300.597	93.94
300.827	86.94
301.057	79.94
301.288	86.94
301.518	74.94
301.748	82.94
301.979	104.94
302.209	96.94
302.439	80.94
302.669	76.94
302.9	84.94
303.13	90.94
303.36	94.94
303.59	89.94
303.82	88.94
304.051	93.94
304.281	84.94
304.511	90.94
304.741	88.94
304.971	88.94
305.201	77.94
305.431	91.94
305.661	72.94
305.891	82.94
306.121	70.94
306.352	93.94
306.582	92.94
306.812	107.94
307.042	79.94
307.272	84.94
307.502	88.94
307.731	100.94
307.961	101.94
308.191	84.94
308.421	107.94
308.651	85.94
308.881	81.94
309.111	98.94
309.341	91.94
309.571	92.94
309.8	89.94
310.03	91.94
310.26	92.94
310.49	74.94
310.72	100.94
310.949	97.94
311.179	86.94
311.409	91.94
311.639	92.94
311.868	82.94
312.098	86.94
312.328	96.94
312.557	78.94
312.787	83.94
313.017	90.94
313.246	80.94
313.476	89.94
313.706	93.94
313.935	94.94
314.165	84.94
314.394	72.94
314.624	102.94
314.853	90.94
315.083	83.94
315.312	98.94
315.542	79.94
315.771	92.94
316.001	87.94
316.23	103.94
316.46	91.94
316.689	96.94
316.919	90.94
317.148	96.94
317.377	91.94
317.607	76.94
317.836	86.94
318.065	111.94
318.295	109.94
318.524	104.94
318.753	92.94
318.983	92.94
319.212	85.94
319.441	89.94
319.67	88.94
319.9	95.94
320.129	81.94
320.358	95.94
320.587	93.94
320.816	85.94
321.046	96.94
321.275	99.94
321.504	89.94
321.733	91.94
321.962	96.94
322.191	70.94
322.42	89.94
322.649	96.94
322.878	99.94
323.108	102.94
323.337	80.94
323.566	84.94
323.795	88.94
324.024	87.94
324.253	82.94
324.482	100.94
324.71	90.94
324.939	97.94
325.168	71.94
325.397	71.94
325.626	78.94
325.855	89.94
326.084	86.94
326.313	83.94
326.542	87.94
326.77	90.94
326.999	83.94
327.228	94.94
327.457	87.94
327.686	87.94
327.914	72.94
328.143	79.94
328.372	89.94
328.6	80.94
328.829	88.94
329.058	97.94
329.287	97.94
329.515	84.94
329.744	84.94
329.972	97.94
330.201	100.94
330.43	103.94
330.658	94.94
330.887	84.94
331.115	79.94
331.344	81.94
331.572	91.94
331.801	75.94
332.03	84.94
332.258	82.94
332.486	93.94
332.715	72.94
332.943	88.94
333.172	93.94
333.4	87.94
333.629	86.94
333.857	97.94
334.085	92.94
334.314	90.94
334.542	96.94
334.771	110.94
334.999	96.94
335.227	96.94
335.455	95.94
335.684	86.94
335.912	84.94
336.14	89.94
336.369	90.94
336.597	75.94
336.825	88.94
337.053	87.94
337.281	86.94
337.51	81.94
337.738	92.94
337.966	97.94
338.194	80.94
338.422	93.94
338.65	92.94
338.878	84.94
339.106	98.94
339.334	97.94
339.562	90.94
339.79	86.94
340.018	74.94
340.246	92.94
340.474	90.94
340.702	81.94
340.93	86.94
341.158	77.94
341.386	86.94
341.614	89.94
341.842	98.94
342.07	90.94
342.298	85.94
342.526	86.94
342.754	99.94
342.981	100.94
343.209	93.94
343.437	96.94
343.665	100.94
343.893	88.94
344.12	105.94
344.348	94.94
344.576	101.94
344.804	91.94
345.031	81.94
345.259	92.94
345.487	89.94
345.714	90.94
345.942	93.94
346.17	98.94
346.397	85.94
346.625	88.94
346.853	91.94
347.08	88.94
347.308	100.94
347.535	78.94
347.763	83.94
347.99	98.94
348.218	84.94
348.445	79.94
348.673	93.94
348.9	93.94
349.128	91.94
349.355	90.94
349.583	78.94
349.81	78.94
350.037	90.94
350.265	85.94
350.492	69.94
350.72	88.94
350.947	84.94
351.174	94.94
351.402	76.94
351.629	77.94
351.856	71.94
352.083	87.94
352.311	96.94
352.538	85.94
352.765	89.94
352.992	95.94
353.22	88.94
353.447	75.94
353.674	93.94
353.901	102.94
354.128	92.94
354.355	89.94
354.583	95.94
354.81	97.94
355.037	87.94
355.264	86.94
355.491	87.94
355.718	89.94
355.945	91.94
356.172	79.94
356.399	89.94
356.626	87.94
356.853	93.94
357.08	93.94
357.307	95.94
357.534	83.94
357.761	99.94
357.988	102.94
358.215	104.94
358.441	96.94
358.668	66.94
358.895	88.94
359.122	96.94
359.349	75.94
359.576	93.94
359.802	85.94
360.029	87.94
360.256	98.94
360.483	96.94
360.709	92.94
360.936	91.94
361.163	94.94
361.39	77.94
361.616	96.94
361.843	91.94
362.07	100.94
362.296	98.94
362.523	87.94
362.749	98.94
362.976	105.94
363.203	82.94
363.429	94.94
363.656	97.94
363.882	89.94
364.109	110.94
364.335	103.94
364.562	108.94
364.788	110.94
365.015	86.94
365.241	87.94
365.468	83.94
365.694	94.94
365.92	80.94
366.147	91.94
366.373	90.94
366.599	65.94
366.826	95.94
367.052	84.94
367.278	83.94
367.505	76.94
367.731	90.94
367.957	85.94
368.184	87.94
368.41	107.94
368.636	93.94
368.862	91.94
369.089	86.94
369.315	76.94
369.541	98.94
369.767	90.94
369.993	84.94
370.219	115.94
370.445	84.94
370.672	80.94
370.898	92.94
371.124	93.94
371.35	76.94
371.576	97.94
371.802	97.94
372.028	99.94
372.254	102.94
372.48	93.94
372.706	85.94
372.932	88.94
373.158	90.94
373.384	103.94
373.61	101.94
373.835	105.94
374.061	102.94
374.287	95.94
374.513	92.94
374.739	95.94
374.965	88.94
375.191	107.94
375.416	100.94
375.642	87.94
375.868	102.94
376.094	85.94
376.319	72.94
376.545	100.94
376.771	93.94
376.997	85.94
377.222	89.94
377.448	81.94
377.674	93.94
377.899	98.94
378.125	97.94
378.35	93.94
378.576	91.94
378.802	99.94
379.027	98.94
379.253	100.94
379.478	94.94
379.704	91.94
379.929	89.94
380.155	71.94
380.38	91.94
380.606	105.94
380.831	89.94
381.057	91.94
381.282	90.94
381.507	98.94
381.733	96.94
381.958	93.94
382.184	93.94
382.409	88.94
382.634	87.94
382.86	102.94
383.085	102.94
383.31	102.94
383.535	77.94
383.761	99.94
383.986	82.94
384.211	87.94
384.436	102.94
384.662	94.94
384.887	84.94
385.112	81.94
385.337	88.94
385.562	90.94
385.787	96.94
386.013	106.94
386.238	107.94
386.463	97.94
386.688	99.94
386.913	81.94
387.138	89.94
387.363	83.94
387.588	82.94
387.813	89.94
388.038	83.94
388.263	100.94
388.488	84.94
388.713	96.94
388.938	88.94
389.163	82.94
389.387	85.94
389.612	91.94
389.837	75.94
390.062	96.94
390.287	106.94
390.512	93.94
390.736	81.94
390.961	95.94
391.186	80.94
391.411	100.94
391.636	81.94
391.86	89.94
392.085	81.94
392.31	92.94
392.534	91.94
392.759	105.94
392.984	142.94
393.208	284.94
393.433	391.94
393.658	312.94
393.882	139.94
394.107	116.94
394.331	120.94
394.556	119.94
394.78	102.94
395.005	84.94
395.229	105.94
395.454	85.94
395.678	117.94
395.903	119.94
396.127	135.94
396.352	147.94
396.576	186.94
396.801	260.94
397.025	324.94
397.249	174.94
397.474	104.94
397.698	100.94
397.922	79.94
398.147	86.94
398.371	87.94
398.595	67.94
398.82	75.94
399.044	84.94
399.268	95.94
399.492	93.94
399.717	98.94
399.941	92.94
400.165	79.94
400.389	88.94
400.613	85.94
400.837	79.94
401.062	81.94
401.286	93.94
401.51	85.94
401.734	83.94
401.958	83.94
402.182	74.94
402.406	80.94
402.63	84.94
402.854	77.94
403.078	85.94
403.302	83.94
403.526	76.94
403.75	78.94
403.974	82.94
404.198	91.94
404.422	96.94
404.645	106.94
404.869	100.94
405.093	87.94
405.317	80.94
405.541	86.94
405.765	92.94
405.988	80.94
406.212	88.94
406.436	89.94
406.66	94.94
406.883	98.94
407.107	86.94
407.331	85.94
407.555	89.94
407.778	115.94
408.002	114.94
408.226	98.94
408.449	83.94
408.673	85.94
408.896	88.94
409.12	100.94
409.344	92.94
409.567	106.94
409.791	99.94
410.014	101.94
410.238	94.94
410.461	78.94
410.685	86.94
410.908	84.94
411.132	82.94
411.355	97.94
411.578	79.94
411.802	95.94
412.025	91.94
412.249	83.94
412.472	90.94
412.695	82.94
412.919	75.94
413.142	86.94
413.365	97.94
413.589	86.94
413.812	89.94
414.035	91.94
414.258	82.94
414.482	92.94
414.705	77.94
414.928	78.94
415.151	87.94
415.374	82.94
415.597	79.94
415.821	78.94
416.044	82.94
416.267	92.94
416.49	78.94
416.713	80.94
416.936	93.94
417.159	86.94
417.382	98.94
417.605	78.94
417.828	96.94
418.051	88.94
418.274	84.94
418.497	86.94
418.72	71.94
418.943	78.94
419.166	78.94
419.389	76.94
419.611	96.94
419.834	89.94
420.057	102.94
420.28	88.94
420.503	91.94
420.726	82.94
420.948	103.94
421.171	84.94
421.394	97.94
421.617	111.94
421.839	108.94
422.062	109.94
422.285	134.94
422.507	216.94
422.73	344.94
422.953	304.94
423.175	154.94
423.398	107.94
423.621	105.94
423.843	77.94
424.066	89.94
424.288	96.94
424.511	92.94
424.733	74.94
424.956	85.94
425.178	78.94
425.401	88.94
425.623	89.94
425.846	83.94
426.068	78.94
426.291	84.94
426.513	82.94
426.735	83.94
426.958	84.94
427.18	101.94
427.402	103.94
427.625	79.94
427.847	100.94
428.069	86.94
428.292	119.94
428.514	115.94
428.736	89.94
428.958	131.94
429.181	121.94
429.403	99.94
429.625	100.94
429.847	118.94
430.069	145.94
430.292	158.94
430.514	142.94
430.736	106.94
430.958	138.94
431.18	93.94
431.402	92.94
431.624	72.94
431.846	112.94
432.068	120.94
432.29	91.94
432.512	91.94
432.734	85.94
432.956	88.94
433.178	87.94
433.4	89.94
433.622	100.94
433.844	98.94
434.066	84.94
434.287	82.94
434.509	81.94
434.731	88.94
434.953	92.94
435.175	100.94
435.397	77.94
435.618	98.94
435.84	90.94
436.062	90.94
436.284	92.94
436.505	90.94
436.727	88.94
436.949	84.94
437.17	87.94
437.392	76.94
437.614	80.94
437.835	82.94
438.057	82.94
438.278	101.94
438.5	88.94
438.721	94.94
438.943	82.94
439.165	92.94
439.386	77.94
439.608	106.94
439.829	86.94
440.05	91.94
440.272	90.94
440.493	90.94
440.715	88.94
440.936	90.94
441.158	77.94
441.379	83.94
441.6	83.94
441.822	95.94
442.043	93.94
442.264	85.94
442.486	115.94
442.707	139.94
442.928	126.94
443.149	108.94
443.371	141.94
443.592	213.94
443.813	176.94
444.034	110.94
444.255	89.94
444.476	74.94
444.698	96.94
444.919	73.94
445.14	188.94
445.361	189.94
445.582	242.94
445.803	188.94
446.024	104.94
446.245	94.94
446.466	94.94
446.687	85.94
446.908	86.94
447.129	73.94
447.35	89.94
447.571	83.94
447.792	96.94
448.013	98.94
448.234	75.94
448.455	76.94
448.675	79.94
448.896	68.94
449.117	88.94
449.338	89.94
449.559	84.94
449.779	73.94
450	80.94
450.221	86.94
450.442	81.94
450.662	93.94
450.883	78.94
451.104	89.94
451.324	85.94
451.545	87.94
451.766	83.94
451.986	93.94
452.207	83.94
452.428	84.94
452.648	95.94
452.869	100.94
453.089	95.94
453.31	80.94
453.53	77.94
453.751	89.94
453.971	76.94
454.192	98.94
454.412	76.94
454.633	81.94
454.853	90.94
455.073	85.94
455.294	87.94
455.514	72.94
455.734	81.94
455.955	80.94
456.175	90.94
456.395	87.94
456.616	83.94
456.836	100.94
457.056	86.94
457.276	75.94
457.497	74.94
457.717	85.94
457.937	88.94
458.157	100.94
458.377	104.94
458.598	109.94
458.818	109.94
459.038	69.94
459.258	89.94
459.478	85.94
459.698	95.94
459.918	99.94
460.138	105.94
460.358	91.94
460.578	100.94
460.798	96.94
461.018	99.94
461.238	92.94
461.458	99.94
461.678	79.94
461.898	104.94
462.118	87.94
462.338	79.94
462.558	84.94
462.777	88.94
462.997	66.94
463.217	98.94
463.437	80.94
463.657	85.94
463.876	96.94
464.096	87.94
464.316	75.94
464.536	77.94
464.755	87.94
464.975	77.94
465.195	84.94
465.414	76.94
465.634	87.94
465.854	88.94
466.073	81.94
466.293	78.94
466.512	88.94
466.732	79.94
466.951	88.94
467.171	88.94
467.391	73.94
467.61	73.94
467.829	92.94
468.049	88.94
468.268	76.94
468.488	82.94
468.707	89.94
468.927	76.94
469.146	79.94
469.365	82.94
469.585	83.94
469.804	91.94
470.023	84.94
470.243	86.94
470.462	99.94
470.681	88.94
470.901	80.94
471.12	89.94
471.339	80.94
471.558	86.94
471.777	75.94
471.997	90.94
472.216	96.94
472.435	93.94
472.654	87.94
472.873	97.94
473.092	89.94
473.311	88.94
473.53	83.94
473.749	97.94
473.968	84.94
474.187	88.94
474.406	101.94
474.625	74.94
474.844	75.94
475.063	92.94
475.282	88.94
475.501	98.94
475.72	98.94
475.939	94.94
476.158	73.94
476.377	81.94
476.596	78.94
476.814	79.94
477.033	70.94
477.252	87.94
477.471	77.94
477.69	77.94
477.908	86.94
478.127	84.94
478.346	90.94
478.564	85.94
478.783	82.94
479.002	102.94
479.22	77.94
479.439	76.94
479.658	76.94
479.876	82.94
480.095	69.94
480.313	86.94
480.532	89.94
480.751	85.94
480.969	84.94
481.188	87.94
481.406	78.94
481.624	89.94
481.843	78.94
482.061	75.94
482.28	76.94
482.498	89.94
482.717	88.94
482.935	96.94
483.153	77.94
483.372	86.94
483.59	95.94
483.808	84.94
484.027	92.94
484.245	96.94
484.463	99.94
484.681	93.94
484.9	81.94
485.118	97.94
485.336	103.94
485.554	103.94
485.772	85.94
485.99	84.94
486.209	81.94
486.427	88.94
486.645	92.94
486.863	86.94
487.081	89.94
487.299	82.94
487.517	81.94
487.735	103.94
487.953	141.94
488.171	102.94
488.389	86.94
488.607	78.94
488.825	88.94
489.043	62.94
489.261	96.94
489.479	78.94
489.696	105.94
489.914	84.94
490.132	86.94
490.35	88.94
490.568	91.94
490.786	84.94
491.003	75.94
491.221	98.94
491.439	80.94
491.657	88.94
491.874	94.94
492.092	90.94
492.31	103.94
492.527	83.94
492.745	78.94
492.963	82.94
493.18	73.94
493.398	82.94
493.615	82.94
493.833	87.94
494.05	84.94
494.268	83.94
494.485	79.94
494.703	79.94
494.92	88.94
495.138	83.94
495.355	84.94
495.573	77.94
495.79	70.94
496.008	82.94
496.225	89.94
496.442	78.94
496.66	82.94
496.877	65.94
497.094	90.94
497.312	98.94
497.529	106.94
497.746	91.94
497.963	86.94
498.181	95.94
498.398	96.94
498.615	89.94
498.832	74.94
499.049	89.94
499.267	109.94
499.484	82.94
499.701	88.94
499.918	86.94
500.135	93.94
500.352	99.94
500.569	87.94
500.786	89.94
501.003	81.94
501.22	87.94
501.437	80.94
501.654	97.94
501.871	76.94
502.088	78.94
502.305	101.94
502.522	100.94
502.739	88.94
502.956	89.94
503.172	77.94
503.389	86.94
503.606	95.94
503.823	103.94
504.04	80.94
504.256	137.94
504.473	123.94
504.69	92.94
504.907	103.94
505.123	85.94
505.34	92.94
505.557	89.94
505.773	84.94
505.99	82.94
506.207	84.94
506.423	102.94
506.64	81.94
506.856	89.94
507.073	61.94
507.289	87.94
507.506	85.94
507.722	93.94
507.939	79.94
508.155	78.94
508.372	78.94
508.588	69.94
508.805	82.94
509.021	92.94
509.238	91.94
509.454	83.94
509.67	87.94
509.887	82.94
510.103	88.94
510.319	81.94
510.536	93.94
510.752	85.94
510.968	93.94
511.184	105.94
511.401	90.94
511.617	81.94
511.833	92.94
512.049	88.94
512.265	87.94
512.481	71.94
512.698	71.94
512.914	78.94
513.13	71.94
513.346	97.94
513.562	91.94
513.778	84.94
513.994	80.94
514.21	94.94
514.426	84.94
514.642	79.94
514.858	90.94
515.074	74.94
515.29	91.94
515.506	74.94
515.721	96.94
515.937	93.94
516.153	88.94
516.369	75.94
516.585	84.94
516.801	82.94
517.016	94.94
517.232	78.94
517.448	104.94
517.664	96.94
517.879	73.94
