Data from 237_2_HRD10591_00046.txt Node
Date: Mon Jan 19 14:11:53 EST 2026
User: Yrep
Spectrometer: HR+D1059
Trigger mode: 1
Integration Time (sec): 1.000000E-1
Scans to average: 1
Electric dark correction enabled: true
Nonlinearity correction enabled: false
Boxcar width: 0
XAxis mode: Wavelengths
Number of Pixels in Spectrum: 2048
>>>>>Begin Spectral Data<<<<<
223.165	-14.12
223.4	-14.12
223.635	-14.12
223.869	-15.12
224.104	-10.12
224.338	-12.12
224.573	-18.12
224.808	-12.12
225.042	-6.12
225.277	-4.12
225.511	-0.12
225.746	7.88
225.98	13.88
226.215	-0.12
226.449	8.88
226.683	4.88
226.918	20.88
227.152	35.88
227.387	43.88
227.621	51.88
227.856	49.88
228.09	53.88
228.324	57.88
228.559	68.88
228.793	49.88
229.027	66.88
229.262	66.88
229.496	62.88
229.73	73.88
229.964	71.88
230.199	72.88
230.433	76.88
230.667	72.88
230.901	76.88
231.136	74.88
231.37	87.88
231.604	81.88
231.838	83.88
232.072	83.88
232.306	95.88
232.541	74.88
232.775	79.88
233.009	79.88
233.243	73.88
233.477	79.88
233.711	85.88
233.945	72.88
234.179	79.88
234.413	67.88
234.647	82.88
234.881	77.88
235.115	83.88
235.349	74.88
235.583	69.88
235.817	76.88
236.051	82.88
236.285	71.88
236.519	85.88
236.753	77.88
236.987	80.88
237.221	75.88
237.455	67.88
237.689	91.88
237.922	78.88
238.156	73.88
238.39	63.88
238.624	70.88
238.858	70.88
239.091	85.88
239.325	75.88
239.559	71.88
239.793	62.88
240.027	91.88
240.26	86.88
240.494	77.88
240.728	67.88
240.961	62.88
241.195	74.88
241.429	71.88
241.662	76.88
241.896	69.88
242.13	65.88
242.363	68.88
242.597	66.88
242.83	74.88
243.064	82.88
243.298	88.88
243.531	63.88
243.765	79.88
243.998	94.88
244.232	81.88
244.465	73.88
244.699	66.88
244.932	89.88
245.166	70.88
245.399	70.88
245.633	85.88
245.866	77.88
246.099	73.88
246.333	73.88
246.566	84.88
246.8	81.88
247.033	71.88
247.266	73.88
247.5	87.88
247.733	89.88
247.966	83.88
248.2	72.88
248.433	75.88
248.666	79.88
248.899	74.88
249.133	69.88
249.366	55.88
249.599	63.88
249.832	74.88
250.066	68.88
250.299	81.88
250.532	75.88
250.765	79.88
250.998	76.88
251.231	78.88
251.465	77.88
251.698	78.88
251.931	75.88
252.164	78.88
252.397	79.88
252.63	82.88
252.863	90.88
253.096	81.88
253.329	72.88
253.562	72.88
253.795	74.88
254.028	76.88
254.261	85.88
254.494	83.88
254.727	103.88
254.96	75.88
255.193	83.88
255.426	81.88
255.659	75.88
255.892	85.88
256.124	75.88
256.357	78.88
256.59	81.88
256.823	66.88
257.056	82.88
257.289	76.88
257.521	75.88
257.754	79.88
257.987	91.88
258.22	76.88
258.452	87.88
258.685	79.88
258.918	79.88
259.151	90.88
259.383	80.88
259.616	81.88
259.849	82.88
260.081	76.88
260.314	77.88
260.547	86.88
260.779	96.88
261.012	79.88
261.244	79.88
261.477	93.88
261.71	80.88
261.942	74.88
262.175	81.88
262.407	88.88
262.64	81.88
262.872	68.88
263.105	81.88
263.337	93.88
263.57	85.88
263.802	75.88
264.035	80.88
264.267	85.88
264.499	86.88
264.732	86.88
264.964	68.88
265.197	78.88
265.429	86.88
265.661	76.88
265.894	79.88
266.126	88.88
266.358	87.88
266.591	81.88
266.823	83.88
267.055	75.88
267.287	91.88
267.52	79.88
267.752	81.88
267.984	85.88
268.216	93.88
268.448	76.88
268.681	85.88
268.913	79.88
269.145	76.88
269.377	90.88
269.609	80.88
269.841	105.88
270.073	82.88
270.306	78.88
270.538	74.88
270.77	70.88
271.002	83.88
271.234	84.88
271.466	60.88
271.698	83.88
271.93	83.88
272.162	94.88
272.394	86.88
272.626	92.88
272.858	94.88
273.09	98.88
273.322	74.88
273.553	78.88
273.785	89.88
274.017	76.88
274.249	73.88
274.481	78.88
274.713	75.88
274.945	74.88
275.176	77.88
275.408	74.88
275.64	85.88
275.872	83.88
276.104	79.88
276.335	79.88
276.567	76.88
276.799	71.88
277.031	87.88
277.262	84.88
277.494	86.88
277.726	73.88
277.957	87.88
278.189	87.88
278.421	85.88
278.652	78.88
278.884	83.88
279.115	74.88
279.347	79.88
279.579	93.88
279.81	86.88
280.042	80.88
280.273	81.88
280.505	87.88
280.736	85.88
280.968	80.88
281.199	65.88
281.431	89.88
281.662	86.88
281.894	82.88
282.125	82.88
282.356	74.88
282.588	62.88
282.819	90.88
283.051	77.88
283.282	84.88
283.513	79.88
283.745	79.88
283.976	88.88
284.207	79.88
284.439	90.88
284.67	98.88
284.901	86.88
285.132	84.88
285.364	82.88
285.595	93.88
285.826	81.88
286.057	85.88
286.288	87.88
286.52	93.88
286.751	83.88
286.982	84.88
287.213	85.88
287.444	83.88
287.675	73.88
287.906	93.88
288.138	81.88
288.369	85.88
288.6	88.88
288.831	87.88
289.062	69.88
289.293	83.88
289.524	78.88
289.755	89.88
289.986	87.88
290.217	97.88
290.448	88.88
290.679	87.88
290.91	74.88
291.141	81.88
291.371	68.88
291.602	93.88
291.833	80.88
292.064	80.88
292.295	89.88
292.526	92.88
292.757	72.88
292.987	99.88
293.218	90.88
293.449	67.88
293.68	77.88
293.91	99.88
294.141	85.88
294.372	70.88
294.603	81.88
294.833	79.88
295.064	69.88
295.295	86.88
295.525	93.88
295.756	71.88
295.987	85.88
296.217	82.88
296.448	84.88
296.679	81.88
296.909	64.88
297.14	81.88
297.37	85.88
297.601	66.88
297.831	79.88
298.062	83.88
298.292	75.88
298.523	71.88
298.753	84.88
298.984	72.88
299.214	83.88
299.445	81.88
299.675	84.88
299.905	87.88
300.136	91.88
300.366	96.88
300.597	80.88
300.827	84.88
301.057	86.88
301.288	88.88
301.518	95.88
301.748	81.88
301.979	93.88
302.209	83.88
302.439	79.88
302.669	83.88
302.9	94.88
303.13	94.88
303.36	87.88
303.59	84.88
303.82	76.88
304.051	75.88
304.281	98.88
304.511	70.88
304.741	87.88
304.971	79.88
305.201	81.88
305.431	80.88
305.661	91.88
305.891	88.88
306.121	84.88
306.352	94.88
306.582	76.88
306.812	86.88
307.042	86.88
307.272	90.88
307.502	91.88
307.731	102.88
307.961	77.88
308.191	82.88
308.421	93.88
308.651	80.88
308.881	81.88
309.111	79.88
309.341	91.88
309.571	83.88
309.8	70.88
310.03	75.88
310.26	87.88
310.49	89.88
310.72	85.88
310.949	84.88
311.179	81.88
311.409	82.88
311.639	75.88
311.868	85.88
312.098	104.88
312.328	77.88
312.557	87.88
312.787	84.88
313.017	93.88
313.246	79.88
313.476	81.88
313.706	75.88
313.935	80.88
314.165	83.88
314.394	84.88
314.624	89.88
314.853	75.88
315.083	90.88
315.312	81.88
315.542	84.88
315.771	75.88
316.001	82.88
316.23	93.88
316.46	85.88
316.689	79.88
316.919	78.88
317.148	79.88
317.377	78.88
317.607	88.88
317.836	85.88
318.065	87.88
318.295	95.88
318.524	81.88
318.753	91.88
318.983	85.88
319.212	93.88
319.441	76.88
319.67	82.88
319.9	81.88
320.129	77.88
320.358	84.88
320.587	85.88
320.816	86.88
321.046	67.88
321.275	82.88
321.504	63.88
321.733	73.88
321.962	82.88
322.191	81.88
322.42	76.88
322.649	87.88
322.878	84.88
323.108	58.88
323.337	92.88
323.566	71.88
323.795	75.88
324.024	93.88
324.253	91.88
324.482	73.88
324.71	85.88
324.939	83.88
325.168	81.88
325.397	75.88
325.626	93.88
325.855	76.88
326.084	75.88
326.313	85.88
326.542	94.88
326.77	99.88
326.999	92.88
327.228	95.88
327.457	73.88
327.686	86.88
327.914	79.88
328.143	89.88
328.372	80.88
328.6	102.88
328.829	65.88
329.058	86.88
329.287	85.88
329.515	83.88
329.744	92.88
329.972	78.88
330.201	73.88
330.43	81.88
330.658	75.88
330.887	81.88
331.115	65.88
331.344	75.88
331.572	82.88
331.801	81.88
332.03	80.88
332.258	80.88
332.486	86.88
332.715	89.88
332.943	108.88
333.172	76.88
333.4	81.88
333.629	77.88
333.857	81.88
334.085	83.88
334.314	74.88
334.542	74.88
334.771	93.88
334.999	77.88
335.227	85.88
335.455	73.88
335.684	81.88
335.912	89.88
336.14	83.88
336.369	78.88
336.597	85.88
336.825	85.88
337.053	81.88
337.281	75.88
337.51	80.88
337.738	73.88
337.966	82.88
338.194	77.88
338.422	85.88
338.65	84.88
338.878	89.88
339.106	86.88
339.334	85.88
339.562	73.88
339.79	81.88
340.018	83.88
340.246	85.88
340.474	88.88
340.702	88.88
340.93	84.88
341.158	80.88
341.386	86.88
341.614	75.88
341.842	69.88
342.07	73.88
342.298	70.88
342.526	64.88
342.754	82.88
342.981	76.88
343.209	85.88
343.437	93.88
343.665	77.88
343.893	88.88
344.12	92.88
344.348	88.88
344.576	93.88
344.804	89.88
345.031	80.88
345.259	74.88
345.487	84.88
345.714	85.88
345.942	79.88
346.17	77.88
346.397	89.88
346.625	74.88
346.853	88.88
347.08	87.88
347.308	73.88
347.535	68.88
347.763	95.88
347.99	79.88
348.218	76.88
348.445	69.88
348.673	85.88
348.9	84.88
349.128	85.88
349.355	85.88
349.583	86.88
349.81	81.88
350.037	75.88
350.265	87.88
350.492	76.88
350.72	78.88
350.947	86.88
351.174	79.88
351.402	75.88
351.629	76.88
351.856	81.88
352.083	99.88
352.311	103.88
352.538	82.88
352.765	84.88
352.992	85.88
353.22	90.88
353.447	87.88
353.674	75.88
353.901	94.88
354.128	74.88
354.355	88.88
354.583	86.88
354.81	76.88
355.037	90.88
355.264	82.88
355.491	81.88
355.718	87.88
355.945	85.88
356.172	87.88
356.399	76.88
356.626	82.88
356.853	73.88
357.08	73.88
357.307	88.88
357.534	85.88
357.761	96.88
357.988	93.88
358.215	80.88
358.441	86.88
358.668	74.88
358.895	79.88
359.122	89.88
359.349	78.88
359.576	86.88
359.802	78.88
360.029	92.88
360.256	88.88
360.483	70.88
360.709	83.88
360.936	88.88
361.163	90.88
361.39	76.88
361.616	87.88
361.843	80.88
362.07	88.88
362.296	82.88
362.523	85.88
362.749	81.88
362.976	83.88
363.203	90.88
363.429	73.88
363.656	87.88
363.882	88.88
364.109	91.88
364.335	85.88
364.562	88.88
364.788	81.88
365.015	68.88
365.241	99.88
365.468	90.88
365.694	72.88
365.92	78.88
366.147	95.88
366.373	88.88
366.599	67.88
366.826	87.88
367.052	83.88
367.278	75.88
367.505	78.88
367.731	76.88
367.957	65.88
368.184	87.88
368.41	93.88
368.636	89.88
368.862	71.88
369.089	67.88
369.315	85.88
369.541	93.88
369.767	70.88
369.993	87.88
370.219	75.88
370.445	78.88
370.672	72.88
370.898	74.88
371.124	86.88
371.35	72.88
371.576	84.88
371.802	89.88
372.028	85.88
372.254	91.88
372.48	74.88
372.706	86.88
372.932	72.88
373.158	73.88
373.384	82.88
373.61	90.88
373.835	100.88
374.061	82.88
374.287	79.88
374.513	88.88
374.739	81.88
374.965	79.88
375.191	81.88
375.416	79.88
375.642	82.88
375.868	80.88
376.094	77.88
376.319	88.88
376.545	92.88
376.771	81.88
376.997	78.88
377.222	86.88
377.448	100.88
377.674	89.88
377.899	81.88
378.125	86.88
378.35	88.88
378.576	86.88
378.802	82.88
379.027	84.88
379.253	79.88
379.478	78.88
379.704	85.88
379.929	73.88
380.155	88.88
380.38	84.88
380.606	71.88
380.831	90.88
381.057	97.88
381.282	69.88
381.507	83.88
381.733	79.88
381.958	81.88
382.184	93.88
382.409	87.88
382.634	89.88
382.86	93.88
383.085	83.88
383.31	81.88
383.535	79.88
383.761	89.88
383.986	89.88
384.211	93.88
384.436	91.88
384.662	71.88
384.887	84.88
385.112	73.88
385.337	91.88
385.562	72.88
385.787	80.88
386.013	90.88
386.238	112.88
386.463	81.88
386.688	105.88
386.913	90.88
387.138	90.88
387.363	87.88
387.588	99.88
387.813	81.88
388.038	79.88
388.263	87.88
388.488	90.88
388.713	79.88
388.938	83.88
389.163	71.88
389.387	68.88
389.612	75.88
389.837	84.88
390.062	93.88
390.287	83.88
390.512	69.88
390.736	66.88
390.961	85.88
391.186	73.88
391.411	71.88
391.636	92.88
391.86	87.88
392.085	97.88
392.31	86.88
392.534	90.88
392.759	96.88
392.984	111.88
393.208	191.88
393.433	284.88
393.658	221.88
393.882	107.88
394.107	95.88
394.331	83.88
394.556	81.88
394.78	78.88
395.005	88.88
395.229	96.88
395.454	71.88
395.678	83.88
395.903	91.88
396.127	103.88
396.352	117.88
396.576	128.88
396.801	188.88
397.025	223.88
397.249	139.88
397.474	85.88
397.698	79.88
397.922	77.88
398.147	73.88
398.371	85.88
398.595	85.88
398.82	87.88
399.044	92.88
399.268	87.88
399.492	87.88
399.717	78.88
399.941	80.88
400.165	76.88
400.389	85.88
400.613	89.88
400.837	74.88
401.062	74.88
401.286	71.88
401.51	79.88
401.734	85.88
401.958	76.88
402.182	85.88
402.406	73.88
402.63	79.88
402.854	71.88
403.078	81.88
403.302	81.88
403.526	79.88
403.75	87.88
403.974	68.88
404.198	91.88
404.422	88.88
404.645	84.88
404.869	67.88
405.093	76.88
405.317	78.88
405.541	85.88
405.765	88.88
405.988	81.88
406.212	69.88
406.436	87.88
406.66	89.88
406.883	92.88
407.107	94.88
407.331	84.88
407.555	88.88
407.778	97.88
408.002	77.88
408.226	83.88
408.449	85.88
408.673	81.88
408.896	91.88
409.12	79.88
409.344	81.88
409.567	70.88
409.791	87.88
410.014	67.88
410.238	82.88
410.461	83.88
410.685	97.88
410.908	95.88
411.132	74.88
411.355	73.88
411.578	71.88
411.802	80.88
412.025	78.88
412.249	77.88
412.472	71.88
412.695	96.88
412.919	69.88
413.142	83.88
413.365	73.88
413.589	85.88
413.812	83.88
414.035	71.88
414.258	86.88
414.482	88.88
414.705	83.88
414.928	82.88
415.151	81.88
415.374	69.88
415.597	80.88
415.821	92.88
416.044	71.88
416.267	79.88
416.49	90.88
416.713	78.88
416.936	75.88
417.159	79.88
417.382	85.88
417.605	89.88
417.828	82.88
418.051	83.88
418.274	78.88
418.497	65.88
418.72	76.88
418.943	90.88
419.166	76.88
419.389	80.88
419.611	94.88
419.834	85.88
420.057	79.88
420.28	104.88
420.503	97.88
420.726	80.88
420.948	93.88
421.171	82.88
421.394	100.88
421.617	98.88
421.839	81.88
422.062	85.88
422.285	93.88
422.507	131.88
422.73	215.88
422.953	201.88
423.175	103.88
423.398	73.88
423.621	84.88
423.843	93.88
424.066	89.88
424.288	90.88
424.511	77.88
424.733	72.88
424.956	92.88
425.178	96.88
425.401	88.88
425.623	87.88
425.846	80.88
426.068	81.88
426.291	75.88
426.513	76.88
426.735	81.88
426.958	81.88
427.18	72.88
427.402	78.88
427.625	92.88
427.847	75.88
428.069	89.88
428.292	84.88
428.514	113.88
428.736	89.88
428.958	103.88
429.181	75.88
429.403	74.88
429.625	78.88
429.847	77.88
430.069	99.88
430.292	122.88
430.514	122.88
430.736	103.88
430.958	111.88
431.18	102.88
431.402	81.88
431.624	87.88
431.846	91.88
432.068	99.88
432.29	81.88
432.512	80.88
432.734	79.88
432.956	73.88
433.178	97.88
433.4	79.88
433.622	90.88
433.844	64.88
434.066	81.88
434.287	97.88
434.509	90.88
434.731	92.88
434.953	77.88
435.175	78.88
435.397	88.88
435.618	101.88
435.84	98.88
436.062	81.88
436.284	85.88
436.505	81.88
436.727	79.88
436.949	82.88
437.17	90.88
437.392	82.88
437.614	85.88
437.835	71.88
438.057	74.88
438.278	76.88
438.5	77.88
438.721	76.88
438.943	87.88
439.165	88.88
439.386	81.88
439.608	97.88
439.829	76.88
440.05	81.88
440.272	90.88
440.493	75.88
440.715	82.88
440.936	90.88
441.158	88.88
441.379	89.88
441.6	81.88
441.822	81.88
442.043	81.88
442.264	93.88
442.486	96.88
442.707	94.88
442.928	107.88
443.149	85.88
443.371	85.88
443.592	116.88
443.813	117.88
444.034	90.88
444.255	67.88
444.476	67.88
444.698	81.88
444.919	106.88
445.14	191.88
445.361	149.88
445.582	156.88
445.803	127.88
446.024	80.88
446.245	88.88
446.466	87.88
446.687	86.88
446.908	97.88
447.129	80.88
447.35	74.88
447.571	77.88
447.792	74.88
448.013	69.88
448.234	75.88
448.455	74.88
448.675	79.88
448.896	79.88
449.117	74.88
449.338	80.88
449.559	79.88
449.779	82.88
450	88.88
450.221	93.88
450.442	93.88
450.662	85.88
450.883	92.88
451.104	90.88
451.324	71.88
451.545	91.88
451.766	82.88
451.986	98.88
452.207	93.88
452.428	74.88
452.648	88.88
452.869	94.88
453.089	81.88
453.31	80.88
453.53	74.88
453.751	75.88
453.971	94.88
454.192	89.88
454.412	73.88
454.633	86.88
454.853	74.88
455.073	91.88
455.294	92.88
455.514	85.88
455.734	93.88
455.955	69.88
456.175	78.88
456.395	85.88
456.616	84.88
456.836	85.88
457.056	74.88
457.276	82.88
457.497	68.88
457.717	87.88
457.937	86.88
458.157	93.88
458.377	86.88
458.598	84.88
458.818	92.88
459.038	74.88
459.258	94.88
459.478	75.88
459.698	70.88
459.918	85.88
460.138	78.88
460.358	73.88
460.578	90.88
460.798	92.88
461.018	104.88
461.238	89.88
461.458	81.88
461.678	69.88
461.898	93.88
462.118	87.88
462.338	89.88
462.558	79.88
462.777	72.88
462.997	73.88
463.217	86.88
463.437	81.88
463.657	85.88
463.876	87.88
464.096	78.88
464.316	97.88
464.536	76.88
464.755	71.88
464.975	95.88
465.195	79.88
465.414	73.88
465.634	83.88
465.854	77.88
466.073	80.88
466.293	79.88
466.512	81.88
466.732	93.88
466.951	89.88
467.171	75.88
467.391	96.88
467.61	81.88
467.829	79.88
468.049	64.88
468.268	74.88
468.488	80.88
468.707	83.88
468.927	87.88
469.146	92.88
469.365	81.88
469.585	91.88
469.804	77.88
470.023	84.88
470.243	89.88
470.462	79.88
470.681	103.88
470.901	82.88
471.12	83.88
471.339	78.88
471.558	85.88
471.777	86.88
471.997	85.88
472.216	75.88
472.435	75.88
472.654	81.88
472.873	73.88
473.092	94.88
473.311	83.88
473.53	80.88
473.749	83.88
473.968	71.88
474.187	74.88
474.406	73.88
474.625	86.88
474.844	93.88
475.063	77.88
475.282	89.88
475.501	78.88
475.72	83.88
475.939	74.88
476.158	89.88
476.377	75.88
476.596	85.88
476.814	74.88
477.033	93.88
477.252	89.88
477.471	81.88
477.69	80.88
477.908	80.88
478.127	83.88
478.346	81.88
478.564	76.88
478.783	87.88
479.002	63.88
479.22	81.88
479.439	80.88
479.658	78.88
479.876	75.88
480.095	89.88
480.313	73.88
480.532	78.88
480.751	96.88
480.969	83.88
481.188	72.88
481.406	79.88
481.624	97.88
481.843	90.88
482.061	77.88
482.28	79.88
482.498	78.88
482.717	72.88
482.935	77.88
483.153	73.88
483.372	83.88
483.59	86.88
483.808	83.88
484.027	80.88
484.245	81.88
484.463	83.88
484.681	71.88
484.9	77.88
485.118	83.88
485.336	81.88
485.554	91.88
485.772	78.88
485.99	81.88
486.209	69.88
486.427	80.88
486.645	89.88
486.863	92.88
487.081	80.88
487.299	73.88
487.517	83.88
487.735	95.88
487.953	107.88
488.171	101.88
488.389	87.88
488.607	78.88
488.825	87.88
489.043	88.88
489.261	93.88
489.479	99.88
489.696	87.88
489.914	78.88
490.132	86.88
490.35	74.88
490.568	68.88
490.786	81.88
491.003	79.88
491.221	81.88
491.439	87.88
491.657	90.88
491.874	91.88
492.092	87.88
492.31	90.88
492.527	88.88
492.745	96.88
492.963	76.88
493.18	101.88
493.398	84.88
493.615	89.88
493.833	85.88
494.05	86.88
494.268	83.88
494.485	89.88
494.703	85.88
494.92	93.88
495.138	78.88
495.355	74.88
495.573	81.88
495.79	84.88
496.008	78.88
496.225	77.88
496.442	84.88
496.66	73.88
496.877	89.88
497.094	90.88
497.312	85.88
497.529	67.88
497.746	91.88
497.963	81.88
498.181	83.88
498.398	86.88
498.615	79.88
498.832	73.88
499.049	77.88
499.267	84.88
499.484	97.88
499.701	87.88
499.918	80.88
500.135	81.88
500.352	72.88
500.569	76.88
500.786	87.88
501.003	89.88
501.22	85.88
501.437	97.88
501.654	86.88
501.871	79.88
502.088	79.88
502.305	89.88
502.522	85.88
502.739	78.88
502.956	87.88
503.172	76.88
503.389	80.88
503.606	85.88
503.823	87.88
504.04	86.88
504.256	93.88
504.473	96.88
504.69	84.88
504.907	79.88
505.123	79.88
505.34	87.88
505.557	71.88
505.773	72.88
505.99	93.88
506.207	76.88
506.423	79.88
506.64	83.88
506.856	79.88
507.073	74.88
507.289	90.88
507.506	105.88
507.722	86.88
507.939	89.88
508.155	85.88
508.372	75.88
508.588	85.88
508.805	93.88
509.021	81.88
509.238	101.88
509.454	89.88
509.67	80.88
509.887	89.88
510.103	96.88
510.319	82.88
510.536	83.88
510.752	83.88
510.968	72.88
511.184	89.88
511.401	73.88
511.617	84.88
511.833	86.88
512.049	72.88
512.265	73.88
512.481	98.88
512.698	88.88
512.914	79.88
513.13	83.88
513.346	75.88
513.562	64.88
513.778	72.88
513.994	80.88
514.21	95.88
514.426	88.88
514.642	81.88
514.858	87.88
515.074	75.88
515.29	84.88
515.506	77.88
515.721	89.88
515.937	97.88
516.153	74.88
516.369	80.88
516.585	85.88
516.801	88.88
517.016	88.88
517.232	82.88
517.448	74.88
517.664	85.88
517.879	98.88
518.095	71.88
518.311	75.88
518.527	95.88
518.742	86.88
518.958	86.88
519.173	94.88
519.389	82.88
519.605	87.88
