Data from 237_2_HRD10591_00025.txt Node
Date: Mon Jan 19 14:11:43 EST 2026
User: Yrep
Spectrometer: HR+D1059
Trigger mode: 1
Integration Time (sec): 1.000000E-1
Scans to average: 1
Electric dark correction enabled: true
Nonlinearity correction enabled: false
Boxcar width: 0
XAxis mode: Wavelengths
Number of Pixels in Spectrum: 2048
>>>>>Begin Spectral Data<<<<<
223.165	-18.88
223.4	-18.88
223.635	-18.88
223.869	-10.88
224.104	-22.88
224.338	-26.88
224.573	-18.88
224.808	-10.88
225.042	-8.88
225.277	-8.88
225.511	-9.88
225.746	10.12
225.98	-4.88
226.215	16.12
226.449	14.12
226.683	23.12
226.918	29.12
227.152	49.12
227.387	14.12
227.621	31.12
227.856	47.12
228.09	55.12
228.324	66.12
228.559	49.12
228.793	55.12
229.027	61.12
229.262	67.12
229.496	65.12
229.73	70.12
229.964	72.12
230.199	85.12
230.433	71.12
230.667	97.12
230.901	84.12
231.136	79.12
231.37	71.12
231.604	63.12
231.838	73.12
232.072	69.12
232.306	90.12
232.541	85.12
232.775	75.12
233.009	75.12
233.243	91.12
233.477	77.12
233.711	82.12
233.945	81.12
234.179	76.12
234.413	83.12
234.647	85.12
234.881	80.12
235.115	70.12
235.349	73.12
235.583	82.12
235.817	73.12
236.051	69.12
236.285	72.12
236.519	74.12
236.753	70.12
236.987	75.12
237.221	55.12
237.455	84.12
237.689	73.12
237.922	75.12
238.156	76.12
238.39	69.12
238.624	81.12
238.858	60.12
239.091	62.12
239.325	76.12
239.559	76.12
239.793	80.12
240.027	78.12
240.26	81.12
240.494	69.12
240.728	71.12
240.961	72.12
241.195	73.12
241.429	75.12
241.662	82.12
241.896	74.12
242.13	74.12
242.363	80.12
242.597	83.12
242.83	82.12
243.064	82.12
243.298	78.12
243.531	75.12
243.765	93.12
243.998	73.12
244.232	82.12
244.465	57.12
244.699	75.12
244.932	95.12
245.166	76.12
245.399	67.12
245.633	81.12
245.866	77.12
246.099	82.12
246.333	88.12
246.566	89.12
246.8	79.12
247.033	72.12
247.266	65.12
247.5	80.12
247.733	78.12
247.966	87.12
248.2	85.12
248.433	82.12
248.666	76.12
248.899	77.12
249.133	81.12
249.366	96.12
249.599	81.12
249.832	65.12
250.066	76.12
250.299	83.12
250.532	75.12
250.765	74.12
250.998	86.12
251.231	81.12
251.465	70.12
251.698	88.12
251.931	80.12
252.164	86.12
252.397	82.12
252.63	78.12
252.863	77.12
253.096	82.12
253.329	81.12
253.562	82.12
253.795	87.12
254.028	74.12
254.261	83.12
254.494	75.12
254.727	93.12
254.96	74.12
255.193	73.12
255.426	70.12
255.659	82.12
255.892	97.12
256.124	81.12
256.357	88.12
256.59	68.12
256.823	62.12
257.056	72.12
257.289	73.12
257.521	85.12
257.754	81.12
257.987	78.12
258.22	101.12
258.452	81.12
258.685	91.12
258.918	67.12
259.151	73.12
259.383	66.12
259.616	81.12
259.849	81.12
260.081	87.12
260.314	85.12
260.547	83.12
260.779	78.12
261.012	82.12
261.244	81.12
261.477	77.12
261.71	87.12
261.942	78.12
262.175	74.12
262.407	100.12
262.64	76.12
262.872	91.12
263.105	89.12
263.337	79.12
263.57	75.12
263.802	80.12
264.035	85.12
264.267	65.12
264.499	96.12
264.732	79.12
264.964	78.12
265.197	72.12
265.429	89.12
265.661	65.12
265.894	87.12
266.126	85.12
266.358	79.12
266.591	74.12
266.823	79.12
267.055	84.12
267.287	81.12
267.52	72.12
267.752	65.12
267.984	65.12
268.216	81.12
268.448	86.12
268.681	75.12
268.913	83.12
269.145	72.12
269.377	75.12
269.609	67.12
269.841	72.12
270.073	85.12
270.306	57.12
270.538	76.12
270.77	98.12
271.002	78.12
271.234	74.12
271.466	82.12
271.698	78.12
271.93	79.12
272.162	83.12
272.394	81.12
272.626	73.12
272.858	89.12
273.09	79.12
273.322	80.12
273.553	85.12
273.785	77.12
274.017	67.12
274.249	68.12
274.481	69.12
274.713	76.12
274.945	90.12
275.176	82.12
275.408	83.12
275.64	87.12
275.872	90.12
276.104	75.12
276.335	77.12
276.567	81.12
276.799	79.12
277.031	73.12
277.262	75.12
277.494	70.12
277.726	95.12
277.957	78.12
278.189	81.12
278.421	78.12
278.652	86.12
278.884	74.12
279.115	90.12
279.347	87.12
279.579	90.12
279.81	73.12
280.042	82.12
280.273	81.12
280.505	83.12
280.736	71.12
280.968	83.12
281.199	85.12
281.431	82.12
281.662	89.12
281.894	100.12
282.125	87.12
282.356	82.12
282.588	81.12
282.819	72.12
283.051	74.12
283.282	89.12
283.513	85.12
283.745	85.12
283.976	85.12
284.207	90.12
284.439	81.12
284.67	91.12
284.901	88.12
285.132	86.12
285.364	80.12
285.595	82.12
285.826	78.12
286.057	78.12
286.288	74.12
286.52	71.12
286.751	77.12
286.982	82.12
287.213	83.12
287.444	79.12
287.675	87.12
287.906	86.12
288.138	79.12
288.369	67.12
288.6	94.12
288.831	76.12
289.062	84.12
289.293	91.12
289.524	98.12
289.755	67.12
289.986	87.12
290.217	90.12
290.448	93.12
290.679	79.12
290.91	79.12
291.141	91.12
291.371	86.12
291.602	105.12
291.833	92.12
292.064	90.12
292.295	83.12
292.526	81.12
292.757	81.12
292.987	71.12
293.218	79.12
293.449	87.12
293.68	79.12
293.91	81.12
294.141	84.12
294.372	79.12
294.603	94.12
294.833	71.12
295.064	78.12
295.295	99.12
295.525	79.12
295.756	79.12
295.987	87.12
296.217	87.12
296.448	86.12
296.679	87.12
296.909	98.12
297.14	77.12
297.37	83.12
297.601	89.12
297.831	75.12
298.062	81.12
298.292	99.12
298.523	93.12
298.753	89.12
298.984	90.12
299.214	75.12
299.445	75.12
299.675	90.12
299.905	96.12
300.136	97.12
300.366	77.12
300.597	102.12
300.827	86.12
301.057	84.12
301.288	94.12
301.518	97.12
301.748	84.12
301.979	87.12
302.209	78.12
302.439	89.12
302.669	92.12
302.9	87.12
303.13	83.12
303.36	77.12
303.59	83.12
303.82	86.12
304.051	79.12
304.281	81.12
304.511	88.12
304.741	87.12
304.971	66.12
305.201	80.12
305.431	79.12
305.661	87.12
305.891	89.12
306.121	82.12
306.352	75.12
306.582	86.12
306.812	97.12
307.042	76.12
307.272	67.12
307.502	69.12
307.731	86.12
307.961	90.12
308.191	84.12
308.421	76.12
308.651	84.12
308.881	82.12
309.111	90.12
309.341	76.12
309.571	90.12
309.8	89.12
310.03	89.12
310.26	81.12
310.49	80.12
310.72	78.12
310.949	81.12
311.179	77.12
311.409	73.12
311.639	84.12
311.868	65.12
312.098	75.12
312.328	77.12
312.557	74.12
312.787	89.12
313.017	89.12
313.246	83.12
313.476	81.12
313.706	91.12
313.935	85.12
314.165	72.12
314.394	75.12
314.624	75.12
314.853	74.12
315.083	85.12
315.312	77.12
315.542	85.12
315.771	85.12
316.001	78.12
316.23	100.12
316.46	74.12
316.689	94.12
316.919	85.12
317.148	73.12
317.377	81.12
317.607	98.12
317.836	79.12
318.065	80.12
318.295	89.12
318.524	78.12
318.753	74.12
318.983	82.12
319.212	75.12
319.441	83.12
319.67	84.12
319.9	81.12
320.129	76.12
320.358	86.12
320.587	70.12
320.816	87.12
321.046	95.12
321.275	89.12
321.504	82.12
321.733	95.12
321.962	82.12
322.191	76.12
322.42	80.12
322.649	56.12
322.878	85.12
323.108	94.12
323.337	97.12
323.566	79.12
323.795	89.12
324.024	83.12
324.253	90.12
324.482	100.12
324.71	85.12
324.939	66.12
325.168	91.12
325.397	91.12
325.626	79.12
325.855	101.12
326.084	80.12
326.313	67.12
326.542	87.12
326.77	64.12
326.999	83.12
327.228	82.12
327.457	89.12
327.686	79.12
327.914	74.12
328.143	79.12
328.372	86.12
328.6	89.12
328.829	76.12
329.058	93.12
329.287	93.12
329.515	85.12
329.744	90.12
329.972	75.12
330.201	89.12
330.43	89.12
330.658	80.12
330.887	83.12
331.115	92.12
331.344	78.12
331.572	75.12
331.801	87.12
332.03	82.12
332.258	92.12
332.486	93.12
332.715	77.12
332.943	69.12
333.172	79.12
333.4	81.12
333.629	72.12
333.857	81.12
334.085	74.12
334.314	75.12
334.542	90.12
334.771	88.12
334.999	81.12
335.227	81.12
335.455	85.12
335.684	72.12
335.912	93.12
336.14	73.12
336.369	85.12
336.597	79.12
336.825	91.12
337.053	73.12
337.281	91.12
337.51	84.12
337.738	88.12
337.966	75.12
338.194	88.12
338.422	85.12
338.65	83.12
338.878	85.12
339.106	81.12
339.334	87.12
339.562	85.12
339.79	83.12
340.018	91.12
340.246	86.12
340.474	82.12
340.702	77.12
340.93	95.12
341.158	91.12
341.386	82.12
341.614	90.12
341.842	68.12
342.07	80.12
342.298	86.12
342.526	103.12
342.754	82.12
342.981	78.12
343.209	85.12
343.437	100.12
343.665	86.12
343.893	80.12
344.12	92.12
344.348	93.12
344.576	84.12
344.804	88.12
345.031	74.12
345.259	96.12
345.487	88.12
345.714	83.12
345.942	93.12
346.17	76.12
346.397	80.12
346.625	89.12
346.853	79.12
347.08	80.12
347.308	75.12
347.535	69.12
347.763	90.12
347.99	69.12
348.218	83.12
348.445	66.12
348.673	88.12
348.9	82.12
349.128	90.12
349.355	92.12
349.583	75.12
349.81	87.12
350.037	89.12
350.265	84.12
350.492	83.12
350.72	81.12
350.947	82.12
351.174	83.12
351.402	87.12
351.629	84.12
351.856	69.12
352.083	74.12
352.311	80.12
352.538	83.12
352.765	86.12
352.992	79.12
353.22	96.12
353.447	95.12
353.674	70.12
353.901	63.12
354.128	95.12
354.355	78.12
354.583	79.12
354.81	98.12
355.037	77.12
355.264	85.12
355.491	86.12
355.718	78.12
355.945	74.12
356.172	75.12
356.399	86.12
356.626	81.12
356.853	96.12
357.08	97.12
357.307	81.12
357.534	85.12
357.761	90.12
357.988	81.12
358.215	71.12
358.441	75.12
358.668	79.12
358.895	92.12
359.122	89.12
359.349	79.12
359.576	87.12
359.802	83.12
360.029	78.12
360.256	87.12
360.483	79.12
360.709	74.12
360.936	84.12
361.163	99.12
361.39	76.12
361.616	79.12
361.843	87.12
362.07	74.12
362.296	99.12
362.523	96.12
362.749	98.12
362.976	91.12
363.203	90.12
363.429	85.12
363.656	98.12
363.882	81.12
364.109	86.12
364.335	105.12
364.562	103.12
364.788	98.12
365.015	103.12
365.241	90.12
365.468	85.12
365.694	75.12
365.92	65.12
366.147	72.12
366.373	74.12
366.599	83.12
366.826	75.12
367.052	86.12
367.278	84.12
367.505	89.12
367.731	83.12
367.957	92.12
368.184	91.12
368.41	86.12
368.636	92.12
368.862	79.12
369.089	80.12
369.315	80.12
369.541	74.12
369.767	84.12
369.993	80.12
370.219	98.12
370.445	75.12
370.672	89.12
370.898	92.12
371.124	79.12
371.35	87.12
371.576	87.12
371.802	96.12
372.028	91.12
372.254	86.12
372.48	90.12
372.706	82.12
372.932	80.12
373.158	82.12
373.384	75.12
373.61	113.12
373.835	101.12
374.061	79.12
374.287	86.12
374.513	97.12
374.739	65.12
374.965	81.12
375.191	76.12
375.416	81.12
375.642	85.12
375.868	91.12
376.094	83.12
376.319	81.12
376.545	92.12
376.771	93.12
376.997	94.12
377.222	86.12
377.448	80.12
377.674	64.12
377.899	76.12
378.125	94.12
378.35	87.12
378.576	96.12
378.802	76.12
379.027	73.12
379.253	84.12
379.478	101.12
379.704	86.12
379.929	87.12
380.155	83.12
380.38	74.12
380.606	78.12
380.831	85.12
381.057	90.12
381.282	79.12
381.507	73.12
381.733	74.12
381.958	81.12
382.184	77.12
382.409	82.12
382.634	91.12
382.86	90.12
383.085	84.12
383.31	83.12
383.535	82.12
383.761	82.12
383.986	85.12
384.211	89.12
384.436	85.12
384.662	78.12
384.887	83.12
385.112	71.12
385.337	96.12
385.562	85.12
385.787	92.12
386.013	106.12
386.238	98.12
386.463	82.12
386.688	93.12
386.913	74.12
387.138	81.12
387.363	85.12
387.588	85.12
387.813	87.12
388.038	84.12
388.263	84.12
388.488	93.12
388.713	79.12
388.938	58.12
389.163	80.12
389.387	77.12
389.612	78.12
389.837	89.12
390.062	91.12
390.287	72.12
390.512	98.12
390.736	73.12
390.961	87.12
391.186	95.12
391.411	67.12
391.636	64.12
391.86	92.12
392.085	97.12
392.31	95.12
392.534	79.12
392.759	93.12
392.984	107.12
393.208	142.12
393.433	186.12
393.658	155.12
393.882	101.12
394.107	96.12
394.331	101.12
394.556	96.12
394.78	108.12
395.005	87.12
395.229	90.12
395.454	91.12
395.678	91.12
395.903	113.12
396.127	115.12
396.352	119.12
396.576	113.12
396.801	143.12
397.025	160.12
397.249	109.12
397.474	96.12
397.698	84.12
397.922	81.12
398.147	93.12
398.371	80.12
398.595	74.12
398.82	93.12
399.044	89.12
399.268	73.12
399.492	96.12
399.717	82.12
399.941	85.12
400.165	70.12
400.389	81.12
400.613	85.12
400.837	79.12
401.062	66.12
401.286	86.12
401.51	83.12
401.734	69.12
401.958	87.12
402.182	85.12
402.406	72.12
402.63	72.12
402.854	91.12
403.078	88.12
403.302	76.12
403.526	85.12
403.75	87.12
403.974	89.12
404.198	99.12
404.422	98.12
404.645	85.12
404.869	89.12
405.093	79.12
405.317	72.12
405.541	75.12
405.765	73.12
405.988	80.12
406.212	89.12
406.436	87.12
406.66	84.12
406.883	88.12
407.107	84.12
407.331	97.12
407.555	99.12
407.778	82.12
408.002	91.12
408.226	90.12
408.449	79.12
408.673	75.12
408.896	86.12
409.12	77.12
409.344	92.12
409.567	87.12
409.791	83.12
410.014	83.12
410.238	79.12
410.461	87.12
410.685	88.12
410.908	81.12
411.132	95.12
411.355	83.12
411.578	83.12
411.802	75.12
412.025	86.12
412.249	83.12
412.472	91.12
412.695	91.12
412.919	80.12
413.142	84.12
413.365	97.12
413.589	88.12
413.812	69.12
414.035	88.12
414.258	74.12
414.482	77.12
414.705	73.12
414.928	72.12
415.151	85.12
415.374	80.12
415.597	81.12
415.821	89.12
416.044	93.12
416.267	84.12
416.49	75.12
416.713	81.12
416.936	96.12
417.159	93.12
417.382	79.12
417.605	85.12
417.828	97.12
418.051	82.12
418.274	83.12
418.497	87.12
418.72	90.12
418.943	107.12
419.166	78.12
419.389	90.12
419.611	70.12
419.834	81.12
420.057	75.12
420.28	86.12
420.503	96.12
420.726	84.12
420.948	94.12
421.171	87.12
421.394	83.12
421.617	99.12
421.839	96.12
422.062	110.12
422.285	118.12
422.507	192.12
422.73	300.12
422.953	272.12
423.175	154.12
423.398	101.12
423.621	70.12
423.843	79.12
424.066	92.12
424.288	82.12
424.511	84.12
424.733	95.12
424.956	75.12
425.178	95.12
425.401	87.12
425.623	94.12
425.846	89.12
426.068	85.12
426.291	98.12
426.513	87.12
426.735	89.12
426.958	95.12
427.18	81.12
427.402	93.12
427.625	78.12
427.847	79.12
428.069	89.12
428.292	97.12
428.514	101.12
428.736	86.12
428.958	97.12
429.181	103.12
429.403	101.12
429.625	82.12
429.847	101.12
430.069	138.12
430.292	147.12
430.514	146.12
430.736	122.12
430.958	125.12
431.18	97.12
431.402	100.12
431.624	69.12
431.846	110.12
432.068	123.12
432.29	75.12
432.512	82.12
432.734	86.12
432.956	74.12
433.178	91.12
433.4	86.12
433.622	72.12
433.844	91.12
434.066	79.12
434.287	71.12
434.509	72.12
434.731	85.12
434.953	81.12
435.175	71.12
435.397	89.12
435.618	80.12
435.84	90.12
436.062	70.12
436.284	79.12
436.505	80.12
436.727	67.12
436.949	78.12
437.17	82.12
437.392	72.12
437.614	81.12
437.835	85.12
438.057	73.12
438.278	81.12
438.5	88.12
438.721	94.12
438.943	93.12
439.165	83.12
439.386	85.12
439.608	94.12
439.829	75.12
440.05	72.12
440.272	73.12
440.493	85.12
440.715	75.12
440.936	67.12
441.158	88.12
441.379	93.12
441.6	87.12
441.822	97.12
442.043	85.12
442.264	90.12
442.486	94.12
442.707	130.12
442.928	101.12
443.149	92.12
443.371	121.12
443.592	164.12
443.813	145.12
444.034	95.12
444.255	109.12
444.476	78.12
444.698	77.12
444.919	88.12
445.14	185.12
445.361	173.12
445.582	186.12
445.803	184.12
446.024	110.12
446.245	105.12
446.466	77.12
446.687	84.12
446.908	85.12
447.129	90.12
447.35	89.12
447.571	69.12
447.792	85.12
448.013	89.12
448.234	89.12
448.455	65.12
448.675	84.12
448.896	73.12
449.117	92.12
449.338	80.12
449.559	92.12
449.779	78.12
450	85.12
450.221	73.12
450.442	72.12
450.662	94.12
450.883	88.12
451.104	89.12
451.324	94.12
451.545	81.12
451.766	75.12
451.986	78.12
452.207	81.12
452.428	82.12
452.648	82.12
452.869	86.12
453.089	94.12
453.31	92.12
453.53	95.12
453.751	88.12
453.971	93.12
454.192	73.12
454.412	72.12
454.633	77.12
454.853	86.12
455.073	62.12
455.294	80.12
455.514	87.12
455.734	83.12
455.955	98.12
456.175	77.12
456.395	89.12
456.616	85.12
456.836	94.12
457.056	86.12
457.276	97.12
457.497	91.12
457.717	91.12
457.937	95.12
458.157	102.12
458.377	95.12
458.598	97.12
458.818	93.12
459.038	90.12
459.258	74.12
459.478	89.12
459.698	71.12
459.918	87.12
460.138	87.12
460.358	76.12
460.578	77.12
460.798	116.12
461.018	118.12
461.238	107.12
461.458	99.12
461.678	69.12
461.898	81.12
462.118	84.12
462.338	83.12
462.558	100.12
462.777	93.12
462.997	74.12
463.217	76.12
463.437	76.12
463.657	73.12
463.876	77.12
464.096	66.12
464.316	77.12
464.536	81.12
464.755	84.12
464.975	85.12
465.195	69.12
465.414	75.12
465.634	56.12
465.854	71.12
466.073	94.12
466.293	79.12
466.512	79.12
466.732	92.12
466.951	78.12
467.171	73.12
467.391	91.12
467.61	85.12
467.829	90.12
468.049	86.12
468.268	84.12
468.488	78.12
468.707	93.12
468.927	77.12
469.146	73.12
469.365	90.12
469.585	67.12
469.804	85.12
470.023	67.12
470.243	77.12
470.462	73.12
470.681	96.12
470.901	91.12
471.12	88.12
471.339	87.12
471.558	67.12
471.777	87.12
471.997	80.12
472.216	77.12
472.435	81.12
472.654	98.12
472.873	75.12
473.092	80.12
473.311	95.12
473.53	78.12
473.749	82.12
473.968	102.12
474.187	69.12
474.406	77.12
474.625	76.12
474.844	75.12
475.063	82.12
475.282	94.12
475.501	88.12
475.72	79.12
475.939	83.12
476.158	83.12
476.377	84.12
476.596	89.12
476.814	87.12
477.033	78.12
477.252	79.12
477.471	89.12
477.69	79.12
477.908	79.12
478.127	63.12
478.346	76.12
478.564	91.12
478.783	83.12
479.002	89.12
479.22	86.12
479.439	70.12
479.658	80.12
479.876	76.12
480.095	78.12
480.313	91.12
480.532	97.12
480.751	79.12
480.969	73.12
481.188	81.12
481.406	86.12
481.624	79.12
481.843	92.12
482.061	76.12
482.28	72.12
482.498	87.12
482.717	92.12
482.935	78.12
483.153	79.12
483.372	76.12
483.59	90.12
483.808	73.12
484.027	79.12
484.245	89.12
484.463	87.12
484.681	92.12
484.9	79.12
485.118	89.12
485.336	77.12
485.554	93.12
485.772	72.12
485.99	69.12
486.209	81.12
486.427	73.12
486.645	79.12
486.863	89.12
487.081	95.12
487.299	87.12
487.517	81.12
487.735	88.12
487.953	129.12
488.171	94.12
488.389	98.12
488.607	91.12
488.825	75.12
489.043	79.12
489.261	88.12
489.479	90.12
489.696	76.12
489.914	68.12
490.132	70.12
490.35	82.12
490.568	77.12
490.786	83.12
491.003	80.12
491.221	97.12
491.439	85.12
491.657	83.12
491.874	87.12
492.092	82.12
492.31	83.12
492.527	82.12
492.745	89.12
492.963	85.12
493.18	96.12
493.398	93.12
493.615	86.12
493.833	82.12
494.05	93.12
494.268	82.12
494.485	85.12
494.703	81.12
494.92	80.12
495.138	80.12
495.355	98.12
495.573	85.12
495.79	87.12
496.008	95.12
496.225	96.12
496.442	90.12
496.66	90.12
496.877	79.12
497.094	86.12
497.312	87.12
497.529	81.12
497.746	83.12
497.963	85.12
498.181	85.12
498.398	97.12
498.615	90.12
498.832	83.12
499.049	82.12
499.267	77.12
499.484	87.12
499.701	68.12
499.918	89.12
500.135	73.12
500.352	86.12
500.569	84.12
500.786	105.12
501.003	83.12
501.22	83.12
501.437	79.12
501.654	100.12
501.871	84.12
502.088	79.12
502.305	78.12
502.522	78.12
502.739	87.12
502.956	86.12
503.172	90.12
503.389	76.12
503.606	89.12
503.823	82.12
504.04	96.12
504.256	119.12
504.473	104.12
504.69	90.12
504.907	89.12
505.123	94.12
505.34	79.12
505.557	91.12
505.773	85.12
505.99	89.12
506.207	78.12
506.423	81.12
506.64	77.12
506.856	77.12
507.073	87.12
507.289	80.12
507.506	79.12
507.722	96.12
507.939	83.12
508.155	82.12
508.372	80.12
508.588	89.12
508.805	85.12
509.021	73.12
509.238	96.12
509.454	83.12
509.67	83.12
509.887	80.12
510.103	84.12
510.319	89.12
510.536	73.12
510.752	89.12
510.968	96.12
511.184	83.12
511.401	79.12
511.617	91.12
511.833	70.12
512.049	74.12
512.265	88.12
512.481	79.12
512.698	82.12
512.914	90.12
513.13	86.12
513.346	86.12
513.562	82.12
513.778	77.12
513.994	78.12
514.21	94.12
514.426	87.12
514.642	88.12
514.858	93.12
515.074	89.12
515.29	88.12
515.506	78.12
515.721	79.12
515.937	81.12
516.153	82.12
516.369	87.12
516.585	73.12
516.801	87.12
517.016	76.12
517.232	93.12
517.448	86.12
517.664	87.12
517.879	85.12
518.095	76.12
518.311	83.12
518.527	100.12
518.742	95.12
518.958	113.12
519.173	121.12
