Data from 237_2_HRD10591_00017.txt Node
Date: Mon Jan 19 14:11:39 EST 2026
User: Yrep
Spectrometer: HR+D1059
Trigger mode: 1
Integration Time (sec): 1.000000E-1
Scans to average: 1
Electric dark correction enabled: true
Nonlinearity correction enabled: false
Boxcar width: 0
XAxis mode: Wavelengths
Number of Pixels in Spectrum: 2048
>>>>>Begin Spectral Data<<<<<
223.165	-4.62
223.4	-4.62
223.635	-4.62
223.869	-8.62
224.104	-19.62
224.338	-2.62
224.573	-12.62
224.808	-20.62
225.042	-22.62
225.277	-6.62
225.511	-2.62
225.746	-0.62
225.98	3.38
226.215	19.38
226.449	9.38
226.683	20.38
226.918	19.38
227.152	29.38
227.387	23.38
227.621	45.38
227.856	52.38
228.09	58.38
228.324	46.38
228.559	59.38
228.793	50.38
229.027	64.38
229.262	63.38
229.496	71.38
229.73	75.38
229.964	80.38
230.199	75.38
230.433	73.38
230.667	77.38
230.901	73.38
231.136	73.38
231.37	70.38
231.604	97.38
231.838	76.38
232.072	78.38
232.306	94.38
232.541	83.38
232.775	89.38
233.009	105.38
233.243	79.38
233.477	77.38
233.711	75.38
233.945	79.38
234.179	95.38
234.413	87.38
234.647	89.38
234.881	87.38
235.115	85.38
235.349	78.38
235.583	80.38
235.817	92.38
236.051	81.38
236.285	89.38
236.519	68.38
236.753	77.38
236.987	83.38
237.221	85.38
237.455	89.38
237.689	66.38
237.922	89.38
238.156	87.38
238.39	78.38
238.624	69.38
238.858	87.38
239.091	78.38
239.325	69.38
239.559	86.38
239.793	74.38
240.027	94.38
240.26	82.38
240.494	80.38
240.728	92.38
240.961	73.38
241.195	81.38
241.429	79.38
241.662	83.38
241.896	63.38
242.13	88.38
242.363	73.38
242.597	67.38
242.83	68.38
243.064	83.38
243.298	88.38
243.531	86.38
243.765	79.38
243.998	74.38
244.232	90.38
244.465	81.38
244.699	87.38
244.932	79.38
245.166	78.38
245.399	97.38
245.633	91.38
245.866	84.38
246.099	87.38
246.333	85.38
246.566	78.38
246.8	70.38
247.033	73.38
247.266	78.38
247.5	74.38
247.733	80.38
247.966	96.38
248.2	78.38
248.433	83.38
248.666	86.38
248.899	84.38
249.133	76.38
249.366	77.38
249.599	92.38
249.832	85.38
250.066	80.38
250.299	74.38
250.532	92.38
250.765	85.38
250.998	88.38
251.231	85.38
251.465	84.38
251.698	89.38
251.931	93.38
252.164	70.38
252.397	91.38
252.63	78.38
252.863	85.38
253.096	76.38
253.329	85.38
253.562	84.38
253.795	83.38
254.028	94.38
254.261	83.38
254.494	78.38
254.727	87.38
254.96	83.38
255.193	74.38
255.426	101.38
255.659	74.38
255.892	75.38
256.124	80.38
256.357	85.38
256.59	76.38
256.823	86.38
257.056	87.38
257.289	85.38
257.521	79.38
257.754	88.38
257.987	91.38
258.22	84.38
258.452	85.38
258.685	93.38
258.918	75.38
259.151	86.38
259.383	96.38
259.616	83.38
259.849	83.38
260.081	89.38
260.314	81.38
260.547	87.38
260.779	83.38
261.012	91.38
261.244	77.38
261.477	84.38
261.71	76.38
261.942	79.38
262.175	75.38
262.407	76.38
262.64	69.38
262.872	76.38
263.105	75.38
263.337	97.38
263.57	82.38
263.802	87.38
264.035	92.38
264.267	70.38
264.499	81.38
264.732	85.38
264.964	83.38
265.197	85.38
265.429	75.38
265.661	90.38
265.894	80.38
266.126	81.38
266.358	72.38
266.591	82.38
266.823	81.38
267.055	84.38
267.287	81.38
267.52	83.38
267.752	96.38
267.984	77.38
268.216	87.38
268.448	84.38
268.681	74.38
268.913	84.38
269.145	103.38
269.377	78.38
269.609	83.38
269.841	73.38
270.073	80.38
270.306	82.38
270.538	66.38
270.77	90.38
271.002	91.38
271.234	91.38
271.466	81.38
271.698	87.38
271.93	76.38
272.162	81.38
272.394	91.38
272.626	83.38
272.858	83.38
273.09	98.38
273.322	72.38
273.553	85.38
273.785	83.38
274.017	83.38
274.249	87.38
274.481	95.38
274.713	76.38
274.945	86.38
275.176	79.38
275.408	95.38
275.64	90.38
275.872	63.38
276.104	102.38
276.335	87.38
276.567	79.38
276.799	86.38
277.031	74.38
277.262	83.38
277.494	83.38
277.726	86.38
277.957	94.38
278.189	86.38
278.421	86.38
278.652	89.38
278.884	86.38
279.115	85.38
279.347	82.38
279.579	78.38
279.81	79.38
280.042	94.38
280.273	85.38
280.505	84.38
280.736	74.38
280.968	85.38
281.199	84.38
281.431	79.38
281.662	95.38
281.894	83.38
282.125	90.38
282.356	86.38
282.588	78.38
282.819	88.38
283.051	85.38
283.282	80.38
283.513	84.38
283.745	80.38
283.976	74.38
284.207	97.38
284.439	79.38
284.67	91.38
284.901	78.38
285.132	83.38
285.364	89.38
285.595	101.38
285.826	89.38
286.057	100.38
286.288	99.38
286.52	94.38
286.751	89.38
286.982	101.38
287.213	101.38
287.444	73.38
287.675	80.38
287.906	96.38
288.138	90.38
288.369	92.38
288.6	86.38
288.831	77.38
289.062	77.38
289.293	87.38
289.524	75.38
289.755	89.38
289.986	99.38
290.217	88.38
290.448	84.38
290.679	83.38
290.91	84.38
291.141	89.38
291.371	79.38
291.602	91.38
291.833	80.38
292.064	95.38
292.295	89.38
292.526	90.38
292.757	87.38
292.987	74.38
293.218	80.38
293.449	79.38
293.68	94.38
293.91	92.38
294.141	96.38
294.372	90.38
294.603	87.38
294.833	86.38
295.064	88.38
295.295	83.38
295.525	82.38
295.756	76.38
295.987	77.38
296.217	78.38
296.448	96.38
296.679	77.38
296.909	77.38
297.14	83.38
297.37	103.38
297.601	90.38
297.831	96.38
298.062	97.38
298.292	86.38
298.523	79.38
298.753	91.38
298.984	85.38
299.214	84.38
299.445	83.38
299.675	91.38
299.905	84.38
300.136	80.38
300.366	94.38
300.597	87.38
300.827	86.38
301.057	85.38
301.288	84.38
301.518	78.38
301.748	92.38
301.979	104.38
302.209	88.38
302.439	73.38
302.669	74.38
302.9	80.38
303.13	81.38
303.36	98.38
303.59	87.38
303.82	80.38
304.051	83.38
304.281	90.38
304.511	84.38
304.741	90.38
304.971	77.38
305.201	93.38
305.431	79.38
305.661	85.38
305.891	85.38
306.121	83.38
306.352	81.38
306.582	95.38
306.812	90.38
307.042	95.38
307.272	82.38
307.502	84.38
307.731	85.38
307.961	89.38
308.191	82.38
308.421	75.38
308.651	98.38
308.881	79.38
309.111	85.38
309.341	91.38
309.571	84.38
309.8	85.38
310.03	100.38
310.26	99.38
310.49	81.38
310.72	80.38
310.949	76.38
311.179	98.38
311.409	87.38
311.639	81.38
311.868	89.38
312.098	66.38
312.328	84.38
312.557	99.38
312.787	95.38
313.017	89.38
313.246	84.38
313.476	89.38
313.706	78.38
313.935	92.38
314.165	85.38
314.394	85.38
314.624	89.38
314.853	68.38
315.083	79.38
315.312	84.38
315.542	86.38
315.771	86.38
316.001	95.38
316.23	68.38
316.46	83.38
316.689	87.38
316.919	100.38
317.148	93.38
317.377	77.38
317.607	87.38
317.836	86.38
318.065	98.38
318.295	89.38
318.524	78.38
318.753	88.38
318.983	89.38
319.212	90.38
319.441	92.38
319.67	85.38
319.9	93.38
320.129	74.38
320.358	81.38
320.587	86.38
320.816	89.38
321.046	82.38
321.275	88.38
321.504	89.38
321.733	82.38
321.962	84.38
322.191	93.38
322.42	75.38
322.649	97.38
322.878	94.38
323.108	77.38
323.337	78.38
323.566	76.38
323.795	93.38
324.024	78.38
324.253	95.38
324.482	90.38
324.71	86.38
324.939	100.38
325.168	88.38
325.397	85.38
325.626	102.38
325.855	79.38
326.084	86.38
326.313	87.38
326.542	89.38
326.77	94.38
326.999	97.38
327.228	95.38
327.457	89.38
327.686	81.38
327.914	84.38
328.143	89.38
328.372	92.38
328.6	81.38
328.829	87.38
329.058	93.38
329.287	83.38
329.515	98.38
329.744	97.38
329.972	103.38
330.201	88.38
330.43	85.38
330.658	95.38
330.887	85.38
331.115	87.38
331.344	82.38
331.572	96.38
331.801	92.38
332.03	93.38
332.258	77.38
332.486	89.38
332.715	79.38
332.943	72.38
333.172	91.38
333.4	89.38
333.629	73.38
333.857	92.38
334.085	87.38
334.314	91.38
334.542	89.38
334.771	86.38
334.999	87.38
335.227	92.38
335.455	108.38
335.684	99.38
335.912	92.38
336.14	85.38
336.369	82.38
336.597	79.38
336.825	87.38
337.053	85.38
337.281	85.38
337.51	90.38
337.738	87.38
337.966	76.38
338.194	95.38
338.422	94.38
338.65	84.38
338.878	87.38
339.106	91.38
339.334	79.38
339.562	93.38
339.79	93.38
340.018	80.38
340.246	79.38
340.474	78.38
340.702	91.38
340.93	93.38
341.158	84.38
341.386	80.38
341.614	85.38
341.842	95.38
342.07	89.38
342.298	72.38
342.526	82.38
342.754	85.38
342.981	90.38
343.209	78.38
343.437	121.38
343.665	93.38
343.893	93.38
344.12	92.38
344.348	89.38
344.576	88.38
344.804	80.38
345.031	98.38
345.259	78.38
345.487	89.38
345.714	82.38
345.942	84.38
346.17	86.38
346.397	94.38
346.625	92.38
346.853	90.38
347.08	79.38
347.308	97.38
347.535	79.38
347.763	93.38
347.99	88.38
348.218	97.38
348.445	89.38
348.673	97.38
348.9	79.38
349.128	89.38
349.355	91.38
349.583	96.38
349.81	80.38
350.037	82.38
350.265	93.38
350.492	87.38
350.72	96.38
350.947	83.38
351.174	95.38
351.402	99.38
351.629	78.38
351.856	74.38
352.083	76.38
352.311	82.38
352.538	86.38
352.765	89.38
352.992	75.38
353.22	91.38
353.447	79.38
353.674	77.38
353.901	102.38
354.128	98.38
354.355	79.38
354.583	77.38
354.81	105.38
355.037	85.38
355.264	91.38
355.491	64.38
355.718	81.38
355.945	87.38
356.172	94.38
356.399	99.38
356.626	75.38
356.853	86.38
357.08	92.38
357.307	79.38
357.534	73.38
357.761	90.38
357.988	70.38
358.215	73.38
358.441	75.38
358.668	88.38
358.895	95.38
359.122	93.38
359.349	95.38
359.576	71.38
359.802	79.38
360.029	85.38
360.256	90.38
360.483	74.38
360.709	91.38
360.936	98.38
361.163	79.38
361.39	99.38
361.616	88.38
361.843	86.38
362.07	89.38
362.296	79.38
362.523	88.38
362.749	84.38
362.976	99.38
363.203	95.38
363.429	80.38
363.656	81.38
363.882	92.38
364.109	84.38
364.335	110.38
364.562	92.38
364.788	83.38
365.015	83.38
365.241	90.38
365.468	96.38
365.694	98.38
365.92	88.38
366.147	98.38
366.373	91.38
366.599	88.38
366.826	91.38
367.052	85.38
367.278	86.38
367.505	89.38
367.731	91.38
367.957	86.38
368.184	77.38
368.41	101.38
368.636	93.38
368.862	79.38
369.089	83.38
369.315	93.38
369.541	81.38
369.767	93.38
369.993	81.38
370.219	91.38
370.445	80.38
370.672	99.38
370.898	98.38
371.124	83.38
371.35	77.38
371.576	80.38
371.802	89.38
372.028	83.38
372.254	97.38
372.48	79.38
372.706	86.38
372.932	79.38
373.158	92.38
373.384	94.38
373.61	94.38
373.835	86.38
374.061	89.38
374.287	80.38
374.513	85.38
374.739	96.38
374.965	77.38
375.191	88.38
375.416	67.38
375.642	85.38
375.868	77.38
376.094	87.38
376.319	84.38
376.545	76.38
376.771	74.38
376.997	88.38
377.222	77.38
377.448	88.38
377.674	78.38
377.899	70.38
378.125	93.38
378.35	87.38
378.576	105.38
378.802	93.38
379.027	91.38
379.253	93.38
379.478	83.38
379.704	86.38
379.929	85.38
380.155	71.38
380.38	95.38
380.606	83.38
380.831	100.38
381.057	80.38
381.282	70.38
381.507	83.38
381.733	83.38
381.958	80.38
382.184	85.38
382.409	92.38
382.634	95.38
382.86	83.38
383.085	78.38
383.31	89.38
383.535	73.38
383.761	87.38
383.986	94.38
384.211	102.38
384.436	71.38
384.662	80.38
384.887	90.38
385.112	94.38
385.337	83.38
385.562	103.38
385.787	79.38
386.013	98.38
386.238	79.38
386.463	83.38
386.688	100.38
386.913	93.38
387.138	79.38
387.363	86.38
387.588	100.38
387.813	86.38
388.038	89.38
388.263	100.38
388.488	83.38
388.713	92.38
388.938	83.38
389.163	86.38
389.387	77.38
389.612	79.38
389.837	85.38
390.062	97.38
390.287	83.38
390.512	87.38
390.736	88.38
390.961	90.38
391.186	89.38
391.411	86.38
391.636	87.38
391.86	85.38
392.085	80.38
392.31	89.38
392.534	78.38
392.759	83.38
392.984	90.38
393.208	115.38
393.433	146.38
393.658	132.38
393.882	91.38
394.107	81.38
394.331	92.38
394.556	83.38
394.78	104.38
395.005	87.38
395.229	87.38
395.454	84.38
395.678	92.38
395.903	85.38
396.127	91.38
396.352	105.38
396.576	91.38
396.801	121.38
397.025	131.38
397.249	85.38
397.474	86.38
397.698	83.38
397.922	82.38
398.147	76.38
398.371	88.38
398.595	86.38
398.82	88.38
399.044	90.38
399.268	98.38
399.492	95.38
399.717	77.38
399.941	93.38
400.165	100.38
400.389	83.38
400.613	88.38
400.837	75.38
401.062	87.38
401.286	86.38
401.51	88.38
401.734	91.38
401.958	90.38
402.182	99.38
402.406	85.38
402.63	85.38
402.854	80.38
403.078	83.38
403.302	79.38
403.526	74.38
403.75	70.38
403.974	84.38
404.198	89.38
404.422	98.38
404.645	99.38
404.869	105.38
405.093	102.38
405.317	80.38
405.541	84.38
405.765	73.38
405.988	60.38
406.212	99.38
406.436	89.38
406.66	80.38
406.883	97.38
407.107	86.38
407.331	89.38
407.555	76.38
407.778	82.38
408.002	87.38
408.226	93.38
408.449	80.38
408.673	81.38
408.896	88.38
409.12	85.38
409.344	86.38
409.567	79.38
409.791	82.38
410.014	83.38
410.238	80.38
410.461	92.38
410.685	85.38
410.908	78.38
411.132	77.38
411.355	69.38
411.578	66.38
411.802	79.38
412.025	69.38
412.249	87.38
412.472	85.38
412.695	65.38
412.919	89.38
413.142	95.38
413.365	74.38
413.589	88.38
413.812	85.38
414.035	85.38
414.258	90.38
414.482	92.38
414.705	83.38
414.928	76.38
415.151	59.38
415.374	85.38
415.597	87.38
415.821	91.38
416.044	72.38
416.267	87.38
416.49	82.38
416.713	76.38
416.936	104.38
417.159	79.38
417.382	80.38
417.605	78.38
417.828	85.38
418.051	85.38
418.274	91.38
418.497	89.38
418.72	82.38
418.943	80.38
419.166	78.38
419.389	83.38
419.611	97.38
419.834	95.38
420.057	76.38
420.28	79.38
420.503	82.38
420.726	83.38
420.948	90.38
421.171	74.38
421.394	95.38
421.617	93.38
421.839	84.38
422.062	103.38
422.285	102.38
422.507	125.38
422.73	179.38
422.953	166.38
423.175	115.38
423.398	97.38
423.621	75.38
423.843	71.38
424.066	85.38
424.288	99.38
424.511	83.38
424.733	97.38
424.956	86.38
425.178	90.38
425.401	94.38
425.623	80.38
425.846	90.38
426.068	84.38
426.291	85.38
426.513	74.38
426.735	90.38
426.958	83.38
427.18	94.38
427.402	98.38
427.625	98.38
427.847	68.38
428.069	84.38
428.292	99.38
428.514	99.38
428.736	93.38
428.958	85.38
429.181	100.38
429.403	84.38
429.625	90.38
429.847	86.38
430.069	111.38
430.292	115.38
430.514	102.38
430.736	91.38
430.958	89.38
431.18	73.38
431.402	74.38
431.624	80.38
431.846	87.38
432.068	97.38
432.29	98.38
432.512	77.38
432.734	80.38
432.956	85.38
433.178	72.38
433.4	80.38
433.622	99.38
433.844	75.38
434.066	89.38
434.287	95.38
434.509	70.38
434.731	73.38
434.953	77.38
435.175	98.38
435.397	97.38
435.618	78.38
435.84	88.38
436.062	89.38
436.284	75.38
436.505	84.38
436.727	93.38
436.949	90.38
437.17	76.38
437.392	75.38
437.614	79.38
437.835	89.38
438.057	82.38
438.278	88.38
438.5	90.38
438.721	73.38
438.943	81.38
439.165	76.38
439.386	74.38
439.608	83.38
439.829	86.38
440.05	84.38
440.272	75.38
440.493	79.38
440.715	75.38
440.936	74.38
441.158	81.38
441.379	83.38
441.6	89.38
441.822	82.38
442.043	92.38
442.264	100.38
442.486	96.38
442.707	103.38
442.928	83.38
443.149	83.38
443.371	101.38
443.592	128.38
443.813	107.38
444.034	107.38
444.255	83.38
444.476	93.38
444.698	85.38
444.919	95.38
445.14	165.38
445.361	134.38
445.582	141.38
445.803	125.38
446.024	97.38
446.245	92.38
446.466	74.38
446.687	75.38
446.908	87.38
447.129	85.38
447.35	76.38
447.571	91.38
447.792	100.38
448.013	85.38
448.234	89.38
448.455	87.38
448.675	85.38
448.896	94.38
449.117	93.38
449.338	69.38
449.559	87.38
449.779	89.38
450	93.38
450.221	86.38
450.442	78.38
450.662	90.38
450.883	61.38
451.104	85.38
451.324	76.38
451.545	84.38
451.766	86.38
451.986	99.38
452.207	85.38
452.428	86.38
452.648	100.38
452.869	94.38
453.089	66.38
453.31	83.38
453.53	79.38
453.751	87.38
453.971	93.38
454.192	79.38
454.412	74.38
454.633	79.38
454.853	89.38
455.073	91.38
455.294	98.38
455.514	85.38
455.734	81.38
455.955	86.38
456.175	73.38
456.395	92.38
456.616	78.38
456.836	92.38
457.056	87.38
457.276	85.38
457.497	76.38
457.717	91.38
457.937	97.38
458.157	92.38
458.377	101.38
458.598	97.38
458.818	103.38
459.038	91.38
459.258	76.38
459.478	91.38
459.698	83.38
459.918	93.38
460.138	93.38
460.358	81.38
460.578	95.38
460.798	84.38
461.018	94.38
461.238	91.38
461.458	80.38
461.678	102.38
461.898	87.38
462.118	84.38
462.338	77.38
462.558	97.38
462.777	87.38
462.997	89.38
463.217	85.38
463.437	80.38
463.657	88.38
463.876	91.38
464.096	79.38
464.316	93.38
464.536	97.38
464.755	89.38
464.975	81.38
465.195	93.38
465.414	79.38
465.634	89.38
465.854	89.38
466.073	83.38
466.293	92.38
466.512	81.38
466.732	88.38
466.951	96.38
467.171	87.38
467.391	95.38
467.61	76.38
467.829	78.38
468.049	82.38
468.268	90.38
468.488	85.38
468.707	74.38
468.927	85.38
469.146	91.38
469.365	77.38
469.585	85.38
469.804	71.38
470.023	79.38
470.243	85.38
470.462	101.38
470.681	89.38
470.901	82.38
471.12	81.38
471.339	83.38
471.558	80.38
471.777	89.38
471.997	82.38
472.216	91.38
472.435	88.38
472.654	91.38
472.873	93.38
473.092	74.38
473.311	86.38
473.53	82.38
473.749	92.38
473.968	93.38
474.187	79.38
474.406	93.38
474.625	81.38
474.844	108.38
475.063	88.38
475.282	77.38
475.501	83.38
475.72	83.38
475.939	90.38
476.158	82.38
476.377	75.38
476.596	75.38
476.814	78.38
477.033	88.38
477.252	87.38
477.471	95.38
477.69	87.38
477.908	83.38
478.127	85.38
478.346	91.38
478.564	78.38
478.783	100.38
479.002	78.38
479.22	78.38
479.439	85.38
479.658	90.38
479.876	95.38
480.095	68.38
480.313	83.38
480.532	89.38
480.751	85.38
480.969	79.38
481.188	73.38
481.406	79.38
481.624	89.38
481.843	90.38
482.061	84.38
482.28	90.38
482.498	85.38
482.717	88.38
482.935	85.38
483.153	90.38
483.372	87.38
483.59	78.38
483.808	81.38
484.027	85.38
484.245	75.38
484.463	72.38
484.681	82.38
484.9	94.38
485.118	89.38
485.336	77.38
485.554	93.38
485.772	92.38
485.99	79.38
486.209	86.38
486.427	81.38
486.645	92.38
486.863	93.38
487.081	78.38
487.299	84.38
487.517	90.38
487.735	79.38
487.953	112.38
488.171	104.38
488.389	99.38
488.607	77.38
488.825	81.38
489.043	92.38
489.261	97.38
489.479	93.38
489.696	80.38
489.914	84.38
490.132	77.38
490.35	77.38
490.568	89.38
490.786	79.38
491.003	79.38
491.221	80.38
491.439	85.38
491.657	86.38
491.874	95.38
492.092	88.38
492.31	86.38
492.527	90.38
492.745	90.38
492.963	93.38
493.18	82.38
493.398	93.38
493.615	95.38
493.833	75.38
494.05	84.38
494.268	89.38
494.485	89.38
494.703	91.38
494.92	82.38
495.138	91.38
495.355	87.38
495.573	103.38
495.79	90.38
496.008	97.38
496.225	95.38
496.442	87.38
496.66	90.38
496.877	91.38
497.094	73.38
497.312	82.38
497.529	86.38
497.746	75.38
497.963	91.38
498.181	96.38
498.398	93.38
498.615	85.38
498.832	93.38
499.049	78.38
499.267	91.38
499.484	96.38
499.701	74.38
499.918	75.38
500.135	65.38
500.352	84.38
500.569	80.38
500.786	93.38
501.003	91.38
501.22	88.38
501.437	98.38
501.654	98.38
501.871	82.38
502.088	86.38
502.305	87.38
502.522	85.38
502.739	84.38
502.956	92.38
503.172	90.38
503.389	88.38
503.606	86.38
503.823	84.38
504.04	96.38
504.256	98.38
504.473	97.38
504.69	106.38
504.907	101.38
505.123	97.38
505.34	95.38
505.557	83.38
505.773	83.38
505.99	78.38
506.207	84.38
506.423	93.38
506.64	84.38
506.856	85.38
507.073	84.38
507.289	93.38
507.506	92.38
507.722	71.38
507.939	79.38
508.155	80.38
508.372	97.38
508.588	81.38
508.805	92.38
509.021	87.38
509.238	90.38
509.454	80.38
509.67	95.38
509.887	80.38
510.103	85.38
510.319	85.38
510.536	86.38
510.752	85.38
510.968	93.38
511.184	89.38
511.401	84.38
511.617	77.38
511.833	88.38
512.049	67.38
512.265	79.38
512.481	98.38
512.698	86.38
512.914	85.38
513.13	90.38
513.346	98.38
513.562	87.38
513.778	87.38
513.994	86.38
514.21	84.38
514.426	99.38
514.642	88.38
514.858	93.38
515.074	87.38
515.29	78.38
515.506	85.38
515.721	89.38
515.937	75.38
516.153	85.38
516.369	89.38
516.585	86.38
516.801	92.38
517.016	101.38
517.232	79.38
517.448	93.38
517.664	87.38
517.879	93.38
518.095	75.38
518.311	76.38
518.527	94.38
518.742	98.38
518.958	89.38
519.173	92.38
519.389	91.38
