Data from 237_2_HRD10591_00049.txt Node
Date: Mon Jan 19 14:11:55 EST 2026
User: Yrep
Spectrometer: HR+D1059
Trigger mode: 1
Integration Time (sec): 1.000000E-1
Scans to average: 1
Electric dark correction enabled: true
Nonlinearity correction enabled: false
Boxcar width: 0
XAxis mode: Wavelengths
Number of Pixels in Spectrum: 2048
>>>>>Begin Spectral Data<<<<<
223.165	-12.81
223.4	-12.81
223.635	-12.81
223.869	-8.81
224.104	-35.81
224.338	-22.81
224.573	-7.81
224.808	0.19
225.042	-0.81
225.277	-8.81
225.511	-8.81
225.746	10.19
225.98	7.19
226.215	-0.81
226.449	13.19
226.683	15.19
226.918	24.19
227.152	37.19
227.387	34.19
227.621	55.19
227.856	48.19
228.09	50.19
228.324	59.19
228.559	61.19
228.793	66.19
229.027	72.19
229.262	75.19
229.496	68.19
229.73	75.19
229.964	71.19
230.199	78.19
230.433	77.19
230.667	69.19
230.901	90.19
231.136	86.19
231.37	84.19
231.604	78.19
231.838	101.19
232.072	82.19
232.306	89.19
232.541	78.19
232.775	95.19
233.009	87.19
233.243	86.19
233.477	92.19
233.711	71.19
233.945	86.19
234.179	88.19
234.413	91.19
234.647	79.19
234.881	73.19
235.115	80.19
235.349	91.19
235.583	86.19
235.817	91.19
236.051	75.19
236.285	78.19
236.519	82.19
236.753	71.19
236.987	84.19
237.221	63.19
237.455	88.19
237.689	82.19
237.922	82.19
238.156	98.19
238.39	66.19
238.624	72.19
238.858	86.19
239.091	84.19
239.325	78.19
239.559	86.19
239.793	80.19
240.027	85.19
240.26	80.19
240.494	81.19
240.728	83.19
240.961	62.19
241.195	86.19
241.429	85.19
241.662	84.19
241.896	66.19
242.13	83.19
242.363	92.19
242.597	71.19
242.83	64.19
243.064	88.19
243.298	78.19
243.531	82.19
243.765	88.19
243.998	90.19
244.232	84.19
244.465	88.19
244.699	74.19
244.932	86.19
245.166	74.19
245.399	83.19
245.633	85.19
245.866	68.19
246.099	84.19
246.333	68.19
246.566	70.19
246.8	80.19
247.033	90.19
247.266	90.19
247.5	77.19
247.733	65.19
247.966	88.19
248.2	83.19
248.433	69.19
248.666	79.19
248.899	77.19
249.133	84.19
249.366	84.19
249.599	83.19
249.832	96.19
250.066	75.19
250.299	66.19
250.532	88.19
250.765	84.19
250.998	83.19
251.231	93.19
251.465	86.19
251.698	84.19
251.931	80.19
252.164	83.19
252.397	93.19
252.63	86.19
252.863	89.19
253.096	73.19
253.329	75.19
253.562	78.19
253.795	75.19
254.028	92.19
254.261	87.19
254.494	79.19
254.727	79.19
254.96	76.19
255.193	86.19
255.426	75.19
255.659	78.19
255.892	91.19
256.124	85.19
256.357	88.19
256.59	85.19
256.823	86.19
257.056	88.19
257.289	83.19
257.521	68.19
257.754	78.19
257.987	76.19
258.22	83.19
258.452	80.19
258.685	78.19
258.918	88.19
259.151	88.19
259.383	90.19
259.616	86.19
259.849	84.19
260.081	90.19
260.314	69.19
260.547	72.19
260.779	78.19
261.012	84.19
261.244	82.19
261.477	92.19
261.71	83.19
261.942	80.19
262.175	76.19
262.407	82.19
262.64	90.19
262.872	82.19
263.105	83.19
263.337	86.19
263.57	77.19
263.802	84.19
264.035	87.19
264.267	84.19
264.499	101.19
264.732	86.19
264.964	67.19
265.197	76.19
265.429	82.19
265.661	82.19
265.894	77.19
266.126	86.19
266.358	83.19
266.591	90.19
266.823	78.19
267.055	82.19
267.287	86.19
267.52	85.19
267.752	90.19
267.984	71.19
268.216	76.19
268.448	74.19
268.681	96.19
268.913	93.19
269.145	79.19
269.377	90.19
269.609	100.19
269.841	76.19
270.073	81.19
270.306	94.19
270.538	77.19
270.77	83.19
271.002	77.19
271.234	91.19
271.466	84.19
271.698	67.19
271.93	80.19
272.162	78.19
272.394	88.19
272.626	86.19
272.858	81.19
273.09	85.19
273.322	88.19
273.553	80.19
273.785	85.19
274.017	73.19
274.249	84.19
274.481	78.19
274.713	77.19
274.945	72.19
275.176	80.19
275.408	96.19
275.64	89.19
275.872	81.19
276.104	92.19
276.335	89.19
276.567	89.19
276.799	89.19
277.031	78.19
277.262	90.19
277.494	85.19
277.726	92.19
277.957	90.19
278.189	67.19
278.421	83.19
278.652	94.19
278.884	77.19
279.115	90.19
279.347	78.19
279.579	89.19
279.81	93.19
280.042	97.19
280.273	84.19
280.505	72.19
280.736	86.19
280.968	84.19
281.199	84.19
281.431	65.19
281.662	70.19
281.894	77.19
282.125	81.19
282.356	81.19
282.588	82.19
282.819	83.19
283.051	89.19
283.282	94.19
283.513	91.19
283.745	77.19
283.976	81.19
284.207	82.19
284.439	90.19
284.67	76.19
284.901	104.19
285.132	87.19
285.364	70.19
285.595	91.19
285.826	82.19
286.057	96.19
286.288	85.19
286.52	104.19
286.751	78.19
286.982	88.19
287.213	88.19
287.444	90.19
287.675	94.19
287.906	91.19
288.138	85.19
288.369	90.19
288.6	96.19
288.831	76.19
289.062	104.19
289.293	74.19
289.524	69.19
289.755	87.19
289.986	76.19
290.217	85.19
290.448	84.19
290.679	86.19
290.91	87.19
291.141	75.19
291.371	79.19
291.602	91.19
291.833	88.19
292.064	80.19
292.295	76.19
292.526	80.19
292.757	79.19
292.987	85.19
293.218	98.19
293.449	83.19
293.68	86.19
293.91	89.19
294.141	92.19
294.372	79.19
294.603	80.19
294.833	84.19
295.064	68.19
295.295	76.19
295.525	97.19
295.756	111.19
295.987	85.19
296.217	84.19
296.448	88.19
296.679	80.19
296.909	81.19
297.14	91.19
297.37	88.19
297.601	81.19
297.831	85.19
298.062	81.19
298.292	92.19
298.523	88.19
298.753	99.19
298.984	66.19
299.214	84.19
299.445	96.19
299.675	89.19
299.905	93.19
300.136	75.19
300.366	85.19
300.597	84.19
300.827	73.19
301.057	85.19
301.288	92.19
301.518	82.19
301.748	82.19
301.979	104.19
302.209	76.19
302.439	85.19
302.669	82.19
302.9	86.19
303.13	78.19
303.36	100.19
303.59	78.19
303.82	94.19
304.051	83.19
304.281	84.19
304.511	75.19
304.741	83.19
304.971	94.19
305.201	91.19
305.431	91.19
305.661	82.19
305.891	73.19
306.121	77.19
306.352	76.19
306.582	93.19
306.812	87.19
307.042	97.19
307.272	90.19
307.502	83.19
307.731	82.19
307.961	88.19
308.191	96.19
308.421	89.19
308.651	82.19
308.881	92.19
309.111	88.19
309.341	81.19
309.571	85.19
309.8	83.19
310.03	93.19
310.26	94.19
310.49	97.19
310.72	96.19
310.949	94.19
311.179	92.19
311.409	82.19
311.639	84.19
311.868	94.19
312.098	93.19
312.328	89.19
312.557	91.19
312.787	79.19
313.017	83.19
313.246	73.19
313.476	71.19
313.706	75.19
313.935	85.19
314.165	97.19
314.394	94.19
314.624	94.19
314.853	71.19
315.083	98.19
315.312	94.19
315.542	96.19
315.771	108.19
316.001	87.19
316.23	85.19
316.46	76.19
316.689	85.19
316.919	108.19
317.148	90.19
317.377	104.19
317.607	100.19
317.836	84.19
318.065	103.19
318.295	103.19
318.524	83.19
318.753	98.19
318.983	86.19
319.212	88.19
319.441	90.19
319.67	82.19
319.9	78.19
320.129	101.19
320.358	89.19
320.587	87.19
320.816	85.19
321.046	85.19
321.275	76.19
321.504	94.19
321.733	84.19
321.962	84.19
322.191	84.19
322.42	76.19
322.649	99.19
322.878	97.19
323.108	92.19
323.337	93.19
323.566	75.19
323.795	81.19
324.024	84.19
324.253	89.19
324.482	84.19
324.71	82.19
324.939	84.19
325.168	89.19
325.397	94.19
325.626	87.19
325.855	87.19
326.084	90.19
326.313	84.19
326.542	98.19
326.77	82.19
326.999	87.19
327.228	89.19
327.457	78.19
327.686	101.19
327.914	101.19
328.143	98.19
328.372	101.19
328.6	88.19
328.829	83.19
329.058	88.19
329.287	76.19
329.515	87.19
329.744	86.19
329.972	87.19
330.201	81.19
330.43	85.19
330.658	96.19
330.887	86.19
331.115	75.19
331.344	87.19
331.572	104.19
331.801	99.19
332.03	101.19
332.258	84.19
332.486	90.19
332.715	96.19
332.943	84.19
333.172	81.19
333.4	77.19
333.629	88.19
333.857	94.19
334.085	88.19
334.314	79.19
334.542	88.19
334.771	91.19
334.999	100.19
335.227	86.19
335.455	96.19
335.684	92.19
335.912	84.19
336.14	99.19
336.369	91.19
336.597	93.19
336.825	97.19
337.053	88.19
337.281	85.19
337.51	77.19
337.738	87.19
337.966	100.19
338.194	96.19
338.422	86.19
338.65	92.19
338.878	92.19
339.106	93.19
339.334	74.19
339.562	83.19
339.79	81.19
340.018	87.19
340.246	84.19
340.474	88.19
340.702	89.19
340.93	84.19
341.158	94.19
341.386	79.19
341.614	77.19
341.842	73.19
342.07	79.19
342.298	89.19
342.526	85.19
342.754	100.19
342.981	100.19
343.209	90.19
343.437	94.19
343.665	92.19
343.893	91.19
344.12	90.19
344.348	91.19
344.576	97.19
344.804	93.19
345.031	90.19
345.259	93.19
345.487	89.19
345.714	84.19
345.942	79.19
346.17	86.19
346.397	84.19
346.625	98.19
346.853	72.19
347.08	91.19
347.308	88.19
347.535	100.19
347.763	88.19
347.99	76.19
348.218	71.19
348.445	80.19
348.673	92.19
348.9	68.19
349.128	86.19
349.355	84.19
349.583	95.19
349.81	88.19
350.037	90.19
350.265	101.19
350.492	82.19
350.72	92.19
350.947	84.19
351.174	85.19
351.402	88.19
351.629	82.19
351.856	92.19
352.083	82.19
352.311	96.19
352.538	86.19
352.765	92.19
352.992	89.19
353.22	92.19
353.447	89.19
353.674	86.19
353.901	100.19
354.128	91.19
354.355	98.19
354.583	98.19
354.81	98.19
355.037	78.19
355.264	92.19
355.491	84.19
355.718	81.19
355.945	88.19
356.172	80.19
356.399	81.19
356.626	98.19
356.853	108.19
357.08	101.19
357.307	72.19
357.534	80.19
357.761	102.19
357.988	91.19
358.215	98.19
358.441	92.19
358.668	76.19
358.895	87.19
359.122	100.19
359.349	95.19
359.576	93.19
359.802	94.19
360.029	87.19
360.256	70.19
360.483	90.19
360.709	83.19
360.936	89.19
361.163	79.19
361.39	78.19
361.616	105.19
361.843	90.19
362.07	95.19
362.296	108.19
362.523	98.19
362.749	99.19
362.976	85.19
363.203	109.19
363.429	106.19
363.656	99.19
363.882	86.19
364.109	94.19
364.335	102.19
364.562	90.19
364.788	96.19
365.015	98.19
365.241	85.19
365.468	86.19
365.694	89.19
365.92	86.19
366.147	85.19
366.373	78.19
366.599	82.19
366.826	78.19
367.052	78.19
367.278	81.19
367.505	97.19
367.731	91.19
367.957	84.19
368.184	78.19
368.41	84.19
368.636	99.19
368.862	92.19
369.089	83.19
369.315	91.19
369.541	88.19
369.767	82.19
369.993	86.19
370.219	84.19
370.445	88.19
370.672	106.19
370.898	91.19
371.124	72.19
371.35	72.19
371.576	86.19
371.802	98.19
372.028	90.19
372.254	100.19
372.48	88.19
372.706	77.19
372.932	98.19
373.158	100.19
373.384	96.19
373.61	123.19
373.835	120.19
374.061	87.19
374.287	90.19
374.513	76.19
374.739	90.19
374.965	90.19
375.191	90.19
375.416	100.19
375.642	100.19
375.868	84.19
376.094	102.19
376.319	90.19
376.545	84.19
376.771	92.19
376.997	93.19
377.222	81.19
377.448	74.19
377.674	85.19
377.899	86.19
378.125	86.19
378.35	83.19
378.576	69.19
378.802	82.19
379.027	79.19
379.253	76.19
379.478	93.19
379.704	86.19
379.929	90.19
380.155	87.19
380.38	84.19
380.606	90.19
380.831	104.19
381.057	92.19
381.282	84.19
381.507	91.19
381.733	87.19
381.958	92.19
382.184	76.19
382.409	83.19
382.634	100.19
382.86	98.19
383.085	95.19
383.31	94.19
383.535	92.19
383.761	94.19
383.986	104.19
384.211	99.19
384.436	94.19
384.662	81.19
384.887	101.19
385.112	90.19
385.337	87.19
385.562	104.19
385.787	79.19
386.013	86.19
386.238	87.19
386.463	89.19
386.688	92.19
386.913	89.19
387.138	94.19
387.363	86.19
387.588	85.19
387.813	100.19
388.038	100.19
388.263	91.19
388.488	83.19
388.713	102.19
388.938	86.19
389.163	90.19
389.387	93.19
389.612	87.19
389.837	73.19
390.062	82.19
390.287	85.19
390.512	82.19
390.736	98.19
390.961	75.19
391.186	87.19
391.411	101.19
391.636	84.19
391.86	86.19
392.085	82.19
392.31	85.19
392.534	93.19
392.759	114.19
392.984	131.19
393.208	243.19
393.433	327.19
393.658	238.19
393.882	116.19
394.107	109.19
394.331	104.19
394.556	94.19
394.78	88.19
395.005	104.19
395.229	89.19
395.454	90.19
395.678	97.19
395.903	119.19
396.127	112.19
396.352	137.19
396.576	147.19
396.801	237.19
397.025	259.19
397.249	152.19
397.474	114.19
397.698	88.19
397.922	88.19
398.147	92.19
398.371	93.19
398.595	89.19
398.82	74.19
399.044	83.19
399.268	74.19
399.492	82.19
399.717	91.19
399.941	75.19
400.165	82.19
400.389	96.19
400.613	102.19
400.837	92.19
401.062	88.19
401.286	87.19
401.51	88.19
401.734	90.19
401.958	72.19
402.182	87.19
402.406	81.19
402.63	97.19
402.854	89.19
403.078	84.19
403.302	79.19
403.526	76.19
403.75	79.19
403.974	70.19
404.198	102.19
404.422	91.19
404.645	90.19
404.869	100.19
405.093	76.19
405.317	85.19
405.541	92.19
405.765	85.19
405.988	84.19
406.212	81.19
406.436	94.19
406.66	96.19
406.883	93.19
407.107	87.19
407.331	91.19
407.555	88.19
407.778	110.19
408.002	99.19
408.226	86.19
408.449	81.19
408.673	76.19
408.896	87.19
409.12	90.19
409.344	100.19
409.567	82.19
409.791	97.19
410.014	97.19
410.238	83.19
410.461	80.19
410.685	86.19
410.908	86.19
411.132	89.19
411.355	88.19
411.578	80.19
411.802	79.19
412.025	85.19
412.249	93.19
412.472	80.19
412.695	80.19
412.919	88.19
413.142	89.19
413.365	94.19
413.589	96.19
413.812	84.19
414.035	92.19
414.258	85.19
414.482	90.19
414.705	72.19
414.928	102.19
415.151	77.19
415.374	82.19
415.597	74.19
415.821	90.19
416.044	88.19
416.267	87.19
416.49	78.19
416.713	83.19
416.936	88.19
417.159	92.19
417.382	79.19
417.605	100.19
417.828	82.19
418.051	76.19
418.274	90.19
418.497	88.19
418.72	76.19
418.943	93.19
419.166	78.19
419.389	112.19
419.611	78.19
419.834	96.19
420.057	87.19
420.28	81.19
420.503	76.19
420.726	79.19
420.948	93.19
421.171	92.19
421.394	94.19
421.617	89.19
421.839	91.19
422.062	100.19
422.285	126.19
422.507	192.19
422.73	277.19
422.953	264.19
423.175	152.19
423.398	100.19
423.621	90.19
423.843	88.19
424.066	86.19
424.288	87.19
424.511	96.19
424.733	102.19
424.956	69.19
425.178	80.19
425.401	109.19
425.623	84.19
425.846	84.19
426.068	72.19
426.291	80.19
426.513	92.19
426.735	96.19
426.958	92.19
427.18	84.19
427.402	83.19
427.625	89.19
427.847	81.19
428.069	86.19
428.292	112.19
428.514	112.19
428.736	105.19
428.958	120.19
429.181	112.19
429.403	88.19
429.625	85.19
429.847	90.19
430.069	138.19
430.292	141.19
430.514	139.19
430.736	126.19
430.958	109.19
431.18	98.19
431.402	93.19
431.624	84.19
431.846	108.19
432.068	109.19
432.29	88.19
432.512	79.19
432.734	99.19
432.956	85.19
433.178	88.19
433.4	88.19
433.622	98.19
433.844	82.19
434.066	89.19
434.287	71.19
434.509	80.19
434.731	70.19
434.953	70.19
435.175	92.19
435.397	88.19
435.618	85.19
435.84	80.19
436.062	85.19
436.284	85.19
436.505	85.19
436.727	80.19
436.949	76.19
437.17	78.19
437.392	79.19
437.614	92.19
437.835	88.19
438.057	95.19
438.278	89.19
438.5	98.19
438.721	90.19
438.943	85.19
439.165	73.19
439.386	90.19
439.608	78.19
439.829	80.19
440.05	84.19
440.272	90.19
440.493	85.19
440.715	93.19
440.936	82.19
441.158	79.19
441.379	81.19
441.6	85.19
441.822	81.19
442.043	91.19
442.264	92.19
442.486	96.19
442.707	124.19
442.928	100.19
443.149	105.19
443.371	125.19
443.592	168.19
443.813	147.19
444.034	94.19
444.255	96.19
444.476	77.19
444.698	91.19
444.919	90.19
445.14	189.19
445.361	168.19
445.582	198.19
445.803	180.19
446.024	109.19
446.245	78.19
446.466	94.19
446.687	89.19
446.908	80.19
447.129	91.19
447.35	90.19
447.571	78.19
447.792	96.19
448.013	96.19
448.234	69.19
448.455	80.19
448.675	84.19
448.896	86.19
449.117	75.19
449.338	77.19
449.559	86.19
449.779	75.19
450	96.19
450.221	80.19
450.442	98.19
450.662	93.19
450.883	74.19
451.104	86.19
451.324	86.19
451.545	87.19
451.766	85.19
451.986	90.19
452.207	78.19
452.428	75.19
452.648	90.19
452.869	96.19
453.089	104.19
453.31	89.19
453.53	97.19
453.751	88.19
453.971	82.19
454.192	82.19
454.412	83.19
454.633	93.19
454.853	88.19
455.073	68.19
455.294	90.19
455.514	94.19
455.734	92.19
455.955	94.19
456.175	86.19
456.395	83.19
456.616	75.19
456.836	82.19
457.056	89.19
457.276	85.19
457.497	91.19
457.717	94.19
457.937	97.19
458.157	99.19
458.377	101.19
458.598	103.19
458.818	105.19
459.038	97.19
459.258	88.19
459.478	79.19
459.698	89.19
459.918	98.19
460.138	77.19
460.358	78.19
460.578	92.19
460.798	108.19
461.018	109.19
461.238	78.19
461.458	83.19
461.678	91.19
461.898	79.19
462.118	78.19
462.338	84.19
462.558	91.19
462.777	72.19
462.997	94.19
463.217	100.19
463.437	77.19
463.657	83.19
463.876	101.19
464.096	79.19
464.316	72.19
464.536	86.19
464.755	93.19
464.975	85.19
465.195	93.19
465.414	82.19
465.634	86.19
465.854	109.19
466.073	88.19
466.293	73.19
466.512	79.19
466.732	82.19
466.951	81.19
467.171	66.19
467.391	86.19
467.61	86.19
467.829	84.19
468.049	75.19
468.268	89.19
468.488	74.19
468.707	82.19
468.927	81.19
469.146	86.19
469.365	76.19
469.585	86.19
469.804	78.19
470.023	84.19
470.243	86.19
470.462	85.19
470.681	72.19
470.901	72.19
471.12	99.19
471.339	92.19
471.558	79.19
471.777	93.19
471.997	89.19
472.216	73.19
472.435	73.19
472.654	82.19
472.873	88.19
473.092	89.19
473.311	69.19
473.53	99.19
473.749	91.19
473.968	85.19
474.187	80.19
474.406	87.19
474.625	73.19
474.844	75.19
475.063	76.19
475.282	98.19
475.501	82.19
475.72	89.19
475.939	84.19
476.158	98.19
476.377	97.19
476.596	85.19
476.814	71.19
477.033	91.19
477.252	82.19
477.471	69.19
477.69	86.19
477.908	78.19
478.127	90.19
478.346	91.19
478.564	74.19
478.783	90.19
479.002	88.19
479.22	84.19
479.439	76.19
479.658	77.19
479.876	84.19
480.095	85.19
480.313	85.19
480.532	82.19
480.751	82.19
480.969	88.19
481.188	85.19
481.406	89.19
481.624	88.19
481.843	82.19
482.061	85.19
482.28	80.19
482.498	82.19
482.717	99.19
482.935	82.19
483.153	88.19
483.372	88.19
483.59	96.19
483.808	82.19
484.027	87.19
484.245	92.19
484.463	84.19
484.681	80.19
484.9	91.19
485.118	76.19
485.336	90.19
485.554	80.19
485.772	97.19
485.99	94.19
486.209	82.19
486.427	93.19
486.645	94.19
486.863	85.19
487.081	84.19
487.299	84.19
487.517	102.19
487.735	95.19
487.953	122.19
488.171	90.19
488.389	83.19
488.607	101.19
488.825	100.19
489.043	101.19
489.261	91.19
489.479	81.19
489.696	79.19
489.914	95.19
490.132	68.19
490.35	87.19
490.568	76.19
490.786	70.19
491.003	84.19
491.221	80.19
491.439	85.19
491.657	88.19
491.874	99.19
492.092	100.19
492.31	84.19
492.527	84.19
492.745	73.19
492.963	91.19
493.18	89.19
493.398	97.19
493.615	89.19
493.833	81.19
494.05	81.19
494.268	91.19
494.485	79.19
494.703	92.19
494.92	97.19
495.138	86.19
495.355	74.19
495.573	90.19
495.79	82.19
496.008	95.19
496.225	101.19
496.442	86.19
496.66	88.19
496.877	93.19
497.094	88.19
497.312	85.19
497.529	78.19
497.746	76.19
497.963	86.19
498.181	83.19
498.398	86.19
498.615	96.19
498.832	94.19
499.049	90.19
499.267	108.19
499.484	96.19
499.701	70.19
499.918	94.19
500.135	88.19
500.352	97.19
500.569	92.19
500.786	82.19
501.003	82.19
501.22	87.19
501.437	91.19
501.654	87.19
501.871	85.19
502.088	92.19
502.305	82.19
502.522	90.19
502.739	85.19
502.956	94.19
503.172	96.19
503.389	86.19
503.606	100.19
503.823	109.19
504.04	95.19
504.256	101.19
504.473	91.19
504.69	86.19
504.907	100.19
505.123	96.19
505.34	76.19
505.557	77.19
505.773	76.19
505.99	87.19
506.207	91.19
506.423	90.19
506.64	89.19
506.856	68.19
507.073	98.19
507.289	77.19
507.506	85.19
507.722	89.19
507.939	73.19
508.155	81.19
508.372	87.19
508.588	91.19
508.805	90.19
509.021	81.19
509.238	91.19
509.454	86.19
509.67	77.19
509.887	84.19
510.103	96.19
510.319	74.19
510.536	86.19
510.752	77.19
510.968	92.19
511.184	91.19
511.401	83.19
511.617	77.19
511.833	86.19
512.049	76.19
512.265	84.19
512.481	84.19
512.698	91.19
512.914	95.19
513.13	98.19
513.346	82.19
513.562	92.19
513.778	97.19
513.994	84.19
514.21	104.19
514.426	87.19
514.642	82.19
514.858	73.19
515.074	82.19
515.29	88.19
515.506	95.19
515.721	81.19
515.937	72.19
516.153	77.19
516.369	85.19
516.585	87.19
516.801	91.19
517.016	91.19
517.232	86.19
517.448	70.19
517.664	85.19
517.879	81.19
518.095	91.19
518.311	92.19
518.527	94.19
