Data from BG_HRD10591_034.txt Node
Date: Fri May 16 15:27:04 EDT 2025
User: Yrep
Spectrometer: HR+D1059
Trigger mode: 1
Integration Time (sec): 1.000000E-1
Scans to average: 1
Electric dark correction enabled: true
Nonlinearity correction enabled: false
Boxcar width: 0
XAxis mode: Wavelengths
Number of Pixels in Spectrum: 2048
>>>>>Begin Spectral Data<<<<<
223.165	-15.19
223.4	-15.19
223.635	-15.19
223.869	-24.19
224.104	-21.19
224.338	-23.19
224.573	-19.19
224.808	-19.19
225.042	3.81
225.277	-3.19
225.511	-12.19
225.746	4.81
225.98	9.81
226.215	2.81
226.449	10.81
226.683	29.81
226.918	34.81
227.152	40.81
227.387	37.81
227.621	25.81
227.856	30.81
228.09	44.81
228.324	53.81
228.559	50.81
228.793	34.81
229.027	54.81
229.262	69.81
229.496	67.81
229.73	67.81
229.964	69.81
230.199	58.81
230.433	57.81
230.667	73.81
230.901	76.81
231.136	66.81
231.37	76.81
231.604	72.81
231.838	82.81
232.072	76.81
232.306	82.81
232.541	90.81
232.775	65.81
233.009	72.81
233.243	88.81
233.477	86.81
233.711	82.81
233.945	63.81
234.179	74.81
234.413	74.81
234.647	77.81
234.881	64.81
235.115	84.81
235.349	83.81
235.583	88.81
235.817	78.81
236.051	84.81
236.285	71.81
236.519	75.81
236.753	78.81
236.987	72.81
237.221	74.81
237.455	74.81
237.689	81.81
237.922	83.81
238.156	74.81
238.39	73.81
238.624	55.81
238.858	68.81
239.091	85.81
239.325	78.81
239.559	75.81
239.793	80.81
240.027	71.81
240.26	64.81
240.494	56.81
240.728	66.81
240.961	62.81
241.195	74.81
241.429	61.81
241.662	79.81
241.896	64.81
242.13	87.81
242.363	66.81
242.597	64.81
242.83	63.81
243.064	73.81
243.298	77.81
243.531	73.81
243.765	98.81
243.998	77.81
244.232	80.81
244.465	81.81
244.699	72.81
244.932	76.81
245.166	80.81
245.399	75.81
245.633	83.81
245.866	65.81
246.099	91.81
246.333	66.81
246.566	78.81
246.8	82.81
247.033	66.81
247.266	63.81
247.5	71.81
247.733	57.81
247.966	65.81
248.2	71.81
248.433	91.81
248.666	74.81
248.899	80.81
249.133	72.81
249.366	71.81
249.599	69.81
249.832	82.81
250.066	70.81
250.299	79.81
250.532	63.81
250.765	58.81
250.998	84.81
251.231	82.81
251.465	68.81
251.698	72.81
251.931	74.81
252.164	64.81
252.397	75.81
252.63	73.81
252.863	76.81
253.096	79.81
253.329	67.81
253.562	79.81
253.795	76.81
254.028	86.81
254.261	80.81
254.494	82.81
254.727	86.81
254.96	72.81
255.193	77.81
255.426	74.81
255.659	85.81
255.892	75.81
256.124	81.81
256.357	85.81
256.59	80.81
256.823	84.81
257.056	66.81
257.289	66.81
257.521	76.81
257.754	70.81
257.987	79.81
258.22	92.81
258.452	84.81
258.685	76.81
258.918	81.81
259.151	77.81
259.383	71.81
259.616	73.81
259.849	79.81
260.081	80.81
260.314	74.81
260.547	83.81
260.779	83.81
261.012	79.81
261.244	60.81
261.477	80.81
261.71	78.81
261.942	82.81
262.175	82.81
262.407	81.81
262.64	82.81
262.872	81.81
263.105	88.81
263.337	95.81
263.57	94.81
263.802	75.81
264.035	72.81
264.267	76.81
264.499	76.81
264.732	69.81
264.964	75.81
265.197	61.81
265.429	76.81
265.661	83.81
265.894	68.81
266.126	76.81
266.358	65.81
266.591	88.81
266.823	69.81
267.055	83.81
267.287	82.81
267.52	87.81
267.752	80.81
267.984	76.81
268.216	75.81
268.448	92.81
268.681	85.81
268.913	90.81
269.145	82.81
269.377	88.81
269.609	82.81
269.841	71.81
270.073	83.81
270.306	86.81
270.538	78.81
270.77	75.81
271.002	83.81
271.234	79.81
271.466	77.81
271.698	84.81
271.93	78.81
272.162	96.81
272.394	61.81
272.626	84.81
272.858	79.81
273.09	73.81
273.322	86.81
273.553	66.81
273.785	74.81
274.017	67.81
274.249	83.81
274.481	70.81
274.713	71.81
274.945	82.81
275.176	87.81
275.408	105.81
275.64	88.81
275.872	74.81
276.104	81.81
276.335	80.81
276.567	87.81
276.799	73.81
277.031	74.81
277.262	86.81
277.494	92.81
277.726	74.81
277.957	69.81
278.189	85.81
278.421	79.81
278.652	87.81
278.884	88.81
279.115	76.81
279.347	80.81
279.579	96.81
279.81	83.81
280.042	69.81
280.273	75.81
280.505	80.81
280.736	88.81
280.968	88.81
281.199	89.81
281.431	83.81
281.662	92.81
281.894	92.81
282.125	68.81
282.356	96.81
282.588	78.81
282.819	95.81
283.051	86.81
283.282	78.81
283.513	77.81
283.745	79.81
283.976	81.81
284.207	76.81
284.439	80.81
284.67	78.81
284.901	86.81
285.132	81.81
285.364	89.81
285.595	80.81
285.826	76.81
286.057	82.81
286.288	72.81
286.52	88.81
286.751	71.81
286.982	69.81
287.213	70.81
287.444	72.81
287.675	72.81
287.906	78.81
288.138	76.81
288.369	80.81
288.6	79.81
288.831	79.81
289.062	86.81
289.293	81.81
289.524	84.81
289.755	86.81
289.986	75.81
290.217	81.81
290.448	67.81
290.679	87.81
290.91	81.81
291.141	94.81
291.371	80.81
291.602	91.81
291.833	75.81
292.064	83.81
292.295	97.81
292.526	78.81
292.757	63.81
292.987	94.81
293.218	89.81
293.449	87.81
293.68	88.81
293.91	78.81
294.141	86.81
294.372	80.81
294.603	68.81
294.833	76.81
295.064	98.81
295.295	96.81
295.525	83.81
295.756	84.81
295.987	92.81
296.217	89.81
296.448	83.81
296.679	75.81
296.909	77.81
297.14	94.81
297.37	75.81
297.601	82.81
297.831	87.81
298.062	83.81
298.292	86.81
298.523	89.81
298.753	82.81
298.984	76.81
299.214	81.81
299.445	85.81
299.675	99.81
299.905	82.81
300.136	76.81
300.366	79.81
300.597	83.81
300.827	84.81
301.057	83.81
301.288	61.81
301.518	86.81
301.748	69.81
301.979	79.81
302.209	72.81
302.439	69.81
302.669	86.81
302.9	84.81
303.13	97.81
303.36	74.81
303.59	68.81
303.82	76.81
304.051	80.81
304.281	81.81
304.511	77.81
304.741	87.81
304.971	64.81
305.201	86.81
305.431	76.81
305.661	70.81
305.891	76.81
306.121	77.81
306.352	78.81
306.582	78.81
306.812	71.81
307.042	89.81
307.272	88.81
307.502	87.81
307.731	102.81
307.961	80.81
308.191	74.81
308.421	81.81
308.651	80.81
308.881	80.81
309.111	82.81
309.341	76.81
309.571	67.81
309.8	82.81
310.03	86.81
310.26	73.81
310.49	76.81
310.72	84.81
310.949	81.81
311.179	87.81
311.409	84.81
311.639	91.81
311.868	74.81
312.098	91.81
312.328	73.81
312.557	88.81
312.787	78.81
313.017	82.81
313.246	82.81
313.476	88.81
313.706	88.81
313.935	72.81
314.165	84.81
314.394	84.81
314.624	87.81
314.853	84.81
315.083	72.81
315.312	81.81
315.542	77.81
315.771	100.81
316.001	78.81
316.23	76.81
316.46	86.81
316.689	72.81
316.919	80.81
317.148	84.81
317.377	90.81
317.607	66.81
317.836	79.81
318.065	82.81
318.295	75.81
318.524	72.81
318.753	73.81
318.983	72.81
319.212	94.81
319.441	90.81
319.67	78.81
319.9	88.81
320.129	78.81
320.358	89.81
320.587	77.81
320.816	90.81
321.046	68.81
321.275	67.81
321.504	80.81
321.733	81.81
321.962	74.81
322.191	87.81
322.42	72.81
322.649	91.81
322.878	89.81
323.108	91.81
323.337	79.81
323.566	91.81
323.795	80.81
324.024	87.81
324.253	74.81
324.482	105.81
324.71	80.81
324.939	96.81
325.168	61.81
325.397	85.81
325.626	73.81
325.855	82.81
326.084	82.81
326.313	87.81
326.542	96.81
326.77	80.81
326.999	79.81
327.228	85.81
327.457	84.81
327.686	75.81
327.914	64.81
328.143	85.81
328.372	82.81
328.6	100.81
328.829	78.81
329.058	78.81
329.287	73.81
329.515	73.81
329.744	94.81
329.972	80.81
330.201	92.81
330.43	76.81
330.658	72.81
330.887	79.81
331.115	90.81
331.344	83.81
331.572	78.81
331.801	84.81
332.03	92.81
332.258	91.81
332.486	91.81
332.715	78.81
332.943	71.81
333.172	92.81
333.4	56.81
333.629	95.81
333.857	84.81
334.085	82.81
334.314	79.81
334.542	87.81
334.771	98.81
334.999	82.81
335.227	86.81
335.455	98.81
335.684	84.81
335.912	84.81
336.14	80.81
336.369	68.81
336.597	83.81
336.825	77.81
337.053	76.81
337.281	90.81
337.51	81.81
337.738	73.81
337.966	77.81
338.194	83.81
338.422	82.81
338.65	100.81
338.878	79.81
339.106	82.81
339.334	77.81
339.562	79.81
339.79	67.81
340.018	77.81
340.246	83.81
340.474	84.81
340.702	90.81
340.93	90.81
341.158	83.81
341.386	73.81
341.614	72.81
341.842	73.81
342.07	79.81
342.298	76.81
342.526	83.81
342.754	78.81
342.981	75.81
343.209	75.81
343.437	106.81
343.665	90.81
343.893	86.81
344.12	97.81
344.348	95.81
344.576	83.81
344.804	83.81
345.031	81.81
345.259	80.81
345.487	82.81
345.714	83.81
345.942	77.81
346.17	70.81
346.397	76.81
346.625	86.81
346.853	86.81
347.08	81.81
347.308	97.81
347.535	75.81
347.763	65.81
347.99	80.81
348.218	98.81
348.445	83.81
348.673	86.81
348.9	84.81
349.128	82.81
349.355	87.81
349.583	87.81
349.81	85.81
350.037	87.81
350.265	74.81
350.492	76.81
350.72	71.81
350.947	94.81
351.174	90.81
351.402	85.81
351.629	95.81
351.856	75.81
352.083	96.81
352.311	85.81
352.538	94.81
352.765	69.81
352.992	84.81
353.22	81.81
353.447	72.81
353.674	78.81
353.901	86.81
354.128	90.81
354.355	72.81
354.583	80.81
354.81	73.81
355.037	79.81
355.264	70.81
355.491	81.81
355.718	72.81
355.945	78.81
356.172	80.81
356.399	85.81
356.626	91.81
356.853	75.81
357.08	85.81
357.307	86.81
357.534	81.81
357.761	94.81
357.988	91.81
358.215	87.81
358.441	84.81
358.668	80.81
358.895	79.81
359.122	85.81
359.349	87.81
359.576	94.81
359.802	78.81
360.029	81.81
360.256	80.81
360.483	74.81
360.709	83.81
360.936	79.81
361.163	79.81
361.39	86.81
361.616	76.81
361.843	77.81
362.07	82.81
362.296	82.81
362.523	83.81
362.749	84.81
362.976	88.81
363.203	72.81
363.429	74.81
363.656	74.81
363.882	63.81
364.109	78.81
364.335	78.81
364.562	70.81
364.788	77.81
365.015	82.81
365.241	71.81
365.468	86.81
365.694	74.81
365.92	82.81
366.147	78.81
366.373	78.81
366.599	89.81
366.826	83.81
367.052	68.81
367.278	89.81
367.505	68.81
367.731	81.81
367.957	86.81
368.184	86.81
368.41	80.81
368.636	76.81
368.862	85.81
369.089	86.81
369.315	90.81
369.541	90.81
369.767	75.81
369.993	88.81
370.219	81.81
370.445	71.81
370.672	82.81
370.898	82.81
371.124	77.81
371.35	75.81
371.576	83.81
371.802	83.81
372.028	65.81
372.254	84.81
372.48	68.81
372.706	94.81
372.932	81.81
373.158	66.81
373.384	74.81
373.61	64.81
373.835	87.81
374.061	77.81
374.287	91.81
374.513	76.81
374.739	82.81
374.965	75.81
375.191	78.81
375.416	88.81
375.642	90.81
375.868	76.81
376.094	81.81
376.319	76.81
376.545	92.81
376.771	71.81
376.997	82.81
377.222	86.81
377.448	85.81
377.674	73.81
377.899	80.81
378.125	73.81
378.35	98.81
378.576	81.81
378.802	79.81
379.027	82.81
379.253	82.81
379.478	77.81
379.704	81.81
379.929	67.81
380.155	81.81
380.38	79.81
380.606	86.81
380.831	74.81
381.057	80.81
381.282	68.81
381.507	81.81
381.733	75.81
381.958	78.81
382.184	82.81
382.409	80.81
382.634	82.81
382.86	86.81
383.085	83.81
383.31	86.81
383.535	90.81
383.761	76.81
383.986	80.81
384.211	66.81
384.436	71.81
384.662	82.81
384.887	95.81
385.112	87.81
385.337	92.81
385.562	83.81
385.787	100.81
386.013	80.81
386.238	83.81
386.463	74.81
386.688	84.81
386.913	69.81
387.138	81.81
387.363	85.81
387.588	86.81
387.813	73.81
388.038	74.81
388.263	95.81
388.488	100.81
388.713	82.81
388.938	77.81
389.163	86.81
389.387	88.81
389.612	81.81
389.837	65.81
390.062	79.81
390.287	81.81
390.512	71.81
390.736	96.81
390.961	87.81
391.186	88.81
391.411	77.81
391.636	86.81
391.86	82.81
392.085	65.81
392.31	70.81
392.534	82.81
392.759	83.81
392.984	72.81
393.208	87.81
393.433	74.81
393.658	79.81
393.882	77.81
394.107	75.81
394.331	84.81
394.556	77.81
394.78	94.81
395.005	88.81
395.229	77.81
395.454	79.81
395.678	73.81
395.903	74.81
396.127	71.81
396.352	66.81
396.576	88.81
396.801	75.81
397.025	86.81
397.249	96.81
397.474	83.81
397.698	86.81
397.922	83.81
398.147	96.81
398.371	78.81
398.595	74.81
398.82	76.81
399.044	69.81
399.268	88.81
399.492	87.81
399.717	92.81
399.941	85.81
400.165	72.81
400.389	77.81
400.613	87.81
400.837	95.81
401.062	76.81
401.286	80.81
401.51	84.81
401.734	69.81
401.958	76.81
402.182	75.81
402.406	83.81
402.63	82.81
402.854	88.81
403.078	81.81
403.302	80.81
403.526	80.81
403.75	81.81
403.974	86.81
404.198	74.81
404.422	88.81
404.645	88.81
404.869	80.81
405.093	83.81
405.317	78.81
405.541	92.81
405.765	73.81
405.988	67.81
406.212	83.81
406.436	91.81
406.66	82.81
406.883	86.81
407.107	84.81
407.331	78.81
407.555	86.81
407.778	97.81
408.002	100.81
408.226	98.81
408.449	72.81
408.673	102.81
408.896	82.81
409.12	80.81
409.344	82.81
409.567	80.81
409.791	81.81
410.014	84.81
410.238	79.81
410.461	93.81
410.685	75.81
410.908	78.81
411.132	82.81
411.355	94.81
411.578	97.81
411.802	78.81
412.025	72.81
412.249	84.81
412.472	83.81
412.695	90.81
412.919	81.81
413.142	84.81
413.365	71.81
413.589	98.81
413.812	75.81
414.035	75.81
414.258	75.81
414.482	88.81
414.705	73.81
414.928	82.81
415.151	85.81
415.374	82.81
415.597	68.81
415.821	76.81
416.044	82.81
416.267	80.81
416.49	85.81
416.713	86.81
416.936	80.81
417.159	91.81
417.382	86.81
417.605	76.81
417.828	70.81
418.051	94.81
418.274	75.81
418.497	79.81
418.72	94.81
418.943	82.81
419.166	83.81
419.389	95.81
419.611	85.81
419.834	86.81
420.057	67.81
420.28	71.81
420.503	82.81
420.726	74.81
420.948	70.81
421.171	83.81
421.394	71.81
421.617	94.81
421.839	88.81
422.062	76.81
422.285	64.81
422.507	84.81
422.73	74.81
422.953	79.81
423.175	81.81
423.398	77.81
423.621	83.81
423.843	80.81
424.066	100.81
424.288	84.81
424.511	94.81
424.733	97.81
424.956	89.81
425.178	86.81
425.401	81.81
425.623	98.81
425.846	69.81
426.068	92.81
426.291	88.81
426.513	85.81
426.735	81.81
426.958	89.81
427.18	82.81
427.402	73.81
427.625	84.81
427.847	75.81
428.069	79.81
428.292	82.81
428.514	80.81
428.736	69.81
428.958	87.81
429.181	80.81
429.403	67.81
429.625	89.81
429.847	59.81
430.069	67.81
430.292	72.81
430.514	84.81
430.736	83.81
430.958	92.81
431.18	83.81
431.402	73.81
431.624	90.81
431.846	77.81
432.068	75.81
432.29	85.81
432.512	87.81
432.734	80.81
432.956	71.81
433.178	76.81
433.4	72.81
433.622	87.81
433.844	96.81
434.066	81.81
434.287	90.81
434.509	86.81
434.731	79.81
434.953	83.81
435.175	76.81
435.397	81.81
435.618	83.81
435.84	81.81
436.062	87.81
436.284	74.81
436.505	94.81
436.727	84.81
436.949	81.81
437.17	78.81
437.392	86.81
437.614	95.81
437.835	60.81
438.057	70.81
438.278	84.81
438.5	75.81
438.721	86.81
438.943	80.81
439.165	85.81
439.386	78.81
439.608	97.81
439.829	80.81
440.05	82.81
440.272	82.81
440.493	70.81
440.715	73.81
440.936	83.81
441.158	83.81
441.379	87.81
441.6	84.81
441.822	84.81
442.043	80.81
442.264	87.81
442.486	83.81
442.707	84.81
442.928	81.81
443.149	78.81
443.371	76.81
443.592	88.81
443.813	86.81
444.034	85.81
444.255	86.81
444.476	87.81
444.698	74.81
444.919	90.81
445.14	169.81
445.361	127.81
445.582	87.81
445.803	71.81
446.024	86.81
446.245	92.81
446.466	87.81
446.687	85.81
446.908	86.81
447.129	72.81
447.35	84.81
447.571	79.81
447.792	87.81
448.013	74.81
448.234	79.81
448.455	87.81
448.675	84.81
448.896	87.81
449.117	86.81
449.338	78.81
449.559	90.81
449.779	74.81
450	81.81
450.221	74.81
450.442	73.81
450.662	83.81
450.883	78.81
451.104	72.81
451.324	73.81
451.545	82.81
451.766	75.81
451.986	90.81
452.207	81.81
452.428	86.81
452.648	82.81
452.869	82.81
453.089	99.81
453.31	79.81
453.53	83.81
453.751	72.81
453.971	80.81
454.192	89.81
454.412	98.81
454.633	80.81
454.853	83.81
455.073	73.81
455.294	81.81
455.514	81.81
455.734	73.81
455.955	95.81
456.175	88.81
456.395	77.81
456.616	89.81
456.836	88.81
457.056	76.81
457.276	82.81
457.497	77.81
457.717	85.81
457.937	90.81
458.157	71.81
458.377	69.81
458.598	80.81
458.818	70.81
459.038	81.81
459.258	90.81
459.478	78.81
459.698	80.81
459.918	97.81
460.138	81.81
460.358	77.81
460.578	80.81
460.798	71.81
461.018	81.81
461.238	74.81
461.458	86.81
461.678	87.81
461.898	76.81
462.118	95.81
462.338	93.81
462.558	74.81
462.777	91.81
462.997	96.81
463.217	82.81
463.437	84.81
463.657	73.81
463.876	88.81
464.096	91.81
464.316	87.81
464.536	91.81
464.755	96.81
464.975	76.81
465.195	69.81
465.414	88.81
465.634	88.81
465.854	78.81
466.073	71.81
466.293	103.81
466.512	84.81
466.732	94.81
466.951	74.81
467.171	62.81
467.391	90.81
467.61	85.81
467.829	75.81
468.049	78.81
468.268	77.81
468.488	85.81
468.707	76.81
468.927	84.81
469.146	88.81
469.365	80.81
469.585	87.81
469.804	84.81
470.023	91.81
470.243	86.81
470.462	68.81
470.681	79.81
470.901	76.81
471.12	72.81
471.339	73.81
471.558	72.81
471.777	87.81
471.997	91.81
472.216	96.81
472.435	75.81
472.654	89.81
472.873	87.81
473.092	79.81
473.311	86.81
473.53	66.81
473.749	80.81
473.968	82.81
474.187	72.81
474.406	70.81
474.625	83.81
474.844	88.81
475.063	72.81
475.282	85.81
475.501	94.81
475.72	74.81
475.939	85.81
476.158	86.81
476.377	80.81
476.596	81.81
476.814	73.81
477.033	95.81
477.252	80.81
477.471	77.81
477.69	82.81
477.908	86.81
478.127	86.81
478.346	83.81
478.564	73.81
478.783	82.81
479.002	89.81
479.22	76.81
479.439	82.81
479.658	79.81
479.876	81.81
480.095	86.81
480.313	103.81
480.532	88.81
480.751	93.81
480.969	86.81
481.188	65.81
481.406	69.81
481.624	92.81
481.843	95.81
482.061	89.81
482.28	86.81
482.498	79.81
482.717	74.81
482.935	72.81
483.153	98.81
483.372	74.81
483.59	87.81
483.808	86.81
484.027	87.81
484.245	69.81
484.463	76.81
484.681	68.81
484.9	88.81
485.118	98.81
485.336	78.81
485.554	67.81
485.772	87.81
485.99	82.81
486.209	85.81
486.427	75.81
486.645	93.81
486.863	88.81
487.081	88.81
487.299	88.81
487.517	83.81
487.735	89.81
487.953	98.81
488.171	90.81
488.389	96.81
488.607	91.81
488.825	84.81
489.043	101.81
489.261	84.81
489.479	81.81
489.696	82.81
489.914	69.81
490.132	84.81
490.35	81.81
490.568	88.81
490.786	80.81
491.003	87.81
491.221	90.81
491.439	70.81
491.657	98.81
491.874	81.81
492.092	87.81
492.31	75.81
492.527	84.81
492.745	79.81
492.963	86.81
493.18	87.81
493.398	83.81
493.615	86.81
493.833	75.81
494.05	81.81
494.268	88.81
494.485	80.81
494.703	89.81
494.92	92.81
495.138	78.81
495.355	95.81
495.573	100.81
495.79	84.81
496.008	69.81
496.225	81.81
496.442	83.81
496.66	95.81
496.877	75.81
497.094	75.81
497.312	84.81
497.529	74.81
497.746	75.81
497.963	76.81
498.181	85.81
498.398	78.81
498.615	89.81
498.832	79.81
499.049	110.81
499.267	88.81
499.484	98.81
499.701	107.81
499.918	94.81
500.135	116.81
500.352	103.81
500.569	97.81
500.786	102.81
501.003	109.81
501.22	101.81
501.437	102.81
501.654	99.81
501.871	101.81
502.088	89.81
502.305	89.81
502.522	88.81
502.739	83.81
502.956	80.81
503.172	90.81
503.389	99.81
503.606	92.81
503.823	94.81
504.04	82.81
504.256	85.81
504.473	87.81
504.69	88.81
504.907	99.81
505.123	78.81
505.34	79.81
505.557	78.81
505.773	89.81
505.99	61.81
506.207	85.81
506.423	87.81
506.64	105.81
506.856	86.81
507.073	87.81
507.289	76.81
507.506	87.81
507.722	89.81
507.939	76.81
508.155	86.81
508.372	72.81
508.588	83.81
508.805	88.81
509.021	92.81
509.238	86.81
509.454	72.81
509.67	82.81
509.887	81.81
510.103	88.81
510.319	88.81
510.536	88.81
510.752	83.81
510.968	88.81
511.184	80.81
511.401	93.81
511.617	96.81
511.833	78.81
512.049	100.81
512.265	83.81
512.481	97.81
512.698	81.81
512.914	77.81
513.13	87.81
513.346	78.81
513.562	81.81
513.778	99.81
513.994	84.81
514.21	79.81
514.426	90.81
514.642	79.81
514.858	79.81
515.074	80.81
515.29	87.81
515.506	79.81
515.721	94.81
515.937	69.81
516.153	72.81
516.369	98.81
516.585	90.81
516.801	95.81
517.016	85.81
517.232	82.81
517.448	89.81
517.664	80.81
517.879	79.81
518.095	92.81
518.311	86.81
518.527	94.81
518.742	92.81
518.958	90.81
519.173	93.81
519.389	87.81
519.605	83.81
519.82	97.81
520.036	78.81
