Data from BG_HRD10591_017.txt Node
Date: Fri May 16 15:26:55 EDT 2025
User: Yrep
Spectrometer: HR+D1059
Trigger mode: 1
Integration Time (sec): 1.000000E-1
Scans to average: 1
Electric dark correction enabled: true
Nonlinearity correction enabled: false
Boxcar width: 0
XAxis mode: Wavelengths
Number of Pixels in Spectrum: 2048
>>>>>Begin Spectral Data<<<<<
223.165	-28.56
223.4	-28.56
223.635	-28.56
223.869	-9.56
224.104	-18.56
224.338	-16.56
224.573	-8.56
224.808	-19.56
225.042	-3.56
225.277	-5.56
225.511	-9.56
225.746	6.44
225.98	-1.56
226.215	9.44
226.449	16.44
226.683	16.44
226.918	39.44
227.152	33.44
227.387	37.44
227.621	47.44
227.856	19.44
228.09	51.44
228.324	42.44
228.559	62.44
228.793	81.44
229.027	71.44
229.262	75.44
229.496	62.44
229.73	73.44
229.964	71.44
230.199	73.44
230.433	63.44
230.667	72.44
230.901	84.44
231.136	85.44
231.37	94.44
231.604	82.44
231.838	97.44
232.072	79.44
232.306	68.44
232.541	87.44
232.775	88.44
233.009	78.44
233.243	87.44
233.477	89.44
233.711	81.44
233.945	78.44
234.179	80.44
234.413	83.44
234.647	78.44
234.881	96.44
235.115	83.44
235.349	83.44
235.583	76.44
235.817	74.44
236.051	77.44
236.285	48.44
236.519	84.44
236.753	74.44
236.987	80.44
237.221	79.44
237.455	89.44
237.689	76.44
237.922	83.44
238.156	79.44
238.39	77.44
238.624	71.44
238.858	95.44
239.091	73.44
239.325	69.44
239.559	87.44
239.793	87.44
240.027	67.44
240.26	72.44
240.494	67.44
240.728	67.44
240.961	76.44
241.195	88.44
241.429	70.44
241.662	92.44
241.896	77.44
242.13	82.44
242.363	83.44
242.597	85.44
242.83	85.44
243.064	79.44
243.298	73.44
243.531	62.44
243.765	88.44
243.998	82.44
244.232	82.44
244.465	65.44
244.699	82.44
244.932	71.44
245.166	77.44
245.399	81.44
245.633	86.44
245.866	94.44
246.099	86.44
246.333	81.44
246.566	85.44
246.8	69.44
247.033	79.44
247.266	84.44
247.5	76.44
247.733	70.44
247.966	76.44
248.2	75.44
248.433	68.44
248.666	78.44
248.899	87.44
249.133	76.44
249.366	72.44
249.599	72.44
249.832	89.44
250.066	85.44
250.299	75.44
250.532	76.44
250.765	86.44
250.998	88.44
251.231	70.44
251.465	83.44
251.698	78.44
251.931	79.44
252.164	79.44
252.397	74.44
252.63	87.44
252.863	86.44
253.096	80.44
253.329	71.44
253.562	80.44
253.795	75.44
254.028	77.44
254.261	95.44
254.494	76.44
254.727	90.44
254.96	80.44
255.193	88.44
255.426	93.44
255.659	93.44
255.892	92.44
256.124	80.44
256.357	84.44
256.59	74.44
256.823	85.44
257.056	79.44
257.289	81.44
257.521	81.44
257.754	95.44
257.987	83.44
258.22	88.44
258.452	79.44
258.685	81.44
258.918	86.44
259.151	96.44
259.383	82.44
259.616	85.44
259.849	97.44
260.081	84.44
260.314	77.44
260.547	73.44
260.779	91.44
261.012	98.44
261.244	80.44
261.477	74.44
261.71	75.44
261.942	72.44
262.175	80.44
262.407	82.44
262.64	91.44
262.872	73.44
263.105	67.44
263.337	83.44
263.57	74.44
263.802	74.44
264.035	71.44
264.267	81.44
264.499	80.44
264.732	104.44
264.964	85.44
265.197	80.44
265.429	94.44
265.661	80.44
265.894	89.44
266.126	83.44
266.358	89.44
266.591	87.44
266.823	77.44
267.055	78.44
267.287	64.44
267.52	64.44
267.752	85.44
267.984	77.44
268.216	88.44
268.448	79.44
268.681	89.44
268.913	78.44
269.145	97.44
269.377	87.44
269.609	90.44
269.841	89.44
270.073	86.44
270.306	81.44
270.538	106.44
270.77	92.44
271.002	100.44
271.234	86.44
271.466	90.44
271.698	90.44
271.93	90.44
272.162	87.44
272.394	91.44
272.626	83.44
272.858	81.44
273.09	85.44
273.322	108.44
273.553	89.44
273.785	80.44
274.017	87.44
274.249	100.44
274.481	90.44
274.713	89.44
274.945	87.44
275.176	83.44
275.408	82.44
275.64	74.44
275.872	88.44
276.104	89.44
276.335	96.44
276.567	82.44
276.799	79.44
277.031	87.44
277.262	72.44
277.494	94.44
277.726	85.44
277.957	84.44
278.189	79.44
278.421	92.44
278.652	77.44
278.884	88.44
279.115	91.44
279.347	87.44
279.579	90.44
279.81	93.44
280.042	91.44
280.273	94.44
280.505	77.44
280.736	91.44
280.968	79.44
281.199	78.44
281.431	88.44
281.662	96.44
281.894	87.44
282.125	74.44
282.356	81.44
282.588	89.44
282.819	73.44
283.051	95.44
283.282	93.44
283.513	102.44
283.745	89.44
283.976	79.44
284.207	85.44
284.439	93.44
284.67	89.44
284.901	106.44
285.132	73.44
285.364	93.44
285.595	96.44
285.826	90.44
286.057	87.44
286.288	85.44
286.52	83.44
286.751	95.44
286.982	95.44
287.213	81.44
287.444	87.44
287.675	79.44
287.906	89.44
288.138	93.44
288.369	85.44
288.6	87.44
288.831	91.44
289.062	92.44
289.293	86.44
289.524	97.44
289.755	76.44
289.986	92.44
290.217	82.44
290.448	82.44
290.679	91.44
290.91	95.44
291.141	78.44
291.371	79.44
291.602	89.44
291.833	77.44
292.064	82.44
292.295	87.44
292.526	76.44
292.757	103.44
292.987	90.44
293.218	93.44
293.449	89.44
293.68	96.44
293.91	85.44
294.141	102.44
294.372	79.44
294.603	79.44
294.833	99.44
295.064	103.44
295.295	86.44
295.525	94.44
295.756	100.44
295.987	88.44
296.217	88.44
296.448	88.44
296.679	80.44
296.909	75.44
297.14	85.44
297.37	81.44
297.601	85.44
297.831	74.44
298.062	104.44
298.292	88.44
298.523	87.44
298.753	89.44
298.984	90.44
299.214	87.44
299.445	87.44
299.675	94.44
299.905	81.44
300.136	99.44
300.366	74.44
300.597	86.44
300.827	83.44
301.057	73.44
301.288	83.44
301.518	89.44
301.748	107.44
301.979	97.44
302.209	90.44
302.439	88.44
302.669	87.44
302.9	91.44
303.13	90.44
303.36	84.44
303.59	86.44
303.82	101.44
304.051	91.44
304.281	89.44
304.511	86.44
304.741	86.44
304.971	82.44
305.201	116.44
305.431	84.44
305.661	86.44
305.891	93.44
306.121	79.44
306.352	92.44
306.582	87.44
306.812	97.44
307.042	80.44
307.272	73.44
307.502	93.44
307.731	80.44
307.961	87.44
308.191	83.44
308.421	106.44
308.651	93.44
308.881	89.44
309.111	88.44
309.341	97.44
309.571	82.44
309.8	80.44
310.03	83.44
310.26	89.44
310.49	85.44
310.72	87.44
310.949	102.44
311.179	92.44
311.409	85.44
311.639	95.44
311.868	86.44
312.098	85.44
312.328	89.44
312.557	81.44
312.787	89.44
313.017	82.44
313.246	82.44
313.476	89.44
313.706	76.44
313.935	77.44
314.165	85.44
314.394	79.44
314.624	86.44
314.853	90.44
315.083	84.44
315.312	81.44
315.542	99.44
315.771	89.44
316.001	79.44
316.23	96.44
316.46	86.44
316.689	80.44
316.919	84.44
317.148	87.44
317.377	87.44
317.607	82.44
317.836	91.44
318.065	89.44
318.295	86.44
318.524	85.44
318.753	70.44
318.983	86.44
319.212	90.44
319.441	83.44
319.67	94.44
319.9	87.44
320.129	85.44
320.358	71.44
320.587	89.44
320.816	73.44
321.046	78.44
321.275	93.44
321.504	93.44
321.733	76.44
321.962	87.44
322.191	89.44
322.42	80.44
322.649	83.44
322.878	86.44
323.108	103.44
323.337	83.44
323.566	94.44
323.795	99.44
324.024	90.44
324.253	95.44
324.482	83.44
324.71	86.44
324.939	91.44
325.168	84.44
325.397	78.44
325.626	82.44
325.855	90.44
326.084	92.44
326.313	81.44
326.542	88.44
326.77	103.44
326.999	85.44
327.228	72.44
327.457	75.44
327.686	96.44
327.914	98.44
328.143	102.44
328.372	89.44
328.6	93.44
328.829	83.44
329.058	101.44
329.287	96.44
329.515	78.44
329.744	90.44
329.972	93.44
330.201	83.44
330.43	86.44
330.658	89.44
330.887	90.44
331.115	96.44
331.344	82.44
331.572	97.44
331.801	96.44
332.03	89.44
332.258	98.44
332.486	99.44
332.715	82.44
332.943	83.44
333.172	87.44
333.4	88.44
333.629	75.44
333.857	81.44
334.085	79.44
334.314	93.44
334.542	89.44
334.771	90.44
334.999	88.44
335.227	88.44
335.455	85.44
335.684	86.44
335.912	78.44
336.14	93.44
336.369	89.44
336.597	92.44
336.825	92.44
337.053	87.44
337.281	98.44
337.51	79.44
337.738	96.44
337.966	87.44
338.194	86.44
338.422	88.44
338.65	86.44
338.878	101.44
339.106	70.44
339.334	91.44
339.562	88.44
339.79	84.44
340.018	91.44
340.246	89.44
340.474	91.44
340.702	80.44
340.93	84.44
341.158	90.44
341.386	79.44
341.614	76.44
341.842	91.44
342.07	73.44
342.298	98.44
342.526	93.44
342.754	86.44
342.981	77.44
343.209	93.44
343.437	92.44
343.665	80.44
343.893	88.44
344.12	88.44
344.348	82.44
344.576	71.44
344.804	81.44
345.031	87.44
345.259	90.44
345.487	88.44
345.714	62.44
345.942	81.44
346.17	91.44
346.397	85.44
346.625	74.44
346.853	71.44
347.08	87.44
347.308	93.44
347.535	87.44
347.763	92.44
347.99	90.44
348.218	95.44
348.445	86.44
348.673	82.44
348.9	89.44
349.128	89.44
349.355	96.44
349.583	104.44
349.81	102.44
350.037	97.44
350.265	75.44
350.492	79.44
350.72	90.44
350.947	83.44
351.174	86.44
351.402	91.44
351.629	94.44
351.856	84.44
352.083	94.44
352.311	92.44
352.538	88.44
352.765	97.44
352.992	91.44
353.22	90.44
353.447	90.44
353.674	97.44
353.901	95.44
354.128	95.44
354.355	83.44
354.583	81.44
354.81	83.44
355.037	75.44
355.264	95.44
355.491	103.44
355.718	96.44
355.945	93.44
356.172	101.44
356.399	81.44
356.626	91.44
356.853	95.44
357.08	87.44
357.307	74.44
357.534	80.44
357.761	77.44
357.988	88.44
358.215	80.44
358.441	76.44
358.668	87.44
358.895	105.44
359.122	89.44
359.349	91.44
359.576	88.44
359.802	79.44
360.029	83.44
360.256	80.44
360.483	89.44
360.709	74.44
360.936	84.44
361.163	94.44
361.39	74.44
361.616	73.44
361.843	87.44
362.07	98.44
362.296	98.44
362.523	89.44
362.749	93.44
362.976	81.44
363.203	82.44
363.429	79.44
363.656	90.44
363.882	71.44
364.109	91.44
364.335	101.44
364.562	93.44
364.788	85.44
365.015	97.44
365.241	81.44
365.468	75.44
365.694	77.44
365.92	87.44
366.147	90.44
366.373	81.44
366.599	95.44
366.826	84.44
367.052	90.44
367.278	93.44
367.505	77.44
367.731	84.44
367.957	92.44
368.184	87.44
368.41	83.44
368.636	89.44
368.862	73.44
369.089	82.44
369.315	93.44
369.541	76.44
369.767	75.44
369.993	97.44
370.219	81.44
370.445	87.44
370.672	101.44
370.898	73.44
371.124	71.44
371.35	91.44
371.576	90.44
371.802	78.44
372.028	86.44
372.254	87.44
372.48	87.44
372.706	89.44
372.932	82.44
373.158	95.44
373.384	73.44
373.61	104.44
373.835	90.44
374.061	85.44
374.287	82.44
374.513	71.44
374.739	92.44
374.965	91.44
375.191	90.44
375.416	93.44
375.642	79.44
375.868	104.44
376.094	84.44
376.319	71.44
376.545	79.44
376.771	82.44
376.997	82.44
377.222	75.44
377.448	90.44
377.674	90.44
377.899	85.44
378.125	97.44
378.35	86.44
378.576	95.44
378.802	89.44
379.027	94.44
379.253	89.44
379.478	87.44
379.704	86.44
379.929	85.44
380.155	82.44
380.38	82.44
380.606	92.44
380.831	80.44
381.057	102.44
381.282	87.44
381.507	87.44
381.733	81.44
381.958	85.44
382.184	80.44
382.409	87.44
382.634	84.44
382.86	96.44
383.085	98.44
383.31	89.44
383.535	102.44
383.761	82.44
383.986	96.44
384.211	63.44
384.436	81.44
384.662	80.44
384.887	88.44
385.112	75.44
385.337	88.44
385.562	88.44
385.787	83.44
386.013	73.44
386.238	85.44
386.463	83.44
386.688	90.44
386.913	82.44
387.138	77.44
387.363	75.44
387.588	96.44
387.813	75.44
388.038	82.44
388.263	81.44
388.488	69.44
388.713	79.44
388.938	83.44
389.163	82.44
389.387	85.44
389.612	87.44
389.837	85.44
390.062	79.44
390.287	89.44
390.512	83.44
390.736	96.44
390.961	79.44
391.186	93.44
391.411	74.44
391.636	77.44
391.86	73.44
392.085	92.44
392.31	89.44
392.534	75.44
392.759	91.44
392.984	86.44
393.208	71.44
393.433	77.44
393.658	85.44
393.882	86.44
394.107	80.44
394.331	93.44
394.556	93.44
394.78	92.44
395.005	74.44
395.229	93.44
395.454	86.44
395.678	94.44
395.903	78.44
396.127	97.44
396.352	74.44
396.576	87.44
396.801	75.44
397.025	72.44
397.249	87.44
397.474	85.44
397.698	91.44
397.922	92.44
398.147	90.44
398.371	89.44
398.595	96.44
398.82	97.44
399.044	98.44
399.268	90.44
399.492	90.44
399.717	91.44
399.941	85.44
400.165	95.44
400.389	83.44
400.613	91.44
400.837	91.44
401.062	96.44
401.286	81.44
401.51	87.44
401.734	101.44
401.958	84.44
402.182	98.44
402.406	104.44
402.63	94.44
402.854	96.44
403.078	101.44
403.302	87.44
403.526	90.44
403.75	77.44
403.974	79.44
404.198	105.44
404.422	98.44
404.645	88.44
404.869	95.44
405.093	83.44
405.317	94.44
405.541	78.44
405.765	91.44
405.988	84.44
406.212	95.44
406.436	91.44
406.66	98.44
406.883	89.44
407.107	98.44
407.331	98.44
407.555	89.44
407.778	83.44
408.002	89.44
408.226	91.44
408.449	103.44
408.673	93.44
408.896	114.44
409.12	76.44
409.344	87.44
409.567	75.44
409.791	99.44
410.014	89.44
410.238	81.44
410.461	95.44
410.685	89.44
410.908	85.44
411.132	82.44
411.355	94.44
411.578	74.44
411.802	96.44
412.025	96.44
412.249	79.44
412.472	98.44
412.695	100.44
412.919	92.44
413.142	83.44
413.365	101.44
413.589	97.44
413.812	81.44
414.035	91.44
414.258	88.44
414.482	82.44
414.705	94.44
414.928	93.44
415.151	89.44
415.374	85.44
415.597	79.44
415.821	84.44
416.044	82.44
416.267	87.44
416.49	86.44
416.713	99.44
416.936	80.44
417.159	89.44
417.382	92.44
417.605	98.44
417.828	86.44
418.051	85.44
418.274	80.44
418.497	90.44
418.72	85.44
418.943	86.44
419.166	92.44
419.389	106.44
419.611	91.44
419.834	89.44
420.057	85.44
420.28	97.44
420.503	95.44
420.726	92.44
420.948	93.44
421.171	90.44
421.394	98.44
421.617	81.44
421.839	102.44
422.062	89.44
422.285	82.44
422.507	89.44
422.73	96.44
422.953	94.44
423.175	79.44
423.398	71.44
423.621	86.44
423.843	101.44
424.066	81.44
424.288	87.44
424.511	78.44
424.733	82.44
424.956	93.44
425.178	87.44
425.401	98.44
425.623	70.44
425.846	77.44
426.068	82.44
426.291	83.44
426.513	83.44
426.735	82.44
426.958	73.44
427.18	79.44
427.402	102.44
427.625	91.44
427.847	88.44
428.069	89.44
428.292	90.44
428.514	83.44
428.736	81.44
428.958	93.44
429.181	95.44
429.403	96.44
429.625	83.44
429.847	75.44
430.069	76.44
430.292	93.44
430.514	90.44
430.736	93.44
430.958	94.44
431.18	76.44
431.402	92.44
431.624	90.44
431.846	90.44
432.068	98.44
432.29	84.44
432.512	86.44
432.734	85.44
432.956	81.44
433.178	80.44
433.4	98.44
433.622	89.44
433.844	94.44
434.066	81.44
434.287	101.44
434.509	100.44
434.731	89.44
434.953	87.44
435.175	74.44
435.397	81.44
435.618	78.44
435.84	91.44
436.062	89.44
436.284	85.44
436.505	77.44
436.727	95.44
436.949	100.44
437.17	73.44
437.392	91.44
437.614	89.44
437.835	70.44
438.057	95.44
438.278	79.44
438.5	90.44
438.721	85.44
438.943	89.44
439.165	81.44
439.386	77.44
439.608	73.44
439.829	94.44
440.05	89.44
440.272	106.44
440.493	88.44
440.715	83.44
440.936	105.44
441.158	87.44
441.379	74.44
441.6	82.44
441.822	84.44
442.043	90.44
442.264	92.44
442.486	77.44
442.707	78.44
442.928	80.44
443.149	81.44
443.371	94.44
443.592	99.44
443.813	77.44
444.034	101.44
444.255	86.44
444.476	84.44
444.698	87.44
444.919	92.44
445.14	167.44
445.361	117.44
445.582	75.44
445.803	93.44
446.024	104.44
446.245	105.44
446.466	94.44
446.687	90.44
446.908	90.44
447.129	82.44
447.35	87.44
447.571	92.44
447.792	85.44
448.013	92.44
448.234	74.44
448.455	79.44
448.675	106.44
448.896	83.44
449.117	89.44
449.338	77.44
449.559	91.44
449.779	79.44
450	83.44
450.221	90.44
450.442	80.44
450.662	85.44
450.883	95.44
451.104	102.44
451.324	83.44
451.545	71.44
451.766	73.44
451.986	105.44
452.207	98.44
452.428	75.44
452.648	96.44
452.869	103.44
453.089	98.44
453.31	94.44
453.53	93.44
453.751	93.44
453.971	86.44
454.192	85.44
454.412	77.44
454.633	84.44
454.853	89.44
455.073	94.44
455.294	98.44
455.514	89.44
455.734	98.44
455.955	101.44
456.175	87.44
456.395	87.44
456.616	85.44
456.836	82.44
457.056	90.44
457.276	84.44
457.497	90.44
457.717	90.44
457.937	98.44
458.157	87.44
458.377	78.44
458.598	85.44
458.818	85.44
459.038	93.44
459.258	93.44
459.478	96.44
459.698	94.44
459.918	89.44
460.138	94.44
460.358	84.44
460.578	89.44
460.798	86.44
461.018	83.44
461.238	82.44
461.458	86.44
461.678	77.44
461.898	95.44
462.118	90.44
462.338	83.44
462.558	80.44
462.777	86.44
462.997	98.44
463.217	91.44
463.437	85.44
463.657	85.44
463.876	78.44
464.096	91.44
464.316	98.44
464.536	104.44
464.755	89.44
464.975	76.44
465.195	93.44
465.414	96.44
465.634	85.44
465.854	93.44
466.073	96.44
466.293	93.44
466.512	90.44
466.732	96.44
466.951	87.44
467.171	84.44
467.391	84.44
467.61	103.44
467.829	86.44
468.049	94.44
468.268	106.44
468.488	93.44
468.707	80.44
468.927	91.44
469.146	102.44
469.365	91.44
469.585	97.44
469.804	75.44
470.023	80.44
470.243	85.44
470.462	88.44
470.681	92.44
470.901	86.44
471.12	92.44
471.339	91.44
471.558	96.44
471.777	82.44
471.997	88.44
472.216	96.44
472.435	86.44
472.654	94.44
472.873	94.44
473.092	85.44
473.311	93.44
473.53	81.44
473.749	81.44
473.968	107.44
474.187	85.44
474.406	90.44
474.625	86.44
474.844	81.44
475.063	80.44
475.282	111.44
475.501	94.44
475.72	85.44
475.939	96.44
476.158	101.44
476.377	100.44
476.596	85.44
476.814	92.44
477.033	83.44
477.252	89.44
477.471	73.44
477.69	93.44
477.908	81.44
478.127	98.44
478.346	85.44
478.564	78.44
478.783	84.44
479.002	91.44
479.22	86.44
479.439	88.44
479.658	91.44
479.876	93.44
480.095	86.44
480.313	83.44
480.532	82.44
480.751	86.44
480.969	115.44
481.188	92.44
481.406	96.44
481.624	90.44
481.843	106.44
482.061	72.44
482.28	75.44
482.498	78.44
482.717	88.44
482.935	80.44
483.153	94.44
483.372	83.44
483.59	94.44
483.808	81.44
484.027	87.44
484.245	93.44
484.463	91.44
484.681	104.44
484.9	104.44
485.118	101.44
485.336	94.44
485.554	89.44
485.772	95.44
485.99	86.44
486.209	82.44
486.427	98.44
486.645	93.44
486.863	93.44
487.081	76.44
487.299	97.44
487.517	84.44
487.735	89.44
487.953	95.44
488.171	92.44
488.389	92.44
488.607	95.44
488.825	82.44
489.043	82.44
489.261	92.44
489.479	103.44
489.696	99.44
489.914	96.44
490.132	99.44
490.35	86.44
490.568	80.44
490.786	94.44
491.003	86.44
491.221	81.44
491.439	96.44
491.657	82.44
491.874	99.44
492.092	101.44
492.31	83.44
492.527	92.44
492.745	95.44
492.963	96.44
493.18	86.44
493.398	82.44
493.615	88.44
493.833	90.44
494.05	101.44
494.268	82.44
494.485	81.44
494.703	81.44
494.92	77.44
495.138	94.44
495.355	104.44
495.573	92.44
495.79	91.44
496.008	95.44
496.225	89.44
496.442	98.44
496.66	78.44
496.877	93.44
497.094	85.44
497.312	105.44
497.529	78.44
497.746	101.44
497.963	101.44
498.181	88.44
498.398	98.44
498.615	95.44
498.832	106.44
499.049	91.44
499.267	95.44
499.484	109.44
499.701	113.44
499.918	109.44
500.135	106.44
500.352	112.44
500.569	114.44
500.786	107.44
501.003	103.44
501.22	99.44
501.437	105.44
501.654	91.44
501.871	98.44
502.088	104.44
502.305	85.44
502.522	94.44
502.739	98.44
502.956	95.44
503.172	93.44
503.389	89.44
503.606	93.44
503.823	85.44
504.04	88.44
504.256	88.44
504.473	88.44
504.69	93.44
504.907	96.44
505.123	92.44
505.34	82.44
505.557	79.44
505.773	88.44
505.99	96.44
506.207	85.44
506.423	90.44
506.64	83.44
506.856	91.44
507.073	93.44
507.289	93.44
507.506	97.44
507.722	88.44
507.939	89.44
508.155	90.44
508.372	83.44
508.588	90.44
508.805	88.44
509.021	85.44
509.238	85.44
509.454	86.44
509.67	78.44
509.887	89.44
510.103	107.44
510.319	91.44
510.536	75.44
510.752	80.44
510.968	88.44
511.184	84.44
511.401	94.44
511.617	90.44
511.833	97.44
512.049	100.44
512.265	87.44
512.481	91.44
512.698	85.44
512.914	92.44
513.13	99.44
513.346	90.44
513.562	92.44
513.778	92.44
513.994	89.44
514.21	102.44
514.426	96.44
514.642	113.44
514.858	97.44
515.074	99.44
515.29	95.44
515.506	95.44
515.721	77.44
515.937	92.44
516.153	88.44
516.369	86.44
516.585	86.44
516.801	89.44
517.016	83.44
517.232	101.44
517.448	98.44
517.664	103.44
517.879	90.44
518.095	105.44
518.311	108.44
518.527	82.44
518.742	80.44
518.958	73.44
