Data from BG_HRD10591_037.txt Node
Date: Fri May 16 15:27:05 EDT 2025
User: Yrep
Spectrometer: HR+D1059
Trigger mode: 1
Integration Time (sec): 1.000000E-1
Scans to average: 1
Electric dark correction enabled: true
Nonlinearity correction enabled: false
Boxcar width: 0
XAxis mode: Wavelengths
Number of Pixels in Spectrum: 2048
>>>>>Begin Spectral Data<<<<<
223.165	-17.19
223.4	-17.19
223.635	-17.19
223.869	-18.19
224.104	-21.19
224.338	-26.19
224.573	-18.19
224.808	-19.19
225.042	-9.19
225.277	0.81
225.511	-1.19
225.746	-1.19
225.98	18.81
226.215	13.81
226.449	34.81
226.683	13.81
226.918	15.81
227.152	33.81
227.387	44.81
227.621	36.81
227.856	44.81
228.09	49.81
228.324	45.81
228.559	53.81
228.793	63.81
229.027	62.81
229.262	62.81
229.496	66.81
229.73	77.81
229.964	66.81
230.199	78.81
230.433	85.81
230.667	80.81
230.901	80.81
231.136	77.81
231.37	85.81
231.604	88.81
231.838	77.81
232.072	75.81
232.306	88.81
232.541	90.81
232.775	82.81
233.009	75.81
233.243	76.81
233.477	79.81
233.711	75.81
233.945	83.81
234.179	72.81
234.413	85.81
234.647	77.81
234.881	90.81
235.115	63.81
235.349	75.81
235.583	81.81
235.817	89.81
236.051	71.81
236.285	76.81
236.519	77.81
236.753	85.81
236.987	72.81
237.221	73.81
237.455	74.81
237.689	81.81
237.922	73.81
238.156	74.81
238.39	82.81
238.624	77.81
238.858	74.81
239.091	72.81
239.325	87.81
239.559	79.81
239.793	82.81
240.027	78.81
240.26	91.81
240.494	74.81
240.728	81.81
240.961	79.81
241.195	80.81
241.429	81.81
241.662	83.81
241.896	74.81
242.13	84.81
242.363	67.81
242.597	75.81
242.83	94.81
243.064	73.81
243.298	79.81
243.531	77.81
243.765	71.81
243.998	72.81
244.232	90.81
244.465	71.81
244.699	71.81
244.932	88.81
245.166	92.81
245.399	74.81
245.633	81.81
245.866	76.81
246.099	86.81
246.333	87.81
246.566	85.81
246.8	75.81
247.033	89.81
247.266	91.81
247.5	79.81
247.733	71.81
247.966	83.81
248.2	85.81
248.433	97.81
248.666	80.81
248.899	75.81
249.133	80.81
249.366	80.81
249.599	66.81
249.832	67.81
250.066	83.81
250.299	79.81
250.532	83.81
250.765	85.81
250.998	97.81
251.231	77.81
251.465	79.81
251.698	83.81
251.931	91.81
252.164	84.81
252.397	78.81
252.63	87.81
252.863	68.81
253.096	85.81
253.329	88.81
253.562	92.81
253.795	75.81
254.028	92.81
254.261	98.81
254.494	75.81
254.727	79.81
254.96	91.81
255.193	86.81
255.426	79.81
255.659	73.81
255.892	64.81
256.124	78.81
256.357	85.81
256.59	82.81
256.823	89.81
257.056	65.81
257.289	82.81
257.521	88.81
257.754	85.81
257.987	66.81
258.22	71.81
258.452	89.81
258.685	88.81
258.918	97.81
259.151	68.81
259.383	63.81
259.616	85.81
259.849	70.81
260.081	83.81
260.314	79.81
260.547	71.81
260.779	96.81
261.012	85.81
261.244	73.81
261.477	90.81
261.71	85.81
261.942	87.81
262.175	74.81
262.407	70.81
262.64	86.81
262.872	99.81
263.105	87.81
263.337	74.81
263.57	80.81
263.802	99.81
264.035	81.81
264.267	87.81
264.499	90.81
264.732	82.81
264.964	67.81
265.197	81.81
265.429	83.81
265.661	67.81
265.894	86.81
266.126	85.81
266.358	84.81
266.591	91.81
266.823	95.81
267.055	80.81
267.287	97.81
267.52	83.81
267.752	90.81
267.984	96.81
268.216	89.81
268.448	92.81
268.681	91.81
268.913	89.81
269.145	85.81
269.377	85.81
269.609	87.81
269.841	82.81
270.073	82.81
270.306	99.81
270.538	85.81
270.77	71.81
271.002	75.81
271.234	88.81
271.466	82.81
271.698	82.81
271.93	82.81
272.162	77.81
272.394	90.81
272.626	88.81
272.858	81.81
273.09	85.81
273.322	89.81
273.553	93.81
273.785	87.81
274.017	91.81
274.249	85.81
274.481	96.81
274.713	75.81
274.945	82.81
275.176	80.81
275.408	75.81
275.64	98.81
275.872	87.81
276.104	81.81
276.335	74.81
276.567	87.81
276.799	82.81
277.031	89.81
277.262	87.81
277.494	89.81
277.726	84.81
277.957	86.81
278.189	87.81
278.421	95.81
278.652	76.81
278.884	79.81
279.115	93.81
279.347	74.81
279.579	93.81
279.81	105.81
280.042	88.81
280.273	102.81
280.505	85.81
280.736	83.81
280.968	94.81
281.199	98.81
281.431	74.81
281.662	94.81
281.894	82.81
282.125	75.81
282.356	90.81
282.588	81.81
282.819	79.81
283.051	105.81
283.282	82.81
283.513	82.81
283.745	82.81
283.976	95.81
284.207	92.81
284.439	91.81
284.67	92.81
284.901	72.81
285.132	84.81
285.364	78.81
285.595	90.81
285.826	77.81
286.057	97.81
286.288	90.81
286.52	93.81
286.751	98.81
286.982	96.81
287.213	70.81
287.444	84.81
287.675	94.81
287.906	81.81
288.138	89.81
288.369	106.81
288.6	91.81
288.831	85.81
289.062	100.81
289.293	89.81
289.524	95.81
289.755	80.81
289.986	94.81
290.217	86.81
290.448	96.81
290.679	79.81
290.91	85.81
291.141	84.81
291.371	87.81
291.602	89.81
291.833	93.81
292.064	94.81
292.295	91.81
292.526	91.81
292.757	81.81
292.987	88.81
293.218	85.81
293.449	87.81
293.68	95.81
293.91	89.81
294.141	98.81
294.372	67.81
294.603	70.81
294.833	86.81
295.064	105.81
295.295	99.81
295.525	95.81
295.756	107.81
295.987	90.81
296.217	76.81
296.448	86.81
296.679	79.81
296.909	83.81
297.14	77.81
297.37	86.81
297.601	86.81
297.831	95.81
298.062	85.81
298.292	77.81
298.523	79.81
298.753	97.81
298.984	93.81
299.214	90.81
299.445	90.81
299.675	95.81
299.905	89.81
300.136	96.81
300.366	93.81
300.597	81.81
300.827	84.81
301.057	79.81
301.288	87.81
301.518	74.81
301.748	84.81
301.979	106.81
302.209	90.81
302.439	74.81
302.669	83.81
302.9	78.81
303.13	83.81
303.36	88.81
303.59	93.81
303.82	94.81
304.051	94.81
304.281	86.81
304.511	90.81
304.741	91.81
304.971	75.81
305.201	78.81
305.431	94.81
305.661	87.81
305.891	91.81
306.121	87.81
306.352	91.81
306.582	90.81
306.812	85.81
307.042	84.81
307.272	91.81
307.502	77.81
307.731	94.81
307.961	93.81
308.191	92.81
308.421	74.81
308.651	76.81
308.881	91.81
309.111	74.81
309.341	72.81
309.571	81.81
309.8	79.81
310.03	86.81
310.26	83.81
310.49	96.81
310.72	77.81
310.949	85.81
311.179	81.81
311.409	90.81
311.639	82.81
311.868	93.81
312.098	97.81
312.328	91.81
312.557	85.81
312.787	81.81
313.017	75.81
313.246	82.81
313.476	93.81
313.706	81.81
313.935	68.81
314.165	81.81
314.394	83.81
314.624	86.81
314.853	73.81
315.083	92.81
315.312	82.81
315.542	98.81
315.771	83.81
316.001	77.81
316.23	87.81
316.46	85.81
316.689	88.81
316.919	88.81
317.148	88.81
317.377	90.81
317.607	89.81
317.836	86.81
318.065	82.81
318.295	95.81
318.524	74.81
318.753	97.81
318.983	84.81
319.212	92.81
319.441	88.81
319.67	86.81
319.9	101.81
320.129	81.81
320.358	86.81
320.587	89.81
320.816	87.81
321.046	86.81
321.275	93.81
321.504	94.81
321.733	97.81
321.962	84.81
322.191	78.81
322.42	92.81
322.649	89.81
322.878	86.81
323.108	88.81
323.337	77.81
323.566	65.81
323.795	85.81
324.024	73.81
324.253	75.81
324.482	83.81
324.71	80.81
324.939	90.81
325.168	97.81
325.397	88.81
325.626	87.81
325.855	96.81
326.084	99.81
326.313	91.81
326.542	86.81
326.77	80.81
326.999	83.81
327.228	78.81
327.457	107.81
327.686	90.81
327.914	84.81
328.143	87.81
328.372	96.81
328.6	90.81
328.829	75.81
329.058	82.81
329.287	86.81
329.515	80.81
329.744	89.81
329.972	93.81
330.201	83.81
330.43	88.81
330.658	85.81
330.887	71.81
331.115	82.81
331.344	84.81
331.572	86.81
331.801	70.81
332.03	79.81
332.258	90.81
332.486	86.81
332.715	78.81
332.943	75.81
333.172	92.81
333.4	92.81
333.629	99.81
333.857	85.81
334.085	90.81
334.314	92.81
334.542	94.81
334.771	93.81
334.999	98.81
335.227	72.81
335.455	91.81
335.684	101.81
335.912	85.81
336.14	73.81
336.369	83.81
336.597	78.81
336.825	87.81
337.053	85.81
337.281	91.81
337.51	88.81
337.738	82.81
337.966	91.81
338.194	106.81
338.422	85.81
338.65	93.81
338.878	95.81
339.106	77.81
339.334	89.81
339.562	88.81
339.79	86.81
340.018	88.81
340.246	84.81
340.474	92.81
340.702	94.81
340.93	91.81
341.158	105.81
341.386	79.81
341.614	83.81
341.842	79.81
342.07	86.81
342.298	90.81
342.526	84.81
342.754	78.81
342.981	95.81
343.209	80.81
343.437	106.81
343.665	96.81
343.893	96.81
344.12	91.81
344.348	91.81
344.576	84.81
344.804	95.81
345.031	77.81
345.259	91.81
345.487	82.81
345.714	92.81
345.942	86.81
346.17	94.81
346.397	93.81
346.625	75.81
346.853	77.81
347.08	87.81
347.308	89.81
347.535	83.81
347.763	98.81
347.99	77.81
348.218	80.81
348.445	82.81
348.673	76.81
348.9	92.81
349.128	98.81
349.355	86.81
349.583	78.81
349.81	94.81
350.037	83.81
350.265	96.81
350.492	88.81
350.72	86.81
350.947	86.81
351.174	104.81
351.402	95.81
351.629	81.81
351.856	93.81
352.083	82.81
352.311	81.81
352.538	89.81
352.765	98.81
352.992	92.81
353.22	87.81
353.447	99.81
353.674	87.81
353.901	88.81
354.128	89.81
354.355	72.81
354.583	76.81
354.81	93.81
355.037	78.81
355.264	83.81
355.491	83.81
355.718	87.81
355.945	83.81
356.172	90.81
356.399	77.81
356.626	77.81
356.853	60.81
357.08	96.81
357.307	93.81
357.534	93.81
357.761	89.81
357.988	94.81
358.215	89.81
358.441	86.81
358.668	84.81
358.895	86.81
359.122	93.81
359.349	87.81
359.576	94.81
359.802	98.81
360.029	87.81
360.256	107.81
360.483	71.81
360.709	77.81
360.936	93.81
361.163	78.81
361.39	88.81
361.616	87.81
361.843	86.81
362.07	91.81
362.296	87.81
362.523	73.81
362.749	87.81
362.976	74.81
363.203	72.81
363.429	87.81
363.656	103.81
363.882	80.81
364.109	109.81
364.335	79.81
364.562	71.81
364.788	86.81
365.015	74.81
365.241	82.81
365.468	64.81
365.694	87.81
365.92	85.81
366.147	101.81
366.373	86.81
366.599	76.81
366.826	77.81
367.052	85.81
367.278	77.81
367.505	87.81
367.731	99.81
367.957	81.81
368.184	75.81
368.41	86.81
368.636	78.81
368.862	97.81
369.089	88.81
369.315	84.81
369.541	93.81
369.767	79.81
369.993	75.81
370.219	84.81
370.445	107.81
370.672	92.81
370.898	70.81
371.124	74.81
371.35	79.81
371.576	73.81
371.802	67.81
372.028	82.81
372.254	94.81
372.48	87.81
372.706	81.81
372.932	77.81
373.158	81.81
373.384	92.81
373.61	101.81
373.835	90.81
374.061	73.81
374.287	77.81
374.513	76.81
374.739	71.81
374.965	83.81
375.191	85.81
375.416	89.81
375.642	87.81
375.868	87.81
376.094	76.81
376.319	75.81
376.545	75.81
376.771	81.81
376.997	85.81
377.222	88.81
377.448	95.81
377.674	91.81
377.899	95.81
378.125	79.81
378.35	90.81
378.576	94.81
378.802	71.81
379.027	88.81
379.253	89.81
379.478	92.81
379.704	79.81
379.929	83.81
380.155	93.81
380.38	83.81
380.606	82.81
380.831	87.81
381.057	80.81
381.282	88.81
381.507	82.81
381.733	86.81
381.958	84.81
382.184	92.81
382.409	79.81
382.634	98.81
382.86	83.81
383.085	95.81
383.31	82.81
383.535	95.81
383.761	95.81
383.986	91.81
384.211	86.81
384.436	89.81
384.662	84.81
384.887	75.81
385.112	90.81
385.337	92.81
385.562	76.81
385.787	93.81
386.013	82.81
386.238	90.81
386.463	82.81
386.688	84.81
386.913	91.81
387.138	82.81
387.363	93.81
387.588	85.81
387.813	89.81
388.038	93.81
388.263	99.81
388.488	76.81
388.713	85.81
388.938	84.81
389.163	88.81
389.387	80.81
389.612	78.81
389.837	103.81
390.062	95.81
390.287	93.81
390.512	88.81
390.736	76.81
390.961	77.81
391.186	70.81
391.411	87.81
391.636	73.81
391.86	83.81
392.085	82.81
392.31	86.81
392.534	85.81
392.759	86.81
392.984	87.81
393.208	79.81
393.433	89.81
393.658	106.81
393.882	71.81
394.107	94.81
394.331	80.81
394.556	90.81
394.78	98.81
395.005	86.81
395.229	86.81
395.454	83.81
395.678	88.81
395.903	89.81
396.127	93.81
396.352	86.81
396.576	87.81
396.801	82.81
397.025	85.81
397.249	80.81
397.474	94.81
397.698	86.81
397.922	87.81
398.147	81.81
398.371	85.81
398.595	66.81
398.82	84.81
399.044	78.81
399.268	93.81
399.492	95.81
399.717	96.81
399.941	74.81
400.165	97.81
400.389	91.81
400.613	83.81
400.837	97.81
401.062	76.81
401.286	81.81
401.51	85.81
401.734	79.81
401.958	103.81
402.182	91.81
402.406	87.81
402.63	71.81
402.854	81.81
403.078	82.81
403.302	83.81
403.526	93.81
403.75	88.81
403.974	86.81
404.198	83.81
404.422	95.81
404.645	89.81
404.869	89.81
405.093	95.81
405.317	94.81
405.541	80.81
405.765	80.81
405.988	85.81
406.212	96.81
406.436	83.81
406.66	79.81
406.883	112.81
407.107	84.81
407.331	90.81
407.555	92.81
407.778	92.81
408.002	94.81
408.226	95.81
408.449	86.81
408.673	94.81
408.896	79.81
409.12	99.81
409.344	85.81
409.567	92.81
409.791	87.81
410.014	91.81
410.238	87.81
410.461	79.81
410.685	82.81
410.908	87.81
411.132	91.81
411.355	95.81
411.578	87.81
411.802	73.81
412.025	87.81
412.249	69.81
412.472	80.81
412.695	86.81
412.919	83.81
413.142	91.81
413.365	71.81
413.589	87.81
413.812	95.81
414.035	73.81
414.258	86.81
414.482	86.81
414.705	81.81
414.928	88.81
415.151	97.81
415.374	103.81
415.597	93.81
415.821	94.81
416.044	97.81
416.267	94.81
416.49	73.81
416.713	86.81
416.936	95.81
417.159	80.81
417.382	83.81
417.605	83.81
417.828	90.81
418.051	83.81
418.274	93.81
418.497	66.81
418.72	86.81
418.943	87.81
419.166	92.81
419.389	94.81
419.611	98.81
419.834	87.81
420.057	88.81
420.28	86.81
420.503	89.81
420.726	98.81
420.948	96.81
421.171	84.81
421.394	78.81
421.617	80.81
421.839	66.81
422.062	96.81
422.285	92.81
422.507	80.81
422.73	82.81
422.953	85.81
423.175	90.81
423.398	86.81
423.621	82.81
423.843	86.81
424.066	71.81
424.288	76.81
424.511	83.81
424.733	81.81
424.956	82.81
425.178	95.81
425.401	83.81
425.623	80.81
425.846	86.81
426.068	91.81
426.291	81.81
426.513	97.81
426.735	89.81
426.958	101.81
427.18	91.81
427.402	77.81
427.625	82.81
427.847	71.81
428.069	89.81
428.292	89.81
428.514	77.81
428.736	85.81
428.958	94.81
429.181	87.81
429.403	72.81
429.625	97.81
429.847	91.81
430.069	99.81
430.292	96.81
430.514	91.81
430.736	76.81
430.958	97.81
431.18	93.81
431.402	80.81
431.624	77.81
431.846	83.81
432.068	81.81
432.29	79.81
432.512	101.81
432.734	92.81
432.956	85.81
433.178	82.81
433.4	88.81
433.622	94.81
433.844	97.81
434.066	91.81
434.287	81.81
434.509	85.81
434.731	81.81
434.953	86.81
435.175	89.81
435.397	85.81
435.618	95.81
435.84	84.81
436.062	87.81
436.284	87.81
436.505	76.81
436.727	85.81
436.949	78.81
437.17	89.81
437.392	72.81
437.614	93.81
437.835	86.81
438.057	85.81
438.278	91.81
438.5	88.81
438.721	91.81
438.943	80.81
439.165	95.81
439.386	86.81
439.608	95.81
439.829	95.81
440.05	92.81
440.272	91.81
440.493	94.81
440.715	91.81
440.936	90.81
441.158	93.81
441.379	86.81
441.6	87.81
441.822	93.81
442.043	82.81
442.264	92.81
442.486	87.81
442.707	90.81
442.928	87.81
443.149	96.81
443.371	106.81
443.592	85.81
443.813	95.81
444.034	98.81
444.255	98.81
444.476	94.81
444.698	79.81
444.919	86.81
445.14	157.81
445.361	111.81
445.582	85.81
445.803	105.81
446.024	91.81
446.245	82.81
446.466	88.81
446.687	83.81
446.908	65.81
447.129	64.81
447.35	83.81
447.571	98.81
447.792	89.81
448.013	92.81
448.234	77.81
448.455	73.81
448.675	88.81
448.896	89.81
449.117	89.81
449.338	88.81
449.559	88.81
449.779	96.81
450	87.81
450.221	83.81
450.442	86.81
450.662	93.81
450.883	83.81
451.104	79.81
451.324	87.81
451.545	101.81
451.766	83.81
451.986	92.81
452.207	91.81
452.428	81.81
452.648	85.81
452.869	80.81
453.089	80.81
453.31	80.81
453.53	83.81
453.751	81.81
453.971	78.81
454.192	84.81
454.412	77.81
454.633	82.81
454.853	81.81
455.073	74.81
455.294	79.81
455.514	87.81
455.734	76.81
455.955	95.81
456.175	87.81
456.395	86.81
456.616	73.81
456.836	89.81
457.056	88.81
457.276	77.81
457.497	95.81
457.717	94.81
457.937	84.81
458.157	98.81
458.377	89.81
458.598	73.81
458.818	89.81
459.038	90.81
459.258	99.81
459.478	85.81
459.698	88.81
459.918	87.81
460.138	81.81
460.358	87.81
460.578	82.81
460.798	96.81
461.018	89.81
461.238	110.81
461.458	79.81
461.678	79.81
461.898	89.81
462.118	85.81
462.338	95.81
462.558	92.81
462.777	79.81
462.997	88.81
463.217	103.81
463.437	86.81
463.657	68.81
463.876	95.81
464.096	85.81
464.316	79.81
464.536	68.81
464.755	83.81
464.975	81.81
465.195	97.81
465.414	90.81
465.634	80.81
465.854	101.81
466.073	81.81
466.293	79.81
466.512	93.81
466.732	89.81
466.951	93.81
467.171	83.81
467.391	93.81
467.61	83.81
467.829	68.81
468.049	81.81
468.268	91.81
468.488	86.81
468.707	93.81
468.927	98.81
469.146	83.81
469.365	88.81
469.585	85.81
469.804	93.81
470.023	67.81
470.243	71.81
470.462	72.81
470.681	90.81
470.901	78.81
471.12	74.81
471.339	77.81
471.558	87.81
471.777	83.81
471.997	92.81
472.216	85.81
472.435	88.81
472.654	105.81
472.873	94.81
473.092	93.81
473.311	94.81
473.53	84.81
473.749	92.81
473.968	87.81
474.187	79.81
474.406	86.81
474.625	89.81
474.844	85.81
475.063	91.81
475.282	89.81
475.501	83.81
475.72	72.81
475.939	78.81
476.158	89.81
476.377	85.81
476.596	78.81
476.814	91.81
477.033	78.81
477.252	94.81
477.471	94.81
477.69	99.81
477.908	86.81
478.127	75.81
478.346	87.81
478.564	97.81
478.783	78.81
479.002	83.81
479.22	73.81
479.439	90.81
479.658	82.81
479.876	84.81
480.095	92.81
480.313	72.81
480.532	89.81
480.751	89.81
480.969	86.81
481.188	79.81
481.406	79.81
481.624	103.81
481.843	95.81
482.061	103.81
482.28	82.81
482.498	103.81
482.717	86.81
482.935	100.81
483.153	87.81
483.372	87.81
483.59	92.81
483.808	83.81
484.027	97.81
484.245	82.81
484.463	96.81
484.681	101.81
484.9	90.81
485.118	91.81
485.336	93.81
485.554	85.81
485.772	83.81
485.99	79.81
486.209	95.81
486.427	97.81
486.645	80.81
486.863	93.81
487.081	87.81
487.299	90.81
487.517	83.81
487.735	75.81
487.953	97.81
488.171	106.81
488.389	88.81
488.607	102.81
488.825	87.81
489.043	86.81
489.261	82.81
489.479	90.81
489.696	85.81
489.914	90.81
490.132	81.81
490.35	101.81
490.568	79.81
490.786	85.81
491.003	81.81
491.221	92.81
491.439	91.81
491.657	89.81
491.874	88.81
492.092	98.81
492.31	93.81
492.527	96.81
492.745	91.81
492.963	100.81
493.18	75.81
493.398	96.81
493.615	80.81
493.833	83.81
494.05	101.81
494.268	88.81
494.485	85.81
494.703	90.81
494.92	82.81
495.138	86.81
495.355	78.81
495.573	88.81
495.79	89.81
496.008	89.81
496.225	93.81
496.442	74.81
496.66	99.81
496.877	106.81
497.094	83.81
497.312	85.81
497.529	94.81
497.746	93.81
497.963	96.81
498.181	91.81
498.398	94.81
498.615	87.81
498.832	90.81
499.049	103.81
499.267	92.81
499.484	101.81
499.701	89.81
499.918	102.81
500.135	98.81
500.352	100.81
500.569	114.81
500.786	102.81
501.003	103.81
501.22	90.81
501.437	104.81
501.654	106.81
501.871	90.81
502.088	93.81
502.305	103.81
502.522	88.81
502.739	90.81
502.956	90.81
503.172	93.81
503.389	98.81
503.606	77.81
503.823	101.81
504.04	99.81
504.256	105.81
504.473	97.81
504.69	92.81
504.907	104.81
505.123	94.81
505.34	77.81
505.557	82.81
505.773	95.81
505.99	89.81
506.207	87.81
506.423	92.81
506.64	98.81
506.856	78.81
507.073	90.81
507.289	94.81
507.506	92.81
507.722	93.81
507.939	100.81
508.155	107.81
508.372	94.81
508.588	83.81
508.805	95.81
509.021	88.81
509.238	76.81
509.454	80.81
509.67	92.81
509.887	94.81
510.103	89.81
510.319	94.81
510.536	92.81
510.752	93.81
510.968	94.81
511.184	89.81
511.401	90.81
511.617	83.81
511.833	85.81
512.049	81.81
512.265	89.81
512.481	81.81
512.698	98.81
512.914	77.81
513.13	88.81
513.346	90.81
513.562	110.81
513.778	95.81
513.994	73.81
514.21	90.81
514.426	103.81
514.642	91.81
514.858	93.81
515.074	82.81
515.29	91.81
515.506	87.81
515.721	95.81
515.937	92.81
516.153	88.81
516.369	88.81
516.585	82.81
516.801	79.81
517.016	89.81
517.232	97.81
517.448	82.81
517.664	106.81
517.879	89.81
518.095	86.81
518.311	99.81
518.527	95.81
518.742	87.81
518.958	87.81
519.173	92.81
519.389	86.81
