Data from BG_HRD10591_065.txt Node
Date: Fri May 16 15:27:19 EDT 2025
User: Yrep
Spectrometer: HR+D1059
Trigger mode: 1
Integration Time (sec): 1.000000E-1
Scans to average: 1
Electric dark correction enabled: true
Nonlinearity correction enabled: false
Boxcar width: 0
XAxis mode: Wavelengths
Number of Pixels in Spectrum: 2048
>>>>>Begin Spectral Data<<<<<
223.165	-5.12
223.4	-5.12
223.635	-5.12
223.869	-25.12
224.104	-32.12
224.338	-31.12
224.573	-4.12
224.808	-0.12
225.042	-24.12
225.277	-8.12
225.511	7.88
225.746	6.88
225.98	-5.12
226.215	20.88
226.449	11.88
226.683	22.88
226.918	18.88
227.152	45.88
227.387	37.88
227.621	39.88
227.856	38.88
228.09	47.88
228.324	45.88
228.559	55.88
228.793	56.88
229.027	58.88
229.262	54.88
229.496	81.88
229.73	63.88
229.964	72.88
230.199	77.88
230.433	66.88
230.667	76.88
230.901	69.88
231.136	84.88
231.37	81.88
231.604	80.88
231.838	79.88
232.072	80.88
232.306	86.88
232.541	78.88
232.775	79.88
233.009	75.88
233.243	76.88
233.477	73.88
233.711	93.88
233.945	68.88
234.179	59.88
234.413	67.88
234.647	86.88
234.881	80.88
235.115	89.88
235.349	76.88
235.583	80.88
235.817	76.88
236.051	84.88
236.285	75.88
236.519	87.88
236.753	72.88
236.987	69.88
237.221	70.88
237.455	76.88
237.689	76.88
237.922	56.88
238.156	93.88
238.39	81.88
238.624	87.88
238.858	69.88
239.091	73.88
239.325	76.88
239.559	64.88
239.793	76.88
240.027	74.88
240.26	85.88
240.494	78.88
240.728	74.88
240.961	65.88
241.195	84.88
241.429	73.88
241.662	66.88
241.896	83.88
242.13	70.88
242.363	77.88
242.597	80.88
242.83	73.88
243.064	86.88
243.298	98.88
243.531	87.88
243.765	78.88
243.998	74.88
244.232	71.88
244.465	70.88
244.699	67.88
244.932	74.88
245.166	83.88
245.399	70.88
245.633	99.88
245.866	75.88
246.099	85.88
246.333	77.88
246.566	78.88
246.8	71.88
247.033	67.88
247.266	71.88
247.5	79.88
247.733	69.88
247.966	76.88
248.2	71.88
248.433	79.88
248.666	65.88
248.899	75.88
249.133	83.88
249.366	81.88
249.599	91.88
249.832	75.88
250.066	80.88
250.299	75.88
250.532	72.88
250.765	71.88
250.998	68.88
251.231	77.88
251.465	72.88
251.698	77.88
251.931	89.88
252.164	82.88
252.397	79.88
252.63	91.88
252.863	85.88
253.096	93.88
253.329	74.88
253.562	86.88
253.795	78.88
254.028	81.88
254.261	74.88
254.494	73.88
254.727	79.88
254.96	79.88
255.193	78.88
255.426	87.88
255.659	65.88
255.892	67.88
256.124	63.88
256.357	74.88
256.59	85.88
256.823	75.88
257.056	80.88
257.289	81.88
257.521	65.88
257.754	81.88
257.987	88.88
258.22	84.88
258.452	87.88
258.685	78.88
258.918	80.88
259.151	81.88
259.383	76.88
259.616	73.88
259.849	80.88
260.081	87.88
260.314	88.88
260.547	85.88
260.779	89.88
261.012	77.88
261.244	87.88
261.477	88.88
261.71	65.88
261.942	73.88
262.175	80.88
262.407	68.88
262.64	82.88
262.872	85.88
263.105	75.88
263.337	83.88
263.57	73.88
263.802	75.88
264.035	85.88
264.267	79.88
264.499	78.88
264.732	94.88
264.964	81.88
265.197	81.88
265.429	97.88
265.661	70.88
265.894	77.88
266.126	77.88
266.358	63.88
266.591	73.88
266.823	85.88
267.055	79.88
267.287	69.88
267.52	80.88
267.752	83.88
267.984	85.88
268.216	82.88
268.448	76.88
268.681	81.88
268.913	84.88
269.145	78.88
269.377	91.88
269.609	89.88
269.841	77.88
270.073	86.88
270.306	75.88
270.538	81.88
270.77	81.88
271.002	77.88
271.234	81.88
271.466	100.88
271.698	86.88
271.93	81.88
272.162	83.88
272.394	77.88
272.626	83.88
272.858	81.88
273.09	83.88
273.322	81.88
273.553	91.88
273.785	75.88
274.017	77.88
274.249	71.88
274.481	89.88
274.713	75.88
274.945	99.88
275.176	78.88
275.408	80.88
275.64	84.88
275.872	74.88
276.104	90.88
276.335	89.88
276.567	77.88
276.799	85.88
277.031	87.88
277.262	74.88
277.494	84.88
277.726	77.88
277.957	88.88
278.189	89.88
278.421	71.88
278.652	83.88
278.884	89.88
279.115	87.88
279.347	86.88
279.579	91.88
279.81	88.88
280.042	72.88
280.273	76.88
280.505	88.88
280.736	87.88
280.968	85.88
281.199	86.88
281.431	74.88
281.662	73.88
281.894	93.88
282.125	87.88
282.356	84.88
282.588	79.88
282.819	78.88
283.051	75.88
283.282	86.88
283.513	83.88
283.745	88.88
283.976	77.88
284.207	73.88
284.439	86.88
284.67	81.88
284.901	83.88
285.132	78.88
285.364	78.88
285.595	80.88
285.826	81.88
286.057	87.88
286.288	85.88
286.52	79.88
286.751	76.88
286.982	73.88
287.213	83.88
287.444	96.88
287.675	85.88
287.906	87.88
288.138	78.88
288.369	80.88
288.6	88.88
288.831	96.88
289.062	94.88
289.293	83.88
289.524	93.88
289.755	79.88
289.986	76.88
290.217	73.88
290.448	80.88
290.679	81.88
290.91	87.88
291.141	95.88
291.371	69.88
291.602	95.88
291.833	88.88
292.064	83.88
292.295	72.88
292.526	75.88
292.757	84.88
292.987	82.88
293.218	93.88
293.449	76.88
293.68	73.88
293.91	75.88
294.141	88.88
294.372	86.88
294.603	80.88
294.833	83.88
295.064	71.88
295.295	79.88
295.525	90.88
295.756	86.88
295.987	76.88
296.217	81.88
296.448	88.88
296.679	75.88
296.909	92.88
297.14	73.88
297.37	85.88
297.601	79.88
297.831	72.88
298.062	98.88
298.292	86.88
298.523	79.88
298.753	93.88
298.984	91.88
299.214	89.88
299.445	92.88
299.675	89.88
299.905	78.88
300.136	81.88
300.366	84.88
300.597	87.88
300.827	75.88
301.057	95.88
301.288	94.88
301.518	84.88
301.748	75.88
301.979	74.88
302.209	95.88
302.439	77.88
302.669	81.88
302.9	72.88
303.13	89.88
303.36	81.88
303.59	87.88
303.82	78.88
304.051	84.88
304.281	68.88
304.511	94.88
304.741	81.88
304.971	82.88
305.201	85.88
305.431	72.88
305.661	92.88
305.891	81.88
306.121	91.88
306.352	69.88
306.582	86.88
306.812	82.88
307.042	100.88
307.272	89.88
307.502	74.88
307.731	76.88
307.961	82.88
308.191	71.88
308.421	82.88
308.651	86.88
308.881	78.88
309.111	84.88
309.341	85.88
309.571	93.88
309.8	81.88
310.03	80.88
310.26	76.88
310.49	92.88
310.72	88.88
310.949	103.88
311.179	83.88
311.409	75.88
311.639	74.88
311.868	94.88
312.098	86.88
312.328	84.88
312.557	86.88
312.787	86.88
313.017	106.88
313.246	87.88
313.476	71.88
313.706	80.88
313.935	88.88
314.165	83.88
314.394	93.88
314.624	90.88
314.853	93.88
315.083	71.88
315.312	72.88
315.542	79.88
315.771	70.88
316.001	82.88
316.23	90.88
316.46	79.88
316.689	88.88
316.919	76.88
317.148	84.88
317.377	87.88
317.607	93.88
317.836	77.88
318.065	74.88
318.295	88.88
318.524	82.88
318.753	80.88
318.983	73.88
319.212	69.88
319.441	84.88
319.67	77.88
319.9	72.88
320.129	82.88
320.358	78.88
320.587	87.88
320.816	83.88
321.046	93.88
321.275	83.88
321.504	62.88
321.733	78.88
321.962	73.88
322.191	95.88
322.42	73.88
322.649	88.88
322.878	95.88
323.108	89.88
323.337	81.88
323.566	71.88
323.795	81.88
324.024	73.88
324.253	80.88
324.482	88.88
324.71	99.88
324.939	89.88
325.168	89.88
325.397	85.88
325.626	76.88
325.855	83.88
326.084	68.88
326.313	79.88
326.542	74.88
326.77	79.88
326.999	80.88
327.228	88.88
327.457	83.88
327.686	76.88
327.914	87.88
328.143	80.88
328.372	81.88
328.6	87.88
328.829	81.88
329.058	74.88
329.287	78.88
329.515	82.88
329.744	93.88
329.972	77.88
330.201	88.88
330.43	88.88
330.658	91.88
330.887	75.88
331.115	89.88
331.344	83.88
331.572	88.88
331.801	73.88
332.03	93.88
332.258	96.88
332.486	77.88
332.715	90.88
332.943	94.88
333.172	86.88
333.4	70.88
333.629	89.88
333.857	67.88
334.085	81.88
334.314	64.88
334.542	67.88
334.771	89.88
334.999	71.88
335.227	82.88
335.455	90.88
335.684	103.88
335.912	79.88
336.14	75.88
336.369	80.88
336.597	76.88
336.825	101.88
337.053	83.88
337.281	83.88
337.51	75.88
337.738	77.88
337.966	84.88
338.194	81.88
338.422	81.88
338.65	86.88
338.878	87.88
339.106	85.88
339.334	87.88
339.562	85.88
339.79	96.88
340.018	79.88
340.246	89.88
340.474	87.88
340.702	84.88
340.93	81.88
341.158	65.88
341.386	85.88
341.614	84.88
341.842	83.88
342.07	74.88
342.298	75.88
342.526	79.88
342.754	82.88
342.981	89.88
343.209	85.88
343.437	99.88
343.665	87.88
343.893	88.88
344.12	79.88
344.348	99.88
344.576	87.88
344.804	79.88
345.031	83.88
345.259	81.88
345.487	84.88
345.714	86.88
345.942	83.88
346.17	86.88
346.397	83.88
346.625	87.88
346.853	79.88
347.08	85.88
347.308	87.88
347.535	95.88
347.763	74.88
347.99	81.88
348.218	92.88
348.445	76.88
348.673	88.88
348.9	99.88
349.128	88.88
349.355	75.88
349.583	96.88
349.81	86.88
350.037	89.88
350.265	85.88
350.492	79.88
350.72	82.88
350.947	83.88
351.174	71.88
351.402	97.88
351.629	93.88
351.856	78.88
352.083	67.88
352.311	72.88
352.538	78.88
352.765	74.88
352.992	96.88
353.22	80.88
353.447	86.88
353.674	87.88
353.901	88.88
354.128	101.88
354.355	87.88
354.583	86.88
354.81	83.88
355.037	76.88
355.264	83.88
355.491	75.88
355.718	76.88
355.945	88.88
356.172	81.88
356.399	85.88
356.626	97.88
356.853	94.88
357.08	83.88
357.307	81.88
357.534	77.88
357.761	92.88
357.988	87.88
358.215	86.88
358.441	87.88
358.668	79.88
358.895	77.88
359.122	78.88
359.349	84.88
359.576	82.88
359.802	92.88
360.029	93.88
360.256	90.88
360.483	92.88
360.709	78.88
360.936	83.88
361.163	84.88
361.39	80.88
361.616	85.88
361.843	82.88
362.07	79.88
362.296	86.88
362.523	67.88
362.749	80.88
362.976	85.88
363.203	94.88
363.429	82.88
363.656	71.88
363.882	79.88
364.109	81.88
364.335	92.88
364.562	86.88
364.788	86.88
365.015	79.88
365.241	89.88
365.468	87.88
365.694	88.88
365.92	80.88
366.147	76.88
366.373	87.88
366.599	86.88
366.826	89.88
367.052	81.88
367.278	88.88
367.505	86.88
367.731	83.88
367.957	74.88
368.184	81.88
368.41	85.88
368.636	83.88
368.862	85.88
369.089	84.88
369.315	88.88
369.541	76.88
369.767	92.88
369.993	90.88
370.219	80.88
370.445	88.88
370.672	78.88
370.898	80.88
371.124	88.88
371.35	81.88
371.576	83.88
371.802	87.88
372.028	79.88
372.254	79.88
372.48	84.88
372.706	88.88
372.932	71.88
373.158	76.88
373.384	77.88
373.61	74.88
373.835	79.88
374.061	80.88
374.287	88.88
374.513	83.88
374.739	83.88
374.965	88.88
375.191	93.88
375.416	83.88
375.642	87.88
375.868	73.88
376.094	98.88
376.319	73.88
376.545	76.88
376.771	85.88
376.997	74.88
377.222	93.88
377.448	91.88
377.674	72.88
377.899	89.88
378.125	90.88
378.35	81.88
378.576	85.88
378.802	72.88
379.027	82.88
379.253	77.88
379.478	95.88
379.704	93.88
379.929	73.88
380.155	80.88
380.38	72.88
380.606	90.88
380.831	100.88
381.057	105.88
381.282	84.88
381.507	87.88
381.733	96.88
381.958	89.88
382.184	76.88
382.409	78.88
382.634	97.88
382.86	83.88
383.085	84.88
383.31	75.88
383.535	81.88
383.761	85.88
383.986	87.88
384.211	83.88
384.436	71.88
384.662	87.88
384.887	88.88
385.112	86.88
385.337	90.88
385.562	74.88
385.787	85.88
386.013	80.88
386.238	87.88
386.463	93.88
386.688	82.88
386.913	84.88
387.138	78.88
387.363	74.88
387.588	90.88
387.813	80.88
388.038	86.88
388.263	75.88
388.488	82.88
388.713	76.88
388.938	80.88
389.163	70.88
389.387	74.88
389.612	67.88
389.837	88.88
390.062	84.88
390.287	77.88
390.512	89.88
390.736	78.88
390.961	79.88
391.186	88.88
391.411	83.88
391.636	101.88
391.86	88.88
392.085	77.88
392.31	77.88
392.534	83.88
392.759	92.88
392.984	96.88
393.208	84.88
393.433	82.88
393.658	95.88
393.882	83.88
394.107	71.88
394.331	72.88
394.556	87.88
394.78	90.88
395.005	85.88
395.229	84.88
395.454	62.88
395.678	75.88
395.903	85.88
396.127	92.88
396.352	96.88
396.576	76.88
396.801	71.88
397.025	81.88
397.249	78.88
397.474	92.88
397.698	88.88
397.922	76.88
398.147	73.88
398.371	79.88
398.595	82.88
398.82	79.88
399.044	80.88
399.268	73.88
399.492	98.88
399.717	67.88
399.941	87.88
400.165	84.88
400.389	80.88
400.613	79.88
400.837	80.88
401.062	78.88
401.286	86.88
401.51	78.88
401.734	84.88
401.958	73.88
402.182	76.88
402.406	97.88
402.63	76.88
402.854	77.88
403.078	87.88
403.302	74.88
403.526	91.88
403.75	77.88
403.974	75.88
404.198	70.88
404.422	80.88
404.645	87.88
404.869	88.88
405.093	92.88
405.317	87.88
405.541	74.88
405.765	76.88
405.988	81.88
406.212	87.88
406.436	90.88
406.66	91.88
406.883	84.88
407.107	92.88
407.331	87.88
407.555	79.88
407.778	82.88
408.002	75.88
408.226	79.88
408.449	89.88
408.673	80.88
408.896	76.88
409.12	84.88
409.344	73.88
409.567	88.88
409.791	69.88
410.014	89.88
410.238	78.88
410.461	87.88
410.685	69.88
410.908	81.88
411.132	89.88
411.355	95.88
411.578	79.88
411.802	74.88
412.025	85.88
412.249	92.88
412.472	77.88
412.695	85.88
412.919	67.88
413.142	88.88
413.365	73.88
413.589	84.88
413.812	93.88
414.035	79.88
414.258	77.88
414.482	81.88
414.705	80.88
414.928	94.88
415.151	81.88
415.374	80.88
415.597	71.88
415.821	84.88
416.044	87.88
416.267	101.88
416.49	61.88
416.713	80.88
416.936	79.88
417.159	84.88
417.382	78.88
417.605	79.88
417.828	74.88
418.051	79.88
418.274	68.88
418.497	89.88
418.72	86.88
418.943	74.88
419.166	83.88
419.389	73.88
419.611	77.88
419.834	90.88
420.057	76.88
420.28	70.88
420.503	71.88
420.726	83.88
420.948	65.88
421.171	72.88
421.394	87.88
421.617	68.88
421.839	73.88
422.062	71.88
422.285	73.88
422.507	81.88
422.73	71.88
422.953	83.88
423.175	82.88
423.398	81.88
423.621	78.88
423.843	67.88
424.066	77.88
424.288	92.88
424.511	77.88
424.733	76.88
424.956	85.88
425.178	81.88
425.401	72.88
425.623	82.88
425.846	83.88
426.068	71.88
426.291	81.88
426.513	79.88
426.735	79.88
426.958	72.88
427.18	87.88
427.402	85.88
427.625	90.88
427.847	79.88
428.069	69.88
428.292	73.88
428.514	80.88
428.736	84.88
428.958	89.88
429.181	80.88
429.403	93.88
429.625	97.88
429.847	85.88
430.069	85.88
430.292	77.88
430.514	80.88
430.736	81.88
430.958	77.88
431.18	83.88
431.402	89.88
431.624	91.88
431.846	92.88
432.068	92.88
432.29	84.88
432.512	86.88
432.734	91.88
432.956	75.88
433.178	71.88
433.4	80.88
433.622	87.88
433.844	85.88
434.066	73.88
434.287	77.88
434.509	78.88
434.731	75.88
434.953	77.88
435.175	81.88
435.397	83.88
435.618	85.88
435.84	67.88
436.062	69.88
436.284	80.88
436.505	78.88
436.727	89.88
436.949	78.88
437.17	73.88
437.392	85.88
437.614	81.88
437.835	83.88
438.057	75.88
438.278	79.88
438.5	70.88
438.721	72.88
438.943	75.88
439.165	77.88
439.386	84.88
439.608	73.88
439.829	81.88
440.05	81.88
440.272	75.88
440.493	82.88
440.715	79.88
440.936	75.88
441.158	74.88
441.379	81.88
441.6	84.88
441.822	81.88
442.043	73.88
442.264	76.88
442.486	85.88
442.707	81.88
442.928	84.88
443.149	81.88
443.371	71.88
443.592	74.88
443.813	89.88
444.034	81.88
444.255	72.88
444.476	78.88
444.698	80.88
444.919	64.88
445.14	158.88
445.361	110.88
445.582	85.88
445.803	94.88
446.024	83.88
446.245	76.88
446.466	68.88
446.687	86.88
446.908	78.88
447.129	82.88
447.35	75.88
447.571	83.88
447.792	71.88
448.013	80.88
448.234	74.88
448.455	91.88
448.675	85.88
448.896	81.88
449.117	75.88
449.338	86.88
449.559	96.88
449.779	77.88
450	77.88
450.221	73.88
450.442	84.88
450.662	81.88
450.883	81.88
451.104	91.88
451.324	79.88
451.545	85.88
451.766	79.88
451.986	78.88
452.207	81.88
452.428	89.88
452.648	89.88
452.869	81.88
453.089	66.88
453.31	88.88
453.53	80.88
453.751	75.88
453.971	77.88
454.192	83.88
454.412	80.88
454.633	79.88
454.853	77.88
455.073	59.88
455.294	70.88
455.514	87.88
455.734	75.88
455.955	81.88
456.175	79.88
456.395	81.88
456.616	71.88
456.836	79.88
457.056	88.88
457.276	76.88
457.497	84.88
457.717	87.88
457.937	84.88
458.157	77.88
458.377	74.88
458.598	73.88
458.818	73.88
459.038	88.88
459.258	78.88
459.478	87.88
459.698	82.88
459.918	79.88
460.138	83.88
460.358	72.88
460.578	105.88
460.798	91.88
461.018	81.88
461.238	86.88
461.458	74.88
461.678	74.88
461.898	81.88
462.118	76.88
462.338	78.88
462.558	80.88
462.777	79.88
462.997	82.88
463.217	89.88
463.437	61.88
463.657	64.88
463.876	93.88
464.096	89.88
464.316	78.88
464.536	77.88
464.755	98.88
464.975	73.88
465.195	88.88
465.414	75.88
465.634	81.88
465.854	62.88
466.073	90.88
466.293	85.88
466.512	73.88
466.732	94.88
466.951	84.88
467.171	91.88
467.391	85.88
467.61	76.88
467.829	88.88
468.049	82.88
468.268	88.88
468.488	77.88
468.707	74.88
468.927	77.88
469.146	74.88
469.365	77.88
469.585	74.88
469.804	78.88
470.023	78.88
470.243	69.88
470.462	83.88
470.681	74.88
470.901	68.88
471.12	86.88
471.339	80.88
471.558	72.88
471.777	88.88
471.997	94.88
472.216	89.88
472.435	69.88
472.654	76.88
472.873	84.88
473.092	71.88
473.311	90.88
473.53	76.88
473.749	74.88
473.968	103.88
474.187	83.88
474.406	65.88
474.625	73.88
474.844	81.88
475.063	76.88
475.282	75.88
475.501	84.88
475.72	92.88
475.939	87.88
476.158	87.88
476.377	92.88
476.596	81.88
476.814	74.88
477.033	71.88
477.252	78.88
477.471	66.88
477.69	77.88
477.908	88.88
478.127	75.88
478.346	92.88
478.564	97.88
478.783	84.88
479.002	70.88
479.22	76.88
479.439	80.88
479.658	74.88
479.876	87.88
480.095	79.88
480.313	81.88
480.532	66.88
480.751	77.88
480.969	92.88
481.188	85.88
481.406	71.88
481.624	69.88
481.843	76.88
482.061	73.88
482.28	75.88
482.498	75.88
482.717	88.88
482.935	85.88
483.153	88.88
483.372	75.88
483.59	68.88
483.808	71.88
484.027	90.88
484.245	78.88
484.463	82.88
484.681	79.88
484.9	82.88
485.118	83.88
485.336	95.88
485.554	88.88
485.772	81.88
485.99	91.88
486.209	83.88
486.427	79.88
486.645	87.88
486.863	70.88
487.081	78.88
487.299	94.88
487.517	89.88
487.735	70.88
487.953	83.88
488.171	91.88
488.389	78.88
488.607	90.88
488.825	69.88
489.043	76.88
489.261	86.88
489.479	89.88
489.696	89.88
489.914	77.88
490.132	99.88
490.35	87.88
490.568	86.88
490.786	80.88
491.003	80.88
491.221	71.88
491.439	71.88
491.657	77.88
491.874	75.88
492.092	68.88
492.31	88.88
492.527	84.88
492.745	72.88
492.963	82.88
493.18	86.88
493.398	82.88
493.615	73.88
493.833	90.88
494.05	69.88
494.268	88.88
494.485	90.88
494.703	73.88
494.92	79.88
495.138	73.88
495.355	78.88
495.573	79.88
495.79	81.88
496.008	76.88
496.225	80.88
496.442	80.88
496.66	83.88
496.877	89.88
497.094	93.88
497.312	81.88
497.529	85.88
497.746	81.88
497.963	65.88
498.181	88.88
498.398	77.88
498.615	77.88
498.832	71.88
499.049	83.88
499.267	80.88
499.484	72.88
499.701	90.88
499.918	79.88
500.135	77.88
500.352	76.88
500.569	81.88
500.786	74.88
501.003	74.88
501.22	106.88
501.437	84.88
501.654	85.88
501.871	76.88
502.088	82.88
502.305	81.88
502.522	69.88
502.739	92.88
502.956	88.88
503.172	65.88
503.389	76.88
503.606	76.88
503.823	80.88
504.04	96.88
504.256	78.88
504.473	92.88
504.69	82.88
504.907	99.88
505.123	85.88
505.34	84.88
505.557	87.88
505.773	84.88
505.99	82.88
506.207	74.88
506.423	91.88
506.64	103.88
506.856	81.88
507.073	83.88
507.289	80.88
507.506	80.88
507.722	70.88
507.939	74.88
508.155	99.88
508.372	73.88
508.588	75.88
508.805	88.88
509.021	93.88
509.238	94.88
509.454	87.88
509.67	79.88
509.887	85.88
510.103	83.88
510.319	72.88
510.536	83.88
510.752	86.88
510.968	72.88
511.184	71.88
511.401	81.88
511.617	77.88
511.833	85.88
512.049	86.88
512.265	89.88
512.481	77.88
512.698	73.88
512.914	83.88
513.13	83.88
513.346	79.88
513.562	83.88
513.778	99.88
513.994	80.88
514.21	77.88
514.426	94.88
514.642	86.88
514.858	74.88
515.074	79.88
515.29	76.88
515.506	79.88
515.721	67.88
515.937	83.88
516.153	77.88
516.369	83.88
516.585	77.88
516.801	75.88
517.016	85.88
517.232	88.88
517.448	75.88
517.664	79.88
517.879	80.88
518.095	80.88
518.311	86.88
518.527	87.88
518.742	77.88
518.958	81.88
519.173	83.88
519.389	55.88
519.605	70.88
519.82	62.88
520.036	74.88
520.251	91.88
