Data from BG_HRD10591_056.txt Node
Date: Fri May 16 15:27:15 EDT 2025
User: Yrep
Spectrometer: HR+D1059
Trigger mode: 1
Integration Time (sec): 1.000000E-1
Scans to average: 1
Electric dark correction enabled: true
Nonlinearity correction enabled: false
Boxcar width: 0
XAxis mode: Wavelengths
Number of Pixels in Spectrum: 2048
>>>>>Begin Spectral Data<<<<<
223.165	-14.25
223.4	-14.25
223.635	-14.25
223.869	-28.25
224.104	-19.25
224.338	-14.25
224.573	-17.25
224.808	-18.25
225.042	-11.25
225.277	-6.25
225.511	-6.25
225.746	20.75
225.98	14.75
226.215	15.75
226.449	13.75
226.683	14.75
226.918	21.75
227.152	33.75
227.387	33.75
227.621	40.75
227.856	42.75
228.09	45.75
228.324	51.75
228.559	44.75
228.793	50.75
229.027	58.75
229.262	68.75
229.496	69.75
229.73	59.75
229.964	83.75
230.199	71.75
230.433	83.75
230.667	73.75
230.901	78.75
231.136	75.75
231.37	81.75
231.604	91.75
231.838	89.75
232.072	74.75
232.306	74.75
232.541	71.75
232.775	85.75
233.009	73.75
233.243	78.75
233.477	75.75
233.711	73.75
233.945	63.75
234.179	72.75
234.413	83.75
234.647	83.75
234.881	78.75
235.115	64.75
235.349	78.75
235.583	73.75
235.817	79.75
236.051	78.75
236.285	64.75
236.519	74.75
236.753	88.75
236.987	76.75
237.221	73.75
237.455	94.75
237.689	73.75
237.922	78.75
238.156	61.75
238.39	74.75
238.624	74.75
238.858	88.75
239.091	77.75
239.325	71.75
239.559	74.75
239.793	68.75
240.027	86.75
240.26	75.75
240.494	74.75
240.728	68.75
240.961	55.75
241.195	91.75
241.429	86.75
241.662	75.75
241.896	87.75
242.13	81.75
242.363	79.75
242.597	88.75
242.83	65.75
243.064	73.75
243.298	81.75
243.531	84.75
243.765	84.75
243.998	81.75
244.232	85.75
244.465	88.75
244.699	81.75
244.932	81.75
245.166	78.75
245.399	53.75
245.633	62.75
245.866	72.75
246.099	72.75
246.333	78.75
246.566	70.75
246.8	88.75
247.033	71.75
247.266	82.75
247.5	75.75
247.733	87.75
247.966	79.75
248.2	89.75
248.433	85.75
248.666	80.75
248.899	82.75
249.133	72.75
249.366	75.75
249.599	81.75
249.832	78.75
250.066	79.75
250.299	89.75
250.532	71.75
250.765	75.75
250.998	74.75
251.231	70.75
251.465	72.75
251.698	74.75
251.931	85.75
252.164	77.75
252.397	83.75
252.63	80.75
252.863	76.75
253.096	74.75
253.329	91.75
253.562	71.75
253.795	91.75
254.028	81.75
254.261	77.75
254.494	83.75
254.727	90.75
254.96	96.75
255.193	87.75
255.426	71.75
255.659	78.75
255.892	87.75
256.124	79.75
256.357	79.75
256.59	88.75
256.823	89.75
257.056	59.75
257.289	68.75
257.521	80.75
257.754	79.75
257.987	62.75
258.22	81.75
258.452	68.75
258.685	88.75
258.918	82.75
259.151	83.75
259.383	94.75
259.616	87.75
259.849	81.75
260.081	81.75
260.314	94.75
260.547	72.75
260.779	81.75
261.012	92.75
261.244	81.75
261.477	91.75
261.71	82.75
261.942	79.75
262.175	91.75
262.407	67.75
262.64	71.75
262.872	77.75
263.105	75.75
263.337	86.75
263.57	77.75
263.802	93.75
264.035	87.75
264.267	78.75
264.499	96.75
264.732	78.75
264.964	78.75
265.197	94.75
265.429	77.75
265.661	85.75
265.894	83.75
266.126	59.75
266.358	80.75
266.591	80.75
266.823	78.75
267.055	80.75
267.287	82.75
267.52	99.75
267.752	98.75
267.984	83.75
268.216	73.75
268.448	59.75
268.681	83.75
268.913	73.75
269.145	73.75
269.377	79.75
269.609	95.75
269.841	84.75
270.073	83.75
270.306	76.75
270.538	67.75
270.77	80.75
271.002	88.75
271.234	86.75
271.466	82.75
271.698	78.75
271.93	87.75
272.162	73.75
272.394	81.75
272.626	69.75
272.858	83.75
273.09	77.75
273.322	78.75
273.553	86.75
273.785	70.75
274.017	96.75
274.249	84.75
274.481	78.75
274.713	78.75
274.945	81.75
275.176	89.75
275.408	82.75
275.64	87.75
275.872	75.75
276.104	86.75
276.335	81.75
276.567	92.75
276.799	79.75
277.031	86.75
277.262	81.75
277.494	77.75
277.726	80.75
277.957	79.75
278.189	86.75
278.421	85.75
278.652	88.75
278.884	78.75
279.115	70.75
279.347	80.75
279.579	74.75
279.81	67.75
280.042	83.75
280.273	75.75
280.505	73.75
280.736	73.75
280.968	60.75
281.199	75.75
281.431	83.75
281.662	82.75
281.894	90.75
282.125	87.75
282.356	83.75
282.588	89.75
282.819	97.75
283.051	82.75
283.282	89.75
283.513	85.75
283.745	79.75
283.976	97.75
284.207	76.75
284.439	91.75
284.67	85.75
284.901	73.75
285.132	94.75
285.364	77.75
285.595	79.75
285.826	77.75
286.057	88.75
286.288	85.75
286.52	91.75
286.751	98.75
286.982	65.75
287.213	71.75
287.444	83.75
287.675	87.75
287.906	84.75
288.138	81.75
288.369	75.75
288.6	84.75
288.831	86.75
289.062	87.75
289.293	91.75
289.524	83.75
289.755	74.75
289.986	74.75
290.217	91.75
290.448	78.75
290.679	85.75
290.91	78.75
291.141	89.75
291.371	79.75
291.602	78.75
291.833	85.75
292.064	79.75
292.295	77.75
292.526	75.75
292.757	79.75
292.987	102.75
293.218	75.75
293.449	69.75
293.68	104.75
293.91	93.75
294.141	87.75
294.372	85.75
294.603	94.75
294.833	80.75
295.064	102.75
295.295	86.75
295.525	80.75
295.756	83.75
295.987	72.75
296.217	85.75
296.448	82.75
296.679	89.75
296.909	81.75
297.14	96.75
297.37	67.75
297.601	79.75
297.831	85.75
298.062	85.75
298.292	85.75
298.523	80.75
298.753	80.75
298.984	85.75
299.214	87.75
299.445	77.75
299.675	79.75
299.905	106.75
300.136	81.75
300.366	91.75
300.597	79.75
300.827	74.75
301.057	82.75
301.288	90.75
301.518	78.75
301.748	77.75
301.979	103.75
302.209	79.75
302.439	77.75
302.669	87.75
302.9	78.75
303.13	75.75
303.36	73.75
303.59	88.75
303.82	76.75
304.051	102.75
304.281	87.75
304.511	94.75
304.741	91.75
304.971	89.75
305.201	68.75
305.431	84.75
305.661	84.75
305.891	87.75
306.121	83.75
306.352	91.75
306.582	82.75
306.812	87.75
307.042	80.75
307.272	77.75
307.502	81.75
307.731	86.75
307.961	73.75
308.191	89.75
308.421	82.75
308.651	87.75
308.881	85.75
309.111	89.75
309.341	87.75
309.571	86.75
309.8	77.75
310.03	90.75
310.26	82.75
310.49	73.75
310.72	93.75
310.949	85.75
311.179	93.75
311.409	77.75
311.639	88.75
311.868	92.75
312.098	87.75
312.328	82.75
312.557	81.75
312.787	72.75
313.017	85.75
313.246	90.75
313.476	74.75
313.706	93.75
313.935	91.75
314.165	85.75
314.394	90.75
314.624	72.75
314.853	78.75
315.083	76.75
315.312	74.75
315.542	80.75
315.771	72.75
316.001	77.75
316.23	77.75
316.46	77.75
316.689	77.75
316.919	82.75
317.148	76.75
317.377	87.75
317.607	81.75
317.836	76.75
318.065	88.75
318.295	98.75
318.524	82.75
318.753	89.75
318.983	91.75
319.212	95.75
319.441	85.75
319.67	86.75
319.9	85.75
320.129	95.75
320.358	87.75
320.587	85.75
320.816	96.75
321.046	89.75
321.275	93.75
321.504	81.75
321.733	97.75
321.962	97.75
322.191	73.75
322.42	67.75
322.649	88.75
322.878	99.75
323.108	90.75
323.337	82.75
323.566	81.75
323.795	72.75
324.024	67.75
324.253	97.75
324.482	87.75
324.71	79.75
324.939	95.75
325.168	77.75
325.397	80.75
325.626	77.75
325.855	76.75
326.084	94.75
326.313	78.75
326.542	84.75
326.77	75.75
326.999	94.75
327.228	88.75
327.457	80.75
327.686	96.75
327.914	82.75
328.143	88.75
328.372	86.75
328.6	73.75
328.829	88.75
329.058	81.75
329.287	79.75
329.515	79.75
329.744	93.75
329.972	67.75
330.201	109.75
330.43	77.75
330.658	95.75
330.887	82.75
331.115	85.75
331.344	82.75
331.572	81.75
331.801	79.75
332.03	78.75
332.258	93.75
332.486	94.75
332.715	87.75
332.943	95.75
333.172	94.75
333.4	79.75
333.629	75.75
333.857	100.75
334.085	81.75
334.314	85.75
334.542	90.75
334.771	94.75
334.999	93.75
335.227	78.75
335.455	83.75
335.684	81.75
335.912	89.75
336.14	94.75
336.369	88.75
336.597	81.75
336.825	85.75
337.053	75.75
337.281	85.75
337.51	95.75
337.738	74.75
337.966	81.75
338.194	90.75
338.422	84.75
338.65	85.75
338.878	90.75
339.106	82.75
339.334	86.75
339.562	87.75
339.79	87.75
340.018	73.75
340.246	76.75
340.474	83.75
340.702	78.75
340.93	66.75
341.158	82.75
341.386	88.75
341.614	81.75
341.842	76.75
342.07	75.75
342.298	81.75
342.526	89.75
342.754	74.75
342.981	90.75
343.209	93.75
343.437	89.75
343.665	95.75
343.893	77.75
344.12	85.75
344.348	70.75
344.576	82.75
344.804	80.75
345.031	85.75
345.259	91.75
345.487	93.75
345.714	89.75
345.942	83.75
346.17	77.75
346.397	94.75
346.625	83.75
346.853	101.75
347.08	80.75
347.308	86.75
347.535	80.75
347.763	87.75
347.99	84.75
348.218	71.75
348.445	85.75
348.673	88.75
348.9	78.75
349.128	68.75
349.355	79.75
349.583	91.75
349.81	74.75
350.037	79.75
350.265	77.75
350.492	87.75
350.72	78.75
350.947	81.75
351.174	95.75
351.402	78.75
351.629	81.75
351.856	84.75
352.083	89.75
352.311	95.75
352.538	75.75
352.765	87.75
352.992	73.75
353.22	81.75
353.447	81.75
353.674	90.75
353.901	85.75
354.128	81.75
354.355	80.75
354.583	73.75
354.81	86.75
355.037	81.75
355.264	87.75
355.491	82.75
355.718	85.75
355.945	75.75
356.172	66.75
356.399	73.75
356.626	71.75
356.853	89.75
357.08	89.75
357.307	74.75
357.534	67.75
357.761	82.75
357.988	99.75
358.215	91.75
358.441	68.75
358.668	71.75
358.895	81.75
359.122	77.75
359.349	83.75
359.576	75.75
359.802	88.75
360.029	80.75
360.256	86.75
360.483	78.75
360.709	75.75
360.936	89.75
361.163	91.75
361.39	78.75
361.616	78.75
361.843	86.75
362.07	83.75
362.296	75.75
362.523	78.75
362.749	75.75
362.976	80.75
363.203	78.75
363.429	83.75
363.656	96.75
363.882	77.75
364.109	95.75
364.335	82.75
364.562	82.75
364.788	90.75
365.015	84.75
365.241	95.75
365.468	73.75
365.694	85.75
365.92	76.75
366.147	79.75
366.373	80.75
366.599	88.75
366.826	75.75
367.052	91.75
367.278	71.75
367.505	77.75
367.731	77.75
367.957	80.75
368.184	82.75
368.41	81.75
368.636	67.75
368.862	81.75
369.089	80.75
369.315	88.75
369.541	87.75
369.767	86.75
369.993	83.75
370.219	90.75
370.445	75.75
370.672	71.75
370.898	72.75
371.124	72.75
371.35	81.75
371.576	89.75
371.802	85.75
372.028	71.75
372.254	75.75
372.48	81.75
372.706	84.75
372.932	69.75
373.158	76.75
373.384	80.75
373.61	75.75
373.835	77.75
374.061	81.75
374.287	69.75
374.513	75.75
374.739	78.75
374.965	79.75
375.191	81.75
375.416	68.75
375.642	81.75
375.868	89.75
376.094	89.75
376.319	73.75
376.545	84.75
376.771	81.75
376.997	87.75
377.222	73.75
377.448	83.75
377.674	85.75
377.899	76.75
378.125	72.75
378.35	76.75
378.576	83.75
378.802	90.75
379.027	81.75
379.253	88.75
379.478	84.75
379.704	84.75
379.929	82.75
380.155	68.75
380.38	91.75
380.606	85.75
380.831	88.75
381.057	92.75
381.282	89.75
381.507	95.75
381.733	72.75
381.958	78.75
382.184	74.75
382.409	75.75
382.634	88.75
382.86	85.75
383.085	71.75
383.31	67.75
383.535	83.75
383.761	90.75
383.986	81.75
384.211	80.75
384.436	81.75
384.662	80.75
384.887	81.75
385.112	68.75
385.337	76.75
385.562	86.75
385.787	83.75
386.013	87.75
386.238	74.75
386.463	95.75
386.688	81.75
386.913	66.75
387.138	71.75
387.363	82.75
387.588	78.75
387.813	86.75
388.038	86.75
388.263	83.75
388.488	80.75
388.713	82.75
388.938	88.75
389.163	73.75
389.387	83.75
389.612	86.75
389.837	88.75
390.062	91.75
390.287	88.75
390.512	75.75
390.736	93.75
390.961	82.75
391.186	74.75
391.411	85.75
391.636	80.75
391.86	83.75
392.085	70.75
392.31	74.75
392.534	70.75
392.759	90.75
392.984	85.75
393.208	80.75
393.433	87.75
393.658	80.75
393.882	101.75
394.107	80.75
394.331	73.75
394.556	63.75
394.78	80.75
395.005	66.75
395.229	74.75
395.454	79.75
395.678	75.75
395.903	90.75
396.127	74.75
396.352	85.75
396.576	85.75
396.801	88.75
397.025	85.75
397.249	73.75
397.474	87.75
397.698	78.75
397.922	75.75
398.147	85.75
398.371	82.75
398.595	84.75
398.82	79.75
399.044	87.75
399.268	74.75
399.492	83.75
399.717	85.75
399.941	83.75
400.165	77.75
400.389	77.75
400.613	79.75
400.837	99.75
401.062	92.75
401.286	80.75
401.51	80.75
401.734	78.75
401.958	78.75
402.182	72.75
402.406	73.75
402.63	74.75
402.854	87.75
403.078	88.75
403.302	94.75
403.526	73.75
403.75	83.75
403.974	77.75
404.198	70.75
404.422	71.75
404.645	81.75
404.869	82.75
405.093	89.75
405.317	97.75
405.541	88.75
405.765	89.75
405.988	77.75
406.212	77.75
406.436	56.75
406.66	73.75
406.883	72.75
407.107	89.75
407.331	72.75
407.555	87.75
407.778	73.75
408.002	83.75
408.226	73.75
408.449	72.75
408.673	92.75
408.896	81.75
409.12	84.75
409.344	71.75
409.567	78.75
409.791	75.75
410.014	87.75
410.238	72.75
410.461	81.75
410.685	82.75
410.908	76.75
411.132	84.75
411.355	77.75
411.578	97.75
411.802	66.75
412.025	77.75
412.249	82.75
412.472	85.75
412.695	97.75
412.919	91.75
413.142	92.75
413.365	67.75
413.589	75.75
413.812	81.75
414.035	74.75
414.258	80.75
414.482	79.75
414.705	80.75
414.928	81.75
415.151	62.75
415.374	77.75
415.597	95.75
415.821	90.75
416.044	79.75
416.267	79.75
416.49	80.75
416.713	75.75
416.936	75.75
417.159	73.75
417.382	79.75
417.605	70.75
417.828	88.75
418.051	76.75
418.274	72.75
418.497	64.75
418.72	75.75
418.943	93.75
419.166	82.75
419.389	83.75
419.611	76.75
419.834	79.75
420.057	88.75
420.28	84.75
420.503	74.75
420.726	81.75
420.948	70.75
421.171	73.75
421.394	77.75
421.617	81.75
421.839	89.75
422.062	86.75
422.285	73.75
422.507	80.75
422.73	69.75
422.953	79.75
423.175	80.75
423.398	67.75
423.621	77.75
423.843	96.75
424.066	80.75
424.288	90.75
424.511	96.75
424.733	71.75
424.956	73.75
425.178	76.75
425.401	77.75
425.623	87.75
425.846	77.75
426.068	83.75
426.291	84.75
426.513	73.75
426.735	93.75
426.958	78.75
427.18	81.75
427.402	83.75
427.625	82.75
427.847	75.75
428.069	81.75
428.292	73.75
428.514	89.75
428.736	86.75
428.958	84.75
429.181	86.75
429.403	81.75
429.625	82.75
429.847	79.75
430.069	74.75
430.292	96.75
430.514	85.75
430.736	93.75
430.958	76.75
431.18	75.75
431.402	80.75
431.624	89.75
431.846	85.75
432.068	81.75
432.29	71.75
432.512	74.75
432.734	84.75
432.956	86.75
433.178	84.75
433.4	96.75
433.622	86.75
433.844	78.75
434.066	75.75
434.287	82.75
434.509	83.75
434.731	98.75
434.953	86.75
435.175	78.75
435.397	74.75
435.618	93.75
435.84	74.75
436.062	70.75
436.284	89.75
436.505	89.75
436.727	74.75
436.949	75.75
437.17	74.75
437.392	75.75
437.614	79.75
437.835	80.75
438.057	87.75
438.278	90.75
438.5	83.75
438.721	72.75
438.943	83.75
439.165	83.75
439.386	81.75
439.608	79.75
439.829	79.75
440.05	98.75
440.272	82.75
440.493	77.75
440.715	69.75
440.936	80.75
441.158	82.75
441.379	82.75
441.6	68.75
441.822	73.75
442.043	72.75
442.264	77.75
442.486	79.75
442.707	78.75
442.928	80.75
443.149	81.75
443.371	88.75
443.592	88.75
443.813	77.75
444.034	79.75
444.255	83.75
444.476	82.75
444.698	77.75
444.919	70.75
445.14	148.75
445.361	111.75
445.582	81.75
445.803	82.75
446.024	86.75
446.245	81.75
446.466	87.75
446.687	75.75
446.908	80.75
447.129	98.75
447.35	92.75
447.571	76.75
447.792	88.75
448.013	87.75
448.234	81.75
448.455	77.75
448.675	89.75
448.896	73.75
449.117	76.75
449.338	90.75
449.559	98.75
449.779	82.75
450	79.75
450.221	81.75
450.442	70.75
450.662	72.75
450.883	74.75
451.104	96.75
451.324	83.75
451.545	87.75
451.766	86.75
451.986	84.75
452.207	80.75
452.428	72.75
452.648	72.75
452.869	82.75
453.089	86.75
453.31	80.75
453.53	81.75
453.751	79.75
453.971	88.75
454.192	82.75
454.412	77.75
454.633	71.75
454.853	80.75
455.073	95.75
455.294	90.75
455.514	80.75
455.734	83.75
455.955	70.75
456.175	83.75
456.395	88.75
456.616	78.75
456.836	90.75
457.056	67.75
457.276	83.75
457.497	85.75
457.717	83.75
457.937	97.75
458.157	86.75
458.377	81.75
458.598	81.75
458.818	62.75
459.038	76.75
459.258	80.75
459.478	66.75
459.698	66.75
459.918	85.75
460.138	73.75
460.358	87.75
460.578	78.75
460.798	81.75
461.018	85.75
461.238	79.75
461.458	79.75
461.678	76.75
461.898	73.75
462.118	78.75
462.338	85.75
462.558	88.75
462.777	74.75
462.997	79.75
463.217	80.75
463.437	75.75
463.657	73.75
463.876	76.75
464.096	66.75
464.316	72.75
464.536	86.75
464.755	76.75
464.975	73.75
465.195	67.75
465.414	89.75
465.634	79.75
465.854	68.75
466.073	80.75
466.293	87.75
466.512	66.75
466.732	92.75
466.951	80.75
467.171	74.75
467.391	82.75
467.61	82.75
467.829	73.75
468.049	65.75
468.268	77.75
468.488	74.75
468.707	94.75
468.927	91.75
469.146	77.75
469.365	80.75
469.585	93.75
469.804	81.75
470.023	90.75
470.243	82.75
470.462	71.75
470.681	80.75
470.901	78.75
471.12	68.75
471.339	82.75
471.558	88.75
471.777	76.75
471.997	76.75
472.216	61.75
472.435	82.75
472.654	74.75
472.873	81.75
473.092	79.75
473.311	86.75
473.53	88.75
473.749	78.75
473.968	80.75
474.187	76.75
474.406	91.75
474.625	77.75
474.844	60.75
475.063	81.75
475.282	80.75
475.501	87.75
475.72	89.75
475.939	96.75
476.158	77.75
476.377	67.75
476.596	81.75
476.814	85.75
477.033	75.75
477.252	61.75
477.471	80.75
477.69	77.75
477.908	89.75
478.127	78.75
478.346	79.75
478.564	78.75
478.783	71.75
479.002	81.75
479.22	77.75
479.439	69.75
479.658	78.75
479.876	88.75
480.095	97.75
480.313	79.75
480.532	77.75
480.751	74.75
480.969	66.75
481.188	71.75
481.406	81.75
481.624	75.75
481.843	71.75
482.061	79.75
482.28	70.75
482.498	76.75
482.717	92.75
482.935	80.75
483.153	81.75
483.372	80.75
483.59	87.75
483.808	84.75
484.027	80.75
484.245	77.75
484.463	82.75
484.681	83.75
484.9	90.75
485.118	72.75
485.336	67.75
485.554	83.75
485.772	78.75
485.99	80.75
486.209	81.75
486.427	72.75
486.645	86.75
486.863	69.75
487.081	82.75
487.299	81.75
487.517	79.75
487.735	77.75
487.953	95.75
488.171	83.75
488.389	86.75
488.607	71.75
488.825	79.75
489.043	89.75
489.261	80.75
489.479	84.75
489.696	78.75
489.914	83.75
490.132	95.75
490.35	90.75
490.568	91.75
490.786	81.75
491.003	79.75
491.221	80.75
491.439	84.75
491.657	76.75
491.874	91.75
492.092	82.75
492.31	82.75
492.527	90.75
492.745	86.75
492.963	76.75
493.18	83.75
493.398	88.75
493.615	81.75
493.833	85.75
494.05	90.75
494.268	86.75
494.485	79.75
494.703	77.75
494.92	94.75
495.138	86.75
495.355	88.75
495.573	72.75
495.79	71.75
496.008	93.75
496.225	89.75
496.442	87.75
496.66	87.75
496.877	69.75
497.094	82.75
497.312	82.75
497.529	78.75
497.746	65.75
497.963	76.75
498.181	73.75
498.398	75.75
498.615	77.75
498.832	81.75
499.049	84.75
499.267	89.75
499.484	81.75
499.701	84.75
499.918	87.75
500.135	85.75
500.352	83.75
500.569	74.75
500.786	71.75
501.003	90.75
501.22	90.75
501.437	94.75
501.654	96.75
501.871	80.75
502.088	78.75
502.305	77.75
502.522	82.75
502.739	84.75
502.956	77.75
503.172	89.75
503.389	72.75
503.606	77.75
503.823	81.75
504.04	75.75
504.256	84.75
504.473	80.75
504.69	81.75
504.907	80.75
505.123	77.75
505.34	79.75
505.557	90.75
505.773	103.75
505.99	67.75
506.207	75.75
506.423	79.75
506.64	85.75
506.856	92.75
507.073	85.75
507.289	97.75
507.506	72.75
507.722	95.75
507.939	85.75
508.155	72.75
508.372	80.75
508.588	91.75
508.805	86.75
509.021	72.75
509.238	62.75
509.454	78.75
509.67	87.75
509.887	82.75
510.103	69.75
510.319	79.75
510.536	82.75
510.752	83.75
510.968	79.75
511.184	68.75
511.401	75.75
511.617	82.75
511.833	77.75
512.049	85.75
512.265	76.75
512.481	71.75
512.698	83.75
512.914	86.75
513.13	83.75
513.346	91.75
513.562	87.75
513.778	74.75
513.994	78.75
514.21	67.75
514.426	72.75
514.642	91.75
514.858	87.75
515.074	102.75
515.29	80.75
515.506	81.75
515.721	72.75
515.937	66.75
516.153	87.75
516.369	67.75
516.585	89.75
516.801	84.75
517.016	93.75
517.232	68.75
517.448	82.75
517.664	82.75
517.879	80.75
518.095	85.75
518.311	79.75
518.527	89.75
518.742	86.75
518.958	86.75
519.173	83.75
519.389	71.75
519.605	74.75
519.82	85.75
520.036	78.75
520.251	81.75
