Data from BG_HRD10591_072.txt Node
Date: Fri May 16 15:27:23 EDT 2025
User: Yrep
Spectrometer: HR+D1059
Trigger mode: 1
Integration Time (sec): 1.000000E-1
Scans to average: 1
Electric dark correction enabled: true
Nonlinearity correction enabled: false
Boxcar width: 0
XAxis mode: Wavelengths
Number of Pixels in Spectrum: 2048
>>>>>Begin Spectral Data<<<<<
223.165	-14.38
223.4	-14.38
223.635	-14.38
223.869	-16.38
224.104	-18.38
224.338	-5.38
224.573	-19.38
224.808	-18.38
225.042	-1.38
225.277	-6.38
225.511	-7.38
225.746	6.62
225.98	-2.38
226.215	13.62
226.449	11.62
226.683	15.62
226.918	31.62
227.152	30.62
227.387	33.62
227.621	36.62
227.856	39.62
228.09	51.62
228.324	45.62
228.559	64.62
228.793	72.62
229.027	60.62
229.262	59.62
229.496	78.62
229.73	64.62
229.964	79.62
230.199	83.62
230.433	76.62
230.667	90.62
230.901	80.62
231.136	79.62
231.37	77.62
231.604	73.62
231.838	84.62
232.072	82.62
232.306	76.62
232.541	88.62
232.775	75.62
233.009	72.62
233.243	94.62
233.477	80.62
233.711	85.62
233.945	79.62
234.179	66.62
234.413	78.62
234.647	83.62
234.881	90.62
235.115	80.62
235.349	70.62
235.583	75.62
235.817	66.62
236.051	93.62
236.285	87.62
236.519	74.62
236.753	72.62
236.987	74.62
237.221	68.62
237.455	72.62
237.689	74.62
237.922	80.62
238.156	70.62
238.39	66.62
238.624	70.62
238.858	65.62
239.091	66.62
239.325	76.62
239.559	86.62
239.793	78.62
240.027	84.62
240.26	73.62
240.494	85.62
240.728	63.62
240.961	77.62
241.195	82.62
241.429	89.62
241.662	64.62
241.896	74.62
242.13	81.62
242.363	73.62
242.597	84.62
242.83	75.62
243.064	89.62
243.298	73.62
243.531	89.62
243.765	80.62
243.998	86.62
244.232	80.62
244.465	81.62
244.699	79.62
244.932	86.62
245.166	82.62
245.399	76.62
245.633	79.62
245.866	72.62
246.099	69.62
246.333	80.62
246.566	72.62
246.8	87.62
247.033	77.62
247.266	65.62
247.5	73.62
247.733	81.62
247.966	72.62
248.2	77.62
248.433	97.62
248.666	79.62
248.899	75.62
249.133	59.62
249.366	78.62
249.599	58.62
249.832	75.62
250.066	87.62
250.299	84.62
250.532	85.62
250.765	88.62
250.998	71.62
251.231	74.62
251.465	61.62
251.698	64.62
251.931	67.62
252.164	82.62
252.397	77.62
252.63	79.62
252.863	90.62
253.096	73.62
253.329	64.62
253.562	87.62
253.795	79.62
254.028	64.62
254.261	95.62
254.494	88.62
254.727	79.62
254.96	61.62
255.193	71.62
255.426	81.62
255.659	82.62
255.892	65.62
256.124	82.62
256.357	68.62
256.59	85.62
256.823	71.62
257.056	70.62
257.289	89.62
257.521	78.62
257.754	78.62
257.987	80.62
258.22	85.62
258.452	84.62
258.685	76.62
258.918	88.62
259.151	77.62
259.383	84.62
259.616	78.62
259.849	76.62
260.081	96.62
260.314	82.62
260.547	78.62
260.779	72.62
261.012	77.62
261.244	76.62
261.477	83.62
261.71	70.62
261.942	79.62
262.175	98.62
262.407	72.62
262.64	74.62
262.872	86.62
263.105	89.62
263.337	94.62
263.57	85.62
263.802	75.62
264.035	76.62
264.267	74.62
264.499	74.62
264.732	73.62
264.964	71.62
265.197	94.62
265.429	85.62
265.661	84.62
265.894	68.62
266.126	79.62
266.358	88.62
266.591	74.62
266.823	70.62
267.055	84.62
267.287	76.62
267.52	81.62
267.752	85.62
267.984	77.62
268.216	84.62
268.448	86.62
268.681	89.62
268.913	90.62
269.145	81.62
269.377	89.62
269.609	74.62
269.841	77.62
270.073	65.62
270.306	66.62
270.538	94.62
270.77	86.62
271.002	80.62
271.234	91.62
271.466	84.62
271.698	83.62
271.93	89.62
272.162	80.62
272.394	89.62
272.626	78.62
272.858	72.62
273.09	88.62
273.322	83.62
273.553	85.62
273.785	89.62
274.017	82.62
274.249	88.62
274.481	85.62
274.713	72.62
274.945	68.62
275.176	86.62
275.408	72.62
275.64	84.62
275.872	65.62
276.104	82.62
276.335	96.62
276.567	87.62
276.799	93.62
277.031	69.62
277.262	94.62
277.494	93.62
277.726	85.62
277.957	85.62
278.189	93.62
278.421	88.62
278.652	88.62
278.884	87.62
279.115	82.62
279.347	73.62
279.579	73.62
279.81	82.62
280.042	73.62
280.273	88.62
280.505	87.62
280.736	78.62
280.968	80.62
281.199	78.62
281.431	84.62
281.662	89.62
281.894	84.62
282.125	89.62
282.356	89.62
282.588	88.62
282.819	76.62
283.051	90.62
283.282	72.62
283.513	86.62
283.745	95.62
283.976	80.62
284.207	88.62
284.439	91.62
284.67	95.62
284.901	88.62
285.132	93.62
285.364	52.62
285.595	81.62
285.826	86.62
286.057	76.62
286.288	79.62
286.52	92.62
286.751	82.62
286.982	75.62
287.213	94.62
287.444	78.62
287.675	79.62
287.906	81.62
288.138	86.62
288.369	75.62
288.6	92.62
288.831	80.62
289.062	86.62
289.293	71.62
289.524	85.62
289.755	89.62
289.986	102.62
290.217	77.62
290.448	90.62
290.679	94.62
290.91	89.62
291.141	80.62
291.371	97.62
291.602	73.62
291.833	88.62
292.064	92.62
292.295	78.62
292.526	67.62
292.757	69.62
292.987	77.62
293.218	81.62
293.449	86.62
293.68	90.62
293.91	90.62
294.141	87.62
294.372	87.62
294.603	80.62
294.833	101.62
295.064	82.62
295.295	92.62
295.525	84.62
295.756	81.62
295.987	82.62
296.217	80.62
296.448	67.62
296.679	81.62
296.909	80.62
297.14	103.62
297.37	97.62
297.601	78.62
297.831	82.62
298.062	79.62
298.292	90.62
298.523	85.62
298.753	87.62
298.984	86.62
299.214	100.62
299.445	100.62
299.675	81.62
299.905	90.62
300.136	86.62
300.366	84.62
300.597	86.62
300.827	82.62
301.057	79.62
301.288	77.62
301.518	79.62
301.748	78.62
301.979	106.62
302.209	96.62
302.439	83.62
302.669	78.62
302.9	95.62
303.13	85.62
303.36	79.62
303.59	77.62
303.82	87.62
304.051	79.62
304.281	88.62
304.511	88.62
304.741	83.62
304.971	71.62
305.201	70.62
305.431	92.62
305.661	92.62
305.891	89.62
306.121	102.62
306.352	82.62
306.582	97.62
306.812	105.62
307.042	80.62
307.272	85.62
307.502	98.62
307.731	69.62
307.961	93.62
308.191	68.62
308.421	86.62
308.651	86.62
308.881	80.62
309.111	70.62
309.341	94.62
309.571	71.62
309.8	78.62
310.03	104.62
310.26	95.62
310.49	82.62
310.72	78.62
310.949	89.62
311.179	77.62
311.409	92.62
311.639	90.62
311.868	87.62
312.098	84.62
312.328	102.62
312.557	76.62
312.787	81.62
313.017	102.62
313.246	91.62
313.476	91.62
313.706	82.62
313.935	81.62
314.165	92.62
314.394	94.62
314.624	78.62
314.853	83.62
315.083	76.62
315.312	96.62
315.542	100.62
315.771	77.62
316.001	85.62
316.23	93.62
316.46	84.62
316.689	92.62
316.919	77.62
317.148	89.62
317.377	87.62
317.607	79.62
317.836	77.62
318.065	79.62
318.295	91.62
318.524	103.62
318.753	86.62
318.983	78.62
319.212	87.62
319.441	74.62
319.67	96.62
319.9	81.62
320.129	86.62
320.358	95.62
320.587	87.62
320.816	94.62
321.046	82.62
321.275	89.62
321.504	70.62
321.733	84.62
321.962	82.62
322.191	81.62
322.42	75.62
322.649	86.62
322.878	73.62
323.108	90.62
323.337	98.62
323.566	85.62
323.795	86.62
324.024	99.62
324.253	86.62
324.482	72.62
324.71	84.62
324.939	90.62
325.168	78.62
325.397	87.62
325.626	81.62
325.855	90.62
326.084	80.62
326.313	97.62
326.542	77.62
326.77	87.62
326.999	86.62
327.228	80.62
327.457	71.62
327.686	78.62
327.914	91.62
328.143	84.62
328.372	86.62
328.6	89.62
328.829	85.62
329.058	74.62
329.287	85.62
329.515	81.62
329.744	101.62
329.972	76.62
330.201	78.62
330.43	88.62
330.658	92.62
330.887	86.62
331.115	72.62
331.344	75.62
331.572	75.62
331.801	78.62
332.03	76.62
332.258	81.62
332.486	81.62
332.715	57.62
332.943	89.62
333.172	79.62
333.4	81.62
333.629	82.62
333.857	78.62
334.085	82.62
334.314	97.62
334.542	76.62
334.771	78.62
334.999	87.62
335.227	86.62
335.455	92.62
335.684	88.62
335.912	91.62
336.14	96.62
336.369	90.62
336.597	84.62
336.825	79.62
337.053	81.62
337.281	86.62
337.51	72.62
337.738	97.62
337.966	80.62
338.194	88.62
338.422	93.62
338.65	92.62
338.878	88.62
339.106	87.62
339.334	89.62
339.562	63.62
339.79	73.62
340.018	78.62
340.246	75.62
340.474	93.62
340.702	75.62
340.93	86.62
341.158	77.62
341.386	93.62
341.614	81.62
341.842	87.62
342.07	81.62
342.298	74.62
342.526	84.62
342.754	80.62
342.981	80.62
343.209	77.62
343.437	84.62
343.665	76.62
343.893	77.62
344.12	79.62
344.348	69.62
344.576	82.62
344.804	81.62
345.031	86.62
345.259	98.62
345.487	90.62
345.714	96.62
345.942	74.62
346.17	87.62
346.397	83.62
346.625	74.62
346.853	78.62
347.08	85.62
347.308	81.62
347.535	74.62
347.763	73.62
347.99	93.62
348.218	87.62
348.445	89.62
348.673	78.62
348.9	89.62
349.128	80.62
349.355	77.62
349.583	92.62
349.81	71.62
350.037	84.62
350.265	86.62
350.492	77.62
350.72	88.62
350.947	89.62
351.174	84.62
351.402	78.62
351.629	111.62
351.856	74.62
352.083	70.62
352.311	90.62
352.538	84.62
352.765	93.62
352.992	89.62
353.22	67.62
353.447	79.62
353.674	84.62
353.901	92.62
354.128	81.62
354.355	81.62
354.583	83.62
354.81	82.62
355.037	81.62
355.264	85.62
355.491	78.62
355.718	65.62
355.945	81.62
356.172	62.62
356.399	91.62
356.626	81.62
356.853	87.62
357.08	86.62
357.307	78.62
357.534	76.62
357.761	73.62
357.988	78.62
358.215	80.62
358.441	75.62
358.668	77.62
358.895	77.62
359.122	92.62
359.349	92.62
359.576	96.62
359.802	92.62
360.029	101.62
360.256	79.62
360.483	90.62
360.709	83.62
360.936	100.62
361.163	70.62
361.39	87.62
361.616	84.62
361.843	96.62
362.07	77.62
362.296	69.62
362.523	89.62
362.749	70.62
362.976	80.62
363.203	82.62
363.429	76.62
363.656	79.62
363.882	71.62
364.109	97.62
364.335	91.62
364.562	82.62
364.788	66.62
365.015	81.62
365.241	87.62
365.468	85.62
365.694	78.62
365.92	80.62
366.147	88.62
366.373	83.62
366.599	75.62
366.826	80.62
367.052	80.62
367.278	88.62
367.505	74.62
367.731	94.62
367.957	80.62
368.184	81.62
368.41	84.62
368.636	76.62
368.862	104.62
369.089	83.62
369.315	76.62
369.541	81.62
369.767	85.62
369.993	77.62
370.219	76.62
370.445	92.62
370.672	93.62
370.898	75.62
371.124	70.62
371.35	88.62
371.576	68.62
371.802	85.62
372.028	83.62
372.254	82.62
372.48	87.62
372.706	96.62
372.932	97.62
373.158	96.62
373.384	82.62
373.61	80.62
373.835	84.62
374.061	90.62
374.287	86.62
374.513	74.62
374.739	88.62
374.965	80.62
375.191	76.62
375.416	84.62
375.642	81.62
375.868	87.62
376.094	82.62
376.319	84.62
376.545	69.62
376.771	78.62
376.997	83.62
377.222	87.62
377.448	96.62
377.674	78.62
377.899	86.62
378.125	70.62
378.35	91.62
378.576	90.62
378.802	76.62
379.027	94.62
379.253	71.62
379.478	86.62
379.704	82.62
379.929	84.62
380.155	90.62
380.38	88.62
380.606	75.62
380.831	84.62
381.057	87.62
381.282	70.62
381.507	71.62
381.733	92.62
381.958	68.62
382.184	83.62
382.409	87.62
382.634	76.62
382.86	75.62
383.085	87.62
383.31	64.62
383.535	80.62
383.761	93.62
383.986	80.62
384.211	84.62
384.436	75.62
384.662	75.62
384.887	92.62
385.112	81.62
385.337	81.62
385.562	73.62
385.787	74.62
386.013	73.62
386.238	74.62
386.463	80.62
386.688	98.62
386.913	90.62
387.138	88.62
387.363	67.62
387.588	78.62
387.813	95.62
388.038	82.62
388.263	74.62
388.488	78.62
388.713	78.62
388.938	86.62
389.163	69.62
389.387	92.62
389.612	81.62
389.837	90.62
390.062	76.62
390.287	84.62
390.512	86.62
390.736	86.62
390.961	83.62
391.186	78.62
391.411	71.62
391.636	84.62
391.86	90.62
392.085	81.62
392.31	92.62
392.534	88.62
392.759	86.62
392.984	83.62
393.208	89.62
393.433	83.62
393.658	86.62
393.882	83.62
394.107	78.62
394.331	75.62
394.556	70.62
394.78	76.62
395.005	94.62
395.229	87.62
395.454	88.62
395.678	78.62
395.903	88.62
396.127	80.62
396.352	78.62
396.576	82.62
396.801	67.62
397.025	87.62
397.249	98.62
397.474	93.62
397.698	74.62
397.922	76.62
398.147	83.62
398.371	90.62
398.595	84.62
398.82	90.62
399.044	82.62
399.268	98.62
399.492	84.62
399.717	84.62
399.941	70.62
400.165	93.62
400.389	75.62
400.613	78.62
400.837	74.62
401.062	77.62
401.286	86.62
401.51	76.62
401.734	72.62
401.958	82.62
402.182	72.62
402.406	80.62
402.63	88.62
402.854	78.62
403.078	93.62
403.302	85.62
403.526	82.62
403.75	69.62
403.974	83.62
404.198	86.62
404.422	78.62
404.645	97.62
404.869	88.62
405.093	70.62
405.317	79.62
405.541	94.62
405.765	72.62
405.988	79.62
406.212	89.62
406.436	86.62
406.66	84.62
406.883	71.62
407.107	91.62
407.331	90.62
407.555	93.62
407.778	67.62
408.002	90.62
408.226	76.62
408.449	70.62
408.673	88.62
408.896	85.62
409.12	68.62
409.344	84.62
409.567	77.62
409.791	70.62
410.014	71.62
410.238	64.62
410.461	85.62
410.685	75.62
410.908	66.62
411.132	83.62
411.355	74.62
411.578	96.62
411.802	90.62
412.025	85.62
412.249	73.62
412.472	73.62
412.695	96.62
412.919	84.62
413.142	79.62
413.365	87.62
413.589	84.62
413.812	77.62
414.035	78.62
414.258	76.62
414.482	77.62
414.705	75.62
414.928	80.62
415.151	89.62
415.374	87.62
415.597	89.62
415.821	82.62
416.044	70.62
416.267	86.62
416.49	89.62
416.713	78.62
416.936	84.62
417.159	87.62
417.382	91.62
417.605	84.62
417.828	89.62
418.051	77.62
418.274	79.62
418.497	89.62
418.72	89.62
418.943	94.62
419.166	80.62
419.389	91.62
419.611	74.62
419.834	58.62
420.057	76.62
420.28	78.62
420.503	96.62
420.726	80.62
420.948	76.62
421.171	66.62
421.394	74.62
421.617	82.62
421.839	81.62
422.062	86.62
422.285	82.62
422.507	71.62
422.73	93.62
422.953	88.62
423.175	82.62
423.398	81.62
423.621	84.62
423.843	93.62
424.066	84.62
424.288	81.62
424.511	83.62
424.733	79.62
424.956	87.62
425.178	86.62
425.401	73.62
425.623	77.62
425.846	86.62
426.068	83.62
426.291	82.62
426.513	91.62
426.735	82.62
426.958	85.62
427.18	84.62
427.402	82.62
427.625	78.62
427.847	59.62
428.069	70.62
428.292	77.62
428.514	82.62
428.736	74.62
428.958	88.62
429.181	66.62
429.403	82.62
429.625	81.62
429.847	73.62
430.069	98.62
430.292	77.62
430.514	79.62
430.736	80.62
430.958	90.62
431.18	92.62
431.402	82.62
431.624	84.62
431.846	65.62
432.068	79.62
432.29	70.62
432.512	86.62
432.734	89.62
432.956	92.62
433.178	87.62
433.4	87.62
433.622	82.62
433.844	97.62
434.066	82.62
434.287	82.62
434.509	67.62
434.731	78.62
434.953	88.62
435.175	87.62
435.397	82.62
435.618	87.62
435.84	65.62
436.062	67.62
436.284	74.62
436.505	77.62
436.727	81.62
436.949	82.62
437.17	90.62
437.392	88.62
437.614	71.62
437.835	75.62
438.057	92.62
438.278	91.62
438.5	86.62
438.721	65.62
438.943	78.62
439.165	81.62
439.386	74.62
439.608	77.62
439.829	81.62
440.05	71.62
440.272	77.62
440.493	72.62
440.715	75.62
440.936	82.62
441.158	87.62
441.379	76.62
441.6	75.62
441.822	72.62
442.043	85.62
442.264	78.62
442.486	86.62
442.707	84.62
442.928	76.62
443.149	74.62
443.371	78.62
443.592	76.62
443.813	87.62
444.034	73.62
444.255	78.62
444.476	85.62
444.698	62.62
444.919	84.62
445.14	145.62
445.361	111.62
445.582	76.62
445.803	68.62
446.024	79.62
446.245	84.62
446.466	78.62
446.687	77.62
446.908	77.62
447.129	96.62
447.35	79.62
447.571	79.62
447.792	75.62
448.013	77.62
448.234	75.62
448.455	74.62
448.675	81.62
448.896	85.62
449.117	82.62
449.338	70.62
449.559	73.62
449.779	74.62
450	78.62
450.221	89.62
450.442	72.62
450.662	69.62
450.883	82.62
451.104	85.62
451.324	89.62
451.545	69.62
451.766	80.62
451.986	79.62
452.207	92.62
452.428	60.62
452.648	76.62
452.869	85.62
453.089	89.62
453.31	76.62
453.53	88.62
453.751	86.62
453.971	76.62
454.192	63.62
454.412	76.62
454.633	81.62
454.853	87.62
455.073	75.62
455.294	72.62
455.514	81.62
455.734	72.62
455.955	85.62
456.175	92.62
456.395	88.62
456.616	85.62
456.836	90.62
457.056	82.62
457.276	79.62
457.497	85.62
457.717	71.62
457.937	94.62
458.157	58.62
458.377	75.62
458.598	75.62
458.818	65.62
459.038	86.62
459.258	88.62
459.478	70.62
459.698	73.62
459.918	82.62
460.138	81.62
460.358	87.62
460.578	75.62
460.798	83.62
461.018	81.62
461.238	78.62
461.458	71.62
461.678	88.62
461.898	77.62
462.118	62.62
462.338	89.62
462.558	80.62
462.777	76.62
462.997	74.62
463.217	70.62
463.437	70.62
463.657	73.62
463.876	84.62
464.096	88.62
464.316	90.62
464.536	83.62
464.755	81.62
464.975	60.62
465.195	79.62
465.414	79.62
465.634	67.62
465.854	79.62
466.073	76.62
466.293	90.62
466.512	74.62
466.732	93.62
466.951	79.62
467.171	80.62
467.391	86.62
467.61	82.62
467.829	73.62
468.049	75.62
468.268	78.62
468.488	77.62
468.707	80.62
468.927	71.62
469.146	85.62
469.365	78.62
469.585	84.62
469.804	76.62
470.023	78.62
470.243	84.62
470.462	92.62
470.681	90.62
470.901	89.62
471.12	72.62
471.339	87.62
471.558	65.62
471.777	79.62
471.997	85.62
472.216	82.62
472.435	76.62
472.654	91.62
472.873	89.62
473.092	72.62
473.311	91.62
473.53	68.62
473.749	89.62
473.968	77.62
474.187	72.62
474.406	74.62
474.625	78.62
474.844	93.62
475.063	99.62
475.282	84.62
475.501	75.62
475.72	82.62
475.939	82.62
476.158	88.62
476.377	76.62
476.596	77.62
476.814	79.62
477.033	69.62
477.252	93.62
477.471	92.62
477.69	78.62
477.908	81.62
478.127	90.62
478.346	71.62
478.564	85.62
478.783	82.62
479.002	79.62
479.22	101.62
479.439	86.62
479.658	97.62
479.876	89.62
480.095	76.62
480.313	86.62
480.532	78.62
480.751	84.62
480.969	81.62
481.188	77.62
481.406	85.62
481.624	86.62
481.843	84.62
482.061	81.62
482.28	84.62
482.498	60.62
482.717	69.62
482.935	91.62
483.153	84.62
483.372	93.62
483.59	82.62
483.808	74.62
484.027	90.62
484.245	84.62
484.463	81.62
484.681	82.62
484.9	77.62
485.118	89.62
485.336	65.62
485.554	96.62
485.772	82.62
485.99	88.62
486.209	85.62
486.427	76.62
486.645	76.62
486.863	84.62
487.081	90.62
487.299	82.62
487.517	82.62
487.735	83.62
487.953	74.62
488.171	79.62
488.389	72.62
488.607	89.62
488.825	84.62
489.043	72.62
489.261	85.62
489.479	100.62
489.696	81.62
489.914	77.62
490.132	72.62
490.35	73.62
490.568	82.62
490.786	78.62
491.003	62.62
491.221	82.62
491.439	73.62
491.657	69.62
491.874	84.62
492.092	84.62
492.31	80.62
492.527	85.62
492.745	75.62
492.963	70.62
493.18	61.62
493.398	86.62
493.615	83.62
493.833	77.62
494.05	87.62
494.268	74.62
494.485	87.62
494.703	81.62
494.92	82.62
495.138	71.62
495.355	85.62
495.573	77.62
495.79	81.62
496.008	84.62
496.225	89.62
496.442	71.62
496.66	80.62
496.877	93.62
497.094	94.62
497.312	98.62
497.529	87.62
497.746	78.62
497.963	74.62
498.181	70.62
498.398	77.62
498.615	82.62
498.832	77.62
499.049	73.62
499.267	81.62
499.484	93.62
499.701	81.62
499.918	76.62
500.135	82.62
500.352	87.62
500.569	84.62
500.786	79.62
501.003	86.62
501.22	76.62
501.437	90.62
501.654	76.62
501.871	79.62
502.088	86.62
502.305	88.62
502.522	84.62
502.739	87.62
502.956	81.62
503.172	82.62
503.389	79.62
503.606	69.62
503.823	80.62
504.04	76.62
504.256	79.62
504.473	80.62
504.69	85.62
504.907	90.62
505.123	80.62
505.34	79.62
505.557	85.62
505.773	86.62
505.99	87.62
506.207	97.62
506.423	79.62
506.64	81.62
506.856	73.62
507.073	79.62
507.289	66.62
507.506	78.62
507.722	74.62
507.939	70.62
508.155	72.62
508.372	88.62
508.588	85.62
508.805	93.62
509.021	83.62
509.238	88.62
509.454	71.62
509.67	90.62
509.887	86.62
510.103	86.62
510.319	74.62
510.536	87.62
510.752	83.62
510.968	80.62
511.184	89.62
511.401	84.62
511.617	92.62
511.833	93.62
512.049	85.62
512.265	83.62
512.481	92.62
512.698	86.62
512.914	80.62
513.13	88.62
513.346	76.62
513.562	79.62
513.778	73.62
513.994	83.62
514.21	93.62
514.426	86.62
514.642	88.62
514.858	88.62
515.074	68.62
515.29	98.62
515.506	80.62
515.721	80.62
515.937	73.62
516.153	67.62
516.369	88.62
516.585	78.62
516.801	64.62
517.016	90.62
517.232	84.62
517.448	90.62
517.664	70.62
517.879	78.62
518.095	71.62
518.311	82.62
518.527	80.62
518.742	78.62
518.958	84.62
519.173	80.62
519.389	80.62
519.605	92.62
519.82	80.62
520.036	90.62
