Data from BG_HRD10591_063.txt Node
Date: Fri May 16 15:27:18 EDT 2025
User: Yrep
Spectrometer: HR+D1059
Trigger mode: 1
Integration Time (sec): 1.000000E-1
Scans to average: 1
Electric dark correction enabled: true
Nonlinearity correction enabled: false
Boxcar width: 0
XAxis mode: Wavelengths
Number of Pixels in Spectrum: 2048
>>>>>Begin Spectral Data<<<<<
223.165	-15.69
223.4	-15.69
223.635	-15.69
223.869	-28.69
224.104	-11.69
224.338	-11.69
224.573	-10.69
224.808	-25.69
225.042	-6.69
225.277	8.31
225.511	-1.69
225.746	4.31
225.98	-7.69
226.215	4.31
226.449	11.31
226.683	30.31
226.918	21.31
227.152	40.31
227.387	36.31
227.621	56.31
227.856	38.31
228.09	48.31
228.324	52.31
228.559	66.31
228.793	59.31
229.027	71.31
229.262	76.31
229.496	68.31
229.73	68.31
229.964	79.31
230.199	62.31
230.433	66.31
230.667	68.31
230.901	68.31
231.136	79.31
231.37	76.31
231.604	81.31
231.838	84.31
232.072	78.31
232.306	74.31
232.541	82.31
232.775	87.31
233.009	70.31
233.243	79.31
233.477	78.31
233.711	83.31
233.945	83.31
234.179	86.31
234.413	74.31
234.647	86.31
234.881	81.31
235.115	80.31
235.349	81.31
235.583	91.31
235.817	87.31
236.051	72.31
236.285	73.31
236.519	65.31
236.753	76.31
236.987	72.31
237.221	70.31
237.455	78.31
237.689	88.31
237.922	86.31
238.156	75.31
238.39	72.31
238.624	85.31
238.858	97.31
239.091	80.31
239.325	81.31
239.559	80.31
239.793	80.31
240.027	74.31
240.26	78.31
240.494	81.31
240.728	81.31
240.961	76.31
241.195	80.31
241.429	75.31
241.662	84.31
241.896	82.31
242.13	65.31
242.363	81.31
242.597	69.31
242.83	78.31
243.064	83.31
243.298	90.31
243.531	75.31
243.765	86.31
243.998	86.31
244.232	87.31
244.465	88.31
244.699	81.31
244.932	54.31
245.166	84.31
245.399	75.31
245.633	83.31
245.866	64.31
246.099	65.31
246.333	62.31
246.566	97.31
246.8	87.31
247.033	91.31
247.266	67.31
247.5	72.31
247.733	81.31
247.966	75.31
248.2	82.31
248.433	73.31
248.666	90.31
248.899	85.31
249.133	76.31
249.366	88.31
249.599	89.31
249.832	89.31
250.066	83.31
250.299	76.31
250.532	80.31
250.765	63.31
250.998	72.31
251.231	76.31
251.465	86.31
251.698	77.31
251.931	97.31
252.164	97.31
252.397	79.31
252.63	79.31
252.863	73.31
253.096	88.31
253.329	69.31
253.562	89.31
253.795	73.31
254.028	95.31
254.261	74.31
254.494	85.31
254.727	77.31
254.96	83.31
255.193	92.31
255.426	77.31
255.659	82.31
255.892	79.31
256.124	80.31
256.357	72.31
256.59	99.31
256.823	70.31
257.056	72.31
257.289	75.31
257.521	79.31
257.754	60.31
257.987	74.31
258.22	82.31
258.452	87.31
258.685	82.31
258.918	88.31
259.151	65.31
259.383	79.31
259.616	83.31
259.849	84.31
260.081	84.31
260.314	81.31
260.547	80.31
260.779	83.31
261.012	79.31
261.244	71.31
261.477	82.31
261.71	76.31
261.942	79.31
262.175	83.31
262.407	89.31
262.64	89.31
262.872	85.31
263.105	84.31
263.337	74.31
263.57	76.31
263.802	83.31
264.035	89.31
264.267	72.31
264.499	88.31
264.732	82.31
264.964	89.31
265.197	78.31
265.429	70.31
265.661	81.31
265.894	86.31
266.126	73.31
266.358	89.31
266.591	83.31
266.823	96.31
267.055	78.31
267.287	84.31
267.52	76.31
267.752	87.31
267.984	78.31
268.216	82.31
268.448	90.31
268.681	67.31
268.913	75.31
269.145	87.31
269.377	87.31
269.609	86.31
269.841	86.31
270.073	82.31
270.306	91.31
270.538	94.31
270.77	86.31
271.002	81.31
271.234	92.31
271.466	94.31
271.698	73.31
271.93	89.31
272.162	84.31
272.394	95.31
272.626	78.31
272.858	95.31
273.09	74.31
273.322	83.31
273.553	86.31
273.785	88.31
274.017	76.31
274.249	86.31
274.481	85.31
274.713	84.31
274.945	91.31
275.176	79.31
275.408	77.31
275.64	93.31
275.872	81.31
276.104	87.31
276.335	86.31
276.567	69.31
276.799	91.31
277.031	74.31
277.262	83.31
277.494	89.31
277.726	91.31
277.957	83.31
278.189	87.31
278.421	79.31
278.652	72.31
278.884	95.31
279.115	93.31
279.347	88.31
279.579	76.31
279.81	73.31
280.042	86.31
280.273	74.31
280.505	80.31
280.736	95.31
280.968	83.31
281.199	87.31
281.431	85.31
281.662	86.31
281.894	88.31
282.125	82.31
282.356	82.31
282.588	77.31
282.819	86.31
283.051	89.31
283.282	93.31
283.513	94.31
283.745	88.31
283.976	79.31
284.207	80.31
284.439	94.31
284.67	80.31
284.901	81.31
285.132	94.31
285.364	97.31
285.595	86.31
285.826	96.31
286.057	92.31
286.288	92.31
286.52	90.31
286.751	80.31
286.982	74.31
287.213	81.31
287.444	86.31
287.675	79.31
287.906	76.31
288.138	79.31
288.369	59.31
288.6	71.31
288.831	95.31
289.062	94.31
289.293	82.31
289.524	93.31
289.755	77.31
289.986	88.31
290.217	92.31
290.448	73.31
290.679	76.31
290.91	73.31
291.141	96.31
291.371	74.31
291.602	100.31
291.833	95.31
292.064	82.31
292.295	86.31
292.526	78.31
292.757	81.31
292.987	74.31
293.218	86.31
293.449	104.31
293.68	78.31
293.91	78.31
294.141	91.31
294.372	90.31
294.603	87.31
294.833	87.31
295.064	83.31
295.295	79.31
295.525	89.31
295.756	87.31
295.987	88.31
296.217	74.31
296.448	88.31
296.679	75.31
296.909	93.31
297.14	83.31
297.37	87.31
297.601	86.31
297.831	96.31
298.062	80.31
298.292	90.31
298.523	80.31
298.753	88.31
298.984	83.31
299.214	78.31
299.445	89.31
299.675	89.31
299.905	87.31
300.136	80.31
300.366	88.31
300.597	86.31
300.827	86.31
301.057	80.31
301.288	91.31
301.518	78.31
301.748	90.31
301.979	112.31
302.209	77.31
302.439	82.31
302.669	83.31
302.9	83.31
303.13	83.31
303.36	79.31
303.59	87.31
303.82	83.31
304.051	93.31
304.281	89.31
304.511	94.31
304.741	72.31
304.971	94.31
305.201	80.31
305.431	90.31
305.661	79.31
305.891	87.31
306.121	73.31
306.352	72.31
306.582	88.31
306.812	79.31
307.042	88.31
307.272	82.31
307.502	80.31
307.731	86.31
307.961	87.31
308.191	77.31
308.421	80.31
308.651	87.31
308.881	82.31
309.111	95.31
309.341	81.31
309.571	72.31
309.8	82.31
310.03	74.31
310.26	91.31
310.49	91.31
310.72	65.31
310.949	74.31
311.179	78.31
311.409	78.31
311.639	74.31
311.868	81.31
312.098	86.31
312.328	90.31
312.557	82.31
312.787	97.31
313.017	96.31
313.246	104.31
313.476	87.31
313.706	89.31
313.935	83.31
314.165	87.31
314.394	68.31
314.624	88.31
314.853	90.31
315.083	75.31
315.312	81.31
315.542	88.31
315.771	75.31
316.001	94.31
316.23	90.31
316.46	84.31
316.689	86.31
316.919	80.31
317.148	82.31
317.377	88.31
317.607	84.31
317.836	90.31
318.065	80.31
318.295	80.31
318.524	92.31
318.753	72.31
318.983	88.31
319.212	95.31
319.441	89.31
319.67	92.31
319.9	96.31
320.129	90.31
320.358	78.31
320.587	91.31
320.816	83.31
321.046	81.31
321.275	90.31
321.504	91.31
321.733	92.31
321.962	74.31
322.191	73.31
322.42	81.31
322.649	86.31
322.878	79.31
323.108	74.31
323.337	94.31
323.566	87.31
323.795	98.31
324.024	89.31
324.253	88.31
324.482	77.31
324.71	95.31
324.939	83.31
325.168	83.31
325.397	91.31
325.626	93.31
325.855	83.31
326.084	92.31
326.313	78.31
326.542	81.31
326.77	79.31
326.999	78.31
327.228	88.31
327.457	96.31
327.686	88.31
327.914	98.31
328.143	89.31
328.372	90.31
328.6	82.31
328.829	91.31
329.058	91.31
329.287	74.31
329.515	86.31
329.744	82.31
329.972	74.31
330.201	100.31
330.43	90.31
330.658	87.31
330.887	88.31
331.115	86.31
331.344	74.31
331.572	88.31
331.801	84.31
332.03	71.31
332.258	78.31
332.486	76.31
332.715	96.31
332.943	86.31
333.172	87.31
333.4	86.31
333.629	86.31
333.857	78.31
334.085	94.31
334.314	89.31
334.542	96.31
334.771	76.31
334.999	82.31
335.227	73.31
335.455	72.31
335.684	76.31
335.912	83.31
336.14	85.31
336.369	74.31
336.597	76.31
336.825	87.31
337.053	78.31
337.281	81.31
337.51	87.31
337.738	83.31
337.966	85.31
338.194	87.31
338.422	76.31
338.65	76.31
338.878	91.31
339.106	84.31
339.334	82.31
339.562	66.31
339.79	86.31
340.018	88.31
340.246	104.31
340.474	81.31
340.702	88.31
340.93	82.31
341.158	92.31
341.386	85.31
341.614	73.31
341.842	74.31
342.07	78.31
342.298	82.31
342.526	81.31
342.754	92.31
342.981	78.31
343.209	83.31
343.437	107.31
343.665	57.31
343.893	73.31
344.12	95.31
344.348	80.31
344.576	94.31
344.804	85.31
345.031	84.31
345.259	102.31
345.487	89.31
345.714	80.31
345.942	78.31
346.17	98.31
346.397	84.31
346.625	84.31
346.853	89.31
347.08	78.31
347.308	95.31
347.535	91.31
347.763	89.31
347.99	78.31
348.218	82.31
348.445	84.31
348.673	79.31
348.9	90.31
349.128	89.31
349.355	87.31
349.583	86.31
349.81	77.31
350.037	75.31
350.265	82.31
350.492	79.31
350.72	78.31
350.947	80.31
351.174	84.31
351.402	92.31
351.629	75.31
351.856	89.31
352.083	87.31
352.311	78.31
352.538	83.31
352.765	82.31
352.992	79.31
353.22	80.31
353.447	92.31
353.674	66.31
353.901	85.31
354.128	87.31
354.355	77.31
354.583	68.31
354.81	83.31
355.037	76.31
355.264	84.31
355.491	80.31
355.718	94.31
355.945	85.31
356.172	90.31
356.399	75.31
356.626	82.31
356.853	82.31
357.08	86.31
357.307	89.31
357.534	84.31
357.761	104.31
357.988	94.31
358.215	80.31
358.441	91.31
358.668	95.31
358.895	83.31
359.122	79.31
359.349	88.31
359.576	94.31
359.802	79.31
360.029	83.31
360.256	71.31
360.483	78.31
360.709	90.31
360.936	110.31
361.163	81.31
361.39	78.31
361.616	78.31
361.843	85.31
362.07	74.31
362.296	81.31
362.523	83.31
362.749	85.31
362.976	78.31
363.203	69.31
363.429	90.31
363.656	82.31
363.882	75.31
364.109	74.31
364.335	87.31
364.562	88.31
364.788	79.31
365.015	89.31
365.241	75.31
365.468	76.31
365.694	80.31
365.92	76.31
366.147	73.31
366.373	78.31
366.599	92.31
366.826	78.31
367.052	88.31
367.278	92.31
367.505	94.31
367.731	92.31
367.957	83.31
368.184	72.31
368.41	71.31
368.636	72.31
368.862	82.31
369.089	88.31
369.315	90.31
369.541	84.31
369.767	73.31
369.993	75.31
370.219	99.31
370.445	83.31
370.672	84.31
370.898	81.31
371.124	80.31
371.35	83.31
371.576	82.31
371.802	90.31
372.028	95.31
372.254	77.31
372.48	80.31
372.706	90.31
372.932	74.31
373.158	87.31
373.384	80.31
373.61	78.31
373.835	79.31
374.061	92.31
374.287	87.31
374.513	78.31
374.739	75.31
374.965	79.31
375.191	83.31
375.416	74.31
375.642	83.31
375.868	79.31
376.094	82.31
376.319	87.31
376.545	86.31
376.771	86.31
376.997	91.31
377.222	84.31
377.448	76.31
377.674	83.31
377.899	83.31
378.125	79.31
378.35	87.31
378.576	79.31
378.802	89.31
379.027	94.31
379.253	71.31
379.478	92.31
379.704	80.31
379.929	87.31
380.155	83.31
380.38	80.31
380.606	79.31
380.831	75.31
381.057	90.31
381.282	92.31
381.507	81.31
381.733	72.31
381.958	81.31
382.184	82.31
382.409	72.31
382.634	77.31
382.86	98.31
383.085	83.31
383.31	76.31
383.535	76.31
383.761	79.31
383.986	86.31
384.211	94.31
384.436	82.31
384.662	80.31
384.887	84.31
385.112	81.31
385.337	79.31
385.562	85.31
385.787	76.31
386.013	68.31
386.238	73.31
386.463	78.31
386.688	97.31
386.913	87.31
387.138	87.31
387.363	82.31
387.588	93.31
387.813	83.31
388.038	88.31
388.263	74.31
388.488	82.31
388.713	77.31
388.938	84.31
389.163	85.31
389.387	80.31
389.612	84.31
389.837	86.31
390.062	82.31
390.287	89.31
390.512	93.31
390.736	83.31
390.961	89.31
391.186	96.31
391.411	72.31
391.636	81.31
391.86	82.31
392.085	80.31
392.31	86.31
392.534	88.31
392.759	91.31
392.984	87.31
393.208	79.31
393.433	82.31
393.658	75.31
393.882	85.31
394.107	83.31
394.331	88.31
394.556	73.31
394.78	93.31
395.005	84.31
395.229	84.31
395.454	83.31
395.678	70.31
395.903	78.31
396.127	80.31
396.352	75.31
396.576	76.31
396.801	81.31
397.025	82.31
397.249	69.31
397.474	78.31
397.698	82.31
397.922	80.31
398.147	72.31
398.371	91.31
398.595	75.31
398.82	80.31
399.044	81.31
399.268	82.31
399.492	83.31
399.717	87.31
399.941	81.31
400.165	96.31
400.389	79.31
400.613	75.31
400.837	67.31
401.062	79.31
401.286	87.31
401.51	74.31
401.734	67.31
401.958	77.31
402.182	72.31
402.406	82.31
402.63	79.31
402.854	67.31
403.078	75.31
403.302	79.31
403.526	82.31
403.75	82.31
403.974	82.31
404.198	76.31
404.422	76.31
404.645	74.31
404.869	79.31
405.093	68.31
405.317	80.31
405.541	91.31
405.765	74.31
405.988	66.31
406.212	82.31
406.436	77.31
406.66	90.31
406.883	89.31
407.107	74.31
407.331	76.31
407.555	76.31
407.778	66.31
408.002	64.31
408.226	83.31
408.449	82.31
408.673	89.31
408.896	91.31
409.12	88.31
409.344	80.31
409.567	80.31
409.791	66.31
410.014	67.31
410.238	76.31
410.461	75.31
410.685	80.31
410.908	78.31
411.132	82.31
411.355	97.31
411.578	77.31
411.802	80.31
412.025	97.31
412.249	76.31
412.472	94.31
412.695	72.31
412.919	80.31
413.142	79.31
413.365	89.31
413.589	83.31
413.812	67.31
414.035	87.31
414.258	90.31
414.482	85.31
414.705	82.31
414.928	87.31
415.151	81.31
415.374	84.31
415.597	78.31
415.821	71.31
416.044	72.31
416.267	72.31
416.49	85.31
416.713	87.31
416.936	75.31
417.159	80.31
417.382	90.31
417.605	89.31
417.828	80.31
418.051	78.31
418.274	81.31
418.497	83.31
418.72	103.31
418.943	79.31
419.166	78.31
419.389	82.31
419.611	83.31
419.834	70.31
420.057	73.31
420.28	90.31
420.503	70.31
420.726	73.31
420.948	81.31
421.171	81.31
421.394	86.31
421.617	82.31
421.839	75.31
422.062	76.31
422.285	83.31
422.507	75.31
422.73	71.31
422.953	79.31
423.175	86.31
423.398	79.31
423.621	89.31
423.843	75.31
424.066	69.31
424.288	83.31
424.511	90.31
424.733	75.31
424.956	72.31
425.178	56.31
425.401	78.31
425.623	104.31
425.846	80.31
426.068	80.31
426.291	84.31
426.513	70.31
426.735	85.31
426.958	85.31
427.18	68.31
427.402	70.31
427.625	85.31
427.847	91.31
428.069	79.31
428.292	76.31
428.514	75.31
428.736	85.31
428.958	89.31
429.181	72.31
429.403	82.31
429.625	67.31
429.847	78.31
430.069	87.31
430.292	92.31
430.514	88.31
430.736	80.31
430.958	82.31
431.18	79.31
431.402	66.31
431.624	72.31
431.846	68.31
432.068	64.31
432.29	86.31
432.512	85.31
432.734	79.31
432.956	81.31
433.178	92.31
433.4	62.31
433.622	80.31
433.844	79.31
434.066	78.31
434.287	76.31
434.509	69.31
434.731	80.31
434.953	78.31
435.175	84.31
435.397	79.31
435.618	82.31
435.84	78.31
436.062	78.31
436.284	69.31
436.505	78.31
436.727	82.31
436.949	69.31
437.17	65.31
437.392	70.31
437.614	72.31
437.835	77.31
438.057	82.31
438.278	78.31
438.5	76.31
438.721	83.31
438.943	80.31
439.165	74.31
439.386	74.31
439.608	66.31
439.829	90.31
440.05	82.31
440.272	83.31
440.493	83.31
440.715	84.31
440.936	86.31
441.158	75.31
441.379	80.31
441.6	80.31
441.822	72.31
442.043	83.31
442.264	76.31
442.486	82.31
442.707	80.31
442.928	85.31
443.149	86.31
443.371	82.31
443.592	84.31
443.813	85.31
444.034	65.31
444.255	91.31
444.476	82.31
444.698	80.31
444.919	84.31
445.14	152.31
445.361	115.31
445.582	58.31
445.803	72.31
446.024	84.31
446.245	83.31
446.466	84.31
446.687	78.31
446.908	86.31
447.129	76.31
447.35	78.31
447.571	75.31
447.792	56.31
448.013	68.31
448.234	82.31
448.455	84.31
448.675	90.31
448.896	83.31
449.117	76.31
449.338	86.31
449.559	90.31
449.779	79.31
450	76.31
450.221	89.31
450.442	78.31
450.662	90.31
450.883	85.31
451.104	74.31
451.324	69.31
451.545	83.31
451.766	86.31
451.986	94.31
452.207	85.31
452.428	86.31
452.648	80.31
452.869	89.31
453.089	73.31
453.31	67.31
453.53	71.31
453.751	60.31
453.971	72.31
454.192	85.31
454.412	74.31
454.633	77.31
454.853	78.31
455.073	60.31
455.294	83.31
455.514	85.31
455.734	66.31
455.955	82.31
456.175	86.31
456.395	60.31
456.616	80.31
456.836	68.31
457.056	87.31
457.276	69.31
457.497	91.31
457.717	74.31
457.937	88.31
458.157	85.31
458.377	82.31
458.598	83.31
458.818	90.31
459.038	66.31
459.258	84.31
459.478	80.31
459.698	91.31
459.918	95.31
460.138	88.31
460.358	84.31
460.578	89.31
460.798	74.31
461.018	85.31
461.238	73.31
461.458	96.31
461.678	87.31
461.898	82.31
462.118	84.31
462.338	91.31
462.558	90.31
462.777	80.31
462.997	89.31
463.217	79.31
463.437	93.31
463.657	79.31
463.876	86.31
464.096	90.31
464.316	78.31
464.536	83.31
464.755	112.31
464.975	86.31
465.195	65.31
465.414	68.31
465.634	84.31
465.854	82.31
466.073	87.31
466.293	81.31
466.512	75.31
466.732	89.31
466.951	82.31
467.171	74.31
467.391	91.31
467.61	81.31
467.829	95.31
468.049	88.31
468.268	78.31
468.488	77.31
468.707	79.31
468.927	77.31
469.146	65.31
469.365	79.31
469.585	89.31
469.804	68.31
470.023	71.31
470.243	82.31
470.462	86.31
470.681	88.31
470.901	88.31
471.12	79.31
471.339	90.31
471.558	90.31
471.777	79.31
471.997	79.31
472.216	92.31
472.435	86.31
472.654	80.31
472.873	78.31
473.092	83.31
473.311	76.31
473.53	84.31
473.749	93.31
473.968	96.31
474.187	90.31
474.406	80.31
474.625	75.31
474.844	88.31
475.063	77.31
475.282	92.31
475.501	73.31
475.72	84.31
475.939	73.31
476.158	87.31
476.377	83.31
476.596	82.31
476.814	90.31
477.033	71.31
477.252	76.31
477.471	88.31
477.69	75.31
477.908	86.31
478.127	86.31
478.346	87.31
478.564	91.31
478.783	82.31
479.002	73.31
479.22	76.31
479.439	89.31
479.658	81.31
479.876	78.31
480.095	84.31
480.313	82.31
480.532	80.31
480.751	95.31
480.969	79.31
481.188	82.31
481.406	80.31
481.624	86.31
481.843	86.31
482.061	87.31
482.28	83.31
482.498	83.31
482.717	83.31
482.935	82.31
483.153	82.31
483.372	70.31
483.59	72.31
483.808	77.31
484.027	100.31
484.245	94.31
484.463	83.31
484.681	90.31
484.9	90.31
485.118	84.31
485.336	79.31
485.554	99.31
485.772	84.31
485.99	74.31
486.209	78.31
486.427	77.31
486.645	87.31
486.863	76.31
487.081	91.31
487.299	69.31
487.517	82.31
487.735	79.31
487.953	83.31
488.171	81.31
488.389	79.31
488.607	79.31
488.825	85.31
489.043	83.31
489.261	78.31
489.479	71.31
489.696	94.31
489.914	72.31
490.132	84.31
490.35	92.31
490.568	74.31
490.786	72.31
491.003	74.31
491.221	85.31
491.439	86.31
491.657	82.31
491.874	89.31
492.092	82.31
492.31	67.31
492.527	78.31
492.745	87.31
492.963	80.31
493.18	92.31
493.398	89.31
493.615	82.31
493.833	93.31
494.05	68.31
494.268	92.31
494.485	79.31
494.703	76.31
494.92	80.31
495.138	95.31
495.355	75.31
495.573	90.31
495.79	75.31
496.008	78.31
496.225	93.31
496.442	83.31
496.66	87.31
496.877	77.31
497.094	92.31
497.312	77.31
497.529	90.31
497.746	96.31
497.963	85.31
498.181	80.31
498.398	92.31
498.615	81.31
498.832	64.31
499.049	92.31
499.267	90.31
499.484	86.31
499.701	110.31
499.918	93.31
500.135	68.31
500.352	89.31
500.569	73.31
500.786	79.31
501.003	88.31
501.22	82.31
501.437	79.31
501.654	83.31
501.871	86.31
502.088	74.31
502.305	80.31
502.522	87.31
502.739	79.31
502.956	80.31
503.172	90.31
503.389	72.31
503.606	84.31
503.823	100.31
504.04	87.31
504.256	90.31
504.473	90.31
504.69	80.31
504.907	81.31
505.123	88.31
505.34	82.31
505.557	89.31
505.773	65.31
505.99	65.31
506.207	80.31
506.423	86.31
506.64	76.31
506.856	77.31
507.073	80.31
507.289	91.31
507.506	83.31
507.722	80.31
507.939	63.31
508.155	88.31
508.372	83.31
508.588	82.31
508.805	105.31
509.021	71.31
509.238	77.31
509.454	87.31
509.67	86.31
509.887	84.31
510.103	86.31
510.319	75.31
510.536	82.31
510.752	79.31
510.968	105.31
511.184	66.31
511.401	86.31
511.617	88.31
511.833	83.31
512.049	88.31
512.265	76.31
512.481	79.31
512.698	86.31
512.914	91.31
513.13	103.31
513.346	95.31
513.562	98.31
513.778	78.31
513.994	83.31
514.21	89.31
514.426	78.31
514.642	80.31
514.858	88.31
515.074	76.31
515.29	84.31
515.506	77.31
515.721	86.31
515.937	90.31
516.153	92.31
516.369	80.31
516.585	99.31
516.801	81.31
517.016	82.31
517.232	72.31
517.448	83.31
517.664	70.31
517.879	89.31
518.095	69.31
518.311	74.31
518.527	78.31
518.742	82.31
518.958	82.31
519.173	80.31
519.389	100.31
519.605	99.31
519.82	83.31
520.036	80.31
