Data from BG_HRD10591_003.txt Node
Date: Fri May 16 15:26:48 EDT 2025
User: Yrep
Spectrometer: HR+D1059
Trigger mode: 1
Integration Time (sec): 1.000000E-1
Scans to average: 1
Electric dark correction enabled: true
Nonlinearity correction enabled: false
Boxcar width: 0
XAxis mode: Wavelengths
Number of Pixels in Spectrum: 2048
>>>>>Begin Spectral Data<<<<<
223.165	-20.12
223.4	-20.12
223.635	-20.12
223.869	-18.12
224.104	-19.12
224.338	-19.12
224.573	-1.12
224.808	-16.12
225.042	-14.12
225.277	-14.12
225.511	-3.12
225.746	-11.12
225.98	9.88
226.215	3.88
226.449	28.88
226.683	20.88
226.918	28.88
227.152	43.88
227.387	32.88
227.621	43.88
227.856	44.88
228.09	52.88
228.324	50.88
228.559	51.88
228.793	56.88
229.027	57.88
229.262	58.88
229.496	64.88
229.73	75.88
229.964	74.88
230.199	67.88
230.433	74.88
230.667	64.88
230.901	66.88
231.136	75.88
231.37	70.88
231.604	79.88
231.838	83.88
232.072	85.88
232.306	75.88
232.541	87.88
232.775	82.88
233.009	81.88
233.243	84.88
233.477	80.88
233.711	94.88
233.945	85.88
234.179	85.88
234.413	88.88
234.647	78.88
234.881	76.88
235.115	71.88
235.349	80.88
235.583	80.88
235.817	77.88
236.051	70.88
236.285	89.88
236.519	79.88
236.753	83.88
236.987	88.88
237.221	59.88
237.455	92.88
237.689	76.88
237.922	76.88
238.156	60.88
238.39	73.88
238.624	69.88
238.858	57.88
239.091	67.88
239.325	76.88
239.559	70.88
239.793	71.88
240.027	78.88
240.26	85.88
240.494	80.88
240.728	68.88
240.961	72.88
241.195	68.88
241.429	72.88
241.662	89.88
241.896	83.88
242.13	71.88
242.363	86.88
242.597	70.88
242.83	73.88
243.064	88.88
243.298	61.88
243.531	69.88
243.765	56.88
243.998	76.88
244.232	66.88
244.465	74.88
244.699	66.88
244.932	73.88
245.166	80.88
245.399	80.88
245.633	69.88
245.866	77.88
246.099	74.88
246.333	80.88
246.566	84.88
246.8	77.88
247.033	80.88
247.266	79.88
247.5	84.88
247.733	71.88
247.966	81.88
248.2	86.88
248.433	62.88
248.666	71.88
248.899	80.88
249.133	91.88
249.366	75.88
249.599	74.88
249.832	62.88
250.066	85.88
250.299	78.88
250.532	78.88
250.765	93.88
250.998	80.88
251.231	77.88
251.465	80.88
251.698	63.88
251.931	77.88
252.164	83.88
252.397	91.88
252.63	71.88
252.863	79.88
253.096	74.88
253.329	77.88
253.562	84.88
253.795	69.88
254.028	78.88
254.261	73.88
254.494	84.88
254.727	71.88
254.96	77.88
255.193	89.88
255.426	92.88
255.659	76.88
255.892	96.88
256.124	78.88
256.357	71.88
256.59	84.88
256.823	84.88
257.056	89.88
257.289	68.88
257.521	84.88
257.754	72.88
257.987	79.88
258.22	77.88
258.452	86.88
258.685	81.88
258.918	88.88
259.151	82.88
259.383	94.88
259.616	80.88
259.849	78.88
260.081	80.88
260.314	76.88
260.547	80.88
260.779	79.88
261.012	79.88
261.244	82.88
261.477	88.88
261.71	82.88
261.942	80.88
262.175	82.88
262.407	77.88
262.64	72.88
262.872	78.88
263.105	80.88
263.337	71.88
263.57	81.88
263.802	85.88
264.035	80.88
264.267	81.88
264.499	81.88
264.732	87.88
264.964	79.88
265.197	74.88
265.429	75.88
265.661	97.88
265.894	87.88
266.126	76.88
266.358	81.88
266.591	83.88
266.823	71.88
267.055	85.88
267.287	83.88
267.52	87.88
267.752	79.88
267.984	81.88
268.216	84.88
268.448	73.88
268.681	72.88
268.913	73.88
269.145	76.88
269.377	87.88
269.609	69.88
269.841	79.88
270.073	87.88
270.306	81.88
270.538	84.88
270.77	69.88
271.002	73.88
271.234	69.88
271.466	84.88
271.698	69.88
271.93	93.88
272.162	90.88
272.394	71.88
272.626	87.88
272.858	93.88
273.09	90.88
273.322	83.88
273.553	82.88
273.785	80.88
274.017	81.88
274.249	74.88
274.481	81.88
274.713	84.88
274.945	77.88
275.176	81.88
275.408	91.88
275.64	91.88
275.872	85.88
276.104	74.88
276.335	80.88
276.567	98.88
276.799	87.88
277.031	74.88
277.262	76.88
277.494	95.88
277.726	73.88
277.957	78.88
278.189	78.88
278.421	88.88
278.652	81.88
278.884	78.88
279.115	84.88
279.347	93.88
279.579	88.88
279.81	91.88
280.042	84.88
280.273	83.88
280.505	78.88
280.736	80.88
280.968	92.88
281.199	76.88
281.431	83.88
281.662	80.88
281.894	84.88
282.125	83.88
282.356	83.88
282.588	85.88
282.819	85.88
283.051	89.88
283.282	79.88
283.513	79.88
283.745	93.88
283.976	95.88
284.207	85.88
284.439	91.88
284.67	71.88
284.901	81.88
285.132	75.88
285.364	80.88
285.595	88.88
285.826	85.88
286.057	84.88
286.288	82.88
286.52	87.88
286.751	104.88
286.982	92.88
287.213	85.88
287.444	94.88
287.675	76.88
287.906	85.88
288.138	92.88
288.369	80.88
288.6	84.88
288.831	86.88
289.062	81.88
289.293	86.88
289.524	90.88
289.755	82.88
289.986	85.88
290.217	85.88
290.448	68.88
290.679	83.88
290.91	92.88
291.141	84.88
291.371	92.88
291.602	77.88
291.833	76.88
292.064	91.88
292.295	79.88
292.526	75.88
292.757	77.88
292.987	81.88
293.218	73.88
293.449	87.88
293.68	83.88
293.91	72.88
294.141	78.88
294.372	73.88
294.603	76.88
294.833	89.88
295.064	94.88
295.295	95.88
295.525	76.88
295.756	100.88
295.987	82.88
296.217	80.88
296.448	87.88
296.679	78.88
296.909	81.88
297.14	93.88
297.37	81.88
297.601	87.88
297.831	100.88
298.062	88.88
298.292	86.88
298.523	77.88
298.753	80.88
298.984	88.88
299.214	86.88
299.445	96.88
299.675	78.88
299.905	87.88
300.136	86.88
300.366	75.88
300.597	85.88
300.827	94.88
301.057	86.88
301.288	80.88
301.518	78.88
301.748	77.88
301.979	101.88
302.209	85.88
302.439	91.88
302.669	85.88
302.9	77.88
303.13	93.88
303.36	82.88
303.59	84.88
303.82	70.88
304.051	73.88
304.281	82.88
304.511	95.88
304.741	95.88
304.971	83.88
305.201	81.88
305.431	94.88
305.661	84.88
305.891	83.88
306.121	79.88
306.352	87.88
306.582	80.88
306.812	91.88
307.042	86.88
307.272	87.88
307.502	92.88
307.731	87.88
307.961	95.88
308.191	85.88
308.421	90.88
308.651	87.88
308.881	92.88
309.111	89.88
309.341	79.88
309.571	89.88
309.8	85.88
310.03	86.88
310.26	77.88
310.49	95.88
310.72	87.88
310.949	88.88
311.179	87.88
311.409	80.88
311.639	83.88
311.868	88.88
312.098	85.88
312.328	87.88
312.557	85.88
312.787	86.88
313.017	79.88
313.246	81.88
313.476	94.88
313.706	78.88
313.935	85.88
314.165	96.88
314.394	95.88
314.624	94.88
314.853	104.88
315.083	83.88
315.312	88.88
315.542	92.88
315.771	96.88
316.001	85.88
316.23	84.88
316.46	82.88
316.689	73.88
316.919	88.88
317.148	80.88
317.377	84.88
317.607	80.88
317.836	80.88
318.065	103.88
318.295	80.88
318.524	103.88
318.753	88.88
318.983	83.88
319.212	91.88
319.441	89.88
319.67	87.88
319.9	72.88
320.129	79.88
320.358	81.88
320.587	87.88
320.816	85.88
321.046	100.88
321.275	95.88
321.504	83.88
321.733	85.88
321.962	83.88
322.191	88.88
322.42	79.88
322.649	80.88
322.878	91.88
323.108	92.88
323.337	87.88
323.566	88.88
323.795	76.88
324.024	104.88
324.253	77.88
324.482	80.88
324.71	82.88
324.939	83.88
325.168	82.88
325.397	92.88
325.626	94.88
325.855	67.88
326.084	84.88
326.313	93.88
326.542	81.88
326.77	87.88
326.999	87.88
327.228	87.88
327.457	70.88
327.686	99.88
327.914	75.88
328.143	74.88
328.372	79.88
328.6	93.88
328.829	87.88
329.058	84.88
329.287	100.88
329.515	92.88
329.744	88.88
329.972	87.88
330.201	88.88
330.43	80.88
330.658	75.88
330.887	77.88
331.115	83.88
331.344	77.88
331.572	82.88
331.801	77.88
332.03	69.88
332.258	95.88
332.486	93.88
332.715	77.88
332.943	79.88
333.172	79.88
333.4	85.88
333.629	89.88
333.857	92.88
334.085	82.88
334.314	68.88
334.542	70.88
334.771	84.88
334.999	101.88
335.227	91.88
335.455	91.88
335.684	95.88
335.912	83.88
336.14	74.88
336.369	81.88
336.597	93.88
336.825	92.88
337.053	80.88
337.281	90.88
337.51	72.88
337.738	88.88
337.966	95.88
338.194	89.88
338.422	81.88
338.65	83.88
338.878	86.88
339.106	96.88
339.334	93.88
339.562	81.88
339.79	81.88
340.018	95.88
340.246	86.88
340.474	86.88
340.702	76.88
340.93	90.88
341.158	81.88
341.386	76.88
341.614	69.88
341.842	67.88
342.07	94.88
342.298	89.88
342.526	83.88
342.754	106.88
342.981	95.88
343.209	88.88
343.437	93.88
343.665	73.88
343.893	91.88
344.12	91.88
344.348	79.88
344.576	76.88
344.804	72.88
345.031	84.88
345.259	75.88
345.487	81.88
345.714	86.88
345.942	75.88
346.17	85.88
346.397	74.88
346.625	88.88
346.853	102.88
347.08	75.88
347.308	71.88
347.535	85.88
347.763	86.88
347.99	91.88
348.218	77.88
348.445	64.88
348.673	90.88
348.9	77.88
349.128	82.88
349.355	94.88
349.583	91.88
349.81	67.88
350.037	88.88
350.265	91.88
350.492	76.88
350.72	79.88
350.947	83.88
351.174	94.88
351.402	82.88
351.629	81.88
351.856	85.88
352.083	82.88
352.311	93.88
352.538	80.88
352.765	82.88
352.992	87.88
353.22	90.88
353.447	73.88
353.674	81.88
353.901	84.88
354.128	82.88
354.355	78.88
354.583	86.88
354.81	71.88
355.037	88.88
355.264	84.88
355.491	84.88
355.718	85.88
355.945	79.88
356.172	76.88
356.399	80.88
356.626	93.88
356.853	90.88
357.08	94.88
357.307	83.88
357.534	95.88
357.761	78.88
357.988	76.88
358.215	86.88
358.441	93.88
358.668	76.88
358.895	82.88
359.122	81.88
359.349	88.88
359.576	80.88
359.802	85.88
360.029	94.88
360.256	96.88
360.483	73.88
360.709	73.88
360.936	80.88
361.163	87.88
361.39	79.88
361.616	86.88
361.843	86.88
362.07	85.88
362.296	89.88
362.523	77.88
362.749	83.88
362.976	80.88
363.203	79.88
363.429	72.88
363.656	86.88
363.882	83.88
364.109	100.88
364.335	91.88
364.562	83.88
364.788	77.88
365.015	84.88
365.241	83.88
365.468	101.88
365.694	88.88
365.92	86.88
366.147	89.88
366.373	74.88
366.599	92.88
366.826	90.88
367.052	83.88
367.278	79.88
367.505	65.88
367.731	90.88
367.957	64.88
368.184	93.88
368.41	75.88
368.636	75.88
368.862	85.88
369.089	98.88
369.315	77.88
369.541	92.88
369.767	83.88
369.993	90.88
370.219	94.88
370.445	91.88
370.672	81.88
370.898	81.88
371.124	81.88
371.35	80.88
371.576	78.88
371.802	87.88
372.028	80.88
372.254	89.88
372.48	85.88
372.706	86.88
372.932	89.88
373.158	90.88
373.384	101.88
373.61	95.88
373.835	79.88
374.061	77.88
374.287	94.88
374.513	84.88
374.739	83.88
374.965	89.88
375.191	81.88
375.416	91.88
375.642	78.88
375.868	91.88
376.094	84.88
376.319	69.88
376.545	83.88
376.771	88.88
376.997	77.88
377.222	81.88
377.448	81.88
377.674	85.88
377.899	103.88
378.125	84.88
378.35	83.88
378.576	73.88
378.802	91.88
379.027	91.88
379.253	84.88
379.478	95.88
379.704	89.88
379.929	83.88
380.155	83.88
380.38	79.88
380.606	79.88
380.831	86.88
381.057	83.88
381.282	83.88
381.507	79.88
381.733	100.88
381.958	95.88
382.184	79.88
382.409	84.88
382.634	69.88
382.86	66.88
383.085	94.88
383.31	90.88
383.535	76.88
383.761	88.88
383.986	85.88
384.211	77.88
384.436	86.88
384.662	85.88
384.887	81.88
385.112	94.88
385.337	89.88
385.562	69.88
385.787	95.88
386.013	80.88
386.238	83.88
386.463	84.88
386.688	97.88
386.913	80.88
387.138	95.88
387.363	92.88
387.588	91.88
387.813	89.88
388.038	83.88
388.263	87.88
388.488	80.88
388.713	73.88
388.938	78.88
389.163	86.88
389.387	82.88
389.612	93.88
389.837	80.88
390.062	84.88
390.287	81.88
390.512	79.88
390.736	74.88
390.961	76.88
391.186	65.88
391.411	88.88
391.636	88.88
391.86	101.88
392.085	79.88
392.31	83.88
392.534	90.88
392.759	82.88
392.984	80.88
393.208	91.88
393.433	70.88
393.658	82.88
393.882	82.88
394.107	88.88
394.331	97.88
394.556	78.88
394.78	97.88
395.005	91.88
395.229	76.88
395.454	83.88
395.678	75.88
395.903	92.88
396.127	94.88
396.352	85.88
396.576	88.88
396.801	94.88
397.025	91.88
397.249	93.88
397.474	96.88
397.698	77.88
397.922	92.88
398.147	96.88
398.371	83.88
398.595	83.88
398.82	85.88
399.044	80.88
399.268	72.88
399.492	91.88
399.717	87.88
399.941	92.88
400.165	86.88
400.389	83.88
400.613	89.88
400.837	99.88
401.062	93.88
401.286	88.88
401.51	89.88
401.734	80.88
401.958	82.88
402.182	89.88
402.406	81.88
402.63	103.88
402.854	100.88
403.078	92.88
403.302	80.88
403.526	83.88
403.75	90.88
403.974	85.88
404.198	75.88
404.422	86.88
404.645	101.88
404.869	83.88
405.093	95.88
405.317	90.88
405.541	107.88
405.765	102.88
405.988	83.88
406.212	88.88
406.436	95.88
406.66	95.88
406.883	66.88
407.107	68.88
407.331	91.88
407.555	88.88
407.778	93.88
408.002	70.88
408.226	95.88
408.449	100.88
408.673	90.88
408.896	84.88
409.12	83.88
409.344	84.88
409.567	87.88
409.791	79.88
410.014	100.88
410.238	85.88
410.461	99.88
410.685	76.88
410.908	101.88
411.132	100.88
411.355	89.88
411.578	81.88
411.802	97.88
412.025	85.88
412.249	68.88
412.472	83.88
412.695	100.88
412.919	81.88
413.142	87.88
413.365	95.88
413.589	93.88
413.812	77.88
414.035	86.88
414.258	89.88
414.482	82.88
414.705	78.88
414.928	88.88
415.151	91.88
415.374	93.88
415.597	91.88
415.821	89.88
416.044	79.88
416.267	81.88
416.49	75.88
416.713	78.88
416.936	74.88
417.159	87.88
417.382	95.88
417.605	91.88
417.828	86.88
418.051	89.88
418.274	93.88
418.497	68.88
418.72	78.88
418.943	96.88
419.166	105.88
419.389	92.88
419.611	90.88
419.834	102.88
420.057	75.88
420.28	88.88
420.503	80.88
420.726	100.88
420.948	76.88
421.171	92.88
421.394	79.88
421.617	92.88
421.839	93.88
422.062	88.88
422.285	75.88
422.507	94.88
422.73	71.88
422.953	77.88
423.175	86.88
423.398	78.88
423.621	83.88
423.843	81.88
424.066	88.88
424.288	78.88
424.511	82.88
424.733	80.88
424.956	78.88
425.178	78.88
425.401	95.88
425.623	93.88
425.846	89.88
426.068	101.88
426.291	103.88
426.513	85.88
426.735	81.88
426.958	92.88
427.18	73.88
427.402	75.88
427.625	89.88
427.847	86.88
428.069	85.88
428.292	91.88
428.514	88.88
428.736	89.88
428.958	79.88
429.181	80.88
429.403	92.88
429.625	79.88
429.847	78.88
430.069	86.88
430.292	79.88
430.514	80.88
430.736	77.88
430.958	90.88
431.18	80.88
431.402	76.88
431.624	101.88
431.846	91.88
432.068	80.88
432.29	65.88
432.512	88.88
432.734	85.88
432.956	82.88
433.178	84.88
433.4	101.88
433.622	82.88
433.844	85.88
434.066	83.88
434.287	84.88
434.509	87.88
434.731	88.88
434.953	73.88
435.175	103.88
435.397	89.88
435.618	79.88
435.84	83.88
436.062	79.88
436.284	90.88
436.505	85.88
436.727	88.88
436.949	91.88
437.17	111.88
437.392	94.88
437.614	91.88
437.835	69.88
438.057	81.88
438.278	73.88
438.5	82.88
438.721	87.88
438.943	77.88
439.165	66.88
439.386	88.88
439.608	91.88
439.829	89.88
440.05	87.88
440.272	86.88
440.493	85.88
440.715	106.88
440.936	76.88
441.158	83.88
441.379	95.88
441.6	91.88
441.822	91.88
442.043	92.88
442.264	72.88
442.486	83.88
442.707	79.88
442.928	91.88
443.149	93.88
443.371	93.88
443.592	84.88
443.813	88.88
444.034	77.88
444.255	80.88
444.476	77.88
444.698	78.88
444.919	88.88
445.14	174.88
445.361	131.88
445.582	88.88
445.803	80.88
446.024	74.88
446.245	81.88
446.466	91.88
446.687	81.88
446.908	92.88
447.129	89.88
447.35	91.88
447.571	90.88
447.792	81.88
448.013	83.88
448.234	86.88
448.455	89.88
448.675	81.88
448.896	85.88
449.117	75.88
449.338	80.88
449.559	79.88
449.779	89.88
450	79.88
450.221	86.88
450.442	71.88
450.662	87.88
450.883	84.88
451.104	79.88
451.324	79.88
451.545	88.88
451.766	80.88
451.986	87.88
452.207	91.88
452.428	71.88
452.648	78.88
452.869	94.88
453.089	94.88
453.31	81.88
453.53	93.88
453.751	72.88
453.971	78.88
454.192	87.88
454.412	92.88
454.633	83.88
454.853	89.88
455.073	81.88
455.294	80.88
455.514	93.88
455.734	91.88
455.955	91.88
456.175	78.88
456.395	81.88
456.616	70.88
456.836	86.88
457.056	77.88
457.276	81.88
457.497	83.88
457.717	83.88
457.937	80.88
458.157	75.88
458.377	85.88
458.598	81.88
458.818	88.88
459.038	81.88
459.258	81.88
459.478	84.88
459.698	85.88
459.918	82.88
460.138	88.88
460.358	84.88
460.578	92.88
460.798	85.88
461.018	94.88
461.238	86.88
461.458	83.88
461.678	88.88
461.898	83.88
462.118	92.88
462.338	88.88
462.558	90.88
462.777	88.88
462.997	93.88
463.217	102.88
463.437	107.88
463.657	79.88
463.876	92.88
464.096	85.88
464.316	77.88
464.536	86.88
464.755	108.88
464.975	79.88
465.195	78.88
465.414	81.88
465.634	86.88
465.854	81.88
466.073	79.88
466.293	80.88
466.512	76.88
466.732	94.88
466.951	75.88
467.171	96.88
467.391	95.88
467.61	80.88
467.829	91.88
468.049	77.88
468.268	96.88
468.488	97.88
468.707	79.88
468.927	95.88
469.146	84.88
469.365	103.88
469.585	75.88
469.804	73.88
470.023	93.88
470.243	89.88
470.462	83.88
470.681	80.88
470.901	87.88
471.12	75.88
471.339	93.88
471.558	75.88
471.777	95.88
471.997	93.88
472.216	94.88
472.435	91.88
472.654	97.88
472.873	97.88
473.092	83.88
473.311	75.88
473.53	87.88
473.749	75.88
473.968	94.88
474.187	83.88
474.406	84.88
474.625	77.88
474.844	82.88
475.063	71.88
475.282	93.88
475.501	96.88
475.72	84.88
475.939	80.88
476.158	67.88
476.377	87.88
476.596	86.88
476.814	75.88
477.033	88.88
477.252	72.88
477.471	83.88
477.69	77.88
477.908	78.88
478.127	81.88
478.346	92.88
478.564	79.88
478.783	95.88
479.002	83.88
479.22	86.88
479.439	88.88
479.658	79.88
479.876	85.88
480.095	80.88
480.313	83.88
480.532	88.88
480.751	76.88
480.969	89.88
481.188	91.88
481.406	76.88
481.624	94.88
481.843	90.88
482.061	78.88
482.28	87.88
482.498	83.88
482.717	92.88
482.935	77.88
483.153	88.88
483.372	90.88
483.59	93.88
483.808	89.88
484.027	88.88
484.245	76.88
484.463	91.88
484.681	90.88
484.9	93.88
485.118	86.88
485.336	88.88
485.554	93.88
485.772	95.88
485.99	99.88
486.209	100.88
486.427	80.88
486.645	94.88
486.863	80.88
487.081	66.88
487.299	80.88
487.517	83.88
487.735	96.88
487.953	93.88
488.171	91.88
488.389	91.88
488.607	93.88
488.825	80.88
489.043	73.88
489.261	91.88
489.479	85.88
489.696	95.88
489.914	78.88
490.132	84.88
490.35	86.88
490.568	88.88
490.786	84.88
491.003	89.88
491.221	86.88
491.439	75.88
491.657	93.88
491.874	98.88
492.092	87.88
492.31	88.88
492.527	85.88
492.745	94.88
492.963	84.88
493.18	92.88
493.398	91.88
493.615	84.88
493.833	99.88
494.05	71.88
494.268	103.88
494.485	90.88
494.703	89.88
494.92	86.88
495.138	84.88
495.355	88.88
495.573	90.88
495.79	87.88
496.008	100.88
496.225	86.88
496.442	84.88
496.66	89.88
496.877	92.88
497.094	92.88
497.312	100.88
497.529	83.88
497.746	89.88
497.963	78.88
498.181	85.88
498.398	85.88
498.615	94.88
498.832	102.88
499.049	90.88
499.267	97.88
499.484	96.88
499.701	97.88
499.918	91.88
500.135	107.88
500.352	103.88
500.569	96.88
500.786	101.88
501.003	113.88
501.22	96.88
501.437	93.88
501.654	104.88
501.871	97.88
502.088	84.88
502.305	90.88
502.522	103.88
502.739	89.88
502.956	96.88
503.172	80.88
503.389	97.88
503.606	90.88
503.823	88.88
504.04	92.88
504.256	92.88
504.473	90.88
504.69	84.88
504.907	97.88
505.123	77.88
505.34	79.88
505.557	104.88
505.773	69.88
505.99	85.88
506.207	96.88
506.423	90.88
506.64	82.88
506.856	95.88
507.073	91.88
507.289	92.88
507.506	100.88
507.722	91.88
507.939	87.88
508.155	95.88
508.372	83.88
508.588	96.88
508.805	94.88
509.021	96.88
509.238	89.88
509.454	80.88
509.67	83.88
509.887	99.88
510.103	85.88
510.319	95.88
510.536	87.88
510.752	88.88
510.968	81.88
511.184	83.88
511.401	92.88
511.617	85.88
511.833	84.88
512.049	90.88
512.265	91.88
512.481	81.88
512.698	87.88
512.914	86.88
513.13	99.88
513.346	85.88
513.562	94.88
513.778	88.88
513.994	87.88
514.21	83.88
514.426	91.88
514.642	102.88
514.858	99.88
515.074	88.88
515.29	107.88
515.506	101.88
515.721	97.88
515.937	98.88
516.153	87.88
516.369	102.88
516.585	80.88
516.801	75.88
517.016	88.88
517.232	91.88
517.448	80.88
517.664	89.88
517.879	102.88
518.095	85.88
518.311	76.88
518.527	95.88
518.742	85.88
518.958	101.88
519.173	105.88
519.389	101.88
