Data from BG_HRD10591_078.txt Node
Date: Fri May 16 15:27:26 EDT 2025
User: Yrep
Spectrometer: HR+D1059
Trigger mode: 1
Integration Time (sec): 1.000000E-1
Scans to average: 1
Electric dark correction enabled: true
Nonlinearity correction enabled: false
Boxcar width: 0
XAxis mode: Wavelengths
Number of Pixels in Spectrum: 2048
>>>>>Begin Spectral Data<<<<<
223.165	-17.12
223.4	-17.12
223.635	-17.12
223.869	-9.12
224.104	-20.12
224.338	-20.12
224.573	-17.12
224.808	-27.12
225.042	1.88
225.277	-11.12
225.511	2.88
225.746	8.88
225.98	13.88
226.215	8.88
226.449	18.88
226.683	19.88
226.918	14.88
227.152	31.88
227.387	35.88
227.621	28.88
227.856	50.88
228.09	32.88
228.324	50.88
228.559	57.88
228.793	60.88
229.027	54.88
229.262	48.88
229.496	66.88
229.73	67.88
229.964	83.88
230.199	75.88
230.433	74.88
230.667	77.88
230.901	80.88
231.136	69.88
231.37	58.88
231.604	70.88
231.838	82.88
232.072	89.88
232.306	85.88
232.541	79.88
232.775	82.88
233.009	67.88
233.243	73.88
233.477	67.88
233.711	78.88
233.945	79.88
234.179	76.88
234.413	74.88
234.647	78.88
234.881	62.88
235.115	61.88
235.349	80.88
235.583	77.88
235.817	84.88
236.051	70.88
236.285	71.88
236.519	75.88
236.753	83.88
236.987	63.88
237.221	85.88
237.455	75.88
237.689	79.88
237.922	86.88
238.156	73.88
238.39	76.88
238.624	64.88
238.858	62.88
239.091	68.88
239.325	72.88
239.559	77.88
239.793	56.88
240.027	78.88
240.26	70.88
240.494	70.88
240.728	75.88
240.961	72.88
241.195	71.88
241.429	59.88
241.662	78.88
241.896	71.88
242.13	66.88
242.363	68.88
242.597	72.88
242.83	66.88
243.064	74.88
243.298	91.88
243.531	76.88
243.765	74.88
243.998	75.88
244.232	70.88
244.465	70.88
244.699	85.88
244.932	72.88
245.166	70.88
245.399	74.88
245.633	80.88
245.866	65.88
246.099	70.88
246.333	73.88
246.566	66.88
246.8	76.88
247.033	70.88
247.266	63.88
247.5	77.88
247.733	75.88
247.966	72.88
248.2	87.88
248.433	61.88
248.666	60.88
248.899	79.88
249.133	76.88
249.366	86.88
249.599	78.88
249.832	84.88
250.066	80.88
250.299	80.88
250.532	78.88
250.765	72.88
250.998	80.88
251.231	81.88
251.465	63.88
251.698	70.88
251.931	62.88
252.164	79.88
252.397	70.88
252.63	79.88
252.863	64.88
253.096	86.88
253.329	73.88
253.562	95.88
253.795	68.88
254.028	75.88
254.261	54.88
254.494	92.88
254.727	74.88
254.96	75.88
255.193	75.88
255.426	76.88
255.659	71.88
255.892	72.88
256.124	74.88
256.357	73.88
256.59	78.88
256.823	71.88
257.056	72.88
257.289	74.88
257.521	63.88
257.754	70.88
257.987	75.88
258.22	71.88
258.452	87.88
258.685	83.88
258.918	74.88
259.151	65.88
259.383	95.88
259.616	87.88
259.849	77.88
260.081	80.88
260.314	75.88
260.547	61.88
260.779	60.88
261.012	70.88
261.244	69.88
261.477	93.88
261.71	84.88
261.942	80.88
262.175	72.88
262.407	92.88
262.64	80.88
262.872	61.88
263.105	76.88
263.337	79.88
263.57	69.88
263.802	70.88
264.035	70.88
264.267	81.88
264.499	85.88
264.732	85.88
264.964	82.88
265.197	92.88
265.429	71.88
265.661	77.88
265.894	79.88
266.126	91.88
266.358	73.88
266.591	77.88
266.823	72.88
267.055	76.88
267.287	76.88
267.52	84.88
267.752	96.88
267.984	64.88
268.216	79.88
268.448	72.88
268.681	76.88
268.913	86.88
269.145	78.88
269.377	83.88
269.609	73.88
269.841	84.88
270.073	94.88
270.306	72.88
270.538	86.88
270.77	83.88
271.002	85.88
271.234	77.88
271.466	87.88
271.698	85.88
271.93	84.88
272.162	90.88
272.394	64.88
272.626	92.88
272.858	88.88
273.09	85.88
273.322	85.88
273.553	78.88
273.785	63.88
274.017	79.88
274.249	102.88
274.481	76.88
274.713	76.88
274.945	97.88
275.176	84.88
275.408	75.88
275.64	75.88
275.872	74.88
276.104	81.88
276.335	76.88
276.567	65.88
276.799	74.88
277.031	87.88
277.262	97.88
277.494	86.88
277.726	83.88
277.957	88.88
278.189	76.88
278.421	74.88
278.652	100.88
278.884	77.88
279.115	86.88
279.347	80.88
279.579	85.88
279.81	90.88
280.042	84.88
280.273	71.88
280.505	79.88
280.736	77.88
280.968	71.88
281.199	67.88
281.431	70.88
281.662	64.88
281.894	80.88
282.125	89.88
282.356	92.88
282.588	79.88
282.819	84.88
283.051	74.88
283.282	75.88
283.513	80.88
283.745	90.88
283.976	84.88
284.207	82.88
284.439	83.88
284.67	73.88
284.901	73.88
285.132	99.88
285.364	77.88
285.595	80.88
285.826	66.88
286.057	91.88
286.288	85.88
286.52	80.88
286.751	86.88
286.982	78.88
287.213	65.88
287.444	63.88
287.675	82.88
287.906	79.88
288.138	77.88
288.369	82.88
288.6	85.88
288.831	95.88
289.062	82.88
289.293	91.88
289.524	82.88
289.755	86.88
289.986	72.88
290.217	83.88
290.448	76.88
290.679	85.88
290.91	81.88
291.141	86.88
291.371	83.88
291.602	91.88
291.833	80.88
292.064	93.88
292.295	73.88
292.526	91.88
292.757	82.88
292.987	93.88
293.218	91.88
293.449	78.88
293.68	87.88
293.91	79.88
294.141	82.88
294.372	83.88
294.603	78.88
294.833	68.88
295.064	76.88
295.295	87.88
295.525	80.88
295.756	76.88
295.987	86.88
296.217	90.88
296.448	75.88
296.679	100.88
296.909	98.88
297.14	88.88
297.37	88.88
297.601	89.88
297.831	86.88
298.062	78.88
298.292	102.88
298.523	90.88
298.753	68.88
298.984	68.88
299.214	71.88
299.445	86.88
299.675	72.88
299.905	85.88
300.136	78.88
300.366	79.88
300.597	86.88
300.827	74.88
301.057	83.88
301.288	82.88
301.518	80.88
301.748	84.88
301.979	96.88
302.209	81.88
302.439	89.88
302.669	84.88
302.9	75.88
303.13	70.88
303.36	78.88
303.59	83.88
303.82	83.88
304.051	90.88
304.281	76.88
304.511	81.88
304.741	65.88
304.971	88.88
305.201	82.88
305.431	80.88
305.661	91.88
305.891	85.88
306.121	88.88
306.352	90.88
306.582	84.88
306.812	93.88
307.042	87.88
307.272	80.88
307.502	72.88
307.731	71.88
307.961	88.88
308.191	75.88
308.421	87.88
308.651	82.88
308.881	75.88
309.111	90.88
309.341	82.88
309.571	78.88
309.8	79.88
310.03	90.88
310.26	82.88
310.49	89.88
310.72	80.88
310.949	90.88
311.179	85.88
311.409	84.88
311.639	94.88
311.868	88.88
312.098	84.88
312.328	85.88
312.557	81.88
312.787	79.88
313.017	102.88
313.246	85.88
313.476	79.88
313.706	71.88
313.935	93.88
314.165	89.88
314.394	82.88
314.624	78.88
314.853	83.88
315.083	76.88
315.312	81.88
315.542	74.88
315.771	88.88
316.001	78.88
316.23	84.88
316.46	88.88
316.689	88.88
316.919	88.88
317.148	80.88
317.377	88.88
317.607	83.88
317.836	85.88
318.065	83.88
318.295	98.88
318.524	85.88
318.753	91.88
318.983	82.88
319.212	77.88
319.441	73.88
319.67	75.88
319.9	70.88
320.129	92.88
320.358	87.88
320.587	70.88
320.816	79.88
321.046	76.88
321.275	78.88
321.504	75.88
321.733	74.88
321.962	86.88
322.191	79.88
322.42	79.88
322.649	92.88
322.878	84.88
323.108	85.88
323.337	72.88
323.566	77.88
323.795	70.88
324.024	83.88
324.253	78.88
324.482	85.88
324.71	86.88
324.939	79.88
325.168	85.88
325.397	75.88
325.626	89.88
325.855	74.88
326.084	84.88
326.313	95.88
326.542	91.88
326.77	78.88
326.999	86.88
327.228	93.88
327.457	83.88
327.686	87.88
327.914	80.88
328.143	100.88
328.372	66.88
328.6	92.88
328.829	90.88
329.058	81.88
329.287	74.88
329.515	76.88
329.744	73.88
329.972	83.88
330.201	77.88
330.43	99.88
330.658	86.88
330.887	70.88
331.115	65.88
331.344	74.88
331.572	92.88
331.801	84.88
332.03	84.88
332.258	78.88
332.486	86.88
332.715	94.88
332.943	75.88
333.172	85.88
333.4	74.88
333.629	76.88
333.857	81.88
334.085	78.88
334.314	72.88
334.542	91.88
334.771	92.88
334.999	70.88
335.227	97.88
335.455	76.88
335.684	74.88
335.912	83.88
336.14	74.88
336.369	72.88
336.597	70.88
336.825	89.88
337.053	64.88
337.281	84.88
337.51	90.88
337.738	93.88
337.966	86.88
338.194	76.88
338.422	76.88
338.65	84.88
338.878	73.88
339.106	85.88
339.334	82.88
339.562	85.88
339.79	85.88
340.018	78.88
340.246	86.88
340.474	72.88
340.702	73.88
340.93	95.88
341.158	73.88
341.386	81.88
341.614	89.88
341.842	87.88
342.07	71.88
342.298	82.88
342.526	87.88
342.754	63.88
342.981	81.88
343.209	77.88
343.437	107.88
343.665	79.88
343.893	67.88
344.12	88.88
344.348	84.88
344.576	71.88
344.804	87.88
345.031	91.88
345.259	90.88
345.487	77.88
345.714	90.88
345.942	76.88
346.17	84.88
346.397	89.88
346.625	72.88
346.853	84.88
347.08	79.88
347.308	83.88
347.535	85.88
347.763	82.88
347.99	86.88
348.218	91.88
348.445	86.88
348.673	78.88
348.9	79.88
349.128	85.88
349.355	75.88
349.583	83.88
349.81	77.88
350.037	77.88
350.265	90.88
350.492	82.88
350.72	83.88
350.947	89.88
351.174	86.88
351.402	74.88
351.629	72.88
351.856	79.88
352.083	86.88
352.311	94.88
352.538	82.88
352.765	81.88
352.992	91.88
353.22	68.88
353.447	83.88
353.674	69.88
353.901	87.88
354.128	88.88
354.355	79.88
354.583	76.88
354.81	98.88
355.037	77.88
355.264	83.88
355.491	82.88
355.718	82.88
355.945	90.88
356.172	71.88
356.399	84.88
356.626	70.88
356.853	71.88
357.08	71.88
357.307	86.88
357.534	82.88
357.761	79.88
357.988	80.88
358.215	67.88
358.441	76.88
358.668	74.88
358.895	73.88
359.122	72.88
359.349	86.88
359.576	78.88
359.802	75.88
360.029	90.88
360.256	73.88
360.483	96.88
360.709	75.88
360.936	70.88
361.163	77.88
361.39	80.88
361.616	83.88
361.843	79.88
362.07	77.88
362.296	94.88
362.523	90.88
362.749	82.88
362.976	76.88
363.203	100.88
363.429	81.88
363.656	74.88
363.882	88.88
364.109	84.88
364.335	78.88
364.562	105.88
364.788	83.88
365.015	84.88
365.241	92.88
365.468	81.88
365.694	79.88
365.92	76.88
366.147	84.88
366.373	80.88
366.599	76.88
366.826	82.88
367.052	100.88
367.278	82.88
367.505	91.88
367.731	87.88
367.957	79.88
368.184	69.88
368.41	82.88
368.636	90.88
368.862	77.88
369.089	75.88
369.315	84.88
369.541	79.88
369.767	92.88
369.993	79.88
370.219	90.88
370.445	78.88
370.672	82.88
370.898	74.88
371.124	79.88
371.35	85.88
371.576	76.88
371.802	76.88
372.028	82.88
372.254	81.88
372.48	64.88
372.706	68.88
372.932	73.88
373.158	66.88
373.384	102.88
373.61	75.88
373.835	89.88
374.061	74.88
374.287	82.88
374.513	68.88
374.739	68.88
374.965	83.88
375.191	92.88
375.416	81.88
375.642	79.88
375.868	77.88
376.094	90.88
376.319	80.88
376.545	71.88
376.771	89.88
376.997	77.88
377.222	85.88
377.448	85.88
377.674	93.88
377.899	78.88
378.125	85.88
378.35	77.88
378.576	77.88
378.802	78.88
379.027	76.88
379.253	86.88
379.478	76.88
379.704	84.88
379.929	64.88
380.155	79.88
380.38	80.88
380.606	89.88
380.831	79.88
381.057	86.88
381.282	78.88
381.507	64.88
381.733	72.88
381.958	88.88
382.184	86.88
382.409	88.88
382.634	83.88
382.86	94.88
383.085	88.88
383.31	80.88
383.535	86.88
383.761	80.88
383.986	74.88
384.211	95.88
384.436	70.88
384.662	73.88
384.887	72.88
385.112	79.88
385.337	85.88
385.562	78.88
385.787	94.88
386.013	83.88
386.238	84.88
386.463	79.88
386.688	90.88
386.913	76.88
387.138	83.88
387.363	79.88
387.588	74.88
387.813	78.88
388.038	76.88
388.263	76.88
388.488	79.88
388.713	78.88
388.938	80.88
389.163	81.88
389.387	93.88
389.612	79.88
389.837	94.88
390.062	82.88
390.287	95.88
390.512	85.88
390.736	88.88
390.961	75.88
391.186	82.88
391.411	74.88
391.636	75.88
391.86	81.88
392.085	84.88
392.31	88.88
392.534	79.88
392.759	69.88
392.984	76.88
393.208	95.88
393.433	77.88
393.658	74.88
393.882	80.88
394.107	78.88
394.331	75.88
394.556	80.88
394.78	73.88
395.005	84.88
395.229	89.88
395.454	74.88
395.678	85.88
395.903	84.88
396.127	78.88
396.352	85.88
396.576	63.88
396.801	70.88
397.025	87.88
397.249	64.88
397.474	87.88
397.698	83.88
397.922	78.88
398.147	82.88
398.371	84.88
398.595	80.88
398.82	93.88
399.044	86.88
399.268	90.88
399.492	80.88
399.717	79.88
399.941	87.88
400.165	88.88
400.389	59.88
400.613	74.88
400.837	74.88
401.062	70.88
401.286	74.88
401.51	74.88
401.734	51.88
401.958	72.88
402.182	82.88
402.406	86.88
402.63	67.88
402.854	92.88
403.078	73.88
403.302	71.88
403.526	87.88
403.75	75.88
403.974	71.88
404.198	76.88
404.422	77.88
404.645	95.88
404.869	79.88
405.093	80.88
405.317	101.88
405.541	83.88
405.765	64.88
405.988	76.88
406.212	73.88
406.436	86.88
406.66	79.88
406.883	82.88
407.107	81.88
407.331	77.88
407.555	93.88
407.778	72.88
408.002	72.88
408.226	92.88
408.449	72.88
408.673	78.88
408.896	72.88
409.12	62.88
409.344	62.88
409.567	72.88
409.791	76.88
410.014	84.88
410.238	77.88
410.461	71.88
410.685	77.88
410.908	85.88
411.132	78.88
411.355	96.88
411.578	88.88
411.802	91.88
412.025	85.88
412.249	78.88
412.472	83.88
412.695	84.88
412.919	88.88
413.142	80.88
413.365	86.88
413.589	66.88
413.812	87.88
414.035	80.88
414.258	78.88
414.482	62.88
414.705	72.88
414.928	88.88
415.151	78.88
415.374	96.88
415.597	77.88
415.821	73.88
416.044	83.88
416.267	83.88
416.49	84.88
416.713	88.88
416.936	80.88
417.159	82.88
417.382	64.88
417.605	80.88
417.828	86.88
418.051	81.88
418.274	69.88
418.497	84.88
418.72	83.88
418.943	76.88
419.166	73.88
419.389	82.88
419.611	84.88
419.834	76.88
420.057	77.88
420.28	79.88
420.503	84.88
420.726	78.88
420.948	76.88
421.171	73.88
421.394	72.88
421.617	78.88
421.839	73.88
422.062	84.88
422.285	73.88
422.507	78.88
422.73	71.88
422.953	71.88
423.175	67.88
423.398	105.88
423.621	82.88
423.843	86.88
424.066	67.88
424.288	87.88
424.511	76.88
424.733	85.88
424.956	94.88
425.178	76.88
425.401	86.88
425.623	80.88
425.846	71.88
426.068	70.88
426.291	72.88
426.513	95.88
426.735	84.88
426.958	76.88
427.18	74.88
427.402	75.88
427.625	84.88
427.847	84.88
428.069	63.88
428.292	82.88
428.514	84.88
428.736	95.88
428.958	78.88
429.181	88.88
429.403	93.88
429.625	76.88
429.847	86.88
430.069	87.88
430.292	84.88
430.514	76.88
430.736	73.88
430.958	72.88
431.18	77.88
431.402	85.88
431.624	89.88
431.846	59.88
432.068	95.88
432.29	83.88
432.512	79.88
432.734	79.88
432.956	78.88
433.178	83.88
433.4	84.88
433.622	77.88
433.844	88.88
434.066	68.88
434.287	78.88
434.509	85.88
434.731	81.88
434.953	70.88
435.175	75.88
435.397	78.88
435.618	91.88
435.84	90.88
436.062	75.88
436.284	80.88
436.505	75.88
436.727	77.88
436.949	94.88
437.17	64.88
437.392	69.88
437.614	73.88
437.835	64.88
438.057	63.88
438.278	73.88
438.5	80.88
438.721	89.88
438.943	89.88
439.165	67.88
439.386	65.88
439.608	78.88
439.829	77.88
440.05	65.88
440.272	72.88
440.493	69.88
440.715	77.88
440.936	81.88
441.158	72.88
441.379	78.88
441.6	83.88
441.822	81.88
442.043	62.88
442.264	80.88
442.486	77.88
442.707	71.88
442.928	85.88
443.149	66.88
443.371	71.88
443.592	72.88
443.813	74.88
444.034	63.88
444.255	80.88
444.476	93.88
444.698	86.88
444.919	80.88
445.14	154.88
445.361	106.88
445.582	79.88
445.803	80.88
446.024	76.88
446.245	81.88
446.466	76.88
446.687	69.88
446.908	74.88
447.129	88.88
447.35	70.88
447.571	87.88
447.792	66.88
448.013	64.88
448.234	83.88
448.455	90.88
448.675	86.88
448.896	64.88
449.117	83.88
449.338	66.88
449.559	85.88
449.779	79.88
450	62.88
450.221	73.88
450.442	96.88
450.662	80.88
450.883	75.88
451.104	95.88
451.324	68.88
451.545	68.88
451.766	75.88
451.986	64.88
452.207	79.88
452.428	79.88
452.648	75.88
452.869	93.88
453.089	82.88
453.31	74.88
453.53	78.88
453.751	75.88
453.971	80.88
454.192	82.88
454.412	90.88
454.633	90.88
454.853	72.88
455.073	68.88
455.294	75.88
455.514	72.88
455.734	71.88
455.955	90.88
456.175	85.88
456.395	75.88
456.616	80.88
456.836	78.88
457.056	77.88
457.276	71.88
457.497	74.88
457.717	73.88
457.937	82.88
458.157	80.88
458.377	72.88
458.598	78.88
458.818	80.88
459.038	91.88
459.258	70.88
459.478	84.88
459.698	74.88
459.918	70.88
460.138	71.88
460.358	85.88
460.578	76.88
460.798	78.88
461.018	91.88
461.238	80.88
461.458	86.88
461.678	73.88
461.898	83.88
462.118	86.88
462.338	71.88
462.558	74.88
462.777	78.88
462.997	82.88
463.217	94.88
463.437	72.88
463.657	81.88
463.876	72.88
464.096	73.88
464.316	74.88
464.536	65.88
464.755	73.88
464.975	87.88
465.195	84.88
465.414	82.88
465.634	73.88
465.854	83.88
466.073	63.88
466.293	70.88
466.512	74.88
466.732	78.88
466.951	90.88
467.171	74.88
467.391	74.88
467.61	79.88
467.829	70.88
468.049	71.88
468.268	84.88
468.488	80.88
468.707	74.88
468.927	72.88
469.146	95.88
469.365	85.88
469.585	73.88
469.804	88.88
470.023	83.88
470.243	78.88
470.462	64.88
470.681	82.88
470.901	74.88
471.12	77.88
471.339	95.88
471.558	74.88
471.777	70.88
471.997	75.88
472.216	82.88
472.435	79.88
472.654	60.88
472.873	80.88
473.092	82.88
473.311	93.88
473.53	96.88
473.749	87.88
473.968	85.88
474.187	85.88
474.406	82.88
474.625	87.88
474.844	69.88
475.063	91.88
475.282	70.88
475.501	76.88
475.72	87.88
475.939	68.88
476.158	75.88
476.377	82.88
476.596	74.88
476.814	75.88
477.033	71.88
477.252	86.88
477.471	76.88
477.69	95.88
477.908	82.88
478.127	79.88
478.346	78.88
478.564	79.88
478.783	87.88
479.002	72.88
479.22	80.88
479.439	71.88
479.658	71.88
479.876	86.88
480.095	81.88
480.313	84.88
480.532	93.88
480.751	74.88
480.969	73.88
481.188	76.88
481.406	87.88
481.624	69.88
481.843	83.88
482.061	82.88
482.28	85.88
482.498	83.88
482.717	83.88
482.935	78.88
483.153	79.88
483.372	64.88
483.59	88.88
483.808	89.88
484.027	106.88
484.245	88.88
484.463	78.88
484.681	84.88
484.9	87.88
485.118	86.88
485.336	88.88
485.554	62.88
485.772	79.88
485.99	63.88
486.209	77.88
486.427	78.88
486.645	74.88
486.863	75.88
487.081	86.88
487.299	87.88
487.517	76.88
487.735	72.88
487.953	76.88
488.171	89.88
488.389	68.88
488.607	76.88
488.825	72.88
489.043	83.88
489.261	78.88
489.479	67.88
489.696	76.88
489.914	85.88
490.132	84.88
490.35	87.88
490.568	78.88
490.786	91.88
491.003	64.88
491.221	79.88
491.439	83.88
491.657	86.88
491.874	68.88
492.092	78.88
492.31	78.88
492.527	68.88
492.745	59.88
492.963	98.88
493.18	79.88
493.398	73.88
493.615	77.88
493.833	79.88
494.05	73.88
494.268	75.88
494.485	67.88
494.703	73.88
494.92	78.88
495.138	76.88
495.355	78.88
495.573	88.88
495.79	79.88
496.008	77.88
496.225	77.88
496.442	72.88
496.66	78.88
496.877	73.88
497.094	85.88
497.312	88.88
497.529	71.88
497.746	65.88
497.963	88.88
498.181	68.88
498.398	91.88
498.615	74.88
498.832	79.88
499.049	73.88
499.267	72.88
499.484	82.88
499.701	77.88
499.918	74.88
500.135	80.88
500.352	84.88
500.569	59.88
500.786	85.88
501.003	82.88
501.22	77.88
501.437	79.88
501.654	80.88
501.871	84.88
502.088	92.88
502.305	70.88
502.522	82.88
502.739	81.88
502.956	80.88
503.172	81.88
503.389	88.88
503.606	83.88
503.823	90.88
504.04	78.88
504.256	92.88
504.473	81.88
504.69	78.88
504.907	89.88
505.123	78.88
505.34	64.88
505.557	86.88
505.773	94.88
505.99	98.88
506.207	76.88
506.423	90.88
506.64	82.88
506.856	87.88
507.073	66.88
507.289	67.88
507.506	77.88
507.722	69.88
507.939	85.88
508.155	78.88
508.372	77.88
508.588	89.88
508.805	87.88
509.021	86.88
509.238	77.88
509.454	69.88
509.67	80.88
509.887	80.88
510.103	78.88
510.319	77.88
510.536	69.88
510.752	64.88
510.968	82.88
511.184	80.88
511.401	92.88
511.617	74.88
511.833	76.88
512.049	90.88
512.265	88.88
512.481	83.88
512.698	84.88
512.914	72.88
513.13	74.88
513.346	69.88
513.562	72.88
513.778	84.88
513.994	90.88
514.21	74.88
514.426	86.88
514.642	94.88
514.858	93.88
515.074	70.88
515.29	86.88
515.506	86.88
515.721	70.88
515.937	88.88
516.153	79.88
516.369	82.88
516.585	72.88
516.801	81.88
517.016	93.88
517.232	76.88
517.448	86.88
517.664	78.88
517.879	97.88
518.095	90.88
518.311	87.88
518.527	85.88
518.742	91.88
518.958	72.88
519.173	87.88
519.389	72.88
519.605	84.88
519.82	71.88
520.036	70.88
520.251	74.88
