Data from BG_HRD10591_044.txt Node
Date: Fri May 16 15:27:09 EDT 2025
User: Yrep
Spectrometer: HR+D1059
Trigger mode: 1
Integration Time (sec): 1.000000E-1
Scans to average: 1
Electric dark correction enabled: true
Nonlinearity correction enabled: false
Boxcar width: 0
XAxis mode: Wavelengths
Number of Pixels in Spectrum: 2048
>>>>>Begin Spectral Data<<<<<
223.165	-15.44
223.4	-15.44
223.635	-15.44
223.869	-23.44
224.104	-21.44
224.338	-8.44
224.573	-10.44
224.808	-16.44
225.042	-9.44
225.277	-21.44
225.511	-9.44
225.746	3.56
225.98	22.56
226.215	9.56
226.449	11.56
226.683	28.56
226.918	23.56
227.152	36.56
227.387	48.56
227.621	25.56
227.856	43.56
228.09	51.56
228.324	44.56
228.559	54.56
228.793	60.56
229.027	54.56
229.262	65.56
229.496	53.56
229.73	54.56
229.964	70.56
230.199	78.56
230.433	77.56
230.667	68.56
230.901	78.56
231.136	73.56
231.37	75.56
231.604	84.56
231.838	79.56
232.072	79.56
232.306	88.56
232.541	84.56
232.775	78.56
233.009	75.56
233.243	77.56
233.477	75.56
233.711	76.56
233.945	74.56
234.179	73.56
234.413	87.56
234.647	83.56
234.881	81.56
235.115	78.56
235.349	71.56
235.583	85.56
235.817	73.56
236.051	72.56
236.285	79.56
236.519	70.56
236.753	82.56
236.987	72.56
237.221	64.56
237.455	76.56
237.689	69.56
237.922	78.56
238.156	65.56
238.39	66.56
238.624	68.56
238.858	70.56
239.091	70.56
239.325	85.56
239.559	65.56
239.793	55.56
240.027	77.56
240.26	79.56
240.494	84.56
240.728	72.56
240.961	77.56
241.195	75.56
241.429	83.56
241.662	73.56
241.896	75.56
242.13	80.56
242.363	62.56
242.597	75.56
242.83	82.56
243.064	70.56
243.298	74.56
243.531	84.56
243.765	64.56
243.998	83.56
244.232	80.56
244.465	75.56
244.699	53.56
244.932	78.56
245.166	72.56
245.399	69.56
245.633	77.56
245.866	78.56
246.099	74.56
246.333	78.56
246.566	79.56
246.8	58.56
247.033	87.56
247.266	94.56
247.5	85.56
247.733	70.56
247.966	71.56
248.2	62.56
248.433	70.56
248.666	69.56
248.899	82.56
249.133	79.56
249.366	81.56
249.599	78.56
249.832	79.56
250.066	79.56
250.299	78.56
250.532	85.56
250.765	83.56
250.998	88.56
251.231	89.56
251.465	86.56
251.698	72.56
251.931	82.56
252.164	78.56
252.397	95.56
252.63	80.56
252.863	73.56
253.096	74.56
253.329	90.56
253.562	79.56
253.795	60.56
254.028	84.56
254.261	89.56
254.494	87.56
254.727	82.56
254.96	79.56
255.193	82.56
255.426	78.56
255.659	74.56
255.892	90.56
256.124	82.56
256.357	65.56
256.59	74.56
256.823	77.56
257.056	76.56
257.289	79.56
257.521	92.56
257.754	85.56
257.987	70.56
258.22	83.56
258.452	75.56
258.685	76.56
258.918	80.56
259.151	77.56
259.383	80.56
259.616	74.56
259.849	88.56
260.081	74.56
260.314	74.56
260.547	89.56
260.779	84.56
261.012	56.56
261.244	77.56
261.477	80.56
261.71	80.56
261.942	71.56
262.175	81.56
262.407	72.56
262.64	78.56
262.872	82.56
263.105	72.56
263.337	75.56
263.57	82.56
263.802	85.56
264.035	76.56
264.267	77.56
264.499	68.56
264.732	84.56
264.964	92.56
265.197	76.56
265.429	79.56
265.661	89.56
265.894	88.56
266.126	77.56
266.358	71.56
266.591	100.56
266.823	86.56
267.055	86.56
267.287	71.56
267.52	78.56
267.752	68.56
267.984	86.56
268.216	74.56
268.448	77.56
268.681	79.56
268.913	71.56
269.145	67.56
269.377	67.56
269.609	86.56
269.841	88.56
270.073	66.56
270.306	68.56
270.538	77.56
270.77	86.56
271.002	83.56
271.234	90.56
271.466	93.56
271.698	87.56
271.93	85.56
272.162	76.56
272.394	94.56
272.626	78.56
272.858	88.56
273.09	80.56
273.322	69.56
273.553	72.56
273.785	77.56
274.017	82.56
274.249	68.56
274.481	95.56
274.713	96.56
274.945	90.56
275.176	60.56
275.408	77.56
275.64	90.56
275.872	78.56
276.104	79.56
276.335	60.56
276.567	73.56
276.799	100.56
277.031	76.56
277.262	83.56
277.494	58.56
277.726	84.56
277.957	75.56
278.189	85.56
278.421	77.56
278.652	74.56
278.884	91.56
279.115	74.56
279.347	82.56
279.579	71.56
279.81	86.56
280.042	87.56
280.273	74.56
280.505	89.56
280.736	80.56
280.968	89.56
281.199	102.56
281.431	79.56
281.662	74.56
281.894	88.56
282.125	80.56
282.356	73.56
282.588	70.56
282.819	90.56
283.051	85.56
283.282	81.56
283.513	82.56
283.745	82.56
283.976	84.56
284.207	82.56
284.439	69.56
284.67	84.56
284.901	72.56
285.132	78.56
285.364	72.56
285.595	99.56
285.826	60.56
286.057	83.56
286.288	80.56
286.52	78.56
286.751	89.56
286.982	101.56
287.213	80.56
287.444	81.56
287.675	87.56
287.906	96.56
288.138	82.56
288.369	89.56
288.6	81.56
288.831	83.56
289.062	85.56
289.293	84.56
289.524	83.56
289.755	87.56
289.986	94.56
290.217	98.56
290.448	78.56
290.679	94.56
290.91	87.56
291.141	82.56
291.371	89.56
291.602	71.56
291.833	87.56
292.064	94.56
292.295	80.56
292.526	94.56
292.757	86.56
292.987	76.56
293.218	82.56
293.449	94.56
293.68	88.56
293.91	72.56
294.141	75.56
294.372	77.56
294.603	82.56
294.833	83.56
295.064	82.56
295.295	88.56
295.525	69.56
295.756	77.56
295.987	88.56
296.217	83.56
296.448	79.56
296.679	78.56
296.909	88.56
297.14	86.56
297.37	87.56
297.601	90.56
297.831	93.56
298.062	102.56
298.292	80.56
298.523	77.56
298.753	79.56
298.984	79.56
299.214	86.56
299.445	84.56
299.675	79.56
299.905	79.56
300.136	97.56
300.366	91.56
300.597	78.56
300.827	75.56
301.057	81.56
301.288	78.56
301.518	83.56
301.748	105.56
301.979	96.56
302.209	79.56
302.439	72.56
302.669	80.56
302.9	92.56
303.13	82.56
303.36	95.56
303.59	71.56
303.82	82.56
304.051	86.56
304.281	78.56
304.511	65.56
304.741	106.56
304.971	78.56
305.201	73.56
305.431	80.56
305.661	90.56
305.891	92.56
306.121	75.56
306.352	73.56
306.582	93.56
306.812	71.56
307.042	84.56
307.272	89.56
307.502	76.56
307.731	83.56
307.961	92.56
308.191	91.56
308.421	86.56
308.651	83.56
308.881	69.56
309.111	90.56
309.341	84.56
309.571	71.56
309.8	83.56
310.03	90.56
310.26	83.56
310.49	84.56
310.72	99.56
310.949	70.56
311.179	86.56
311.409	87.56
311.639	71.56
311.868	84.56
312.098	88.56
312.328	83.56
312.557	81.56
312.787	64.56
313.017	95.56
313.246	82.56
313.476	84.56
313.706	87.56
313.935	92.56
314.165	85.56
314.394	86.56
314.624	89.56
314.853	91.56
315.083	83.56
315.312	98.56
315.542	91.56
315.771	88.56
316.001	92.56
316.23	85.56
316.46	71.56
316.689	71.56
316.919	83.56
317.148	84.56
317.377	76.56
317.607	84.56
317.836	87.56
318.065	78.56
318.295	95.56
318.524	98.56
318.753	100.56
318.983	88.56
319.212	88.56
319.441	92.56
319.67	83.56
319.9	90.56
320.129	71.56
320.358	91.56
320.587	79.56
320.816	68.56
321.046	75.56
321.275	89.56
321.504	78.56
321.733	90.56
321.962	84.56
322.191	104.56
322.42	83.56
322.649	92.56
322.878	96.56
323.108	87.56
323.337	84.56
323.566	98.56
323.795	98.56
324.024	98.56
324.253	90.56
324.482	98.56
324.71	81.56
324.939	85.56
325.168	86.56
325.397	87.56
325.626	80.56
325.855	88.56
326.084	83.56
326.313	83.56
326.542	84.56
326.77	93.56
326.999	87.56
327.228	81.56
327.457	80.56
327.686	87.56
327.914	93.56
328.143	86.56
328.372	77.56
328.6	82.56
328.829	70.56
329.058	76.56
329.287	82.56
329.515	80.56
329.744	99.56
329.972	92.56
330.201	85.56
330.43	79.56
330.658	91.56
330.887	74.56
331.115	93.56
331.344	99.56
331.572	92.56
331.801	84.56
332.03	100.56
332.258	101.56
332.486	85.56
332.715	89.56
332.943	77.56
333.172	86.56
333.4	92.56
333.629	94.56
333.857	87.56
334.085	90.56
334.314	89.56
334.542	93.56
334.771	94.56
334.999	92.56
335.227	88.56
335.455	114.56
335.684	82.56
335.912	86.56
336.14	83.56
336.369	85.56
336.597	85.56
336.825	94.56
337.053	80.56
337.281	87.56
337.51	82.56
337.738	72.56
337.966	82.56
338.194	80.56
338.422	75.56
338.65	87.56
338.878	88.56
339.106	78.56
339.334	77.56
339.562	85.56
339.79	77.56
340.018	70.56
340.246	81.56
340.474	90.56
340.702	83.56
340.93	79.56
341.158	91.56
341.386	97.56
341.614	91.56
341.842	93.56
342.07	90.56
342.298	86.56
342.526	86.56
342.754	87.56
342.981	81.56
343.209	87.56
343.437	100.56
343.665	90.56
343.893	76.56
344.12	95.56
344.348	89.56
344.576	92.56
344.804	88.56
345.031	75.56
345.259	78.56
345.487	74.56
345.714	81.56
345.942	97.56
346.17	100.56
346.397	91.56
346.625	89.56
346.853	88.56
347.08	68.56
347.308	90.56
347.535	80.56
347.763	84.56
347.99	90.56
348.218	82.56
348.445	95.56
348.673	76.56
348.9	81.56
349.128	95.56
349.355	91.56
349.583	87.56
349.81	84.56
350.037	87.56
350.265	84.56
350.492	85.56
350.72	87.56
350.947	79.56
351.174	84.56
351.402	89.56
351.629	69.56
351.856	89.56
352.083	91.56
352.311	88.56
352.538	94.56
352.765	99.56
352.992	74.56
353.22	89.56
353.447	86.56
353.674	86.56
353.901	99.56
354.128	88.56
354.355	84.56
354.583	83.56
354.81	84.56
355.037	79.56
355.264	75.56
355.491	80.56
355.718	83.56
355.945	93.56
356.172	88.56
356.399	80.56
356.626	81.56
356.853	85.56
357.08	90.56
357.307	91.56
357.534	70.56
357.761	88.56
357.988	92.56
358.215	87.56
358.441	80.56
358.668	89.56
358.895	82.56
359.122	80.56
359.349	80.56
359.576	86.56
359.802	86.56
360.029	91.56
360.256	89.56
360.483	85.56
360.709	82.56
360.936	78.56
361.163	92.56
361.39	74.56
361.616	83.56
361.843	84.56
362.07	105.56
362.296	90.56
362.523	82.56
362.749	83.56
362.976	84.56
363.203	78.56
363.429	73.56
363.656	90.56
363.882	84.56
364.109	98.56
364.335	95.56
364.562	78.56
364.788	70.56
365.015	84.56
365.241	86.56
365.468	83.56
365.694	90.56
365.92	91.56
366.147	80.56
366.373	83.56
366.599	74.56
366.826	95.56
367.052	74.56
367.278	68.56
367.505	79.56
367.731	70.56
367.957	87.56
368.184	98.56
368.41	84.56
368.636	81.56
368.862	91.56
369.089	76.56
369.315	87.56
369.541	76.56
369.767	88.56
369.993	76.56
370.219	79.56
370.445	79.56
370.672	79.56
370.898	83.56
371.124	74.56
371.35	76.56
371.576	75.56
371.802	78.56
372.028	77.56
372.254	92.56
372.48	103.56
372.706	76.56
372.932	88.56
373.158	98.56
373.384	93.56
373.61	79.56
373.835	84.56
374.061	78.56
374.287	83.56
374.513	96.56
374.739	85.56
374.965	87.56
375.191	75.56
375.416	79.56
375.642	79.56
375.868	90.56
376.094	86.56
376.319	87.56
376.545	84.56
376.771	86.56
376.997	88.56
377.222	86.56
377.448	81.56
377.674	83.56
377.899	90.56
378.125	88.56
378.35	72.56
378.576	75.56
378.802	67.56
379.027	84.56
379.253	82.56
379.478	96.56
379.704	87.56
379.929	73.56
380.155	74.56
380.38	95.56
380.606	73.56
380.831	88.56
381.057	82.56
381.282	80.56
381.507	79.56
381.733	81.56
381.958	74.56
382.184	75.56
382.409	81.56
382.634	74.56
382.86	78.56
383.085	75.56
383.31	84.56
383.535	77.56
383.761	75.56
383.986	90.56
384.211	92.56
384.436	80.56
384.662	82.56
384.887	98.56
385.112	83.56
385.337	88.56
385.562	86.56
385.787	79.56
386.013	90.56
386.238	80.56
386.463	86.56
386.688	94.56
386.913	82.56
387.138	88.56
387.363	88.56
387.588	92.56
387.813	95.56
388.038	90.56
388.263	84.56
388.488	80.56
388.713	76.56
388.938	81.56
389.163	87.56
389.387	83.56
389.612	74.56
389.837	82.56
390.062	92.56
390.287	76.56
390.512	82.56
390.736	80.56
390.961	82.56
391.186	91.56
391.411	94.56
391.636	70.56
391.86	73.56
392.085	80.56
392.31	79.56
392.534	74.56
392.759	89.56
392.984	84.56
393.208	85.56
393.433	83.56
393.658	91.56
393.882	102.56
394.107	99.56
394.331	85.56
394.556	81.56
394.78	70.56
395.005	90.56
395.229	84.56
395.454	89.56
395.678	75.56
395.903	75.56
396.127	89.56
396.352	84.56
396.576	79.56
396.801	101.56
397.025	98.56
397.249	83.56
397.474	85.56
397.698	85.56
397.922	95.56
398.147	89.56
398.371	71.56
398.595	80.56
398.82	78.56
399.044	78.56
399.268	93.56
399.492	93.56
399.717	102.56
399.941	85.56
400.165	101.56
400.389	94.56
400.613	94.56
400.837	83.56
401.062	73.56
401.286	81.56
401.51	88.56
401.734	87.56
401.958	110.56
402.182	89.56
402.406	89.56
402.63	100.56
402.854	74.56
403.078	75.56
403.302	78.56
403.526	91.56
403.75	95.56
403.974	89.56
404.198	110.56
404.422	86.56
404.645	80.56
404.869	87.56
405.093	89.56
405.317	91.56
405.541	81.56
405.765	99.56
405.988	81.56
406.212	76.56
406.436	64.56
406.66	77.56
406.883	84.56
407.107	76.56
407.331	86.56
407.555	84.56
407.778	99.56
408.002	86.56
408.226	90.56
408.449	86.56
408.673	67.56
408.896	88.56
409.12	88.56
409.344	84.56
409.567	79.56
409.791	82.56
410.014	94.56
410.238	86.56
410.461	89.56
410.685	78.56
410.908	85.56
411.132	95.56
411.355	88.56
411.578	89.56
411.802	91.56
412.025	84.56
412.249	92.56
412.472	85.56
412.695	74.56
412.919	72.56
413.142	88.56
413.365	74.56
413.589	67.56
413.812	94.56
414.035	90.56
414.258	76.56
414.482	92.56
414.705	85.56
414.928	102.56
415.151	89.56
415.374	82.56
415.597	93.56
415.821	83.56
416.044	95.56
416.267	74.56
416.49	90.56
416.713	90.56
416.936	82.56
417.159	96.56
417.382	72.56
417.605	91.56
417.828	87.56
418.051	85.56
418.274	78.56
418.497	92.56
418.72	93.56
418.943	92.56
419.166	89.56
419.389	95.56
419.611	84.56
419.834	91.56
420.057	79.56
420.28	86.56
420.503	74.56
420.726	74.56
420.948	83.56
421.171	78.56
421.394	80.56
421.617	90.56
421.839	85.56
422.062	89.56
422.285	94.56
422.507	97.56
422.73	85.56
422.953	66.56
423.175	84.56
423.398	93.56
423.621	90.56
423.843	84.56
424.066	76.56
424.288	91.56
424.511	87.56
424.733	93.56
424.956	77.56
425.178	84.56
425.401	79.56
425.623	75.56
425.846	80.56
426.068	83.56
426.291	75.56
426.513	90.56
426.735	84.56
426.958	81.56
427.18	90.56
427.402	86.56
427.625	82.56
427.847	90.56
428.069	92.56
428.292	78.56
428.514	92.56
428.736	90.56
428.958	75.56
429.181	88.56
429.403	76.56
429.625	81.56
429.847	82.56
430.069	83.56
430.292	99.56
430.514	90.56
430.736	74.56
430.958	81.56
431.18	83.56
431.402	74.56
431.624	78.56
431.846	80.56
432.068	74.56
432.29	80.56
432.512	96.56
432.734	98.56
432.956	90.56
433.178	76.56
433.4	75.56
433.622	80.56
433.844	92.56
434.066	94.56
434.287	87.56
434.509	80.56
434.731	78.56
434.953	90.56
435.175	69.56
435.397	86.56
435.618	98.56
435.84	100.56
436.062	87.56
436.284	91.56
436.505	88.56
436.727	91.56
436.949	82.56
437.17	95.56
437.392	87.56
437.614	82.56
437.835	80.56
438.057	93.56
438.278	97.56
438.5	92.56
438.721	72.56
438.943	87.56
439.165	94.56
439.386	78.56
439.608	86.56
439.829	100.56
440.05	80.56
440.272	77.56
440.493	94.56
440.715	90.56
440.936	87.56
441.158	86.56
441.379	83.56
441.6	93.56
441.822	86.56
442.043	78.56
442.264	91.56
442.486	87.56
442.707	92.56
442.928	85.56
443.149	82.56
443.371	93.56
443.592	77.56
443.813	87.56
444.034	100.56
444.255	86.56
444.476	88.56
444.698	96.56
444.919	83.56
445.14	163.56
445.361	133.56
445.582	78.56
445.803	94.56
446.024	93.56
446.245	74.56
446.466	81.56
446.687	85.56
446.908	84.56
447.129	91.56
447.35	86.56
447.571	79.56
447.792	79.56
448.013	71.56
448.234	82.56
448.455	65.56
448.675	92.56
448.896	91.56
449.117	104.56
449.338	87.56
449.559	91.56
449.779	88.56
450	89.56
450.221	87.56
450.442	80.56
450.662	83.56
450.883	77.56
451.104	92.56
451.324	100.56
451.545	78.56
451.766	78.56
451.986	72.56
452.207	80.56
452.428	81.56
452.648	88.56
452.869	93.56
453.089	74.56
453.31	85.56
453.53	80.56
453.751	92.56
453.971	77.56
454.192	71.56
454.412	84.56
454.633	80.56
454.853	79.56
455.073	88.56
455.294	73.56
455.514	93.56
455.734	80.56
455.955	82.56
456.175	84.56
456.395	85.56
456.616	81.56
456.836	85.56
457.056	78.56
457.276	61.56
457.497	70.56
457.717	83.56
457.937	66.56
458.157	91.56
458.377	85.56
458.598	78.56
458.818	77.56
459.038	82.56
459.258	70.56
459.478	91.56
459.698	78.56
459.918	100.56
460.138	87.56
460.358	86.56
460.578	89.56
460.798	96.56
461.018	95.56
461.238	95.56
461.458	87.56
461.678	88.56
461.898	94.56
462.118	104.56
462.338	82.56
462.558	89.56
462.777	92.56
462.997	84.56
463.217	81.56
463.437	85.56
463.657	94.56
463.876	86.56
464.096	90.56
464.316	79.56
464.536	85.56
464.755	87.56
464.975	80.56
465.195	96.56
465.414	86.56
465.634	86.56
465.854	86.56
466.073	98.56
466.293	88.56
466.512	63.56
466.732	82.56
466.951	76.56
467.171	69.56
467.391	81.56
467.61	70.56
467.829	94.56
468.049	87.56
468.268	90.56
468.488	80.56
468.707	82.56
468.927	76.56
469.146	77.56
469.365	88.56
469.585	86.56
469.804	96.56
470.023	82.56
470.243	85.56
470.462	89.56
470.681	94.56
470.901	88.56
471.12	88.56
471.339	91.56
471.558	75.56
471.777	78.56
471.997	80.56
472.216	92.56
472.435	78.56
472.654	80.56
472.873	79.56
473.092	95.56
473.311	79.56
473.53	89.56
473.749	79.56
473.968	95.56
474.187	92.56
474.406	88.56
474.625	72.56
474.844	105.56
475.063	77.56
475.282	81.56
475.501	72.56
475.72	91.56
475.939	72.56
476.158	72.56
476.377	81.56
476.596	80.56
476.814	80.56
477.033	82.56
477.252	84.56
477.471	94.56
477.69	100.56
477.908	78.56
478.127	85.56
478.346	92.56
478.564	78.56
478.783	90.56
479.002	93.56
479.22	80.56
479.439	90.56
479.658	87.56
479.876	77.56
480.095	95.56
480.313	90.56
480.532	84.56
480.751	92.56
480.969	82.56
481.188	88.56
481.406	86.56
481.624	83.56
481.843	86.56
482.061	85.56
482.28	99.56
482.498	87.56
482.717	85.56
482.935	90.56
483.153	92.56
483.372	86.56
483.59	92.56
483.808	86.56
484.027	92.56
484.245	87.56
484.463	90.56
484.681	96.56
484.9	91.56
485.118	86.56
485.336	90.56
485.554	87.56
485.772	88.56
485.99	91.56
486.209	96.56
486.427	82.56
486.645	87.56
486.863	79.56
487.081	75.56
487.299	90.56
487.517	92.56
487.735	87.56
487.953	71.56
488.171	83.56
488.389	81.56
488.607	82.56
488.825	82.56
489.043	82.56
489.261	99.56
489.479	73.56
489.696	96.56
489.914	74.56
490.132	76.56
490.35	84.56
490.568	83.56
490.786	89.56
491.003	75.56
491.221	84.56
491.439	82.56
491.657	95.56
491.874	100.56
492.092	84.56
492.31	90.56
492.527	84.56
492.745	93.56
492.963	83.56
493.18	75.56
493.398	78.56
493.615	91.56
493.833	94.56
494.05	89.56
494.268	89.56
494.485	83.56
494.703	104.56
494.92	83.56
495.138	94.56
495.355	88.56
495.573	82.56
495.79	73.56
496.008	85.56
496.225	90.56
496.442	83.56
496.66	85.56
496.877	72.56
497.094	92.56
497.312	91.56
497.529	89.56
497.746	84.56
497.963	86.56
498.181	78.56
498.398	79.56
498.615	94.56
498.832	81.56
499.049	89.56
499.267	96.56
499.484	89.56
499.701	105.56
499.918	90.56
500.135	108.56
500.352	100.56
500.569	108.56
500.786	101.56
501.003	98.56
501.22	103.56
501.437	98.56
501.654	96.56
501.871	99.56
502.088	98.56
502.305	94.56
502.522	109.56
502.739	100.56
502.956	94.56
503.172	80.56
503.389	85.56
503.606	89.56
503.823	78.56
504.04	88.56
504.256	78.56
504.473	82.56
504.69	88.56
504.907	93.56
505.123	84.56
505.34	81.56
505.557	85.56
505.773	90.56
505.99	83.56
506.207	89.56
506.423	81.56
506.64	83.56
506.856	91.56
507.073	88.56
507.289	75.56
507.506	72.56
507.722	88.56
507.939	85.56
508.155	91.56
508.372	94.56
508.588	90.56
508.805	88.56
509.021	74.56
509.238	78.56
509.454	84.56
509.67	85.56
509.887	82.56
510.103	88.56
510.319	82.56
510.536	80.56
510.752	78.56
510.968	94.56
511.184	78.56
511.401	103.56
511.617	86.56
511.833	89.56
512.049	77.56
512.265	103.56
512.481	94.56
512.698	86.56
512.914	96.56
513.13	100.56
513.346	76.56
513.562	78.56
513.778	83.56
513.994	88.56
514.21	81.56
514.426	100.56
514.642	85.56
514.858	82.56
515.074	108.56
515.29	86.56
515.506	86.56
515.721	93.56
515.937	83.56
516.153	86.56
516.369	84.56
516.585	76.56
516.801	83.56
517.016	93.56
517.232	94.56
517.448	88.56
517.664	98.56
517.879	90.56
518.095	88.56
518.311	87.56
518.527	87.56
518.742	81.56
518.958	78.56
519.173	86.56
519.389	82.56
519.605	86.56
