Data from BG_HRD10591_079.txt Node
Date: Fri May 16 15:27:26 EDT 2025
User: Yrep
Spectrometer: HR+D1059
Trigger mode: 1
Integration Time (sec): 1.000000E-1
Scans to average: 1
Electric dark correction enabled: true
Nonlinearity correction enabled: false
Boxcar width: 0
XAxis mode: Wavelengths
Number of Pixels in Spectrum: 2048
>>>>>Begin Spectral Data<<<<<
223.165	-14.12
223.4	-14.12
223.635	-14.12
223.869	-12.12
224.104	-19.12
224.338	-10.12
224.573	-15.12
224.808	-8.12
225.042	-7.12
225.277	-5.12
225.511	-1.12
225.746	-3.12
225.98	14.88
226.215	2.88
226.449	3.88
226.683	15.88
226.918	20.88
227.152	36.88
227.387	39.88
227.621	31.88
227.856	40.88
228.09	38.88
228.324	54.88
228.559	60.88
228.793	56.88
229.027	55.88
229.262	55.88
229.496	63.88
229.73	70.88
229.964	64.88
230.199	68.88
230.433	76.88
230.667	77.88
230.901	86.88
231.136	61.88
231.37	72.88
231.604	84.88
231.838	81.88
232.072	88.88
232.306	82.88
232.541	85.88
232.775	78.88
233.009	78.88
233.243	87.88
233.477	78.88
233.711	67.88
233.945	89.88
234.179	81.88
234.413	67.88
234.647	75.88
234.881	73.88
235.115	83.88
235.349	80.88
235.583	93.88
235.817	67.88
236.051	79.88
236.285	77.88
236.519	71.88
236.753	80.88
236.987	82.88
237.221	86.88
237.455	72.88
237.689	76.88
237.922	62.88
238.156	69.88
238.39	74.88
238.624	77.88
238.858	72.88
239.091	73.88
239.325	75.88
239.559	80.88
239.793	77.88
240.027	85.88
240.26	73.88
240.494	76.88
240.728	70.88
240.961	85.88
241.195	79.88
241.429	76.88
241.662	78.88
241.896	77.88
242.13	56.88
242.363	60.88
242.597	58.88
242.83	85.88
243.064	72.88
243.298	82.88
243.531	76.88
243.765	81.88
243.998	76.88
244.232	69.88
244.465	84.88
244.699	65.88
244.932	74.88
245.166	84.88
245.399	75.88
245.633	78.88
245.866	69.88
246.099	78.88
246.333	68.88
246.566	74.88
246.8	73.88
247.033	66.88
247.266	84.88
247.5	88.88
247.733	74.88
247.966	63.88
248.2	65.88
248.433	79.88
248.666	69.88
248.899	70.88
249.133	74.88
249.366	77.88
249.599	62.88
249.832	74.88
250.066	77.88
250.299	72.88
250.532	82.88
250.765	81.88
250.998	73.88
251.231	76.88
251.465	71.88
251.698	84.88
251.931	67.88
252.164	73.88
252.397	71.88
252.63	77.88
252.863	84.88
253.096	85.88
253.329	86.88
253.562	88.88
253.795	73.88
254.028	79.88
254.261	76.88
254.494	73.88
254.727	76.88
254.96	79.88
255.193	79.88
255.426	75.88
255.659	88.88
255.892	89.88
256.124	78.88
256.357	74.88
256.59	86.88
256.823	67.88
257.056	84.88
257.289	84.88
257.521	72.88
257.754	78.88
257.987	78.88
258.22	86.88
258.452	68.88
258.685	81.88
258.918	74.88
259.151	79.88
259.383	71.88
259.616	72.88
259.849	72.88
260.081	80.88
260.314	60.88
260.547	76.88
260.779	89.88
261.012	70.88
261.244	86.88
261.477	77.88
261.71	78.88
261.942	64.88
262.175	71.88
262.407	85.88
262.64	75.88
262.872	71.88
263.105	86.88
263.337	85.88
263.57	72.88
263.802	94.88
264.035	86.88
264.267	76.88
264.499	79.88
264.732	86.88
264.964	91.88
265.197	67.88
265.429	76.88
265.661	93.88
265.894	88.88
266.126	80.88
266.358	95.88
266.591	77.88
266.823	82.88
267.055	76.88
267.287	62.88
267.52	81.88
267.752	71.88
267.984	82.88
268.216	80.88
268.448	85.88
268.681	85.88
268.913	81.88
269.145	78.88
269.377	79.88
269.609	82.88
269.841	83.88
270.073	85.88
270.306	69.88
270.538	81.88
270.77	73.88
271.002	79.88
271.234	86.88
271.466	77.88
271.698	72.88
271.93	77.88
272.162	88.88
272.394	101.88
272.626	88.88
272.858	84.88
273.09	76.88
273.322	86.88
273.553	60.88
273.785	84.88
274.017	78.88
274.249	78.88
274.481	87.88
274.713	78.88
274.945	102.88
275.176	86.88
275.408	82.88
275.64	73.88
275.872	81.88
276.104	80.88
276.335	85.88
276.567	84.88
276.799	89.88
277.031	96.88
277.262	66.88
277.494	85.88
277.726	84.88
277.957	93.88
278.189	81.88
278.421	79.88
278.652	81.88
278.884	88.88
279.115	79.88
279.347	86.88
279.579	80.88
279.81	87.88
280.042	77.88
280.273	88.88
280.505	84.88
280.736	83.88
280.968	85.88
281.199	80.88
281.431	85.88
281.662	84.88
281.894	79.88
282.125	94.88
282.356	80.88
282.588	80.88
282.819	84.88
283.051	86.88
283.282	77.88
283.513	78.88
283.745	91.88
283.976	86.88
284.207	92.88
284.439	82.88
284.67	84.88
284.901	84.88
285.132	89.88
285.364	87.88
285.595	71.88
285.826	84.88
286.057	90.88
286.288	92.88
286.52	78.88
286.751	82.88
286.982	85.88
287.213	74.88
287.444	78.88
287.675	84.88
287.906	95.88
288.138	78.88
288.369	81.88
288.6	78.88
288.831	83.88
289.062	91.88
289.293	75.88
289.524	79.88
289.755	79.88
289.986	84.88
290.217	66.88
290.448	87.88
290.679	86.88
290.91	88.88
291.141	85.88
291.371	82.88
291.602	86.88
291.833	62.88
292.064	81.88
292.295	92.88
292.526	90.88
292.757	79.88
292.987	80.88
293.218	90.88
293.449	84.88
293.68	87.88
293.91	73.88
294.141	84.88
294.372	89.88
294.603	82.88
294.833	80.88
295.064	89.88
295.295	76.88
295.525	92.88
295.756	77.88
295.987	75.88
296.217	92.88
296.448	82.88
296.679	86.88
296.909	84.88
297.14	94.88
297.37	92.88
297.601	79.88
297.831	77.88
298.062	77.88
298.292	85.88
298.523	68.88
298.753	76.88
298.984	77.88
299.214	98.88
299.445	79.88
299.675	89.88
299.905	82.88
300.136	85.88
300.366	90.88
300.597	80.88
300.827	80.88
301.057	61.88
301.288	97.88
301.518	70.88
301.748	80.88
301.979	97.88
302.209	80.88
302.439	75.88
302.669	91.88
302.9	93.88
303.13	77.88
303.36	81.88
303.59	72.88
303.82	80.88
304.051	78.88
304.281	82.88
304.511	90.88
304.741	78.88
304.971	80.88
305.201	77.88
305.431	97.88
305.661	79.88
305.891	86.88
306.121	85.88
306.352	85.88
306.582	82.88
306.812	74.88
307.042	89.88
307.272	75.88
307.502	84.88
307.731	80.88
307.961	75.88
308.191	73.88
308.421	83.88
308.651	76.88
308.881	80.88
309.111	89.88
309.341	89.88
309.571	89.88
309.8	87.88
310.03	89.88
310.26	87.88
310.49	78.88
310.72	68.88
310.949	81.88
311.179	74.88
311.409	76.88
311.639	89.88
311.868	85.88
312.098	87.88
312.328	73.88
312.557	88.88
312.787	73.88
313.017	79.88
313.246	64.88
313.476	76.88
313.706	87.88
313.935	79.88
314.165	92.88
314.394	80.88
314.624	81.88
314.853	74.88
315.083	90.88
315.312	71.88
315.542	83.88
315.771	95.88
316.001	78.88
316.23	81.88
316.46	76.88
316.689	90.88
316.919	79.88
317.148	79.88
317.377	88.88
317.607	87.88
317.836	82.88
318.065	85.88
318.295	87.88
318.524	85.88
318.753	77.88
318.983	78.88
319.212	90.88
319.441	78.88
319.67	79.88
319.9	71.88
320.129	70.88
320.358	86.88
320.587	69.88
320.816	87.88
321.046	80.88
321.275	90.88
321.504	95.88
321.733	76.88
321.962	109.88
322.191	82.88
322.42	73.88
322.649	89.88
322.878	84.88
323.108	80.88
323.337	84.88
323.566	90.88
323.795	84.88
324.024	91.88
324.253	79.88
324.482	72.88
324.71	71.88
324.939	92.88
325.168	76.88
325.397	82.88
325.626	86.88
325.855	86.88
326.084	84.88
326.313	85.88
326.542	84.88
326.77	80.88
326.999	85.88
327.228	83.88
327.457	91.88
327.686	80.88
327.914	80.88
328.143	94.88
328.372	96.88
328.6	84.88
328.829	80.88
329.058	72.88
329.287	88.88
329.515	80.88
329.744	80.88
329.972	83.88
330.201	80.88
330.43	86.88
330.658	75.88
330.887	87.88
331.115	81.88
331.344	94.88
331.572	84.88
331.801	96.88
332.03	84.88
332.258	98.88
332.486	89.88
332.715	85.88
332.943	84.88
333.172	86.88
333.4	76.88
333.629	86.88
333.857	89.88
334.085	73.88
334.314	87.88
334.542	73.88
334.771	78.88
334.999	103.88
335.227	70.88
335.455	90.88
335.684	99.88
335.912	90.88
336.14	73.88
336.369	90.88
336.597	73.88
336.825	86.88
337.053	93.88
337.281	75.88
337.51	87.88
337.738	97.88
337.966	81.88
338.194	77.88
338.422	95.88
338.65	71.88
338.878	63.88
339.106	76.88
339.334	93.88
339.562	84.88
339.79	87.88
340.018	78.88
340.246	88.88
340.474	93.88
340.702	85.88
340.93	69.88
341.158	71.88
341.386	85.88
341.614	90.88
341.842	88.88
342.07	94.88
342.298	84.88
342.526	88.88
342.754	84.88
342.981	79.88
343.209	79.88
343.437	98.88
343.665	89.88
343.893	76.88
344.12	86.88
344.348	90.88
344.576	85.88
344.804	84.88
345.031	91.88
345.259	68.88
345.487	76.88
345.714	87.88
345.942	78.88
346.17	82.88
346.397	74.88
346.625	86.88
346.853	90.88
347.08	75.88
347.308	78.88
347.535	80.88
347.763	72.88
347.99	97.88
348.218	97.88
348.445	87.88
348.673	73.88
348.9	78.88
349.128	85.88
349.355	74.88
349.583	87.88
349.81	88.88
350.037	81.88
350.265	86.88
350.492	77.88
350.72	77.88
350.947	83.88
351.174	85.88
351.402	92.88
351.629	70.88
351.856	82.88
352.083	79.88
352.311	70.88
352.538	78.88
352.765	88.88
352.992	96.88
353.22	85.88
353.447	85.88
353.674	78.88
353.901	90.88
354.128	84.88
354.355	88.88
354.583	72.88
354.81	88.88
355.037	78.88
355.264	70.88
355.491	93.88
355.718	69.88
355.945	69.88
356.172	92.88
356.399	86.88
356.626	77.88
356.853	66.88
357.08	78.88
357.307	84.88
357.534	78.88
357.761	87.88
357.988	82.88
358.215	84.88
358.441	85.88
358.668	89.88
358.895	81.88
359.122	86.88
359.349	80.88
359.576	92.88
359.802	83.88
360.029	72.88
360.256	68.88
360.483	94.88
360.709	75.88
360.936	72.88
361.163	74.88
361.39	76.88
361.616	73.88
361.843	78.88
362.07	88.88
362.296	86.88
362.523	92.88
362.749	79.88
362.976	87.88
363.203	80.88
363.429	81.88
363.656	76.88
363.882	92.88
364.109	78.88
364.335	90.88
364.562	91.88
364.788	76.88
365.015	88.88
365.241	106.88
365.468	77.88
365.694	81.88
365.92	90.88
366.147	80.88
366.373	82.88
366.599	81.88
366.826	71.88
367.052	80.88
367.278	82.88
367.505	69.88
367.731	85.88
367.957	79.88
368.184	94.88
368.41	85.88
368.636	93.88
368.862	92.88
369.089	94.88
369.315	97.88
369.541	76.88
369.767	84.88
369.993	88.88
370.219	74.88
370.445	74.88
370.672	82.88
370.898	81.88
371.124	69.88
371.35	75.88
371.576	88.88
371.802	80.88
372.028	87.88
372.254	89.88
372.48	92.88
372.706	89.88
372.932	68.88
373.158	79.88
373.384	93.88
373.61	90.88
373.835	81.88
374.061	82.88
374.287	86.88
374.513	69.88
374.739	81.88
374.965	84.88
375.191	87.88
375.416	70.88
375.642	88.88
375.868	80.88
376.094	62.88
376.319	85.88
376.545	80.88
376.771	78.88
376.997	89.88
377.222	76.88
377.448	97.88
377.674	84.88
377.899	96.88
378.125	90.88
378.35	86.88
378.576	79.88
378.802	77.88
379.027	85.88
379.253	80.88
379.478	69.88
379.704	69.88
379.929	92.88
380.155	78.88
380.38	71.88
380.606	79.88
380.831	85.88
381.057	96.88
381.282	91.88
381.507	83.88
381.733	85.88
381.958	83.88
382.184	94.88
382.409	88.88
382.634	80.88
382.86	88.88
383.085	92.88
383.31	70.88
383.535	80.88
383.761	84.88
383.986	87.88
384.211	78.88
384.436	80.88
384.662	68.88
384.887	77.88
385.112	81.88
385.337	87.88
385.562	84.88
385.787	87.88
386.013	82.88
386.238	88.88
386.463	85.88
386.688	96.88
386.913	78.88
387.138	95.88
387.363	76.88
387.588	79.88
387.813	77.88
388.038	86.88
388.263	69.88
388.488	78.88
388.713	76.88
388.938	76.88
389.163	74.88
389.387	69.88
389.612	79.88
389.837	82.88
390.062	82.88
390.287	75.88
390.512	82.88
390.736	75.88
390.961	87.88
391.186	76.88
391.411	65.88
391.636	77.88
391.86	83.88
392.085	75.88
392.31	66.88
392.534	84.88
392.759	74.88
392.984	83.88
393.208	87.88
393.433	78.88
393.658	88.88
393.882	77.88
394.107	85.88
394.331	85.88
394.556	90.88
394.78	91.88
395.005	84.88
395.229	72.88
395.454	76.88
395.678	87.88
395.903	78.88
396.127	84.88
396.352	86.88
396.576	89.88
396.801	76.88
397.025	76.88
397.249	87.88
397.474	82.88
397.698	103.88
397.922	96.88
398.147	80.88
398.371	79.88
398.595	84.88
398.82	69.88
399.044	77.88
399.268	78.88
399.492	71.88
399.717	74.88
399.941	76.88
400.165	92.88
400.389	86.88
400.613	87.88
400.837	90.88
401.062	70.88
401.286	93.88
401.51	80.88
401.734	77.88
401.958	88.88
402.182	88.88
402.406	85.88
402.63	80.88
402.854	91.88
403.078	82.88
403.302	60.88
403.526	82.88
403.75	77.88
403.974	73.88
404.198	78.88
404.422	79.88
404.645	66.88
404.869	84.88
405.093	84.88
405.317	88.88
405.541	84.88
405.765	84.88
405.988	87.88
406.212	85.88
406.436	85.88
406.66	92.88
406.883	78.88
407.107	83.88
407.331	84.88
407.555	87.88
407.778	72.88
408.002	81.88
408.226	84.88
408.449	84.88
408.673	64.88
408.896	78.88
409.12	80.88
409.344	80.88
409.567	71.88
409.791	86.88
410.014	90.88
410.238	93.88
410.461	60.88
410.685	82.88
410.908	72.88
411.132	78.88
411.355	86.88
411.578	81.88
411.802	80.88
412.025	84.88
412.249	64.88
412.472	73.88
412.695	72.88
412.919	78.88
413.142	72.88
413.365	81.88
413.589	68.88
413.812	68.88
414.035	85.88
414.258	82.88
414.482	84.88
414.705	81.88
414.928	82.88
415.151	76.88
415.374	88.88
415.597	73.88
415.821	66.88
416.044	80.88
416.267	75.88
416.49	82.88
416.713	79.88
416.936	89.88
417.159	76.88
417.382	78.88
417.605	85.88
417.828	83.88
418.051	90.88
418.274	89.88
418.497	72.88
418.72	80.88
418.943	81.88
419.166	79.88
419.389	72.88
419.611	70.88
419.834	68.88
420.057	92.88
420.28	72.88
420.503	70.88
420.726	85.88
420.948	84.88
421.171	84.88
421.394	85.88
421.617	78.88
421.839	75.88
422.062	86.88
422.285	88.88
422.507	82.88
422.73	76.88
422.953	89.88
423.175	83.88
423.398	84.88
423.621	83.88
423.843	82.88
424.066	81.88
424.288	82.88
424.511	72.88
424.733	96.88
424.956	86.88
425.178	68.88
425.401	90.88
425.623	77.88
425.846	84.88
426.068	86.88
426.291	80.88
426.513	84.88
426.735	72.88
426.958	82.88
427.18	71.88
427.402	77.88
427.625	90.88
427.847	68.88
428.069	79.88
428.292	81.88
428.514	76.88
428.736	77.88
428.958	81.88
429.181	68.88
429.403	88.88
429.625	78.88
429.847	73.88
430.069	68.88
430.292	95.88
430.514	87.88
430.736	70.88
430.958	89.88
431.18	72.88
431.402	86.88
431.624	81.88
431.846	93.88
432.068	88.88
432.29	75.88
432.512	85.88
432.734	79.88
432.956	80.88
433.178	73.88
433.4	75.88
433.622	76.88
433.844	87.88
434.066	68.88
434.287	70.88
434.509	70.88
434.731	87.88
434.953	80.88
435.175	73.88
435.397	77.88
435.618	81.88
435.84	67.88
436.062	79.88
436.284	64.88
436.505	92.88
436.727	67.88
436.949	88.88
437.17	77.88
437.392	90.88
437.614	88.88
437.835	71.88
438.057	79.88
438.278	73.88
438.5	80.88
438.721	84.88
438.943	82.88
439.165	77.88
439.386	79.88
439.608	82.88
439.829	81.88
440.05	83.88
440.272	79.88
440.493	81.88
440.715	81.88
440.936	95.88
441.158	84.88
441.379	77.88
441.6	84.88
441.822	97.88
442.043	82.88
442.264	78.88
442.486	88.88
442.707	85.88
442.928	65.88
443.149	64.88
443.371	72.88
443.592	78.88
443.813	78.88
444.034	81.88
444.255	70.88
444.476	80.88
444.698	75.88
444.919	89.88
445.14	156.88
445.361	117.88
445.582	78.88
445.803	69.88
446.024	79.88
446.245	79.88
446.466	69.88
446.687	71.88
446.908	87.88
447.129	78.88
447.35	78.88
447.571	82.88
447.792	87.88
448.013	87.88
448.234	85.88
448.455	77.88
448.675	84.88
448.896	65.88
449.117	71.88
449.338	86.88
449.559	78.88
449.779	103.88
450	80.88
450.221	78.88
450.442	85.88
450.662	74.88
450.883	88.88
451.104	80.88
451.324	82.88
451.545	93.88
451.766	94.88
451.986	71.88
452.207	71.88
452.428	55.88
452.648	62.88
452.869	70.88
453.089	85.88
453.31	92.88
453.53	82.88
453.751	82.88
453.971	79.88
454.192	87.88
454.412	63.88
454.633	73.88
454.853	86.88
455.073	76.88
455.294	85.88
455.514	88.88
455.734	64.88
455.955	76.88
456.175	67.88
456.395	85.88
456.616	88.88
456.836	85.88
457.056	79.88
457.276	85.88
457.497	83.88
457.717	65.88
457.937	80.88
458.157	78.88
458.377	73.88
458.598	87.88
458.818	83.88
459.038	86.88
459.258	80.88
459.478	76.88
459.698	68.88
459.918	79.88
460.138	84.88
460.358	72.88
460.578	70.88
460.798	89.88
461.018	83.88
461.238	63.88
461.458	91.88
461.678	76.88
461.898	73.88
462.118	94.88
462.338	77.88
462.558	97.88
462.777	78.88
462.997	76.88
463.217	88.88
463.437	72.88
463.657	82.88
463.876	67.88
464.096	76.88
464.316	89.88
464.536	80.88
464.755	80.88
464.975	87.88
465.195	78.88
465.414	90.88
465.634	86.88
465.854	90.88
466.073	88.88
466.293	80.88
466.512	85.88
466.732	78.88
466.951	84.88
467.171	75.88
467.391	87.88
467.61	76.88
467.829	79.88
468.049	86.88
468.268	89.88
468.488	94.88
468.707	70.88
468.927	71.88
469.146	67.88
469.365	81.88
469.585	90.88
469.804	82.88
470.023	77.88
470.243	75.88
470.462	76.88
470.681	73.88
470.901	71.88
471.12	65.88
471.339	94.88
471.558	67.88
471.777	80.88
471.997	81.88
472.216	82.88
472.435	91.88
472.654	78.88
472.873	88.88
473.092	78.88
473.311	77.88
473.53	77.88
473.749	85.88
473.968	72.88
474.187	83.88
474.406	64.88
474.625	75.88
474.844	63.88
475.063	83.88
475.282	65.88
475.501	72.88
475.72	76.88
475.939	79.88
476.158	58.88
476.377	97.88
476.596	79.88
476.814	100.88
477.033	77.88
477.252	72.88
477.471	78.88
477.69	81.88
477.908	87.88
478.127	73.88
478.346	61.88
478.564	79.88
478.783	84.88
479.002	75.88
479.22	85.88
479.439	82.88
479.658	76.88
479.876	90.88
480.095	92.88
480.313	85.88
480.532	101.88
480.751	76.88
480.969	71.88
481.188	82.88
481.406	71.88
481.624	74.88
481.843	94.88
482.061	91.88
482.28	81.88
482.498	62.88
482.717	74.88
482.935	72.88
483.153	92.88
483.372	72.88
483.59	85.88
483.808	85.88
484.027	80.88
484.245	76.88
484.463	76.88
484.681	71.88
484.9	78.88
485.118	88.88
485.336	92.88
485.554	73.88
485.772	74.88
485.99	84.88
486.209	84.88
486.427	88.88
486.645	78.88
486.863	72.88
487.081	84.88
487.299	69.88
487.517	86.88
487.735	69.88
487.953	69.88
488.171	88.88
488.389	89.88
488.607	85.88
488.825	76.88
489.043	80.88
489.261	90.88
489.479	85.88
489.696	96.88
489.914	65.88
490.132	90.88
490.35	71.88
490.568	83.88
490.786	87.88
491.003	88.88
491.221	93.88
491.439	82.88
491.657	84.88
491.874	89.88
492.092	73.88
492.31	81.88
492.527	79.88
492.745	74.88
492.963	78.88
493.18	92.88
493.398	73.88
493.615	76.88
493.833	77.88
494.05	91.88
494.268	79.88
494.485	76.88
494.703	77.88
494.92	90.88
495.138	72.88
495.355	80.88
495.573	84.88
495.79	88.88
496.008	78.88
496.225	80.88
496.442	83.88
496.66	92.88
496.877	77.88
497.094	85.88
497.312	80.88
497.529	83.88
497.746	80.88
497.963	84.88
498.181	71.88
498.398	76.88
498.615	79.88
498.832	77.88
499.049	84.88
499.267	76.88
499.484	77.88
499.701	74.88
499.918	86.88
500.135	86.88
500.352	80.88
500.569	86.88
500.786	75.88
501.003	82.88
501.22	70.88
501.437	74.88
501.654	72.88
501.871	71.88
502.088	82.88
502.305	82.88
502.522	79.88
502.739	86.88
502.956	84.88
503.172	95.88
503.389	76.88
503.606	86.88
503.823	85.88
504.04	80.88
504.256	95.88
504.473	90.88
504.69	77.88
504.907	71.88
505.123	67.88
505.34	80.88
505.557	62.88
505.773	82.88
505.99	99.88
506.207	87.88
506.423	79.88
506.64	77.88
506.856	83.88
507.073	80.88
507.289	76.88
507.506	77.88
507.722	70.88
507.939	89.88
508.155	80.88
508.372	78.88
508.588	80.88
508.805	91.88
509.021	78.88
509.238	87.88
509.454	74.88
509.67	67.88
509.887	80.88
510.103	78.88
510.319	78.88
510.536	89.88
510.752	74.88
510.968	85.88
511.184	74.88
511.401	79.88
511.617	87.88
511.833	90.88
512.049	76.88
512.265	80.88
512.481	92.88
512.698	77.88
512.914	88.88
513.13	68.88
513.346	94.88
513.562	79.88
513.778	70.88
513.994	84.88
514.21	76.88
514.426	95.88
514.642	83.88
514.858	73.88
515.074	81.88
515.29	106.88
515.506	70.88
515.721	93.88
515.937	84.88
516.153	84.88
516.369	76.88
516.585	81.88
516.801	77.88
517.016	69.88
517.232	87.88
517.448	82.88
517.664	81.88
517.879	64.88
518.095	80.88
518.311	70.88
518.527	92.88
518.742	91.88
518.958	73.88
519.173	80.88
519.389	71.88
519.605	85.88
519.82	76.88
520.036	76.88
520.251	87.88
