Data from BG_HRD10591_093.txt Node
Date: Fri May 16 15:27:33 EDT 2025
User: Yrep
Spectrometer: HR+D1059
Trigger mode: 1
Integration Time (sec): 1.000000E-1
Scans to average: 1
Electric dark correction enabled: true
Nonlinearity correction enabled: false
Boxcar width: 0
XAxis mode: Wavelengths
Number of Pixels in Spectrum: 2048
>>>>>Begin Spectral Data<<<<<
223.165	-24.44
223.4	-24.44
223.635	-24.44
223.869	-17.44
224.104	-30.44
224.338	-18.44
224.573	-8.44
224.808	-15.44
225.042	-17.44
225.277	-1.44
225.511	-9.44
225.746	-4.44
225.98	17.56
226.215	19.56
226.449	25.56
226.683	15.56
226.918	39.56
227.152	29.56
227.387	42.56
227.621	37.56
227.856	39.56
228.09	37.56
228.324	49.56
228.559	62.56
228.793	59.56
229.027	63.56
229.262	58.56
229.496	63.56
229.73	56.56
229.964	71.56
230.199	65.56
230.433	76.56
230.667	70.56
230.901	78.56
231.136	81.56
231.37	88.56
231.604	61.56
231.838	97.56
232.072	77.56
232.306	90.56
232.541	79.56
232.775	75.56
233.009	84.56
233.243	75.56
233.477	71.56
233.711	73.56
233.945	85.56
234.179	70.56
234.413	87.56
234.647	78.56
234.881	75.56
235.115	73.56
235.349	90.56
235.583	92.56
235.817	75.56
236.051	79.56
236.285	75.56
236.519	78.56
236.753	68.56
236.987	80.56
237.221	70.56
237.455	66.56
237.689	76.56
237.922	53.56
238.156	74.56
238.39	72.56
238.624	80.56
238.858	89.56
239.091	66.56
239.325	79.56
239.559	87.56
239.793	72.56
240.027	74.56
240.26	63.56
240.494	78.56
240.728	80.56
240.961	71.56
241.195	89.56
241.429	86.56
241.662	79.56
241.896	74.56
242.13	81.56
242.363	73.56
242.597	81.56
242.83	63.56
243.064	75.56
243.298	85.56
243.531	81.56
243.765	62.56
243.998	75.56
244.232	78.56
244.465	76.56
244.699	74.56
244.932	83.56
245.166	67.56
245.399	71.56
245.633	73.56
245.866	82.56
246.099	82.56
246.333	66.56
246.566	72.56
246.8	65.56
247.033	72.56
247.266	69.56
247.5	82.56
247.733	68.56
247.966	86.56
248.2	79.56
248.433	79.56
248.666	80.56
248.899	72.56
249.133	89.56
249.366	71.56
249.599	81.56
249.832	82.56
250.066	70.56
250.299	90.56
250.532	72.56
250.765	87.56
250.998	75.56
251.231	76.56
251.465	76.56
251.698	79.56
251.931	78.56
252.164	72.56
252.397	80.56
252.63	69.56
252.863	74.56
253.096	79.56
253.329	75.56
253.562	77.56
253.795	71.56
254.028	80.56
254.261	96.56
254.494	79.56
254.727	86.56
254.96	71.56
255.193	62.56
255.426	84.56
255.659	74.56
255.892	76.56
256.124	73.56
256.357	72.56
256.59	85.56
256.823	90.56
257.056	71.56
257.289	63.56
257.521	79.56
257.754	75.56
257.987	72.56
258.22	86.56
258.452	75.56
258.685	79.56
258.918	84.56
259.151	66.56
259.383	79.56
259.616	67.56
259.849	74.56
260.081	68.56
260.314	75.56
260.547	81.56
260.779	84.56
261.012	89.56
261.244	79.56
261.477	76.56
261.71	72.56
261.942	74.56
262.175	69.56
262.407	85.56
262.64	79.56
262.872	89.56
263.105	71.56
263.337	74.56
263.57	81.56
263.802	82.56
264.035	74.56
264.267	79.56
264.499	73.56
264.732	76.56
264.964	73.56
265.197	91.56
265.429	66.56
265.661	87.56
265.894	69.56
266.126	80.56
266.358	74.56
266.591	83.56
266.823	88.56
267.055	86.56
267.287	74.56
267.52	64.56
267.752	80.56
267.984	87.56
268.216	84.56
268.448	80.56
268.681	72.56
268.913	79.56
269.145	100.56
269.377	68.56
269.609	61.56
269.841	93.56
270.073	85.56
270.306	71.56
270.538	83.56
270.77	65.56
271.002	77.56
271.234	86.56
271.466	74.56
271.698	81.56
271.93	76.56
272.162	84.56
272.394	77.56
272.626	86.56
272.858	72.56
273.09	88.56
273.322	89.56
273.553	81.56
273.785	83.56
274.017	87.56
274.249	91.56
274.481	74.56
274.713	85.56
274.945	83.56
275.176	90.56
275.408	72.56
275.64	81.56
275.872	70.56
276.104	94.56
276.335	73.56
276.567	86.56
276.799	81.56
277.031	82.56
277.262	89.56
277.494	76.56
277.726	76.56
277.957	82.56
278.189	87.56
278.421	88.56
278.652	91.56
278.884	92.56
279.115	78.56
279.347	81.56
279.579	78.56
279.81	106.56
280.042	68.56
280.273	76.56
280.505	84.56
280.736	94.56
280.968	80.56
281.199	101.56
281.431	93.56
281.662	86.56
281.894	79.56
282.125	73.56
282.356	75.56
282.588	90.56
282.819	69.56
283.051	74.56
283.282	70.56
283.513	72.56
283.745	80.56
283.976	74.56
284.207	66.56
284.439	76.56
284.67	83.56
284.901	76.56
285.132	77.56
285.364	80.56
285.595	86.56
285.826	91.56
286.057	68.56
286.288	83.56
286.52	92.56
286.751	79.56
286.982	84.56
287.213	72.56
287.444	104.56
287.675	81.56
287.906	80.56
288.138	76.56
288.369	72.56
288.6	78.56
288.831	75.56
289.062	89.56
289.293	83.56
289.524	88.56
289.755	86.56
289.986	80.56
290.217	80.56
290.448	82.56
290.679	76.56
290.91	73.56
291.141	90.56
291.371	88.56
291.602	82.56
291.833	86.56
292.064	81.56
292.295	73.56
292.526	77.56
292.757	79.56
292.987	84.56
293.218	81.56
293.449	72.56
293.68	80.56
293.91	90.56
294.141	82.56
294.372	86.56
294.603	83.56
294.833	86.56
295.064	74.56
295.295	76.56
295.525	79.56
295.756	77.56
295.987	86.56
296.217	84.56
296.448	89.56
296.679	93.56
296.909	91.56
297.14	81.56
297.37	85.56
297.601	90.56
297.831	89.56
298.062	87.56
298.292	64.56
298.523	94.56
298.753	78.56
298.984	80.56
299.214	86.56
299.445	89.56
299.675	88.56
299.905	82.56
300.136	85.56
300.366	73.56
300.597	94.56
300.827	65.56
301.057	77.56
301.288	91.56
301.518	98.56
301.748	70.56
301.979	92.56
302.209	94.56
302.439	94.56
302.669	81.56
302.9	79.56
303.13	94.56
303.36	83.56
303.59	82.56
303.82	93.56
304.051	89.56
304.281	82.56
304.511	91.56
304.741	82.56
304.971	86.56
305.201	74.56
305.431	74.56
305.661	81.56
305.891	84.56
306.121	86.56
306.352	93.56
306.582	98.56
306.812	96.56
307.042	75.56
307.272	73.56
307.502	80.56
307.731	64.56
307.961	93.56
308.191	77.56
308.421	78.56
308.651	93.56
308.881	68.56
309.111	69.56
309.341	79.56
309.571	85.56
309.8	80.56
310.03	98.56
310.26	91.56
310.49	76.56
310.72	85.56
310.949	91.56
311.179	81.56
311.409	91.56
311.639	97.56
311.868	66.56
312.098	84.56
312.328	67.56
312.557	77.56
312.787	100.56
313.017	84.56
313.246	80.56
313.476	65.56
313.706	86.56
313.935	82.56
314.165	92.56
314.394	98.56
314.624	75.56
314.853	85.56
315.083	85.56
315.312	81.56
315.542	73.56
315.771	83.56
316.001	80.56
316.23	89.56
316.46	77.56
316.689	82.56
316.919	92.56
317.148	72.56
317.377	86.56
317.607	85.56
317.836	98.56
318.065	69.56
318.295	78.56
318.524	87.56
318.753	84.56
318.983	73.56
319.212	96.56
319.441	82.56
319.67	94.56
319.9	94.56
320.129	77.56
320.358	81.56
320.587	91.56
320.816	86.56
321.046	101.56
321.275	95.56
321.504	72.56
321.733	93.56
321.962	96.56
322.191	72.56
322.42	80.56
322.649	98.56
322.878	96.56
323.108	82.56
323.337	79.56
323.566	81.56
323.795	79.56
324.024	85.56
324.253	89.56
324.482	90.56
324.71	67.56
324.939	86.56
325.168	86.56
325.397	96.56
325.626	76.56
325.855	83.56
326.084	82.56
326.313	83.56
326.542	90.56
326.77	80.56
326.999	97.56
327.228	88.56
327.457	89.56
327.686	81.56
327.914	94.56
328.143	97.56
328.372	78.56
328.6	76.56
328.829	84.56
329.058	98.56
329.287	84.56
329.515	73.56
329.744	94.56
329.972	80.56
330.201	86.56
330.43	81.56
330.658	73.56
330.887	92.56
331.115	76.56
331.344	67.56
331.572	88.56
331.801	97.56
332.03	90.56
332.258	76.56
332.486	93.56
332.715	79.56
332.943	72.56
333.172	85.56
333.4	79.56
333.629	70.56
333.857	65.56
334.085	82.56
334.314	84.56
334.542	84.56
334.771	90.56
334.999	90.56
335.227	102.56
335.455	81.56
335.684	108.56
335.912	76.56
336.14	89.56
336.369	76.56
336.597	79.56
336.825	97.56
337.053	80.56
337.281	78.56
337.51	85.56
337.738	77.56
337.966	74.56
338.194	79.56
338.422	89.56
338.65	94.56
338.878	88.56
339.106	78.56
339.334	87.56
339.562	72.56
339.79	73.56
340.018	88.56
340.246	86.56
340.474	85.56
340.702	87.56
340.93	72.56
341.158	89.56
341.386	70.56
341.614	85.56
341.842	86.56
342.07	85.56
342.298	73.56
342.526	79.56
342.754	79.56
342.981	79.56
343.209	81.56
343.437	84.56
343.665	83.56
343.893	91.56
344.12	82.56
344.348	80.56
344.576	79.56
344.804	86.56
345.031	77.56
345.259	74.56
345.487	87.56
345.714	77.56
345.942	73.56
346.17	88.56
346.397	72.56
346.625	76.56
346.853	74.56
347.08	83.56
347.308	80.56
347.535	77.56
347.763	76.56
347.99	81.56
348.218	86.56
348.445	88.56
348.673	77.56
348.9	84.56
349.128	100.56
349.355	88.56
349.583	93.56
349.81	86.56
350.037	86.56
350.265	70.56
350.492	79.56
350.72	78.56
350.947	93.56
351.174	93.56
351.402	78.56
351.629	86.56
351.856	85.56
352.083	87.56
352.311	72.56
352.538	78.56
352.765	92.56
352.992	82.56
353.22	82.56
353.447	87.56
353.674	94.56
353.901	87.56
354.128	78.56
354.355	78.56
354.583	63.56
354.81	81.56
355.037	94.56
355.264	74.56
355.491	70.56
355.718	80.56
355.945	83.56
356.172	81.56
356.399	85.56
356.626	81.56
356.853	86.56
357.08	84.56
357.307	73.56
357.534	94.56
357.761	84.56
357.988	72.56
358.215	80.56
358.441	93.56
358.668	92.56
358.895	83.56
359.122	84.56
359.349	86.56
359.576	81.56
359.802	80.56
360.029	80.56
360.256	85.56
360.483	84.56
360.709	96.56
360.936	95.56
361.163	83.56
361.39	79.56
361.616	88.56
361.843	76.56
362.07	81.56
362.296	79.56
362.523	90.56
362.749	85.56
362.976	87.56
363.203	94.56
363.429	85.56
363.656	75.56
363.882	79.56
364.109	79.56
364.335	72.56
364.562	90.56
364.788	89.56
365.015	77.56
365.241	82.56
365.468	80.56
365.694	79.56
365.92	79.56
366.147	85.56
366.373	82.56
366.599	80.56
366.826	86.56
367.052	81.56
367.278	83.56
367.505	90.56
367.731	89.56
367.957	86.56
368.184	79.56
368.41	72.56
368.636	90.56
368.862	76.56
369.089	88.56
369.315	84.56
369.541	84.56
369.767	78.56
369.993	80.56
370.219	80.56
370.445	88.56
370.672	76.56
370.898	85.56
371.124	77.56
371.35	86.56
371.576	63.56
371.802	80.56
372.028	91.56
372.254	64.56
372.48	77.56
372.706	77.56
372.932	89.56
373.158	71.56
373.384	84.56
373.61	85.56
373.835	77.56
374.061	67.56
374.287	84.56
374.513	87.56
374.739	98.56
374.965	78.56
375.191	76.56
375.416	63.56
375.642	72.56
375.868	86.56
376.094	72.56
376.319	79.56
376.545	85.56
376.771	81.56
376.997	97.56
377.222	87.56
377.448	90.56
377.674	102.56
377.899	63.56
378.125	63.56
378.35	81.56
378.576	85.56
378.802	82.56
379.027	89.56
379.253	80.56
379.478	65.56
379.704	65.56
379.929	77.56
380.155	86.56
380.38	78.56
380.606	83.56
380.831	110.56
381.057	94.56
381.282	76.56
381.507	103.56
381.733	82.56
381.958	66.56
382.184	86.56
382.409	81.56
382.634	98.56
382.86	100.56
383.085	79.56
383.31	81.56
383.535	72.56
383.761	89.56
383.986	86.56
384.211	80.56
384.436	81.56
384.662	81.56
384.887	65.56
385.112	88.56
385.337	89.56
385.562	83.56
385.787	89.56
386.013	66.56
386.238	78.56
386.463	80.56
386.688	95.56
386.913	63.56
387.138	95.56
387.363	65.56
387.588	86.56
387.813	81.56
388.038	82.56
388.263	87.56
388.488	78.56
388.713	79.56
388.938	76.56
389.163	80.56
389.387	85.56
389.612	69.56
389.837	88.56
390.062	76.56
390.287	77.56
390.512	80.56
390.736	74.56
390.961	79.56
391.186	79.56
391.411	78.56
391.636	90.56
391.86	80.56
392.085	96.56
392.31	74.56
392.534	91.56
392.759	81.56
392.984	66.56
393.208	74.56
393.433	70.56
393.658	92.56
393.882	82.56
394.107	85.56
394.331	86.56
394.556	81.56
394.78	77.56
395.005	89.56
395.229	86.56
395.454	93.56
395.678	66.56
395.903	86.56
396.127	86.56
396.352	92.56
396.576	88.56
396.801	93.56
397.025	69.56
397.249	91.56
397.474	78.56
397.698	71.56
397.922	83.56
398.147	75.56
398.371	81.56
398.595	89.56
398.82	85.56
399.044	79.56
399.268	72.56
399.492	85.56
399.717	58.56
399.941	85.56
400.165	98.56
400.389	91.56
400.613	86.56
400.837	85.56
401.062	73.56
401.286	72.56
401.51	81.56
401.734	75.56
401.958	87.56
402.182	75.56
402.406	91.56
402.63	77.56
402.854	93.56
403.078	84.56
403.302	89.56
403.526	88.56
403.75	70.56
403.974	82.56
404.198	69.56
404.422	91.56
404.645	76.56
404.869	81.56
405.093	88.56
405.317	79.56
405.541	83.56
405.765	77.56
405.988	83.56
406.212	74.56
406.436	74.56
406.66	105.56
406.883	81.56
407.107	84.56
407.331	86.56
407.555	73.56
407.778	76.56
408.002	90.56
408.226	73.56
408.449	84.56
408.673	84.56
408.896	73.56
409.12	80.56
409.344	83.56
409.567	77.56
409.791	87.56
410.014	80.56
410.238	79.56
410.461	72.56
410.685	63.56
410.908	73.56
411.132	76.56
411.355	97.56
411.578	81.56
411.802	66.56
412.025	79.56
412.249	76.56
412.472	83.56
412.695	80.56
412.919	88.56
413.142	63.56
413.365	93.56
413.589	84.56
413.812	64.56
414.035	74.56
414.258	71.56
414.482	70.56
414.705	89.56
414.928	93.56
415.151	88.56
415.374	76.56
415.597	72.56
415.821	84.56
416.044	89.56
416.267	79.56
416.49	85.56
416.713	78.56
416.936	89.56
417.159	88.56
417.382	94.56
417.605	82.56
417.828	86.56
418.051	84.56
418.274	80.56
418.497	92.56
418.72	86.56
418.943	75.56
419.166	79.56
419.389	99.56
419.611	80.56
419.834	74.56
420.057	87.56
420.28	86.56
420.503	85.56
420.726	83.56
420.948	73.56
421.171	100.56
421.394	78.56
421.617	68.56
421.839	64.56
422.062	70.56
422.285	84.56
422.507	94.56
422.73	82.56
422.953	82.56
423.175	89.56
423.398	78.56
423.621	88.56
423.843	68.56
424.066	86.56
424.288	65.56
424.511	81.56
424.733	57.56
424.956	85.56
425.178	77.56
425.401	81.56
425.623	84.56
425.846	76.56
426.068	71.56
426.291	70.56
426.513	75.56
426.735	73.56
426.958	73.56
427.18	82.56
427.402	81.56
427.625	89.56
427.847	67.56
428.069	79.56
428.292	72.56
428.514	78.56
428.736	78.56
428.958	93.56
429.181	82.56
429.403	72.56
429.625	67.56
429.847	77.56
430.069	86.56
430.292	66.56
430.514	70.56
430.736	74.56
430.958	64.56
431.18	86.56
431.402	86.56
431.624	82.56
431.846	93.56
432.068	86.56
432.29	77.56
432.512	86.56
432.734	92.56
432.956	72.56
433.178	90.56
433.4	92.56
433.622	65.56
433.844	92.56
434.066	79.56
434.287	72.56
434.509	87.56
434.731	85.56
434.953	77.56
435.175	84.56
435.397	94.56
435.618	86.56
435.84	95.56
436.062	80.56
436.284	77.56
436.505	79.56
436.727	82.56
436.949	70.56
437.17	75.56
437.392	74.56
437.614	85.56
437.835	78.56
438.057	78.56
438.278	79.56
438.5	96.56
438.721	82.56
438.943	77.56
439.165	83.56
439.386	85.56
439.608	79.56
439.829	80.56
440.05	80.56
440.272	82.56
440.493	74.56
440.715	75.56
440.936	95.56
441.158	76.56
441.379	74.56
441.6	75.56
441.822	80.56
442.043	76.56
442.264	77.56
442.486	78.56
442.707	85.56
442.928	84.56
443.149	63.56
443.371	75.56
443.592	85.56
443.813	71.56
444.034	77.56
444.255	94.56
444.476	71.56
444.698	80.56
444.919	77.56
445.14	142.56
445.361	117.56
445.582	77.56
445.803	63.56
446.024	90.56
446.245	88.56
446.466	96.56
446.687	74.56
446.908	82.56
447.129	85.56
447.35	77.56
447.571	101.56
447.792	86.56
448.013	81.56
448.234	71.56
448.455	75.56
448.675	81.56
448.896	78.56
449.117	66.56
449.338	75.56
449.559	71.56
449.779	93.56
450	76.56
450.221	84.56
450.442	78.56
450.662	66.56
450.883	86.56
451.104	73.56
451.324	78.56
451.545	86.56
451.766	87.56
451.986	72.56
452.207	84.56
452.428	86.56
452.648	75.56
452.869	90.56
453.089	104.56
453.31	63.56
453.53	94.56
453.751	78.56
453.971	79.56
454.192	80.56
454.412	84.56
454.633	78.56
454.853	82.56
455.073	81.56
455.294	87.56
455.514	83.56
455.734	79.56
455.955	85.56
456.175	92.56
456.395	76.56
456.616	81.56
456.836	78.56
457.056	80.56
457.276	79.56
457.497	86.56
457.717	78.56
457.937	74.56
458.157	83.56
458.377	90.56
458.598	75.56
458.818	84.56
459.038	75.56
459.258	83.56
459.478	81.56
459.698	84.56
459.918	74.56
460.138	93.56
460.358	79.56
460.578	81.56
460.798	82.56
461.018	67.56
461.238	80.56
461.458	74.56
461.678	85.56
461.898	85.56
462.118	83.56
462.338	80.56
462.558	84.56
462.777	78.56
462.997	77.56
463.217	95.56
463.437	86.56
463.657	77.56
463.876	82.56
464.096	85.56
464.316	85.56
464.536	75.56
464.755	81.56
464.975	82.56
465.195	80.56
465.414	88.56
465.634	86.56
465.854	85.56
466.073	93.56
466.293	82.56
466.512	71.56
466.732	72.56
466.951	82.56
467.171	71.56
467.391	92.56
467.61	78.56
467.829	71.56
468.049	71.56
468.268	79.56
468.488	61.56
468.707	83.56
468.927	78.56
469.146	79.56
469.365	81.56
469.585	73.56
469.804	95.56
470.023	87.56
470.243	89.56
470.462	84.56
470.681	71.56
470.901	86.56
471.12	73.56
471.339	82.56
471.558	84.56
471.777	72.56
471.997	74.56
472.216	88.56
472.435	75.56
472.654	78.56
472.873	89.56
473.092	78.56
473.311	78.56
473.53	74.56
473.749	91.56
473.968	77.56
474.187	77.56
474.406	68.56
474.625	95.56
474.844	88.56
475.063	76.56
475.282	74.56
475.501	76.56
475.72	74.56
475.939	71.56
476.158	89.56
476.377	80.56
476.596	73.56
476.814	86.56
477.033	80.56
477.252	90.56
477.471	80.56
477.69	81.56
477.908	69.56
478.127	69.56
478.346	70.56
478.564	90.56
478.783	80.56
479.002	90.56
479.22	78.56
479.439	84.56
479.658	63.56
479.876	80.56
480.095	72.56
480.313	78.56
480.532	75.56
480.751	79.56
480.969	73.56
481.188	75.56
481.406	73.56
481.624	92.56
481.843	89.56
482.061	84.56
482.28	84.56
482.498	70.56
482.717	90.56
482.935	79.56
483.153	86.56
483.372	84.56
483.59	85.56
483.808	79.56
484.027	92.56
484.245	70.56
484.463	78.56
484.681	76.56
484.9	73.56
485.118	72.56
485.336	57.56
485.554	79.56
485.772	76.56
485.99	77.56
486.209	80.56
486.427	57.56
486.645	89.56
486.863	94.56
487.081	85.56
487.299	76.56
487.517	78.56
487.735	77.56
487.953	90.56
488.171	74.56
488.389	81.56
488.607	84.56
488.825	65.56
489.043	67.56
489.261	64.56
489.479	76.56
489.696	82.56
489.914	90.56
490.132	88.56
490.35	96.56
490.568	102.56
490.786	85.56
491.003	81.56
491.221	76.56
491.439	77.56
491.657	87.56
491.874	78.56
492.092	78.56
492.31	79.56
492.527	86.56
492.745	75.56
492.963	77.56
493.18	93.56
493.398	76.56
493.615	76.56
493.833	78.56
494.05	80.56
494.268	81.56
494.485	73.56
494.703	66.56
494.92	82.56
495.138	84.56
495.355	97.56
495.573	80.56
495.79	84.56
496.008	80.56
496.225	91.56
496.442	77.56
496.66	84.56
496.877	95.56
497.094	84.56
497.312	93.56
497.529	87.56
497.746	95.56
497.963	70.56
498.181	64.56
498.398	76.56
498.615	83.56
498.832	84.56
499.049	84.56
499.267	94.56
499.484	76.56
499.701	72.56
499.918	81.56
500.135	75.56
500.352	89.56
500.569	77.56
500.786	79.56
501.003	79.56
501.22	87.56
501.437	91.56
501.654	80.56
501.871	84.56
502.088	100.56
502.305	80.56
502.522	78.56
502.739	100.56
502.956	76.56
503.172	67.56
503.389	75.56
503.606	77.56
503.823	71.56
504.04	94.56
504.256	70.56
504.473	83.56
504.69	74.56
504.907	90.56
505.123	86.56
505.34	87.56
505.557	83.56
505.773	98.56
505.99	70.56
506.207	79.56
506.423	74.56
506.64	65.56
506.856	88.56
507.073	70.56
507.289	86.56
507.506	92.56
507.722	72.56
507.939	76.56
508.155	83.56
508.372	79.56
508.588	81.56
508.805	96.56
509.021	86.56
509.238	101.56
509.454	85.56
509.67	92.56
509.887	87.56
510.103	71.56
510.319	65.56
510.536	91.56
510.752	87.56
510.968	78.56
511.184	78.56
511.401	77.56
511.617	77.56
511.833	75.56
512.049	81.56
512.265	76.56
512.481	86.56
512.698	96.56
512.914	81.56
513.13	80.56
513.346	80.56
513.562	87.56
513.778	65.56
513.994	93.56
514.21	71.56
514.426	92.56
514.642	80.56
514.858	87.56
515.074	88.56
515.29	79.56
515.506	76.56
515.721	79.56
515.937	79.56
516.153	78.56
516.369	76.56
516.585	82.56
516.801	78.56
517.016	86.56
517.232	67.56
517.448	78.56
517.664	70.56
517.879	82.56
518.095	77.56
518.311	105.56
518.527	82.56
518.742	87.56
518.958	93.56
519.173	95.56
519.389	86.56
519.605	76.56
519.82	74.56
520.036	81.56
