Data from BG_HRD10591_026.txt Node
Date: Fri May 16 15:27:00 EDT 2025
User: Yrep
Spectrometer: HR+D1059
Trigger mode: 1
Integration Time (sec): 1.000000E-1
Scans to average: 1
Electric dark correction enabled: true
Nonlinearity correction enabled: false
Boxcar width: 0
XAxis mode: Wavelengths
Number of Pixels in Spectrum: 2048
>>>>>Begin Spectral Data<<<<<
223.165	-14.31
223.4	-14.31
223.635	-14.31
223.869	-23.31
224.104	-13.31
224.338	-13.31
224.573	-15.31
224.808	-20.31
225.042	-6.31
225.277	-9.31
225.511	-13.31
225.746	-4.31
225.98	14.69
226.215	0.69
226.449	13.69
226.683	25.69
226.918	38.69
227.152	39.69
227.387	21.69
227.621	42.69
227.856	50.69
228.09	56.69
228.324	50.69
228.559	50.69
228.793	62.69
229.027	51.69
229.262	67.69
229.496	62.69
229.73	77.69
229.964	68.69
230.199	74.69
230.433	72.69
230.667	67.69
230.901	68.69
231.136	75.69
231.37	81.69
231.604	74.69
231.838	74.69
232.072	86.69
232.306	74.69
232.541	86.69
232.775	59.69
233.009	94.69
233.243	96.69
233.477	76.69
233.711	79.69
233.945	90.69
234.179	83.69
234.413	88.69
234.647	77.69
234.881	79.69
235.115	77.69
235.349	69.69
235.583	72.69
235.817	72.69
236.051	70.69
236.285	69.69
236.519	70.69
236.753	90.69
236.987	84.69
237.221	65.69
237.455	80.69
237.689	57.69
237.922	76.69
238.156	72.69
238.39	86.69
238.624	78.69
238.858	65.69
239.091	75.69
239.325	72.69
239.559	64.69
239.793	72.69
240.027	85.69
240.26	77.69
240.494	73.69
240.728	68.69
240.961	81.69
241.195	56.69
241.429	79.69
241.662	63.69
241.896	66.69
242.13	75.69
242.363	73.69
242.597	87.69
242.83	93.69
243.064	74.69
243.298	90.69
243.531	59.69
243.765	65.69
243.998	80.69
244.232	76.69
244.465	71.69
244.699	73.69
244.932	66.69
245.166	81.69
245.399	82.69
245.633	90.69
245.866	81.69
246.099	80.69
246.333	73.69
246.566	83.69
246.8	71.69
247.033	81.69
247.266	77.69
247.5	83.69
247.733	85.69
247.966	89.69
248.2	77.69
248.433	69.69
248.666	79.69
248.899	66.69
249.133	86.69
249.366	68.69
249.599	77.69
249.832	97.69
250.066	74.69
250.299	75.69
250.532	84.69
250.765	70.69
250.998	93.69
251.231	90.69
251.465	78.69
251.698	67.69
251.931	82.69
252.164	80.69
252.397	76.69
252.63	78.69
252.863	68.69
253.096	87.69
253.329	84.69
253.562	82.69
253.795	95.69
254.028	85.69
254.261	66.69
254.494	82.69
254.727	79.69
254.96	87.69
255.193	62.69
255.426	86.69
255.659	85.69
255.892	76.69
256.124	85.69
256.357	81.69
256.59	83.69
256.823	82.69
257.056	80.69
257.289	86.69
257.521	80.69
257.754	85.69
257.987	82.69
258.22	84.69
258.452	99.69
258.685	79.69
258.918	90.69
259.151	84.69
259.383	92.69
259.616	84.69
259.849	81.69
260.081	77.69
260.314	78.69
260.547	71.69
260.779	66.69
261.012	83.69
261.244	85.69
261.477	87.69
261.71	74.69
261.942	75.69
262.175	83.69
262.407	73.69
262.64	85.69
262.872	80.69
263.105	68.69
263.337	74.69
263.57	71.69
263.802	87.69
264.035	73.69
264.267	77.69
264.499	71.69
264.732	84.69
264.964	82.69
265.197	86.69
265.429	75.69
265.661	75.69
265.894	76.69
266.126	77.69
266.358	77.69
266.591	106.69
266.823	80.69
267.055	73.69
267.287	74.69
267.52	90.69
267.752	83.69
267.984	100.69
268.216	67.69
268.448	73.69
268.681	68.69
268.913	85.69
269.145	85.69
269.377	99.69
269.609	79.69
269.841	72.69
270.073	77.69
270.306	71.69
270.538	83.69
270.77	80.69
271.002	69.69
271.234	89.69
271.466	83.69
271.698	87.69
271.93	88.69
272.162	81.69
272.394	96.69
272.626	48.69
272.858	76.69
273.09	79.69
273.322	99.69
273.553	76.69
273.785	78.69
274.017	79.69
274.249	82.69
274.481	78.69
274.713	81.69
274.945	79.69
275.176	60.69
275.408	76.69
275.64	75.69
275.872	87.69
276.104	83.69
276.335	78.69
276.567	86.69
276.799	71.69
277.031	71.69
277.262	94.69
277.494	68.69
277.726	79.69
277.957	80.69
278.189	70.69
278.421	91.69
278.652	82.69
278.884	74.69
279.115	79.69
279.347	85.69
279.579	77.69
279.81	82.69
280.042	85.69
280.273	76.69
280.505	79.69
280.736	75.69
280.968	66.69
281.199	77.69
281.431	78.69
281.662	74.69
281.894	88.69
282.125	89.69
282.356	89.69
282.588	76.69
282.819	90.69
283.051	77.69
283.282	81.69
283.513	83.69
283.745	80.69
283.976	77.69
284.207	89.69
284.439	91.69
284.67	79.69
284.901	88.69
285.132	74.69
285.364	92.69
285.595	79.69
285.826	66.69
286.057	85.69
286.288	85.69
286.52	86.69
286.751	86.69
286.982	86.69
287.213	91.69
287.444	83.69
287.675	87.69
287.906	91.69
288.138	94.69
288.369	90.69
288.6	75.69
288.831	78.69
289.062	82.69
289.293	67.69
289.524	74.69
289.755	87.69
289.986	93.69
290.217	96.69
290.448	83.69
290.679	86.69
290.91	76.69
291.141	88.69
291.371	84.69
291.602	87.69
291.833	88.69
292.064	96.69
292.295	92.69
292.526	83.69
292.757	86.69
292.987	89.69
293.218	90.69
293.449	78.69
293.68	102.69
293.91	72.69
294.141	77.69
294.372	72.69
294.603	95.69
294.833	81.69
295.064	76.69
295.295	94.69
295.525	79.69
295.756	82.69
295.987	81.69
296.217	77.69
296.448	88.69
296.679	74.69
296.909	85.69
297.14	80.69
297.37	84.69
297.601	92.69
297.831	90.69
298.062	89.69
298.292	107.69
298.523	71.69
298.753	85.69
298.984	80.69
299.214	71.69
299.445	97.69
299.675	91.69
299.905	83.69
300.136	101.69
300.366	80.69
300.597	75.69
300.827	79.69
301.057	73.69
301.288	73.69
301.518	98.69
301.748	85.69
301.979	95.69
302.209	94.69
302.439	84.69
302.669	78.69
302.9	94.69
303.13	82.69
303.36	90.69
303.59	73.69
303.82	86.69
304.051	103.69
304.281	87.69
304.511	78.69
304.741	90.69
304.971	87.69
305.201	86.69
305.431	80.69
305.661	73.69
305.891	88.69
306.121	90.69
306.352	82.69
306.582	90.69
306.812	94.69
307.042	96.69
307.272	85.69
307.502	77.69
307.731	78.69
307.961	79.69
308.191	84.69
308.421	90.69
308.651	83.69
308.881	70.69
309.111	85.69
309.341	81.69
309.571	86.69
309.8	85.69
310.03	101.69
310.26	82.69
310.49	80.69
310.72	80.69
310.949	73.69
311.179	79.69
311.409	86.69
311.639	62.69
311.868	87.69
312.098	81.69
312.328	81.69
312.557	87.69
312.787	77.69
313.017	82.69
313.246	75.69
313.476	91.69
313.706	79.69
313.935	75.69
314.165	88.69
314.394	88.69
314.624	94.69
314.853	79.69
315.083	75.69
315.312	82.69
315.542	79.69
315.771	55.69
316.001	92.69
316.23	83.69
316.46	85.69
316.689	82.69
316.919	92.69
317.148	72.69
317.377	80.69
317.607	74.69
317.836	75.69
318.065	73.69
318.295	90.69
318.524	85.69
318.753	78.69
318.983	96.69
319.212	81.69
319.441	67.69
319.67	79.69
319.9	76.69
320.129	86.69
320.358	80.69
320.587	74.69
320.816	80.69
321.046	71.69
321.275	97.69
321.504	70.69
321.733	75.69
321.962	83.69
322.191	75.69
322.42	90.69
322.649	73.69
322.878	78.69
323.108	83.69
323.337	72.69
323.566	83.69
323.795	89.69
324.024	87.69
324.253	84.69
324.482	83.69
324.71	93.69
324.939	89.69
325.168	87.69
325.397	91.69
325.626	91.69
325.855	74.69
326.084	64.69
326.313	75.69
326.542	89.69
326.77	86.69
326.999	80.69
327.228	93.69
327.457	104.69
327.686	90.69
327.914	85.69
328.143	82.69
328.372	97.69
328.6	79.69
328.829	84.69
329.058	90.69
329.287	89.69
329.515	85.69
329.744	94.69
329.972	89.69
330.201	93.69
330.43	86.69
330.658	89.69
330.887	88.69
331.115	78.69
331.344	85.69
331.572	82.69
331.801	81.69
332.03	84.69
332.258	98.69
332.486	73.69
332.715	88.69
332.943	95.69
333.172	80.69
333.4	101.69
333.629	86.69
333.857	85.69
334.085	98.69
334.314	77.69
334.542	87.69
334.771	79.69
334.999	78.69
335.227	87.69
335.455	85.69
335.684	85.69
335.912	79.69
336.14	80.69
336.369	93.69
336.597	90.69
336.825	65.69
337.053	82.69
337.281	92.69
337.51	86.69
337.738	71.69
337.966	82.69
338.194	90.69
338.422	80.69
338.65	87.69
338.878	87.69
339.106	79.69
339.334	86.69
339.562	81.69
339.79	88.69
340.018	68.69
340.246	62.69
340.474	83.69
340.702	75.69
340.93	93.69
341.158	88.69
341.386	78.69
341.614	86.69
341.842	87.69
342.07	83.69
342.298	88.69
342.526	90.69
342.754	72.69
342.981	75.69
343.209	80.69
343.437	91.69
343.665	83.69
343.893	87.69
344.12	89.69
344.348	94.69
344.576	68.69
344.804	80.69
345.031	89.69
345.259	86.69
345.487	86.69
345.714	82.69
345.942	70.69
346.17	86.69
346.397	75.69
346.625	88.69
346.853	92.69
347.08	95.69
347.308	84.69
347.535	79.69
347.763	98.69
347.99	84.69
348.218	81.69
348.445	85.69
348.673	93.69
348.9	94.69
349.128	95.69
349.355	89.69
349.583	89.69
349.81	87.69
350.037	106.69
350.265	75.69
350.492	80.69
350.72	72.69
350.947	86.69
351.174	75.69
351.402	85.69
351.629	75.69
351.856	75.69
352.083	88.69
352.311	92.69
352.538	86.69
352.765	70.69
352.992	93.69
353.22	86.69
353.447	85.69
353.674	95.69
353.901	88.69
354.128	79.69
354.355	74.69
354.583	93.69
354.81	87.69
355.037	86.69
355.264	94.69
355.491	90.69
355.718	77.69
355.945	81.69
356.172	70.69
356.399	84.69
356.626	80.69
356.853	81.69
357.08	80.69
357.307	90.69
357.534	73.69
357.761	78.69
357.988	85.69
358.215	103.69
358.441	66.69
358.668	81.69
358.895	85.69
359.122	85.69
359.349	83.69
359.576	89.69
359.802	77.69
360.029	93.69
360.256	91.69
360.483	76.69
360.709	68.69
360.936	95.69
361.163	88.69
361.39	81.69
361.616	65.69
361.843	79.69
362.07	90.69
362.296	94.69
362.523	73.69
362.749	69.69
362.976	72.69
363.203	85.69
363.429	97.69
363.656	73.69
363.882	84.69
364.109	94.69
364.335	97.69
364.562	88.69
364.788	76.69
365.015	93.69
365.241	75.69
365.468	88.69
365.694	83.69
365.92	87.69
366.147	89.69
366.373	82.69
366.599	65.69
366.826	82.69
367.052	75.69
367.278	80.69
367.505	84.69
367.731	96.69
367.957	88.69
368.184	82.69
368.41	80.69
368.636	78.69
368.862	89.69
369.089	84.69
369.315	88.69
369.541	84.69
369.767	83.69
369.993	98.69
370.219	71.69
370.445	88.69
370.672	79.69
370.898	83.69
371.124	77.69
371.35	82.69
371.576	90.69
371.802	94.69
372.028	73.69
372.254	86.69
372.48	72.69
372.706	83.69
372.932	84.69
373.158	94.69
373.384	85.69
373.61	96.69
373.835	90.69
374.061	76.69
374.287	81.69
374.513	94.69
374.739	82.69
374.965	74.69
375.191	67.69
375.416	77.69
375.642	84.69
375.868	88.69
376.094	86.69
376.319	67.69
376.545	79.69
376.771	74.69
376.997	85.69
377.222	78.69
377.448	79.69
377.674	87.69
377.899	86.69
378.125	83.69
378.35	83.69
378.576	93.69
378.802	85.69
379.027	77.69
379.253	97.69
379.478	81.69
379.704	88.69
379.929	67.69
380.155	73.69
380.38	85.69
380.606	86.69
380.831	75.69
381.057	97.69
381.282	95.69
381.507	76.69
381.733	89.69
381.958	88.69
382.184	88.69
382.409	71.69
382.634	86.69
382.86	80.69
383.085	84.69
383.31	78.69
383.535	83.69
383.761	86.69
383.986	77.69
384.211	67.69
384.436	81.69
384.662	71.69
384.887	81.69
385.112	76.69
385.337	84.69
385.562	73.69
385.787	95.69
386.013	69.69
386.238	89.69
386.463	85.69
386.688	90.69
386.913	79.69
387.138	79.69
387.363	79.69
387.588	88.69
387.813	89.69
388.038	80.69
388.263	81.69
388.488	78.69
388.713	80.69
388.938	83.69
389.163	79.69
389.387	87.69
389.612	82.69
389.837	79.69
390.062	75.69
390.287	77.69
390.512	81.69
390.736	83.69
390.961	89.69
391.186	76.69
391.411	93.69
391.636	79.69
391.86	82.69
392.085	85.69
392.31	78.69
392.534	86.69
392.759	74.69
392.984	84.69
393.208	87.69
393.433	85.69
393.658	76.69
393.882	88.69
394.107	77.69
394.331	83.69
394.556	72.69
394.78	75.69
395.005	75.69
395.229	83.69
395.454	80.69
395.678	89.69
395.903	81.69
396.127	91.69
396.352	86.69
396.576	110.69
396.801	89.69
397.025	92.69
397.249	80.69
397.474	71.69
397.698	73.69
397.922	78.69
398.147	97.69
398.371	83.69
398.595	86.69
398.82	75.69
399.044	71.69
399.268	73.69
399.492	87.69
399.717	81.69
399.941	78.69
400.165	77.69
400.389	81.69
400.613	71.69
400.837	90.69
401.062	68.69
401.286	64.69
401.51	79.69
401.734	71.69
401.958	74.69
402.182	89.69
402.406	85.69
402.63	78.69
402.854	74.69
403.078	73.69
403.302	85.69
403.526	79.69
403.75	75.69
403.974	78.69
404.198	91.69
404.422	87.69
404.645	78.69
404.869	71.69
405.093	90.69
405.317	80.69
405.541	85.69
405.765	93.69
405.988	66.69
406.212	81.69
406.436	68.69
406.66	77.69
406.883	87.69
407.107	88.69
407.331	74.69
407.555	85.69
407.778	80.69
408.002	79.69
408.226	77.69
408.449	71.69
408.673	76.69
408.896	85.69
409.12	94.69
409.344	89.69
409.567	83.69
409.791	71.69
410.014	79.69
410.238	71.69
410.461	86.69
410.685	85.69
410.908	87.69
411.132	89.69
411.355	77.69
411.578	89.69
411.802	76.69
412.025	92.69
412.249	63.69
412.472	75.69
412.695	66.69
412.919	75.69
413.142	75.69
413.365	98.69
413.589	78.69
413.812	79.69
414.035	81.69
414.258	81.69
414.482	90.69
414.705	88.69
414.928	80.69
415.151	86.69
415.374	71.69
415.597	78.69
415.821	82.69
416.044	75.69
416.267	85.69
416.49	85.69
416.713	71.69
416.936	93.69
417.159	70.69
417.382	62.69
417.605	72.69
417.828	80.69
418.051	78.69
418.274	85.69
418.497	80.69
418.72	92.69
418.943	88.69
419.166	88.69
419.389	83.69
419.611	76.69
419.834	70.69
420.057	93.69
420.28	73.69
420.503	73.69
420.726	83.69
420.948	77.69
421.171	89.69
421.394	71.69
421.617	77.69
421.839	89.69
422.062	87.69
422.285	68.69
422.507	85.69
422.73	65.69
422.953	68.69
423.175	78.69
423.398	80.69
423.621	81.69
423.843	81.69
424.066	83.69
424.288	78.69
424.511	77.69
424.733	75.69
424.956	79.69
425.178	80.69
425.401	86.69
425.623	88.69
425.846	92.69
426.068	69.69
426.291	86.69
426.513	80.69
426.735	80.69
426.958	67.69
427.18	81.69
427.402	86.69
427.625	73.69
427.847	69.69
428.069	97.69
428.292	80.69
428.514	87.69
428.736	84.69
428.958	75.69
429.181	61.69
429.403	79.69
429.625	87.69
429.847	69.69
430.069	75.69
430.292	82.69
430.514	80.69
430.736	79.69
430.958	83.69
431.18	81.69
431.402	72.69
431.624	81.69
431.846	86.69
432.068	99.69
432.29	79.69
432.512	86.69
432.734	79.69
432.956	85.69
433.178	73.69
433.4	92.69
433.622	77.69
433.844	77.69
434.066	73.69
434.287	96.69
434.509	94.69
434.731	93.69
434.953	98.69
435.175	81.69
435.397	76.69
435.618	80.69
435.84	76.69
436.062	82.69
436.284	76.69
436.505	79.69
436.727	87.69
436.949	82.69
437.17	84.69
437.392	79.69
437.614	83.69
437.835	89.69
438.057	74.69
438.278	70.69
438.5	74.69
438.721	70.69
438.943	65.69
439.165	78.69
439.386	75.69
439.608	83.69
439.829	72.69
440.05	83.69
440.272	85.69
440.493	75.69
440.715	64.69
440.936	85.69
441.158	79.69
441.379	82.69
441.6	87.69
441.822	71.69
442.043	83.69
442.264	91.69
442.486	69.69
442.707	81.69
442.928	79.69
443.149	70.69
443.371	78.69
443.592	70.69
443.813	99.69
444.034	90.69
444.255	93.69
444.476	89.69
444.698	94.69
444.919	85.69
445.14	150.69
445.361	120.69
445.582	73.69
445.803	74.69
446.024	76.69
446.245	61.69
446.466	70.69
446.687	77.69
446.908	90.69
447.129	79.69
447.35	94.69
447.571	72.69
447.792	81.69
448.013	89.69
448.234	82.69
448.455	77.69
448.675	85.69
448.896	86.69
449.117	80.69
449.338	76.69
449.559	85.69
449.779	82.69
450	71.69
450.221	81.69
450.442	74.69
450.662	72.69
450.883	81.69
451.104	89.69
451.324	91.69
451.545	84.69
451.766	83.69
451.986	84.69
452.207	91.69
452.428	66.69
452.648	61.69
452.869	86.69
453.089	72.69
453.31	77.69
453.53	73.69
453.751	85.69
453.971	82.69
454.192	73.69
454.412	66.69
454.633	65.69
454.853	93.69
455.073	82.69
455.294	88.69
455.514	84.69
455.734	93.69
455.955	96.69
456.175	94.69
456.395	87.69
456.616	73.69
456.836	73.69
457.056	76.69
457.276	85.69
457.497	72.69
457.717	78.69
457.937	85.69
458.157	58.69
458.377	80.69
458.598	85.69
458.818	85.69
459.038	77.69
459.258	87.69
459.478	90.69
459.698	75.69
459.918	93.69
460.138	75.69
460.358	79.69
460.578	84.69
460.798	75.69
461.018	77.69
461.238	81.69
461.458	83.69
461.678	86.69
461.898	77.69
462.118	74.69
462.338	92.69
462.558	73.69
462.777	88.69
462.997	103.69
463.217	83.69
463.437	68.69
463.657	77.69
463.876	80.69
464.096	92.69
464.316	80.69
464.536	66.69
464.755	80.69
464.975	74.69
465.195	75.69
465.414	78.69
465.634	63.69
465.854	79.69
466.073	79.69
466.293	79.69
466.512	74.69
466.732	84.69
466.951	77.69
467.171	83.69
467.391	79.69
467.61	83.69
467.829	67.69
468.049	79.69
468.268	72.69
468.488	73.69
468.707	66.69
468.927	87.69
469.146	87.69
469.365	87.69
469.585	89.69
469.804	89.69
470.023	77.69
470.243	79.69
470.462	82.69
470.681	78.69
470.901	73.69
471.12	72.69
471.339	84.69
471.558	91.69
471.777	99.69
471.997	78.69
472.216	85.69
472.435	78.69
472.654	79.69
472.873	80.69
473.092	87.69
473.311	97.69
473.53	85.69
473.749	89.69
473.968	86.69
474.187	81.69
474.406	77.69
474.625	88.69
474.844	96.69
475.063	82.69
475.282	82.69
475.501	79.69
475.72	90.69
475.939	73.69
476.158	90.69
476.377	69.69
476.596	90.69
476.814	83.69
477.033	77.69
477.252	85.69
477.471	86.69
477.69	85.69
477.908	85.69
478.127	94.69
478.346	72.69
478.564	83.69
478.783	87.69
479.002	73.69
479.22	69.69
479.439	74.69
479.658	86.69
479.876	71.69
480.095	85.69
480.313	91.69
480.532	75.69
480.751	86.69
480.969	81.69
481.188	81.69
481.406	82.69
481.624	82.69
481.843	91.69
482.061	81.69
482.28	89.69
482.498	84.69
482.717	86.69
482.935	98.69
483.153	94.69
483.372	78.69
483.59	89.69
483.808	71.69
484.027	82.69
484.245	81.69
484.463	80.69
484.681	77.69
484.9	74.69
485.118	80.69
485.336	82.69
485.554	86.69
485.772	79.69
485.99	78.69
486.209	89.69
486.427	74.69
486.645	87.69
486.863	79.69
487.081	66.69
487.299	85.69
487.517	80.69
487.735	91.69
487.953	82.69
488.171	87.69
488.389	94.69
488.607	82.69
488.825	78.69
489.043	66.69
489.261	79.69
489.479	81.69
489.696	83.69
489.914	81.69
490.132	93.69
490.35	88.69
490.568	74.69
490.786	93.69
491.003	71.69
491.221	83.69
491.439	80.69
491.657	77.69
491.874	86.69
492.092	85.69
492.31	79.69
492.527	76.69
492.745	72.69
492.963	94.69
493.18	83.69
493.398	86.69
493.615	83.69
493.833	71.69
494.05	92.69
494.268	87.69
494.485	82.69
494.703	85.69
494.92	79.69
495.138	70.69
495.355	75.69
495.573	77.69
495.79	65.69
496.008	77.69
496.225	85.69
496.442	82.69
496.66	92.69
496.877	90.69
497.094	97.69
497.312	86.69
497.529	60.69
497.746	79.69
497.963	94.69
498.181	80.69
498.398	71.69
498.615	78.69
498.832	95.69
499.049	63.69
499.267	80.69
499.484	81.69
499.701	90.69
499.918	86.69
500.135	88.69
500.352	79.69
500.569	84.69
500.786	86.69
501.003	78.69
501.22	88.69
501.437	73.69
501.654	80.69
501.871	78.69
502.088	78.69
502.305	81.69
502.522	89.69
502.739	88.69
502.956	81.69
503.172	82.69
503.389	90.69
503.606	77.69
503.823	77.69
504.04	88.69
504.256	99.69
504.473	89.69
504.69	83.69
504.907	82.69
505.123	78.69
505.34	96.69
505.557	78.69
505.773	91.69
505.99	72.69
506.207	79.69
506.423	85.69
506.64	85.69
506.856	72.69
507.073	91.69
507.289	81.69
507.506	85.69
507.722	90.69
507.939	89.69
508.155	74.69
508.372	79.69
508.588	91.69
508.805	68.69
509.021	66.69
509.238	82.69
509.454	80.69
509.67	84.69
509.887	94.69
510.103	94.69
510.319	90.69
510.536	81.69
510.752	80.69
510.968	82.69
511.184	79.69
511.401	85.69
511.617	67.69
511.833	81.69
512.049	71.69
512.265	83.69
512.481	86.69
512.698	89.69
512.914	90.69
513.13	79.69
513.346	82.69
513.562	81.69
513.778	75.69
513.994	88.69
514.21	79.69
514.426	84.69
514.642	75.69
514.858	79.69
515.074	80.69
515.29	75.69
515.506	83.69
515.721	83.69
515.937	64.69
516.153	72.69
516.369	86.69
516.585	85.69
516.801	71.69
517.016	81.69
517.232	73.69
517.448	71.69
517.664	87.69
517.879	94.69
518.095	84.69
518.311	76.69
518.527	105.69
518.742	79.69
518.958	84.69
519.173	77.69
519.389	89.69
519.605	85.69
519.82	75.69
520.036	81.69
520.251	86.69
