Data from BG_HRD10591_024.txt Node
Date: Fri May 16 15:26:59 EDT 2025
User: Yrep
Spectrometer: HR+D1059
Trigger mode: 1
Integration Time (sec): 1.000000E-1
Scans to average: 1
Electric dark correction enabled: true
Nonlinearity correction enabled: false
Boxcar width: 0
XAxis mode: Wavelengths
Number of Pixels in Spectrum: 2048
>>>>>Begin Spectral Data<<<<<
223.165	-14.75
223.4	-14.75
223.635	-14.75
223.869	-10.75
224.104	-24.75
224.338	-18.75
224.573	-9.75
224.808	-15.75
225.042	-5.75
225.277	-6.75
225.511	4.25
225.746	-2.75
225.98	-9.75
226.215	-1.75
226.449	14.25
226.683	26.25
226.918	42.25
227.152	34.25
227.387	40.25
227.621	46.25
227.856	38.25
228.09	33.25
228.324	49.25
228.559	56.25
228.793	53.25
229.027	70.25
229.262	75.25
229.496	58.25
229.73	70.25
229.964	56.25
230.199	53.25
230.433	55.25
230.667	66.25
230.901	82.25
231.136	79.25
231.37	85.25
231.604	75.25
231.838	79.25
232.072	68.25
232.306	64.25
232.541	69.25
232.775	82.25
233.009	83.25
233.243	79.25
233.477	75.25
233.711	72.25
233.945	65.25
234.179	73.25
234.413	72.25
234.647	66.25
234.881	94.25
235.115	75.25
235.349	74.25
235.583	73.25
235.817	74.25
236.051	65.25
236.285	69.25
236.519	50.25
236.753	70.25
236.987	75.25
237.221	79.25
237.455	81.25
237.689	77.25
237.922	79.25
238.156	73.25
238.39	76.25
238.624	73.25
238.858	63.25
239.091	77.25
239.325	85.25
239.559	73.25
239.793	79.25
240.027	64.25
240.26	84.25
240.494	75.25
240.728	69.25
240.961	70.25
241.195	86.25
241.429	65.25
241.662	63.25
241.896	60.25
242.13	88.25
242.363	63.25
242.597	70.25
242.83	71.25
243.064	84.25
243.298	77.25
243.531	73.25
243.765	74.25
243.998	84.25
244.232	81.25
244.465	62.25
244.699	89.25
244.932	81.25
245.166	73.25
245.399	71.25
245.633	80.25
245.866	74.25
246.099	70.25
246.333	70.25
246.566	78.25
246.8	80.25
247.033	74.25
247.266	77.25
247.5	80.25
247.733	81.25
247.966	67.25
248.2	71.25
248.433	73.25
248.666	79.25
248.899	70.25
249.133	77.25
249.366	70.25
249.599	66.25
249.832	70.25
250.066	63.25
250.299	65.25
250.532	79.25
250.765	78.25
250.998	75.25
251.231	76.25
251.465	69.25
251.698	79.25
251.931	67.25
252.164	63.25
252.397	65.25
252.63	83.25
252.863	74.25
253.096	65.25
253.329	90.25
253.562	83.25
253.795	73.25
254.028	75.25
254.261	76.25
254.494	76.25
254.727	67.25
254.96	81.25
255.193	82.25
255.426	76.25
255.659	67.25
255.892	88.25
256.124	81.25
256.357	66.25
256.59	77.25
256.823	69.25
257.056	73.25
257.289	65.25
257.521	75.25
257.754	69.25
257.987	77.25
258.22	79.25
258.452	80.25
258.685	77.25
258.918	90.25
259.151	63.25
259.383	85.25
259.616	75.25
259.849	58.25
260.081	90.25
260.314	60.25
260.547	69.25
260.779	75.25
261.012	77.25
261.244	69.25
261.477	75.25
261.71	77.25
261.942	84.25
262.175	80.25
262.407	75.25
262.64	84.25
262.872	75.25
263.105	78.25
263.337	81.25
263.57	80.25
263.802	87.25
264.035	84.25
264.267	64.25
264.499	86.25
264.732	87.25
264.964	81.25
265.197	79.25
265.429	81.25
265.661	55.25
265.894	74.25
266.126	77.25
266.358	79.25
266.591	86.25
266.823	80.25
267.055	70.25
267.287	83.25
267.52	87.25
267.752	77.25
267.984	82.25
268.216	81.25
268.448	97.25
268.681	81.25
268.913	82.25
269.145	89.25
269.377	81.25
269.609	72.25
269.841	59.25
270.073	73.25
270.306	75.25
270.538	74.25
270.77	79.25
271.002	83.25
271.234	74.25
271.466	79.25
271.698	81.25
271.93	71.25
272.162	88.25
272.394	93.25
272.626	67.25
272.858	72.25
273.09	90.25
273.322	63.25
273.553	73.25
273.785	90.25
274.017	75.25
274.249	71.25
274.481	82.25
274.713	84.25
274.945	84.25
275.176	77.25
275.408	73.25
275.64	77.25
275.872	75.25
276.104	80.25
276.335	74.25
276.567	85.25
276.799	81.25
277.031	88.25
277.262	91.25
277.494	82.25
277.726	79.25
277.957	84.25
278.189	57.25
278.421	89.25
278.652	97.25
278.884	88.25
279.115	80.25
279.347	74.25
279.579	75.25
279.81	74.25
280.042	93.25
280.273	93.25
280.505	76.25
280.736	73.25
280.968	66.25
281.199	79.25
281.431	90.25
281.662	73.25
281.894	82.25
282.125	88.25
282.356	63.25
282.588	74.25
282.819	70.25
283.051	83.25
283.282	72.25
283.513	75.25
283.745	82.25
283.976	74.25
284.207	85.25
284.439	83.25
284.67	77.25
284.901	85.25
285.132	83.25
285.364	78.25
285.595	78.25
285.826	78.25
286.057	88.25
286.288	78.25
286.52	89.25
286.751	75.25
286.982	77.25
287.213	72.25
287.444	85.25
287.675	102.25
287.906	71.25
288.138	85.25
288.369	86.25
288.6	74.25
288.831	83.25
289.062	89.25
289.293	71.25
289.524	82.25
289.755	77.25
289.986	83.25
290.217	71.25
290.448	80.25
290.679	78.25
290.91	73.25
291.141	77.25
291.371	76.25
291.602	94.25
291.833	74.25
292.064	68.25
292.295	70.25
292.526	73.25
292.757	73.25
292.987	74.25
293.218	87.25
293.449	81.25
293.68	80.25
293.91	64.25
294.141	92.25
294.372	90.25
294.603	87.25
294.833	77.25
295.064	80.25
295.295	69.25
295.525	80.25
295.756	90.25
295.987	66.25
296.217	87.25
296.448	91.25
296.679	101.25
296.909	81.25
297.14	92.25
297.37	85.25
297.601	77.25
297.831	84.25
298.062	73.25
298.292	77.25
298.523	86.25
298.753	76.25
298.984	81.25
299.214	92.25
299.445	89.25
299.675	92.25
299.905	81.25
300.136	87.25
300.366	74.25
300.597	61.25
300.827	71.25
301.057	91.25
301.288	73.25
301.518	82.25
301.748	72.25
301.979	90.25
302.209	86.25
302.439	84.25
302.669	71.25
302.9	81.25
303.13	76.25
303.36	78.25
303.59	74.25
303.82	89.25
304.051	85.25
304.281	89.25
304.511	92.25
304.741	70.25
304.971	90.25
305.201	79.25
305.431	85.25
305.661	84.25
305.891	78.25
306.121	77.25
306.352	73.25
306.582	91.25
306.812	83.25
307.042	87.25
307.272	80.25
307.502	55.25
307.731	77.25
307.961	82.25
308.191	90.25
308.421	81.25
308.651	84.25
308.881	86.25
309.111	74.25
309.341	84.25
309.571	75.25
309.8	92.25
310.03	85.25
310.26	84.25
310.49	83.25
310.72	93.25
310.949	68.25
311.179	82.25
311.409	97.25
311.639	80.25
311.868	75.25
312.098	76.25
312.328	86.25
312.557	77.25
312.787	77.25
313.017	76.25
313.246	69.25
313.476	85.25
313.706	77.25
313.935	76.25
314.165	74.25
314.394	88.25
314.624	87.25
314.853	78.25
315.083	89.25
315.312	81.25
315.542	78.25
315.771	82.25
316.001	83.25
316.23	68.25
316.46	64.25
316.689	83.25
316.919	88.25
317.148	71.25
317.377	91.25
317.607	83.25
317.836	80.25
318.065	83.25
318.295	82.25
318.524	92.25
318.753	71.25
318.983	78.25
319.212	87.25
319.441	63.25
319.67	90.25
319.9	78.25
320.129	81.25
320.358	68.25
320.587	71.25
320.816	85.25
321.046	94.25
321.275	63.25
321.504	63.25
321.733	82.25
321.962	84.25
322.191	82.25
322.42	81.25
322.649	92.25
322.878	78.25
323.108	89.25
323.337	91.25
323.566	82.25
323.795	91.25
324.024	75.25
324.253	90.25
324.482	75.25
324.71	86.25
324.939	79.25
325.168	97.25
325.397	82.25
325.626	91.25
325.855	72.25
326.084	78.25
326.313	82.25
326.542	81.25
326.77	83.25
326.999	76.25
327.228	86.25
327.457	83.25
327.686	98.25
327.914	86.25
328.143	82.25
328.372	79.25
328.6	86.25
328.829	81.25
329.058	74.25
329.287	81.25
329.515	91.25
329.744	81.25
329.972	81.25
330.201	84.25
330.43	85.25
330.658	80.25
330.887	74.25
331.115	82.25
331.344	102.25
331.572	83.25
331.801	71.25
332.03	74.25
332.258	77.25
332.486	72.25
332.715	72.25
332.943	79.25
333.172	80.25
333.4	73.25
333.629	78.25
333.857	91.25
334.085	85.25
334.314	82.25
334.542	88.25
334.771	89.25
334.999	78.25
335.227	73.25
335.455	88.25
335.684	77.25
335.912	60.25
336.14	75.25
336.369	78.25
336.597	75.25
336.825	90.25
337.053	82.25
337.281	95.25
337.51	84.25
337.738	83.25
337.966	69.25
338.194	78.25
338.422	87.25
338.65	94.25
338.878	86.25
339.106	78.25
339.334	75.25
339.562	79.25
339.79	70.25
340.018	74.25
340.246	85.25
340.474	75.25
340.702	76.25
340.93	97.25
341.158	75.25
341.386	88.25
341.614	75.25
341.842	63.25
342.07	78.25
342.298	82.25
342.526	86.25
342.754	66.25
342.981	85.25
343.209	82.25
343.437	92.25
343.665	78.25
343.893	87.25
344.12	87.25
344.348	81.25
344.576	76.25
344.804	87.25
345.031	90.25
345.259	89.25
345.487	87.25
345.714	93.25
345.942	73.25
346.17	90.25
346.397	73.25
346.625	85.25
346.853	86.25
347.08	89.25
347.308	76.25
347.535	70.25
347.763	85.25
347.99	58.25
348.218	91.25
348.445	82.25
348.673	73.25
348.9	82.25
349.128	84.25
349.355	76.25
349.583	81.25
349.81	88.25
350.037	89.25
350.265	76.25
350.492	78.25
350.72	74.25
350.947	80.25
351.174	101.25
351.402	86.25
351.629	92.25
351.856	84.25
352.083	78.25
352.311	75.25
352.538	85.25
352.765	87.25
352.992	86.25
353.22	80.25
353.447	78.25
353.674	76.25
353.901	79.25
354.128	85.25
354.355	82.25
354.583	92.25
354.81	75.25
355.037	103.25
355.264	77.25
355.491	84.25
355.718	101.25
355.945	89.25
356.172	83.25
356.399	73.25
356.626	62.25
356.853	81.25
357.08	72.25
357.307	91.25
357.534	76.25
357.761	84.25
357.988	82.25
358.215	84.25
358.441	80.25
358.668	90.25
358.895	84.25
359.122	75.25
359.349	74.25
359.576	67.25
359.802	79.25
360.029	77.25
360.256	77.25
360.483	75.25
360.709	72.25
360.936	85.25
361.163	75.25
361.39	100.25
361.616	75.25
361.843	75.25
362.07	70.25
362.296	72.25
362.523	91.25
362.749	84.25
362.976	80.25
363.203	82.25
363.429	71.25
363.656	77.25
363.882	76.25
364.109	81.25
364.335	83.25
364.562	86.25
364.788	73.25
365.015	80.25
365.241	93.25
365.468	79.25
365.694	83.25
365.92	77.25
366.147	90.25
366.373	83.25
366.599	73.25
366.826	77.25
367.052	95.25
367.278	86.25
367.505	89.25
367.731	84.25
367.957	74.25
368.184	71.25
368.41	72.25
368.636	91.25
368.862	78.25
369.089	74.25
369.315	70.25
369.541	81.25
369.767	83.25
369.993	85.25
370.219	78.25
370.445	71.25
370.672	83.25
370.898	100.25
371.124	81.25
371.35	83.25
371.576	81.25
371.802	82.25
372.028	75.25
372.254	88.25
372.48	86.25
372.706	83.25
372.932	55.25
373.158	72.25
373.384	80.25
373.61	97.25
373.835	86.25
374.061	78.25
374.287	65.25
374.513	78.25
374.739	70.25
374.965	86.25
375.191	92.25
375.416	92.25
375.642	92.25
375.868	91.25
376.094	76.25
376.319	95.25
376.545	98.25
376.771	71.25
376.997	70.25
377.222	86.25
377.448	80.25
377.674	91.25
377.899	77.25
378.125	85.25
378.35	87.25
378.576	87.25
378.802	77.25
379.027	92.25
379.253	94.25
379.478	75.25
379.704	84.25
379.929	69.25
380.155	81.25
380.38	67.25
380.606	75.25
380.831	78.25
381.057	84.25
381.282	83.25
381.507	78.25
381.733	77.25
381.958	87.25
382.184	87.25
382.409	89.25
382.634	75.25
382.86	66.25
383.085	88.25
383.31	82.25
383.535	88.25
383.761	80.25
383.986	71.25
384.211	77.25
384.436	72.25
384.662	78.25
384.887	73.25
385.112	86.25
385.337	81.25
385.562	78.25
385.787	69.25
386.013	94.25
386.238	83.25
386.463	79.25
386.688	101.25
386.913	94.25
387.138	76.25
387.363	84.25
387.588	72.25
387.813	69.25
388.038	86.25
388.263	84.25
388.488	83.25
388.713	79.25
388.938	89.25
389.163	76.25
389.387	85.25
389.612	103.25
389.837	83.25
390.062	70.25
390.287	71.25
390.512	62.25
390.736	74.25
390.961	80.25
391.186	75.25
391.411	79.25
391.636	80.25
391.86	84.25
392.085	77.25
392.31	61.25
392.534	82.25
392.759	73.25
392.984	88.25
393.208	89.25
393.433	81.25
393.658	84.25
393.882	75.25
394.107	82.25
394.331	85.25
394.556	73.25
394.78	69.25
395.005	70.25
395.229	79.25
395.454	78.25
395.678	76.25
395.903	60.25
396.127	79.25
396.352	93.25
396.576	59.25
396.801	73.25
397.025	76.25
397.249	74.25
397.474	70.25
397.698	70.25
397.922	93.25
398.147	71.25
398.371	87.25
398.595	75.25
398.82	81.25
399.044	84.25
399.268	64.25
399.492	80.25
399.717	78.25
399.941	78.25
400.165	75.25
400.389	78.25
400.613	82.25
400.837	70.25
401.062	81.25
401.286	77.25
401.51	87.25
401.734	81.25
401.958	65.25
402.182	77.25
402.406	74.25
402.63	78.25
402.854	86.25
403.078	79.25
403.302	72.25
403.526	75.25
403.75	74.25
403.974	74.25
404.198	78.25
404.422	92.25
404.645	69.25
404.869	87.25
405.093	93.25
405.317	84.25
405.541	67.25
405.765	61.25
405.988	72.25
406.212	75.25
406.436	67.25
406.66	79.25
406.883	83.25
407.107	82.25
407.331	71.25
407.555	85.25
407.778	89.25
408.002	90.25
408.226	72.25
408.449	71.25
408.673	75.25
408.896	84.25
409.12	78.25
409.344	82.25
409.567	71.25
409.791	77.25
410.014	58.25
410.238	73.25
410.461	79.25
410.685	78.25
410.908	86.25
411.132	89.25
411.355	71.25
411.578	76.25
411.802	82.25
412.025	73.25
412.249	67.25
412.472	72.25
412.695	74.25
412.919	84.25
413.142	84.25
413.365	79.25
413.589	77.25
413.812	67.25
414.035	69.25
414.258	80.25
414.482	73.25
414.705	68.25
414.928	84.25
415.151	82.25
415.374	68.25
415.597	74.25
415.821	85.25
416.044	89.25
416.267	80.25
416.49	88.25
416.713	74.25
416.936	67.25
417.159	79.25
417.382	91.25
417.605	70.25
417.828	89.25
418.051	66.25
418.274	69.25
418.497	81.25
418.72	80.25
418.943	82.25
419.166	87.25
419.389	72.25
419.611	67.25
419.834	74.25
420.057	67.25
420.28	83.25
420.503	81.25
420.726	71.25
420.948	90.25
421.171	85.25
421.394	79.25
421.617	88.25
421.839	72.25
422.062	59.25
422.285	80.25
422.507	75.25
422.73	86.25
422.953	73.25
423.175	79.25
423.398	76.25
423.621	63.25
423.843	70.25
424.066	78.25
424.288	74.25
424.511	65.25
424.733	75.25
424.956	65.25
425.178	71.25
425.401	83.25
425.623	73.25
425.846	77.25
426.068	84.25
426.291	77.25
426.513	73.25
426.735	78.25
426.958	89.25
427.18	81.25
427.402	74.25
427.625	78.25
427.847	80.25
428.069	75.25
428.292	67.25
428.514	79.25
428.736	67.25
428.958	79.25
429.181	77.25
429.403	73.25
429.625	92.25
429.847	88.25
430.069	70.25
430.292	77.25
430.514	74.25
430.736	67.25
430.958	84.25
431.18	73.25
431.402	72.25
431.624	64.25
431.846	76.25
432.068	83.25
432.29	74.25
432.512	75.25
432.734	71.25
432.956	79.25
433.178	91.25
433.4	70.25
433.622	77.25
433.844	69.25
434.066	95.25
434.287	77.25
434.509	87.25
434.731	75.25
434.953	82.25
435.175	74.25
435.397	68.25
435.618	78.25
435.84	49.25
436.062	61.25
436.284	70.25
436.505	77.25
436.727	83.25
436.949	83.25
437.17	84.25
437.392	66.25
437.614	81.25
437.835	85.25
438.057	83.25
438.278	67.25
438.5	61.25
438.721	87.25
438.943	78.25
439.165	77.25
439.386	69.25
439.608	84.25
439.829	76.25
440.05	90.25
440.272	70.25
440.493	89.25
440.715	84.25
440.936	74.25
441.158	85.25
441.379	69.25
441.6	65.25
441.822	79.25
442.043	78.25
442.264	79.25
442.486	89.25
442.707	69.25
442.928	75.25
443.149	85.25
443.371	78.25
443.592	74.25
443.813	66.25
444.034	68.25
444.255	81.25
444.476	78.25
444.698	73.25
444.919	79.25
445.14	146.25
445.361	109.25
445.582	80.25
445.803	91.25
446.024	89.25
446.245	90.25
446.466	78.25
446.687	80.25
446.908	81.25
447.129	80.25
447.35	88.25
447.571	73.25
447.792	68.25
448.013	70.25
448.234	82.25
448.455	85.25
448.675	84.25
448.896	84.25
449.117	76.25
449.338	72.25
449.559	78.25
449.779	81.25
450	81.25
450.221	86.25
450.442	77.25
450.662	78.25
450.883	74.25
451.104	76.25
451.324	69.25
451.545	68.25
451.766	73.25
451.986	62.25
452.207	75.25
452.428	73.25
452.648	82.25
452.869	80.25
453.089	81.25
453.31	102.25
453.53	83.25
453.751	77.25
453.971	83.25
454.192	73.25
454.412	67.25
454.633	72.25
454.853	83.25
455.073	71.25
455.294	59.25
455.514	67.25
455.734	66.25
455.955	75.25
456.175	86.25
456.395	77.25
456.616	75.25
456.836	76.25
457.056	87.25
457.276	62.25
457.497	71.25
457.717	85.25
457.937	89.25
458.157	83.25
458.377	71.25
458.598	76.25
458.818	80.25
459.038	78.25
459.258	78.25
459.478	72.25
459.698	81.25
459.918	77.25
460.138	79.25
460.358	84.25
460.578	73.25
460.798	75.25
461.018	98.25
461.238	78.25
461.458	75.25
461.678	79.25
461.898	85.25
462.118	82.25
462.338	91.25
462.558	73.25
462.777	84.25
462.997	64.25
463.217	77.25
463.437	77.25
463.657	79.25
463.876	82.25
464.096	77.25
464.316	83.25
464.536	79.25
464.755	83.25
464.975	92.25
465.195	83.25
465.414	62.25
465.634	77.25
465.854	78.25
466.073	89.25
466.293	62.25
466.512	77.25
466.732	74.25
466.951	71.25
467.171	85.25
467.391	76.25
467.61	77.25
467.829	75.25
468.049	72.25
468.268	99.25
468.488	73.25
468.707	79.25
468.927	79.25
469.146	69.25
469.365	77.25
469.585	69.25
469.804	82.25
470.023	62.25
470.243	54.25
470.462	86.25
470.681	93.25
470.901	87.25
471.12	77.25
471.339	83.25
471.558	59.25
471.777	79.25
471.997	72.25
472.216	78.25
472.435	83.25
472.654	79.25
472.873	79.25
473.092	75.25
473.311	73.25
473.53	77.25
473.749	83.25
473.968	78.25
474.187	85.25
474.406	75.25
474.625	82.25
474.844	81.25
475.063	83.25
475.282	84.25
475.501	73.25
475.72	75.25
475.939	77.25
476.158	86.25
476.377	89.25
476.596	62.25
476.814	76.25
477.033	83.25
477.252	81.25
477.471	82.25
477.69	70.25
477.908	77.25
478.127	77.25
478.346	76.25
478.564	83.25
478.783	80.25
479.002	79.25
479.22	71.25
479.439	76.25
479.658	87.25
479.876	89.25
480.095	80.25
480.313	71.25
480.532	86.25
480.751	80.25
480.969	83.25
481.188	80.25
481.406	63.25
481.624	78.25
481.843	82.25
482.061	61.25
482.28	75.25
482.498	71.25
482.717	84.25
482.935	81.25
483.153	85.25
483.372	68.25
483.59	84.25
483.808	82.25
484.027	77.25
484.245	85.25
484.463	87.25
484.681	86.25
484.9	70.25
485.118	89.25
485.336	73.25
485.554	77.25
485.772	76.25
485.99	76.25
486.209	73.25
486.427	70.25
486.645	73.25
486.863	62.25
487.081	84.25
487.299	99.25
487.517	98.25
487.735	82.25
487.953	75.25
488.171	77.25
488.389	71.25
488.607	80.25
488.825	71.25
489.043	77.25
489.261	75.25
489.479	82.25
489.696	82.25
489.914	69.25
490.132	75.25
490.35	73.25
490.568	66.25
490.786	69.25
491.003	73.25
491.221	68.25
491.439	71.25
491.657	97.25
491.874	85.25
492.092	92.25
492.31	63.25
492.527	72.25
492.745	71.25
492.963	64.25
493.18	79.25
493.398	73.25
493.615	69.25
493.833	79.25
494.05	72.25
494.268	80.25
494.485	87.25
494.703	71.25
494.92	69.25
495.138	84.25
495.355	76.25
495.573	82.25
495.79	81.25
496.008	92.25
496.225	76.25
496.442	66.25
496.66	85.25
496.877	67.25
497.094	86.25
497.312	73.25
497.529	83.25
497.746	86.25
497.963	71.25
498.181	79.25
498.398	72.25
498.615	90.25
498.832	87.25
499.049	86.25
499.267	78.25
499.484	74.25
499.701	78.25
499.918	82.25
500.135	84.25
500.352	77.25
500.569	58.25
500.786	93.25
501.003	81.25
501.22	76.25
501.437	70.25
501.654	77.25
501.871	78.25
502.088	83.25
502.305	85.25
502.522	83.25
502.739	94.25
502.956	79.25
503.172	81.25
503.389	77.25
503.606	91.25
503.823	93.25
504.04	90.25
504.256	78.25
504.473	75.25
504.69	67.25
504.907	89.25
505.123	87.25
505.34	82.25
505.557	73.25
505.773	87.25
505.99	87.25
506.207	81.25
506.423	66.25
506.64	81.25
506.856	90.25
507.073	75.25
507.289	82.25
507.506	81.25
507.722	70.25
507.939	78.25
508.155	87.25
508.372	76.25
508.588	83.25
508.805	81.25
509.021	89.25
509.238	82.25
509.454	74.25
509.67	74.25
509.887	78.25
510.103	74.25
510.319	83.25
510.536	79.25
510.752	87.25
510.968	91.25
511.184	77.25
511.401	71.25
511.617	83.25
511.833	78.25
512.049	77.25
512.265	83.25
512.481	83.25
512.698	81.25
512.914	94.25
513.13	69.25
513.346	85.25
513.562	72.25
513.778	71.25
513.994	89.25
514.21	84.25
514.426	77.25
514.642	78.25
514.858	82.25
515.074	73.25
515.29	81.25
515.506	82.25
515.721	76.25
515.937	82.25
516.153	78.25
516.369	71.25
516.585	81.25
516.801	73.25
517.016	83.25
517.232	77.25
517.448	69.25
517.664	88.25
517.879	79.25
518.095	67.25
518.311	82.25
518.527	93.25
518.742	66.25
518.958	91.25
519.173	79.25
519.389	75.25
519.605	72.25
519.82	79.25
520.036	74.25
520.251	73.25
