Data from BG_HRD10591_014.txt Node
Date: Fri May 16 15:26:54 EDT 2025
User: Yrep
Spectrometer: HR+D1059
Trigger mode: 1
Integration Time (sec): 1.000000E-1
Scans to average: 1
Electric dark correction enabled: true
Nonlinearity correction enabled: false
Boxcar width: 0
XAxis mode: Wavelengths
Number of Pixels in Spectrum: 2048
>>>>>Begin Spectral Data<<<<<
223.165	-7.56
223.4	-7.56
223.635	-7.56
223.869	-10.56
224.104	-24.56
224.338	-12.56
224.573	-16.56
224.808	-29.56
225.042	-13.56
225.277	-16.56
225.511	-1.56
225.746	-4.56
225.98	9.44
226.215	33.44
226.449	14.44
226.683	15.44
226.918	32.44
227.152	32.44
227.387	32.44
227.621	35.44
227.856	51.44
228.09	49.44
228.324	61.44
228.559	69.44
228.793	52.44
229.027	58.44
229.262	72.44
229.496	61.44
229.73	88.44
229.964	71.44
230.199	69.44
230.433	76.44
230.667	66.44
230.901	86.44
231.136	76.44
231.37	82.44
231.604	78.44
231.838	64.44
232.072	82.44
232.306	82.44
232.541	79.44
232.775	79.44
233.009	88.44
233.243	91.44
233.477	66.44
233.711	74.44
233.945	79.44
234.179	76.44
234.413	92.44
234.647	90.44
234.881	84.44
235.115	80.44
235.349	82.44
235.583	86.44
235.817	70.44
236.051	84.44
236.285	70.44
236.519	87.44
236.753	81.44
236.987	81.44
237.221	79.44
237.455	69.44
237.689	67.44
237.922	80.44
238.156	77.44
238.39	61.44
238.624	86.44
238.858	80.44
239.091	76.44
239.325	64.44
239.559	78.44
239.793	82.44
240.027	81.44
240.26	68.44
240.494	80.44
240.728	79.44
240.961	81.44
241.195	79.44
241.429	76.44
241.662	88.44
241.896	67.44
242.13	79.44
242.363	93.44
242.597	72.44
242.83	73.44
243.064	100.44
243.298	79.44
243.531	79.44
243.765	77.44
243.998	78.44
244.232	66.44
244.465	67.44
244.699	77.44
244.932	80.44
245.166	86.44
245.399	90.44
245.633	91.44
245.866	80.44
246.099	78.44
246.333	84.44
246.566	88.44
246.8	82.44
247.033	80.44
247.266	83.44
247.5	81.44
247.733	76.44
247.966	81.44
248.2	74.44
248.433	73.44
248.666	80.44
248.899	61.44
249.133	73.44
249.366	80.44
249.599	80.44
249.832	76.44
250.066	75.44
250.299	68.44
250.532	69.44
250.765	101.44
250.998	77.44
251.231	83.44
251.465	90.44
251.698	80.44
251.931	89.44
252.164	82.44
252.397	76.44
252.63	86.44
252.863	78.44
253.096	94.44
253.329	87.44
253.562	84.44
253.795	84.44
254.028	91.44
254.261	97.44
254.494	88.44
254.727	77.44
254.96	78.44
255.193	84.44
255.426	89.44
255.659	67.44
255.892	73.44
256.124	86.44
256.357	78.44
256.59	84.44
256.823	82.44
257.056	88.44
257.289	84.44
257.521	91.44
257.754	74.44
257.987	83.44
258.22	86.44
258.452	85.44
258.685	87.44
258.918	87.44
259.151	79.44
259.383	84.44
259.616	86.44
259.849	91.44
260.081	82.44
260.314	82.44
260.547	84.44
260.779	72.44
261.012	75.44
261.244	82.44
261.477	73.44
261.71	78.44
261.942	95.44
262.175	98.44
262.407	73.44
262.64	80.44
262.872	78.44
263.105	86.44
263.337	91.44
263.57	86.44
263.802	99.44
264.035	86.44
264.267	79.44
264.499	90.44
264.732	91.44
264.964	76.44
265.197	80.44
265.429	67.44
265.661	87.44
265.894	90.44
266.126	94.44
266.358	90.44
266.591	86.44
266.823	85.44
267.055	78.44
267.287	83.44
267.52	82.44
267.752	86.44
267.984	90.44
268.216	81.44
268.448	75.44
268.681	82.44
268.913	79.44
269.145	78.44
269.377	86.44
269.609	78.44
269.841	86.44
270.073	78.44
270.306	87.44
270.538	93.44
270.77	81.44
271.002	78.44
271.234	88.44
271.466	103.44
271.698	89.44
271.93	76.44
272.162	97.44
272.394	88.44
272.626	83.44
272.858	72.44
273.09	97.44
273.322	83.44
273.553	96.44
273.785	98.44
274.017	78.44
274.249	83.44
274.481	83.44
274.713	97.44
274.945	83.44
275.176	100.44
275.408	78.44
275.64	82.44
275.872	93.44
276.104	86.44
276.335	86.44
276.567	71.44
276.799	86.44
277.031	72.44
277.262	83.44
277.494	84.44
277.726	96.44
277.957	66.44
278.189	86.44
278.421	96.44
278.652	96.44
278.884	110.44
279.115	95.44
279.347	104.44
279.579	97.44
279.81	104.44
280.042	80.44
280.273	77.44
280.505	84.44
280.736	67.44
280.968	89.44
281.199	75.44
281.431	94.44
281.662	104.44
281.894	96.44
282.125	79.44
282.356	100.44
282.588	87.44
282.819	91.44
283.051	82.44
283.282	77.44
283.513	96.44
283.745	81.44
283.976	88.44
284.207	105.44
284.439	82.44
284.67	90.44
284.901	92.44
285.132	97.44
285.364	81.44
285.595	98.44
285.826	90.44
286.057	88.44
286.288	92.44
286.52	88.44
286.751	79.44
286.982	81.44
287.213	88.44
287.444	95.44
287.675	102.44
287.906	99.44
288.138	79.44
288.369	94.44
288.6	86.44
288.831	94.44
289.062	87.44
289.293	92.44
289.524	90.44
289.755	92.44
289.986	96.44
290.217	82.44
290.448	94.44
290.679	90.44
290.91	75.44
291.141	92.44
291.371	90.44
291.602	87.44
291.833	99.44
292.064	73.44
292.295	79.44
292.526	87.44
292.757	79.44
292.987	83.44
293.218	83.44
293.449	103.44
293.68	85.44
293.91	97.44
294.141	102.44
294.372	85.44
294.603	99.44
294.833	96.44
295.064	73.44
295.295	84.44
295.525	86.44
295.756	91.44
295.987	106.44
296.217	83.44
296.448	100.44
296.679	83.44
296.909	86.44
297.14	89.44
297.37	109.44
297.601	81.44
297.831	89.44
298.062	84.44
298.292	82.44
298.523	98.44
298.753	79.44
298.984	91.44
299.214	82.44
299.445	85.44
299.675	97.44
299.905	95.44
300.136	93.44
300.366	90.44
300.597	86.44
300.827	98.44
301.057	87.44
301.288	90.44
301.518	85.44
301.748	92.44
301.979	105.44
302.209	96.44
302.439	94.44
302.669	81.44
302.9	84.44
303.13	97.44
303.36	94.44
303.59	97.44
303.82	95.44
304.051	95.44
304.281	98.44
304.511	87.44
304.741	86.44
304.971	88.44
305.201	89.44
305.431	86.44
305.661	77.44
305.891	96.44
306.121	89.44
306.352	101.44
306.582	79.44
306.812	86.44
307.042	85.44
307.272	80.44
307.502	84.44
307.731	94.44
307.961	92.44
308.191	93.44
308.421	92.44
308.651	99.44
308.881	79.44
309.111	85.44
309.341	94.44
309.571	82.44
309.8	88.44
310.03	87.44
310.26	87.44
310.49	97.44
310.72	86.44
310.949	95.44
311.179	90.44
311.409	96.44
311.639	77.44
311.868	84.44
312.098	107.44
312.328	97.44
312.557	88.44
312.787	81.44
313.017	71.44
313.246	85.44
313.476	90.44
313.706	89.44
313.935	83.44
314.165	98.44
314.394	88.44
314.624	93.44
314.853	90.44
315.083	85.44
315.312	65.44
315.542	87.44
315.771	98.44
316.001	88.44
316.23	86.44
316.46	85.44
316.689	83.44
316.919	82.44
317.148	81.44
317.377	104.44
317.607	88.44
317.836	79.44
318.065	82.44
318.295	94.44
318.524	71.44
318.753	96.44
318.983	106.44
319.212	102.44
319.441	80.44
319.67	96.44
319.9	78.44
320.129	90.44
320.358	97.44
320.587	86.44
320.816	88.44
321.046	74.44
321.275	107.44
321.504	86.44
321.733	100.44
321.962	97.44
322.191	88.44
322.42	88.44
322.649	84.44
322.878	90.44
323.108	73.44
323.337	86.44
323.566	93.44
323.795	94.44
324.024	78.44
324.253	78.44
324.482	82.44
324.71	87.44
324.939	79.44
325.168	93.44
325.397	94.44
325.626	95.44
325.855	90.44
326.084	88.44
326.313	87.44
326.542	78.44
326.77	80.44
326.999	75.44
327.228	83.44
327.457	96.44
327.686	88.44
327.914	85.44
328.143	93.44
328.372	88.44
328.6	81.44
328.829	96.44
329.058	94.44
329.287	77.44
329.515	82.44
329.744	87.44
329.972	90.44
330.201	88.44
330.43	95.44
330.658	104.44
330.887	99.44
331.115	85.44
331.344	88.44
331.572	92.44
331.801	87.44
332.03	83.44
332.258	96.44
332.486	80.44
332.715	79.44
332.943	92.44
333.172	79.44
333.4	88.44
333.629	110.44
333.857	99.44
334.085	95.44
334.314	93.44
334.542	99.44
334.771	100.44
334.999	84.44
335.227	80.44
335.455	100.44
335.684	86.44
335.912	98.44
336.14	92.44
336.369	84.44
336.597	81.44
336.825	78.44
337.053	74.44
337.281	88.44
337.51	99.44
337.738	96.44
337.966	91.44
338.194	89.44
338.422	104.44
338.65	99.44
338.878	106.44
339.106	99.44
339.334	94.44
339.562	95.44
339.79	74.44
340.018	95.44
340.246	91.44
340.474	87.44
340.702	90.44
340.93	97.44
341.158	105.44
341.386	83.44
341.614	84.44
341.842	82.44
342.07	92.44
342.298	97.44
342.526	91.44
342.754	91.44
342.981	88.44
343.209	86.44
343.437	104.44
343.665	95.44
343.893	94.44
344.12	82.44
344.348	84.44
344.576	92.44
344.804	89.44
345.031	90.44
345.259	90.44
345.487	82.44
345.714	83.44
345.942	84.44
346.17	88.44
346.397	77.44
346.625	82.44
346.853	91.44
347.08	87.44
347.308	94.44
347.535	78.44
347.763	85.44
347.99	99.44
348.218	93.44
348.445	89.44
348.673	88.44
348.9	96.44
349.128	90.44
349.355	91.44
349.583	102.44
349.81	86.44
350.037	86.44
350.265	87.44
350.492	88.44
350.72	92.44
350.947	102.44
351.174	88.44
351.402	85.44
351.629	86.44
351.856	89.44
352.083	91.44
352.311	89.44
352.538	97.44
352.765	98.44
352.992	93.44
353.22	86.44
353.447	78.44
353.674	83.44
353.901	80.44
354.128	89.44
354.355	81.44
354.583	91.44
354.81	89.44
355.037	92.44
355.264	93.44
355.491	96.44
355.718	80.44
355.945	93.44
356.172	72.44
356.399	82.44
356.626	81.44
356.853	91.44
357.08	98.44
357.307	90.44
357.534	78.44
357.761	91.44
357.988	95.44
358.215	95.44
358.441	95.44
358.668	80.44
358.895	90.44
359.122	99.44
359.349	94.44
359.576	98.44
359.802	75.44
360.029	103.44
360.256	82.44
360.483	83.44
360.709	103.44
360.936	95.44
361.163	88.44
361.39	79.44
361.616	90.44
361.843	88.44
362.07	85.44
362.296	92.44
362.523	94.44
362.749	89.44
362.976	97.44
363.203	84.44
363.429	82.44
363.656	95.44
363.882	93.44
364.109	90.44
364.335	86.44
364.562	95.44
364.788	98.44
365.015	89.44
365.241	94.44
365.468	91.44
365.694	90.44
365.92	89.44
366.147	89.44
366.373	104.44
366.599	80.44
366.826	93.44
367.052	79.44
367.278	86.44
367.505	72.44
367.731	83.44
367.957	85.44
368.184	68.44
368.41	99.44
368.636	97.44
368.862	99.44
369.089	100.44
369.315	97.44
369.541	91.44
369.767	81.44
369.993	78.44
370.219	85.44
370.445	75.44
370.672	89.44
370.898	86.44
371.124	84.44
371.35	97.44
371.576	93.44
371.802	82.44
372.028	96.44
372.254	93.44
372.48	97.44
372.706	90.44
372.932	100.44
373.158	105.44
373.384	88.44
373.61	86.44
373.835	82.44
374.061	88.44
374.287	96.44
374.513	86.44
374.739	86.44
374.965	82.44
375.191	95.44
375.416	79.44
375.642	77.44
375.868	98.44
376.094	88.44
376.319	100.44
376.545	86.44
376.771	87.44
376.997	104.44
377.222	102.44
377.448	78.44
377.674	86.44
377.899	77.44
378.125	83.44
378.35	89.44
378.576	88.44
378.802	92.44
379.027	81.44
379.253	102.44
379.478	79.44
379.704	92.44
379.929	85.44
380.155	81.44
380.38	76.44
380.606	85.44
380.831	94.44
381.057	103.44
381.282	88.44
381.507	90.44
381.733	87.44
381.958	88.44
382.184	92.44
382.409	73.44
382.634	85.44
382.86	76.44
383.085	84.44
383.31	107.44
383.535	94.44
383.761	82.44
383.986	109.44
384.211	96.44
384.436	90.44
384.662	100.44
384.887	92.44
385.112	82.44
385.337	96.44
385.562	78.44
385.787	82.44
386.013	88.44
386.238	75.44
386.463	85.44
386.688	93.44
386.913	77.44
387.138	88.44
387.363	96.44
387.588	90.44
387.813	83.44
388.038	104.44
388.263	89.44
388.488	91.44
388.713	92.44
388.938	79.44
389.163	84.44
389.387	82.44
389.612	86.44
389.837	84.44
390.062	87.44
390.287	101.44
390.512	82.44
390.736	93.44
390.961	90.44
391.186	78.44
391.411	82.44
391.636	111.44
391.86	91.44
392.085	79.44
392.31	82.44
392.534	88.44
392.759	94.44
392.984	94.44
393.208	81.44
393.433	83.44
393.658	84.44
393.882	86.44
394.107	92.44
394.331	88.44
394.556	89.44
394.78	97.44
395.005	90.44
395.229	81.44
395.454	94.44
395.678	87.44
395.903	96.44
396.127	96.44
396.352	103.44
396.576	77.44
396.801	86.44
397.025	69.44
397.249	79.44
397.474	76.44
397.698	93.44
397.922	86.44
398.147	96.44
398.371	86.44
398.595	83.44
398.82	86.44
399.044	96.44
399.268	98.44
399.492	99.44
399.717	99.44
399.941	83.44
400.165	83.44
400.389	93.44
400.613	92.44
400.837	87.44
401.062	84.44
401.286	88.44
401.51	88.44
401.734	99.44
401.958	92.44
402.182	84.44
402.406	76.44
402.63	98.44
402.854	87.44
403.078	78.44
403.302	84.44
403.526	91.44
403.75	77.44
403.974	95.44
404.198	90.44
404.422	98.44
404.645	92.44
404.869	89.44
405.093	99.44
405.317	103.44
405.541	91.44
405.765	89.44
405.988	89.44
406.212	83.44
406.436	73.44
406.66	88.44
406.883	81.44
407.107	98.44
407.331	95.44
407.555	109.44
407.778	82.44
408.002	87.44
408.226	87.44
408.449	100.44
408.673	95.44
408.896	93.44
409.12	93.44
409.344	84.44
409.567	76.44
409.791	99.44
410.014	99.44
410.238	80.44
410.461	95.44
410.685	92.44
410.908	89.44
411.132	96.44
411.355	91.44
411.578	95.44
411.802	83.44
412.025	92.44
412.249	93.44
412.472	74.44
412.695	83.44
412.919	82.44
413.142	74.44
413.365	74.44
413.589	90.44
413.812	99.44
414.035	83.44
414.258	87.44
414.482	89.44
414.705	109.44
414.928	98.44
415.151	104.44
415.374	83.44
415.597	92.44
415.821	84.44
416.044	82.44
416.267	97.44
416.49	96.44
416.713	80.44
416.936	78.44
417.159	83.44
417.382	92.44
417.605	90.44
417.828	104.44
418.051	87.44
418.274	74.44
418.497	110.44
418.72	97.44
418.943	98.44
419.166	110.44
419.389	76.44
419.611	77.44
419.834	96.44
420.057	89.44
420.28	86.44
420.503	93.44
420.726	90.44
420.948	102.44
421.171	95.44
421.394	104.44
421.617	90.44
421.839	89.44
422.062	88.44
422.285	99.44
422.507	91.44
422.73	95.44
422.953	81.44
423.175	95.44
423.398	87.44
423.621	86.44
423.843	98.44
424.066	81.44
424.288	80.44
424.511	91.44
424.733	90.44
424.956	83.44
425.178	90.44
425.401	74.44
425.623	92.44
425.846	78.44
426.068	69.44
426.291	88.44
426.513	79.44
426.735	87.44
426.958	84.44
427.18	83.44
427.402	82.44
427.625	80.44
427.847	87.44
428.069	78.44
428.292	78.44
428.514	88.44
428.736	99.44
428.958	87.44
429.181	93.44
429.403	105.44
429.625	81.44
429.847	94.44
430.069	101.44
430.292	89.44
430.514	84.44
430.736	99.44
430.958	87.44
431.18	97.44
431.402	88.44
431.624	72.44
431.846	80.44
432.068	81.44
432.29	82.44
432.512	91.44
432.734	93.44
432.956	83.44
433.178	86.44
433.4	102.44
433.622	83.44
433.844	94.44
434.066	102.44
434.287	87.44
434.509	102.44
434.731	107.44
434.953	95.44
435.175	83.44
435.397	100.44
435.618	74.44
435.84	90.44
436.062	79.44
436.284	86.44
436.505	100.44
436.727	85.44
436.949	87.44
437.17	79.44
437.392	82.44
437.614	95.44
437.835	98.44
438.057	83.44
438.278	82.44
438.5	74.44
438.721	85.44
438.943	93.44
439.165	93.44
439.386	90.44
439.608	76.44
439.829	76.44
440.05	88.44
440.272	82.44
440.493	98.44
440.715	94.44
440.936	86.44
441.158	80.44
441.379	99.44
441.6	84.44
441.822	99.44
442.043	94.44
442.264	110.44
442.486	99.44
442.707	89.44
442.928	87.44
443.149	88.44
443.371	102.44
443.592	78.44
443.813	87.44
444.034	82.44
444.255	89.44
444.476	95.44
444.698	86.44
444.919	88.44
445.14	167.44
445.361	123.44
445.582	81.44
445.803	94.44
446.024	84.44
446.245	97.44
446.466	92.44
446.687	90.44
446.908	83.44
447.129	90.44
447.35	88.44
447.571	81.44
447.792	93.44
448.013	74.44
448.234	76.44
448.455	82.44
448.675	87.44
448.896	96.44
449.117	87.44
449.338	89.44
449.559	95.44
449.779	88.44
450	84.44
450.221	89.44
450.442	78.44
450.662	103.44
450.883	81.44
451.104	83.44
451.324	93.44
451.545	86.44
451.766	79.44
451.986	92.44
452.207	83.44
452.428	102.44
452.648	101.44
452.869	81.44
453.089	86.44
453.31	88.44
453.53	87.44
453.751	79.44
453.971	90.44
454.192	91.44
454.412	83.44
454.633	92.44
454.853	87.44
455.073	94.44
455.294	90.44
455.514	90.44
455.734	86.44
455.955	84.44
456.175	81.44
456.395	81.44
456.616	96.44
456.836	92.44
457.056	82.44
457.276	93.44
457.497	79.44
457.717	93.44
457.937	93.44
458.157	89.44
458.377	81.44
458.598	94.44
458.818	87.44
459.038	95.44
459.258	93.44
459.478	104.44
459.698	91.44
459.918	96.44
460.138	92.44
460.358	86.44
460.578	76.44
460.798	86.44
461.018	96.44
461.238	87.44
461.458	75.44
461.678	84.44
461.898	95.44
462.118	88.44
462.338	90.44
462.558	95.44
462.777	91.44
462.997	88.44
463.217	93.44
463.437	94.44
463.657	81.44
463.876	92.44
464.096	97.44
464.316	80.44
464.536	93.44
464.755	104.44
464.975	82.44
465.195	90.44
465.414	95.44
465.634	90.44
465.854	76.44
466.073	85.44
466.293	90.44
466.512	92.44
466.732	90.44
466.951	91.44
467.171	103.44
467.391	98.44
467.61	79.44
467.829	79.44
468.049	78.44
468.268	94.44
468.488	82.44
468.707	75.44
468.927	76.44
469.146	93.44
469.365	93.44
469.585	92.44
469.804	96.44
470.023	68.44
470.243	97.44
470.462	102.44
470.681	82.44
470.901	87.44
471.12	84.44
471.339	65.44
471.558	79.44
471.777	96.44
471.997	94.44
472.216	84.44
472.435	82.44
472.654	72.44
472.873	79.44
473.092	84.44
473.311	94.44
473.53	90.44
473.749	96.44
473.968	99.44
474.187	85.44
474.406	88.44
474.625	84.44
474.844	92.44
475.063	92.44
475.282	90.44
475.501	75.44
475.72	102.44
475.939	95.44
476.158	94.44
476.377	82.44
476.596	81.44
476.814	80.44
477.033	78.44
477.252	83.44
477.471	87.44
477.69	92.44
477.908	84.44
478.127	80.44
478.346	99.44
478.564	93.44
478.783	94.44
479.002	87.44
479.22	93.44
479.439	84.44
479.658	91.44
479.876	92.44
480.095	90.44
480.313	90.44
480.532	85.44
480.751	76.44
480.969	89.44
481.188	104.44
481.406	84.44
481.624	90.44
481.843	80.44
482.061	86.44
482.28	80.44
482.498	80.44
482.717	96.44
482.935	107.44
483.153	84.44
483.372	83.44
483.59	92.44
483.808	93.44
484.027	88.44
484.245	96.44
484.463	83.44
484.681	90.44
484.9	88.44
485.118	88.44
485.336	78.44
485.554	91.44
485.772	91.44
485.99	99.44
486.209	106.44
486.427	88.44
486.645	84.44
486.863	73.44
487.081	86.44
487.299	94.44
487.517	87.44
487.735	81.44
487.953	88.44
488.171	83.44
488.389	106.44
488.607	88.44
488.825	92.44
489.043	85.44
489.261	105.44
489.479	98.44
489.696	96.44
489.914	82.44
490.132	87.44
490.35	95.44
490.568	91.44
490.786	97.44
491.003	94.44
491.221	87.44
491.439	96.44
491.657	95.44
491.874	92.44
492.092	98.44
492.31	82.44
492.527	81.44
492.745	92.44
492.963	89.44
493.18	97.44
493.398	98.44
493.615	88.44
493.833	92.44
494.05	87.44
494.268	87.44
494.485	96.44
494.703	98.44
494.92	87.44
495.138	93.44
495.355	87.44
495.573	105.44
495.79	95.44
496.008	110.44
496.225	96.44
496.442	90.44
496.66	98.44
496.877	90.44
497.094	116.44
497.312	71.44
497.529	92.44
497.746	93.44
497.963	95.44
498.181	78.44
498.398	104.44
498.615	92.44
498.832	96.44
499.049	101.44
499.267	106.44
499.484	107.44
499.701	105.44
499.918	112.44
500.135	104.44
500.352	98.44
500.569	119.44
500.786	98.44
501.003	98.44
501.22	92.44
501.437	95.44
501.654	90.44
501.871	83.44
502.088	106.44
502.305	84.44
502.522	97.44
502.739	82.44
502.956	74.44
503.172	87.44
503.389	97.44
503.606	87.44
503.823	88.44
504.04	97.44
504.256	99.44
504.473	73.44
504.69	88.44
504.907	85.44
505.123	90.44
505.34	89.44
505.557	85.44
505.773	93.44
505.99	109.44
506.207	75.44
506.423	76.44
506.64	85.44
506.856	66.44
507.073	72.44
507.289	97.44
507.506	100.44
507.722	84.44
507.939	90.44
508.155	99.44
508.372	88.44
508.588	89.44
508.805	95.44
509.021	83.44
509.238	82.44
509.454	88.44
509.67	95.44
509.887	84.44
510.103	81.44
510.319	75.44
510.536	85.44
510.752	79.44
510.968	88.44
511.184	96.44
511.401	91.44
511.617	96.44
511.833	80.44
512.049	86.44
512.265	88.44
512.481	89.44
512.698	93.44
512.914	91.44
513.13	98.44
513.346	96.44
513.562	90.44
513.778	96.44
513.994	83.44
514.21	86.44
514.426	99.44
514.642	98.44
514.858	90.44
515.074	87.44
515.29	79.44
515.506	84.44
515.721	86.44
515.937	91.44
516.153	80.44
516.369	87.44
516.585	104.44
516.801	99.44
517.016	86.44
517.232	76.44
517.448	84.44
517.664	83.44
517.879	87.44
518.095	97.44
518.311	78.44
518.527	88.44
518.742	96.44
518.958	82.44
