Data from BG_HRD10591_049.txt Node
Date: Fri May 16 15:27:11 EDT 2025
User: Yrep
Spectrometer: HR+D1059
Trigger mode: 1
Integration Time (sec): 1.000000E-1
Scans to average: 1
Electric dark correction enabled: true
Nonlinearity correction enabled: false
Boxcar width: 0
XAxis mode: Wavelengths
Number of Pixels in Spectrum: 2048
>>>>>Begin Spectral Data<<<<<
223.165	-16.69
223.4	-16.69
223.635	-16.69
223.869	-24.69
224.104	-15.69
224.338	-19.69
224.573	-20.69
224.808	-10.69
225.042	-3.69
225.277	-8.69
225.511	-6.69
225.746	7.31
225.98	-2.69
226.215	10.31
226.449	25.31
226.683	32.31
226.918	28.31
227.152	26.31
227.387	30.31
227.621	38.31
227.856	43.31
228.09	48.31
228.324	51.31
228.559	68.31
228.793	59.31
229.027	47.31
229.262	60.31
229.496	64.31
229.73	61.31
229.964	67.31
230.199	75.31
230.433	89.31
230.667	73.31
230.901	82.31
231.136	65.31
231.37	64.31
231.604	84.31
231.838	91.31
232.072	100.31
232.306	82.31
232.541	69.31
232.775	76.31
233.009	72.31
233.243	84.31
233.477	69.31
233.711	70.31
233.945	80.31
234.179	61.31
234.413	76.31
234.647	84.31
234.881	74.31
235.115	66.31
235.349	80.31
235.583	84.31
235.817	79.31
236.051	84.31
236.285	65.31
236.519	75.31
236.753	77.31
236.987	76.31
237.221	75.31
237.455	57.31
237.689	73.31
237.922	75.31
238.156	73.31
238.39	76.31
238.624	78.31
238.858	67.31
239.091	67.31
239.325	63.31
239.559	79.31
239.793	80.31
240.027	74.31
240.26	80.31
240.494	80.31
240.728	73.31
240.961	88.31
241.195	81.31
241.429	71.31
241.662	72.31
241.896	65.31
242.13	71.31
242.363	71.31
242.597	70.31
242.83	72.31
243.064	83.31
243.298	76.31
243.531	78.31
243.765	83.31
243.998	78.31
244.232	71.31
244.465	71.31
244.699	73.31
244.932	76.31
245.166	84.31
245.399	89.31
245.633	65.31
245.866	74.31
246.099	83.31
246.333	80.31
246.566	71.31
246.8	74.31
247.033	84.31
247.266	75.31
247.5	79.31
247.733	80.31
247.966	85.31
248.2	74.31
248.433	80.31
248.666	74.31
248.899	78.31
249.133	70.31
249.366	91.31
249.599	84.31
249.832	65.31
250.066	80.31
250.299	82.31
250.532	74.31
250.765	77.31
250.998	73.31
251.231	72.31
251.465	69.31
251.698	84.31
251.931	84.31
252.164	95.31
252.397	78.31
252.63	77.31
252.863	71.31
253.096	81.31
253.329	80.31
253.562	96.31
253.795	87.31
254.028	78.31
254.261	73.31
254.494	73.31
254.727	84.31
254.96	79.31
255.193	81.31
255.426	79.31
255.659	76.31
255.892	76.31
256.124	72.31
256.357	75.31
256.59	78.31
256.823	80.31
257.056	71.31
257.289	79.31
257.521	78.31
257.754	78.31
257.987	66.31
258.22	83.31
258.452	83.31
258.685	89.31
258.918	84.31
259.151	76.31
259.383	72.31
259.616	79.31
259.849	81.31
260.081	102.31
260.314	80.31
260.547	91.31
260.779	79.31
261.012	75.31
261.244	88.31
261.477	91.31
261.71	87.31
261.942	69.31
262.175	72.31
262.407	79.31
262.64	88.31
262.872	80.31
263.105	91.31
263.337	75.31
263.57	78.31
263.802	72.31
264.035	59.31
264.267	86.31
264.499	84.31
264.732	77.31
264.964	71.31
265.197	81.31
265.429	73.31
265.661	81.31
265.894	83.31
266.126	79.31
266.358	79.31
266.591	71.31
266.823	90.31
267.055	80.31
267.287	79.31
267.52	76.31
267.752	81.31
267.984	96.31
268.216	76.31
268.448	81.31
268.681	60.31
268.913	78.31
269.145	78.31
269.377	102.31
269.609	76.31
269.841	77.31
270.073	90.31
270.306	86.31
270.538	88.31
270.77	67.31
271.002	93.31
271.234	95.31
271.466	81.31
271.698	75.31
271.93	73.31
272.162	85.31
272.394	81.31
272.626	72.31
272.858	87.31
273.09	78.31
273.322	69.31
273.553	73.31
273.785	72.31
274.017	92.31
274.249	74.31
274.481	74.31
274.713	80.31
274.945	78.31
275.176	77.31
275.408	80.31
275.64	82.31
275.872	85.31
276.104	76.31
276.335	78.31
276.567	83.31
276.799	71.31
277.031	63.31
277.262	80.31
277.494	87.31
277.726	95.31
277.957	74.31
278.189	78.31
278.421	90.31
278.652	80.31
278.884	77.31
279.115	81.31
279.347	78.31
279.579	72.31
279.81	79.31
280.042	96.31
280.273	82.31
280.505	85.31
280.736	79.31
280.968	77.31
281.199	90.31
281.431	79.31
281.662	88.31
281.894	88.31
282.125	83.31
282.356	80.31
282.588	83.31
282.819	83.31
283.051	73.31
283.282	73.31
283.513	95.31
283.745	80.31
283.976	85.31
284.207	84.31
284.439	88.31
284.67	74.31
284.901	74.31
285.132	81.31
285.364	66.31
285.595	83.31
285.826	91.31
286.057	85.31
286.288	85.31
286.52	75.31
286.751	74.31
286.982	85.31
287.213	85.31
287.444	82.31
287.675	72.31
287.906	87.31
288.138	71.31
288.369	82.31
288.6	77.31
288.831	72.31
289.062	75.31
289.293	81.31
289.524	81.31
289.755	91.31
289.986	81.31
290.217	93.31
290.448	89.31
290.679	102.31
290.91	85.31
291.141	78.31
291.371	87.31
291.602	73.31
291.833	88.31
292.064	88.31
292.295	84.31
292.526	94.31
292.757	72.31
292.987	84.31
293.218	94.31
293.449	96.31
293.68	80.31
293.91	82.31
294.141	76.31
294.372	71.31
294.603	79.31
294.833	95.31
295.064	79.31
295.295	82.31
295.525	77.31
295.756	86.31
295.987	78.31
296.217	85.31
296.448	90.31
296.679	81.31
296.909	82.31
297.14	88.31
297.37	70.31
297.601	86.31
297.831	79.31
298.062	75.31
298.292	89.31
298.523	73.31
298.753	100.31
298.984	83.31
299.214	86.31
299.445	79.31
299.675	83.31
299.905	75.31
300.136	74.31
300.366	74.31
300.597	83.31
300.827	81.31
301.057	81.31
301.288	92.31
301.518	81.31
301.748	82.31
301.979	97.31
302.209	62.31
302.439	84.31
302.669	68.31
302.9	78.31
303.13	78.31
303.36	84.31
303.59	77.31
303.82	85.31
304.051	95.31
304.281	77.31
304.511	71.31
304.741	93.31
304.971	84.31
305.201	94.31
305.431	83.31
305.661	76.31
305.891	80.31
306.121	89.31
306.352	89.31
306.582	86.31
306.812	92.31
307.042	95.31
307.272	77.31
307.502	91.31
307.731	78.31
307.961	79.31
308.191	80.31
308.421	90.31
308.651	85.31
308.881	85.31
309.111	83.31
309.341	73.31
309.571	86.31
309.8	73.31
310.03	85.31
310.26	83.31
310.49	82.31
310.72	77.31
310.949	78.31
311.179	72.31
311.409	81.31
311.639	77.31
311.868	84.31
312.098	74.31
312.328	90.31
312.557	94.31
312.787	82.31
313.017	101.31
313.246	73.31
313.476	72.31
313.706	72.31
313.935	72.31
314.165	73.31
314.394	78.31
314.624	82.31
314.853	84.31
315.083	77.31
315.312	81.31
315.542	68.31
315.771	79.31
316.001	95.31
316.23	87.31
316.46	74.31
316.689	72.31
316.919	73.31
317.148	79.31
317.377	80.31
317.607	79.31
317.836	73.31
318.065	75.31
318.295	84.31
318.524	79.31
318.753	85.31
318.983	83.31
319.212	80.31
319.441	77.31
319.67	75.31
319.9	73.31
320.129	77.31
320.358	85.31
320.587	87.31
320.816	78.31
321.046	83.31
321.275	73.31
321.504	86.31
321.733	91.31
321.962	87.31
322.191	101.31
322.42	73.31
322.649	92.31
322.878	75.31
323.108	93.31
323.337	78.31
323.566	96.31
323.795	76.31
324.024	84.31
324.253	73.31
324.482	73.31
324.71	87.31
324.939	87.31
325.168	77.31
325.397	93.31
325.626	88.31
325.855	71.31
326.084	80.31
326.313	85.31
326.542	90.31
326.77	71.31
326.999	71.31
327.228	75.31
327.457	79.31
327.686	85.31
327.914	73.31
328.143	83.31
328.372	78.31
328.6	79.31
328.829	79.31
329.058	79.31
329.287	82.31
329.515	77.31
329.744	77.31
329.972	82.31
330.201	78.31
330.43	80.31
330.658	76.31
330.887	84.31
331.115	83.31
331.344	87.31
331.572	83.31
331.801	66.31
332.03	81.31
332.258	86.31
332.486	73.31
332.715	77.31
332.943	91.31
333.172	85.31
333.4	80.31
333.629	79.31
333.857	84.31
334.085	67.31
334.314	87.31
334.542	68.31
334.771	97.31
334.999	99.31
335.227	76.31
335.455	94.31
335.684	85.31
335.912	87.31
336.14	67.31
336.369	87.31
336.597	72.31
336.825	81.31
337.053	72.31
337.281	90.31
337.51	76.31
337.738	77.31
337.966	83.31
338.194	82.31
338.422	86.31
338.65	77.31
338.878	73.31
339.106	95.31
339.334	90.31
339.562	79.31
339.79	90.31
340.018	76.31
340.246	76.31
340.474	80.31
340.702	81.31
340.93	79.31
341.158	71.31
341.386	72.31
341.614	78.31
341.842	78.31
342.07	95.31
342.298	85.31
342.526	91.31
342.754	80.31
342.981	82.31
343.209	77.31
343.437	87.31
343.665	75.31
343.893	66.31
344.12	84.31
344.348	71.31
344.576	73.31
344.804	91.31
345.031	91.31
345.259	86.31
345.487	84.31
345.714	78.31
345.942	91.31
346.17	87.31
346.397	89.31
346.625	67.31
346.853	67.31
347.08	76.31
347.308	85.31
347.535	79.31
347.763	83.31
347.99	89.31
348.218	87.31
348.445	89.31
348.673	87.31
348.9	71.31
349.128	81.31
349.355	91.31
349.583	85.31
349.81	82.31
350.037	81.31
350.265	73.31
350.492	70.31
350.72	71.31
350.947	92.31
351.174	67.31
351.402	83.31
351.629	89.31
351.856	71.31
352.083	83.31
352.311	83.31
352.538	65.31
352.765	73.31
352.992	75.31
353.22	73.31
353.447	88.31
353.674	90.31
353.901	75.31
354.128	83.31
354.355	91.31
354.583	79.31
354.81	74.31
355.037	83.31
355.264	79.31
355.491	80.31
355.718	70.31
355.945	76.31
356.172	79.31
356.399	88.31
356.626	69.31
356.853	92.31
357.08	80.31
357.307	84.31
357.534	81.31
357.761	91.31
357.988	79.31
358.215	91.31
358.441	79.31
358.668	71.31
358.895	80.31
359.122	103.31
359.349	87.31
359.576	83.31
359.802	66.31
360.029	73.31
360.256	85.31
360.483	88.31
360.709	84.31
360.936	87.31
361.163	90.31
361.39	88.31
361.616	77.31
361.843	84.31
362.07	85.31
362.296	82.31
362.523	82.31
362.749	85.31
362.976	84.31
363.203	81.31
363.429	77.31
363.656	72.31
363.882	91.31
364.109	92.31
364.335	81.31
364.562	69.31
364.788	86.31
365.015	72.31
365.241	65.31
365.468	79.31
365.694	70.31
365.92	79.31
366.147	87.31
366.373	91.31
366.599	81.31
366.826	71.31
367.052	66.31
367.278	79.31
367.505	69.31
367.731	86.31
367.957	73.31
368.184	87.31
368.41	75.31
368.636	88.31
368.862	95.31
369.089	82.31
369.315	78.31
369.541	77.31
369.767	75.31
369.993	91.31
370.219	65.31
370.445	80.31
370.672	76.31
370.898	78.31
371.124	69.31
371.35	77.31
371.576	84.31
371.802	74.31
372.028	64.31
372.254	88.31
372.48	86.31
372.706	89.31
372.932	75.31
373.158	89.31
373.384	82.31
373.61	83.31
373.835	72.31
374.061	74.31
374.287	81.31
374.513	73.31
374.739	82.31
374.965	68.31
375.191	91.31
375.416	88.31
375.642	83.31
375.868	75.31
376.094	78.31
376.319	73.31
376.545	68.31
376.771	87.31
376.997	67.31
377.222	71.31
377.448	86.31
377.674	67.31
377.899	76.31
378.125	85.31
378.35	87.31
378.576	74.31
378.802	59.31
379.027	74.31
379.253	84.31
379.478	70.31
379.704	78.31
379.929	79.31
380.155	75.31
380.38	80.31
380.606	82.31
380.831	88.31
381.057	88.31
381.282	67.31
381.507	89.31
381.733	81.31
381.958	69.31
382.184	70.31
382.409	68.31
382.634	70.31
382.86	67.31
383.085	85.31
383.31	79.31
383.535	80.31
383.761	89.31
383.986	93.31
384.211	88.31
384.436	81.31
384.662	74.31
384.887	65.31
385.112	72.31
385.337	75.31
385.562	94.31
385.787	72.31
386.013	91.31
386.238	73.31
386.463	78.31
386.688	66.31
386.913	71.31
387.138	73.31
387.363	73.31
387.588	74.31
387.813	82.31
388.038	91.31
388.263	91.31
388.488	71.31
388.713	89.31
388.938	86.31
389.163	77.31
389.387	75.31
389.612	89.31
389.837	74.31
390.062	80.31
390.287	68.31
390.512	83.31
390.736	54.31
390.961	66.31
391.186	65.31
391.411	86.31
391.636	86.31
391.86	72.31
392.085	64.31
392.31	79.31
392.534	76.31
392.759	77.31
392.984	88.31
393.208	88.31
393.433	74.31
393.658	67.31
393.882	100.31
394.107	98.31
394.331	79.31
394.556	73.31
394.78	83.31
395.005	77.31
395.229	86.31
395.454	92.31
395.678	79.31
395.903	79.31
396.127	75.31
396.352	81.31
396.576	88.31
396.801	89.31
397.025	76.31
397.249	71.31
397.474	79.31
397.698	74.31
397.922	76.31
398.147	68.31
398.371	78.31
398.595	75.31
398.82	72.31
399.044	72.31
399.268	81.31
399.492	87.31
399.717	76.31
399.941	65.31
400.165	57.31
400.389	91.31
400.613	80.31
400.837	72.31
401.062	86.31
401.286	85.31
401.51	72.31
401.734	80.31
401.958	77.31
402.182	84.31
402.406	76.31
402.63	65.31
402.854	76.31
403.078	83.31
403.302	92.31
403.526	73.31
403.75	85.31
403.974	87.31
404.198	78.31
404.422	74.31
404.645	76.31
404.869	87.31
405.093	87.31
405.317	86.31
405.541	74.31
405.765	64.31
405.988	75.31
406.212	87.31
406.436	86.31
406.66	75.31
406.883	78.31
407.107	71.31
407.331	77.31
407.555	65.31
407.778	74.31
408.002	73.31
408.226	80.31
408.449	72.31
408.673	74.31
408.896	84.31
409.12	80.31
409.344	77.31
409.567	80.31
409.791	86.31
410.014	83.31
410.238	64.31
410.461	81.31
410.685	65.31
410.908	86.31
411.132	79.31
411.355	75.31
411.578	77.31
411.802	70.31
412.025	88.31
412.249	87.31
412.472	74.31
412.695	75.31
412.919	69.31
413.142	73.31
413.365	80.31
413.589	86.31
413.812	75.31
414.035	84.31
414.258	94.31
414.482	93.31
414.705	75.31
414.928	91.31
415.151	85.31
415.374	93.31
415.597	77.31
415.821	72.31
416.044	85.31
416.267	79.31
416.49	86.31
416.713	76.31
416.936	76.31
417.159	76.31
417.382	85.31
417.605	69.31
417.828	72.31
418.051	66.31
418.274	86.31
418.497	81.31
418.72	60.31
418.943	67.31
419.166	72.31
419.389	73.31
419.611	83.31
419.834	77.31
420.057	84.31
420.28	88.31
420.503	91.31
420.726	81.31
420.948	79.31
421.171	89.31
421.394	65.31
421.617	72.31
421.839	75.31
422.062	79.31
422.285	79.31
422.507	63.31
422.73	84.31
422.953	75.31
423.175	72.31
423.398	77.31
423.621	89.31
423.843	81.31
424.066	87.31
424.288	58.31
424.511	71.31
424.733	74.31
424.956	75.31
425.178	64.31
425.401	83.31
425.623	74.31
425.846	73.31
426.068	71.31
426.291	82.31
426.513	76.31
426.735	81.31
426.958	78.31
427.18	80.31
427.402	76.31
427.625	66.31
427.847	91.31
428.069	83.31
428.292	75.31
428.514	81.31
428.736	86.31
428.958	84.31
429.181	79.31
429.403	79.31
429.625	80.31
429.847	79.31
430.069	80.31
430.292	79.31
430.514	63.31
430.736	70.31
430.958	72.31
431.18	68.31
431.402	89.31
431.624	76.31
431.846	76.31
432.068	73.31
432.29	66.31
432.512	78.31
432.734	77.31
432.956	73.31
433.178	93.31
433.4	92.31
433.622	71.31
433.844	83.31
434.066	79.31
434.287	75.31
434.509	76.31
434.731	73.31
434.953	87.31
435.175	93.31
435.397	94.31
435.618	80.31
435.84	84.31
436.062	85.31
436.284	74.31
436.505	69.31
436.727	87.31
436.949	78.31
437.17	78.31
437.392	89.31
437.614	88.31
437.835	80.31
438.057	71.31
438.278	73.31
438.5	83.31
438.721	97.31
438.943	76.31
439.165	86.31
439.386	77.31
439.608	70.31
439.829	93.31
440.05	78.31
440.272	85.31
440.493	63.31
440.715	76.31
440.936	87.31
441.158	83.31
441.379	84.31
441.6	86.31
441.822	68.31
442.043	77.31
442.264	80.31
442.486	75.31
442.707	83.31
442.928	81.31
443.149	70.31
443.371	72.31
443.592	91.31
443.813	83.31
444.034	76.31
444.255	68.31
444.476	79.31
444.698	74.31
444.919	73.31
445.14	146.31
445.361	112.31
445.582	78.31
445.803	78.31
446.024	87.31
446.245	76.31
446.466	62.31
446.687	77.31
446.908	87.31
447.129	89.31
447.35	75.31
447.571	82.31
447.792	81.31
448.013	63.31
448.234	83.31
448.455	69.31
448.675	87.31
448.896	76.31
449.117	60.31
449.338	61.31
449.559	72.31
449.779	88.31
450	80.31
450.221	72.31
450.442	79.31
450.662	75.31
450.883	59.31
451.104	88.31
451.324	73.31
451.545	87.31
451.766	87.31
451.986	64.31
452.207	87.31
452.428	69.31
452.648	83.31
452.869	85.31
453.089	76.31
453.31	85.31
453.53	77.31
453.751	73.31
453.971	75.31
454.192	73.31
454.412	70.31
454.633	72.31
454.853	74.31
455.073	69.31
455.294	73.31
455.514	83.31
455.734	80.31
455.955	87.31
456.175	85.31
456.395	72.31
456.616	88.31
456.836	76.31
457.056	86.31
457.276	85.31
457.497	85.31
457.717	76.31
457.937	74.31
458.157	77.31
458.377	71.31
458.598	77.31
458.818	77.31
459.038	79.31
459.258	74.31
459.478	72.31
459.698	76.31
459.918	73.31
460.138	78.31
460.358	68.31
460.578	74.31
460.798	72.31
461.018	73.31
461.238	74.31
461.458	74.31
461.678	69.31
461.898	88.31
462.118	74.31
462.338	76.31
462.558	81.31
462.777	80.31
462.997	77.31
463.217	74.31
463.437	69.31
463.657	83.31
463.876	75.31
464.096	81.31
464.316	81.31
464.536	80.31
464.755	85.31
464.975	78.31
465.195	77.31
465.414	80.31
465.634	72.31
465.854	81.31
466.073	70.31
466.293	75.31
466.512	82.31
466.732	69.31
466.951	74.31
467.171	71.31
467.391	74.31
467.61	73.31
467.829	85.31
468.049	91.31
468.268	78.31
468.488	77.31
468.707	72.31
468.927	72.31
469.146	86.31
469.365	80.31
469.585	73.31
469.804	76.31
470.023	73.31
470.243	84.31
470.462	85.31
470.681	76.31
470.901	69.31
471.12	80.31
471.339	64.31
471.558	80.31
471.777	85.31
471.997	84.31
472.216	87.31
472.435	79.31
472.654	70.31
472.873	79.31
473.092	87.31
473.311	91.31
473.53	76.31
473.749	87.31
473.968	86.31
474.187	87.31
474.406	81.31
474.625	81.31
474.844	76.31
475.063	85.31
475.282	71.31
475.501	71.31
475.72	80.31
475.939	67.31
476.158	84.31
476.377	72.31
476.596	76.31
476.814	86.31
477.033	80.31
477.252	87.31
477.471	86.31
477.69	87.31
477.908	86.31
478.127	84.31
478.346	78.31
478.564	77.31
478.783	72.31
479.002	71.31
479.22	75.31
479.439	72.31
479.658	76.31
479.876	60.31
480.095	79.31
480.313	75.31
480.532	75.31
480.751	84.31
480.969	81.31
481.188	91.31
481.406	85.31
481.624	78.31
481.843	87.31
482.061	76.31
482.28	84.31
482.498	82.31
482.717	85.31
482.935	71.31
483.153	64.31
483.372	81.31
483.59	78.31
483.808	85.31
484.027	88.31
484.245	62.31
484.463	80.31
484.681	93.31
484.9	78.31
485.118	78.31
485.336	82.31
485.554	59.31
485.772	87.31
485.99	83.31
486.209	79.31
486.427	78.31
486.645	81.31
486.863	71.31
487.081	73.31
487.299	76.31
487.517	79.31
487.735	93.31
487.953	86.31
488.171	87.31
488.389	79.31
488.607	84.31
488.825	79.31
489.043	87.31
489.261	93.31
489.479	64.31
489.696	94.31
489.914	72.31
490.132	76.31
490.35	85.31
490.568	86.31
490.786	60.31
491.003	77.31
491.221	68.31
491.439	81.31
491.657	74.31
491.874	66.31
492.092	71.31
492.31	73.31
492.527	80.31
492.745	69.31
492.963	80.31
493.18	72.31
493.398	61.31
493.615	72.31
493.833	86.31
494.05	84.31
494.268	83.31
494.485	86.31
494.703	80.31
494.92	85.31
495.138	81.31
495.355	79.31
495.573	83.31
495.79	74.31
496.008	69.31
496.225	88.31
496.442	93.31
496.66	78.31
496.877	81.31
497.094	83.31
497.312	79.31
497.529	79.31
497.746	85.31
497.963	67.31
498.181	75.31
498.398	83.31
498.615	79.31
498.832	78.31
499.049	75.31
499.267	71.31
499.484	69.31
499.701	96.31
499.918	74.31
500.135	80.31
500.352	75.31
500.569	61.31
500.786	76.31
501.003	84.31
501.22	64.31
501.437	89.31
501.654	76.31
501.871	71.31
502.088	83.31
502.305	75.31
502.522	86.31
502.739	79.31
502.956	76.31
503.172	91.31
503.389	83.31
503.606	66.31
503.823	77.31
504.04	80.31
504.256	96.31
504.473	90.31
504.69	87.31
504.907	80.31
505.123	73.31
505.34	86.31
505.557	79.31
505.773	78.31
505.99	77.31
506.207	71.31
506.423	75.31
506.64	75.31
506.856	88.31
507.073	79.31
507.289	72.31
507.506	71.31
507.722	62.31
507.939	83.31
508.155	82.31
508.372	78.31
508.588	86.31
508.805	84.31
509.021	80.31
509.238	79.31
509.454	74.31
509.67	91.31
509.887	81.31
510.103	83.31
510.319	69.31
510.536	75.31
510.752	85.31
510.968	84.31
511.184	74.31
511.401	75.31
511.617	81.31
511.833	71.31
512.049	86.31
512.265	77.31
512.481	82.31
512.698	79.31
512.914	81.31
513.13	86.31
513.346	80.31
513.562	83.31
513.778	94.31
513.994	76.31
514.21	76.31
514.426	91.31
514.642	83.31
514.858	86.31
515.074	82.31
515.29	68.31
515.506	84.31
515.721	64.31
515.937	74.31
516.153	86.31
516.369	88.31
516.585	55.31
516.801	66.31
517.016	68.31
517.232	79.31
517.448	76.31
517.664	87.31
517.879	83.31
518.095	81.31
518.311	81.31
518.527	92.31
518.742	79.31
518.958	85.31
519.173	83.31
519.389	71.31
519.605	86.31
519.82	86.31
520.036	85.31
520.251	74.31
