Data from BG_HRD10591_008.txt Node
Date: Fri May 16 15:26:51 EDT 2025
User: Yrep
Spectrometer: HR+D1059
Trigger mode: 1
Integration Time (sec): 1.000000E-1
Scans to average: 1
Electric dark correction enabled: true
Nonlinearity correction enabled: false
Boxcar width: 0
XAxis mode: Wavelengths
Number of Pixels in Spectrum: 2048
>>>>>Begin Spectral Data<<<<<
223.165	-22.31
223.4	-22.31
223.635	-22.31
223.869	-15.31
224.104	-15.31
224.338	-15.31
224.573	-10.31
224.808	-23.31
225.042	-0.31
225.277	-0.31
225.511	0.69
225.746	-1.31
225.98	19.69
226.215	-9.31
226.449	12.69
226.683	21.69
226.918	21.69
227.152	36.69
227.387	38.69
227.621	47.69
227.856	52.69
228.09	57.69
228.324	51.69
228.559	76.69
228.793	57.69
229.027	45.69
229.262	61.69
229.496	78.69
229.73	73.69
229.964	81.69
230.199	83.69
230.433	74.69
230.667	73.69
230.901	75.69
231.136	84.69
231.37	85.69
231.604	72.69
231.838	92.69
232.072	87.69
232.306	82.69
232.541	73.69
232.775	80.69
233.009	79.69
233.243	80.69
233.477	70.69
233.711	76.69
233.945	90.69
234.179	88.69
234.413	72.69
234.647	72.69
234.881	73.69
235.115	75.69
235.349	73.69
235.583	76.69
235.817	75.69
236.051	75.69
236.285	72.69
236.519	69.69
236.753	82.69
236.987	64.69
237.221	65.69
237.455	67.69
237.689	85.69
237.922	66.69
238.156	72.69
238.39	74.69
238.624	70.69
238.858	78.69
239.091	76.69
239.325	76.69
239.559	78.69
239.793	81.69
240.027	61.69
240.26	87.69
240.494	78.69
240.728	81.69
240.961	74.69
241.195	66.69
241.429	80.69
241.662	69.69
241.896	67.69
242.13	64.69
242.363	64.69
242.597	70.69
242.83	81.69
243.064	74.69
243.298	89.69
243.531	71.69
243.765	68.69
243.998	85.69
244.232	73.69
244.465	73.69
244.699	69.69
244.932	68.69
245.166	70.69
245.399	86.69
245.633	78.69
245.866	70.69
246.099	72.69
246.333	71.69
246.566	73.69
246.8	77.69
247.033	76.69
247.266	78.69
247.5	62.69
247.733	82.69
247.966	82.69
248.2	80.69
248.433	75.69
248.666	64.69
248.899	88.69
249.133	83.69
249.366	70.69
249.599	82.69
249.832	77.69
250.066	77.69
250.299	80.69
250.532	75.69
250.765	72.69
250.998	73.69
251.231	86.69
251.465	78.69
251.698	54.69
251.931	84.69
252.164	66.69
252.397	82.69
252.63	78.69
252.863	83.69
253.096	85.69
253.329	86.69
253.562	68.69
253.795	101.69
254.028	78.69
254.261	94.69
254.494	89.69
254.727	87.69
254.96	87.69
255.193	78.69
255.426	80.69
255.659	88.69
255.892	93.69
256.124	80.69
256.357	89.69
256.59	87.69
256.823	97.69
257.056	68.69
257.289	75.69
257.521	84.69
257.754	70.69
257.987	80.69
258.22	79.69
258.452	75.69
258.685	89.69
258.918	85.69
259.151	93.69
259.383	60.69
259.616	78.69
259.849	78.69
260.081	84.69
260.314	84.69
260.547	76.69
260.779	61.69
261.012	79.69
261.244	91.69
261.477	86.69
261.71	86.69
261.942	88.69
262.175	66.69
262.407	75.69
262.64	79.69
262.872	75.69
263.105	70.69
263.337	88.69
263.57	79.69
263.802	89.69
264.035	80.69
264.267	86.69
264.499	82.69
264.732	78.69
264.964	75.69
265.197	88.69
265.429	79.69
265.661	79.69
265.894	88.69
266.126	76.69
266.358	86.69
266.591	84.69
266.823	72.69
267.055	83.69
267.287	94.69
267.52	86.69
267.752	86.69
267.984	70.69
268.216	88.69
268.448	76.69
268.681	83.69
268.913	87.69
269.145	73.69
269.377	76.69
269.609	80.69
269.841	94.69
270.073	84.69
270.306	80.69
270.538	81.69
270.77	77.69
271.002	70.69
271.234	78.69
271.466	74.69
271.698	78.69
271.93	78.69
272.162	94.69
272.394	80.69
272.626	64.69
272.858	76.69
273.09	84.69
273.322	79.69
273.553	93.69
273.785	83.69
274.017	83.69
274.249	88.69
274.481	79.69
274.713	94.69
274.945	81.69
275.176	82.69
275.408	84.69
275.64	93.69
275.872	89.69
276.104	82.69
276.335	87.69
276.567	80.69
276.799	102.69
277.031	90.69
277.262	72.69
277.494	79.69
277.726	66.69
277.957	76.69
278.189	75.69
278.421	84.69
278.652	84.69
278.884	86.69
279.115	89.69
279.347	106.69
279.579	88.69
279.81	78.69
280.042	80.69
280.273	83.69
280.505	75.69
280.736	77.69
280.968	90.69
281.199	93.69
281.431	85.69
281.662	86.69
281.894	74.69
282.125	79.69
282.356	74.69
282.588	90.69
282.819	103.69
283.051	92.69
283.282	95.69
283.513	75.69
283.745	87.69
283.976	91.69
284.207	83.69
284.439	72.69
284.67	91.69
284.901	80.69
285.132	82.69
285.364	89.69
285.595	89.69
285.826	69.69
286.057	75.69
286.288	86.69
286.52	91.69
286.751	88.69
286.982	94.69
287.213	86.69
287.444	82.69
287.675	82.69
287.906	94.69
288.138	91.69
288.369	79.69
288.6	75.69
288.831	79.69
289.062	71.69
289.293	86.69
289.524	78.69
289.755	90.69
289.986	92.69
290.217	84.69
290.448	89.69
290.679	75.69
290.91	74.69
291.141	85.69
291.371	87.69
291.602	80.69
291.833	96.69
292.064	93.69
292.295	84.69
292.526	85.69
292.757	98.69
292.987	86.69
293.218	82.69
293.449	107.69
293.68	102.69
293.91	86.69
294.141	83.69
294.372	80.69
294.603	91.69
294.833	86.69
295.064	92.69
295.295	84.69
295.525	92.69
295.756	83.69
295.987	82.69
296.217	94.69
296.448	98.69
296.679	85.69
296.909	85.69
297.14	79.69
297.37	87.69
297.601	87.69
297.831	85.69
298.062	91.69
298.292	86.69
298.523	86.69
298.753	79.69
298.984	77.69
299.214	85.69
299.445	75.69
299.675	79.69
299.905	92.69
300.136	107.69
300.366	93.69
300.597	77.69
300.827	69.69
301.057	67.69
301.288	92.69
301.518	85.69
301.748	103.69
301.979	93.69
302.209	104.69
302.439	77.69
302.669	85.69
302.9	88.69
303.13	83.69
303.36	84.69
303.59	93.69
303.82	86.69
304.051	89.69
304.281	84.69
304.511	101.69
304.741	88.69
304.971	93.69
305.201	72.69
305.431	102.69
305.661	85.69
305.891	98.69
306.121	81.69
306.352	72.69
306.582	91.69
306.812	107.69
307.042	85.69
307.272	95.69
307.502	84.69
307.731	98.69
307.961	76.69
308.191	76.69
308.421	94.69
308.651	88.69
308.881	87.69
309.111	94.69
309.341	74.69
309.571	85.69
309.8	85.69
310.03	77.69
310.26	96.69
310.49	99.69
310.72	90.69
310.949	82.69
311.179	83.69
311.409	84.69
311.639	79.69
311.868	87.69
312.098	83.69
312.328	70.69
312.557	93.69
312.787	98.69
313.017	89.69
313.246	89.69
313.476	84.69
313.706	85.69
313.935	67.69
314.165	87.69
314.394	87.69
314.624	78.69
314.853	90.69
315.083	78.69
315.312	82.69
315.542	88.69
315.771	91.69
316.001	83.69
316.23	76.69
316.46	89.69
316.689	78.69
316.919	83.69
317.148	80.69
317.377	95.69
317.607	78.69
317.836	87.69
318.065	82.69
318.295	78.69
318.524	87.69
318.753	76.69
318.983	94.69
319.212	86.69
319.441	79.69
319.67	80.69
319.9	75.69
320.129	99.69
320.358	94.69
320.587	104.69
320.816	82.69
321.046	84.69
321.275	88.69
321.504	85.69
321.733	103.69
321.962	88.69
322.191	91.69
322.42	102.69
322.649	100.69
322.878	96.69
323.108	78.69
323.337	92.69
323.566	76.69
323.795	64.69
324.024	80.69
324.253	95.69
324.482	85.69
324.71	93.69
324.939	94.69
325.168	71.69
325.397	80.69
325.626	84.69
325.855	94.69
326.084	85.69
326.313	81.69
326.542	75.69
326.77	87.69
326.999	80.69
327.228	75.69
327.457	77.69
327.686	98.69
327.914	83.69
328.143	93.69
328.372	83.69
328.6	82.69
328.829	79.69
329.058	77.69
329.287	92.69
329.515	87.69
329.744	91.69
329.972	92.69
330.201	91.69
330.43	93.69
330.658	74.69
330.887	95.69
331.115	88.69
331.344	86.69
331.572	86.69
331.801	81.69
332.03	83.69
332.258	91.69
332.486	90.69
332.715	79.69
332.943	85.69
333.172	107.69
333.4	86.69
333.629	84.69
333.857	89.69
334.085	82.69
334.314	90.69
334.542	96.69
334.771	82.69
334.999	87.69
335.227	85.69
335.455	88.69
335.684	79.69
335.912	96.69
336.14	85.69
336.369	68.69
336.597	68.69
336.825	81.69
337.053	79.69
337.281	82.69
337.51	80.69
337.738	91.69
337.966	90.69
338.194	86.69
338.422	88.69
338.65	92.69
338.878	99.69
339.106	84.69
339.334	95.69
339.562	89.69
339.79	83.69
340.018	82.69
340.246	76.69
340.474	91.69
340.702	100.69
340.93	106.69
341.158	78.69
341.386	84.69
341.614	81.69
341.842	78.69
342.07	86.69
342.298	74.69
342.526	87.69
342.754	91.69
342.981	93.69
343.209	95.69
343.437	92.69
343.665	85.69
343.893	88.69
344.12	83.69
344.348	83.69
344.576	79.69
344.804	85.69
345.031	84.69
345.259	82.69
345.487	85.69
345.714	88.69
345.942	88.69
346.17	88.69
346.397	80.69
346.625	78.69
346.853	85.69
347.08	86.69
347.308	78.69
347.535	94.69
347.763	82.69
347.99	80.69
348.218	71.69
348.445	89.69
348.673	78.69
348.9	107.69
349.128	98.69
349.355	105.69
349.583	93.69
349.81	93.69
350.037	89.69
350.265	87.69
350.492	89.69
350.72	84.69
350.947	88.69
351.174	89.69
351.402	84.69
351.629	82.69
351.856	94.69
352.083	87.69
352.311	74.69
352.538	75.69
352.765	96.69
352.992	72.69
353.22	96.69
353.447	86.69
353.674	99.69
353.901	88.69
354.128	87.69
354.355	84.69
354.583	80.69
354.81	92.69
355.037	91.69
355.264	81.69
355.491	86.69
355.718	88.69
355.945	85.69
356.172	82.69
356.399	86.69
356.626	77.69
356.853	73.69
357.08	91.69
357.307	81.69
357.534	72.69
357.761	96.69
357.988	79.69
358.215	84.69
358.441	85.69
358.668	73.69
358.895	85.69
359.122	92.69
359.349	88.69
359.576	87.69
359.802	85.69
360.029	76.69
360.256	82.69
360.483	72.69
360.709	85.69
360.936	79.69
361.163	79.69
361.39	83.69
361.616	84.69
361.843	79.69
362.07	86.69
362.296	89.69
362.523	82.69
362.749	90.69
362.976	75.69
363.203	88.69
363.429	75.69
363.656	85.69
363.882	80.69
364.109	78.69
364.335	78.69
364.562	81.69
364.788	90.69
365.015	82.69
365.241	86.69
365.468	78.69
365.694	79.69
365.92	90.69
366.147	83.69
366.373	78.69
366.599	95.69
366.826	89.69
367.052	89.69
367.278	86.69
367.505	90.69
367.731	95.69
367.957	78.69
368.184	86.69
368.41	74.69
368.636	90.69
368.862	98.69
369.089	77.69
369.315	82.69
369.541	77.69
369.767	84.69
369.993	86.69
370.219	93.69
370.445	84.69
370.672	76.69
370.898	94.69
371.124	75.69
371.35	94.69
371.576	85.69
371.802	83.69
372.028	74.69
372.254	73.69
372.48	85.69
372.706	84.69
372.932	84.69
373.158	88.69
373.384	81.69
373.61	95.69
373.835	92.69
374.061	64.69
374.287	86.69
374.513	79.69
374.739	78.69
374.965	87.69
375.191	78.69
375.416	78.69
375.642	100.69
375.868	87.69
376.094	82.69
376.319	82.69
376.545	88.69
376.771	76.69
376.997	91.69
377.222	79.69
377.448	94.69
377.674	83.69
377.899	95.69
378.125	89.69
378.35	84.69
378.576	88.69
378.802	84.69
379.027	91.69
379.253	79.69
379.478	68.69
379.704	84.69
379.929	86.69
380.155	85.69
380.38	87.69
380.606	82.69
380.831	84.69
381.057	87.69
381.282	84.69
381.507	75.69
381.733	86.69
381.958	82.69
382.184	85.69
382.409	78.69
382.634	82.69
382.86	86.69
383.085	99.69
383.31	88.69
383.535	70.69
383.761	90.69
383.986	90.69
384.211	93.69
384.436	79.69
384.662	92.69
384.887	85.69
385.112	97.69
385.337	90.69
385.562	93.69
385.787	76.69
386.013	86.69
386.238	68.69
386.463	88.69
386.688	93.69
386.913	80.69
387.138	82.69
387.363	89.69
387.588	91.69
387.813	90.69
388.038	85.69
388.263	93.69
388.488	77.69
388.713	91.69
388.938	76.69
389.163	79.69
389.387	87.69
389.612	91.69
389.837	82.69
390.062	92.69
390.287	99.69
390.512	79.69
390.736	82.69
390.961	89.69
391.186	83.69
391.411	96.69
391.636	80.69
391.86	78.69
392.085	82.69
392.31	86.69
392.534	96.69
392.759	101.69
392.984	94.69
393.208	79.69
393.433	72.69
393.658	75.69
393.882	87.69
394.107	99.69
394.331	85.69
394.556	82.69
394.78	88.69
395.005	84.69
395.229	84.69
395.454	94.69
395.678	88.69
395.903	92.69
396.127	86.69
396.352	74.69
396.576	76.69
396.801	95.69
397.025	77.69
397.249	89.69
397.474	95.69
397.698	78.69
397.922	78.69
398.147	88.69
398.371	86.69
398.595	102.69
398.82	86.69
399.044	95.69
399.268	88.69
399.492	99.69
399.717	83.69
399.941	101.69
400.165	110.69
400.389	86.69
400.613	99.69
400.837	82.69
401.062	87.69
401.286	99.69
401.51	101.69
401.734	87.69
401.958	88.69
402.182	85.69
402.406	81.69
402.63	87.69
402.854	89.69
403.078	81.69
403.302	79.69
403.526	99.69
403.75	82.69
403.974	87.69
404.198	101.69
404.422	84.69
404.645	84.69
404.869	72.69
405.093	80.69
405.317	79.69
405.541	93.69
405.765	86.69
405.988	97.69
406.212	101.69
406.436	99.69
406.66	94.69
406.883	93.69
407.107	96.69
407.331	84.69
407.555	95.69
407.778	81.69
408.002	92.69
408.226	88.69
408.449	82.69
408.673	90.69
408.896	94.69
409.12	90.69
409.344	91.69
409.567	91.69
409.791	83.69
410.014	101.69
410.238	78.69
410.461	71.69
410.685	99.69
410.908	87.69
411.132	86.69
411.355	70.69
411.578	90.69
411.802	88.69
412.025	93.69
412.249	88.69
412.472	83.69
412.695	79.69
412.919	86.69
413.142	88.69
413.365	91.69
413.589	83.69
413.812	81.69
414.035	84.69
414.258	88.69
414.482	88.69
414.705	87.69
414.928	79.69
415.151	88.69
415.374	95.69
415.597	88.69
415.821	100.69
416.044	90.69
416.267	92.69
416.49	98.69
416.713	91.69
416.936	100.69
417.159	95.69
417.382	95.69
417.605	78.69
417.828	91.69
418.051	79.69
418.274	82.69
418.497	85.69
418.72	82.69
418.943	88.69
419.166	84.69
419.389	93.69
419.611	82.69
419.834	88.69
420.057	98.69
420.28	100.69
420.503	83.69
420.726	94.69
420.948	91.69
421.171	84.69
421.394	90.69
421.617	93.69
421.839	103.69
422.062	72.69
422.285	87.69
422.507	84.69
422.73	78.69
422.953	82.69
423.175	86.69
423.398	90.69
423.621	102.69
423.843	87.69
424.066	85.69
424.288	80.69
424.511	91.69
424.733	99.69
424.956	82.69
425.178	94.69
425.401	74.69
425.623	81.69
425.846	93.69
426.068	88.69
426.291	87.69
426.513	84.69
426.735	91.69
426.958	98.69
427.18	85.69
427.402	92.69
427.625	76.69
427.847	91.69
428.069	88.69
428.292	85.69
428.514	83.69
428.736	84.69
428.958	77.69
429.181	85.69
429.403	85.69
429.625	96.69
429.847	74.69
430.069	87.69
430.292	78.69
430.514	95.69
430.736	89.69
430.958	82.69
431.18	89.69
431.402	90.69
431.624	89.69
431.846	93.69
432.068	78.69
432.29	79.69
432.512	86.69
432.734	79.69
432.956	83.69
433.178	110.69
433.4	75.69
433.622	77.69
433.844	85.69
434.066	84.69
434.287	82.69
434.509	85.69
434.731	72.69
434.953	96.69
435.175	96.69
435.397	91.69
435.618	75.69
435.84	80.69
436.062	70.69
436.284	90.69
436.505	92.69
436.727	92.69
436.949	76.69
437.17	76.69
437.392	84.69
437.614	87.69
437.835	86.69
438.057	83.69
438.278	72.69
438.5	92.69
438.721	80.69
438.943	98.69
439.165	102.69
439.386	87.69
439.608	93.69
439.829	116.69
440.05	93.69
440.272	87.69
440.493	79.69
440.715	98.69
440.936	86.69
441.158	92.69
441.379	85.69
441.6	90.69
441.822	86.69
442.043	85.69
442.264	91.69
442.486	100.69
442.707	87.69
442.928	79.69
443.149	89.69
443.371	89.69
443.592	80.69
443.813	92.69
444.034	83.69
444.255	84.69
444.476	94.69
444.698	83.69
444.919	80.69
445.14	162.69
445.361	121.69
445.582	90.69
445.803	93.69
446.024	82.69
446.245	112.69
446.466	82.69
446.687	76.69
446.908	79.69
447.129	88.69
447.35	87.69
447.571	95.69
447.792	88.69
448.013	83.69
448.234	100.69
448.455	85.69
448.675	76.69
448.896	84.69
449.117	85.69
449.338	76.69
449.559	94.69
449.779	94.69
450	89.69
450.221	78.69
450.442	79.69
450.662	90.69
450.883	86.69
451.104	78.69
451.324	78.69
451.545	93.69
451.766	111.69
451.986	90.69
452.207	90.69
452.428	87.69
452.648	86.69
452.869	84.69
453.089	76.69
453.31	80.69
453.53	88.69
453.751	78.69
453.971	76.69
454.192	87.69
454.412	86.69
454.633	82.69
454.853	86.69
455.073	88.69
455.294	74.69
455.514	86.69
455.734	80.69
455.955	79.69
456.175	81.69
456.395	81.69
456.616	99.69
456.836	98.69
457.056	94.69
457.276	85.69
457.497	85.69
457.717	81.69
457.937	73.69
458.157	94.69
458.377	73.69
458.598	95.69
458.818	84.69
459.038	88.69
459.258	89.69
459.478	87.69
459.698	84.69
459.918	76.69
460.138	93.69
460.358	80.69
460.578	109.69
460.798	89.69
461.018	85.69
461.238	82.69
461.458	98.69
461.678	94.69
461.898	88.69
462.118	80.69
462.338	100.69
462.558	95.69
462.777	85.69
462.997	116.69
463.217	88.69
463.437	100.69
463.657	91.69
463.876	86.69
464.096	85.69
464.316	87.69
464.536	87.69
464.755	91.69
464.975	94.69
465.195	83.69
465.414	73.69
465.634	90.69
465.854	74.69
466.073	99.69
466.293	83.69
466.512	91.69
466.732	77.69
466.951	85.69
467.171	101.69
467.391	77.69
467.61	68.69
467.829	80.69
468.049	79.69
468.268	82.69
468.488	93.69
468.707	93.69
468.927	87.69
469.146	86.69
469.365	77.69
469.585	71.69
469.804	76.69
470.023	99.69
470.243	78.69
470.462	90.69
470.681	90.69
470.901	82.69
471.12	93.69
471.339	95.69
471.558	81.69
471.777	88.69
471.997	83.69
472.216	80.69
472.435	84.69
472.654	85.69
472.873	91.69
473.092	91.69
473.311	89.69
473.53	96.69
473.749	89.69
473.968	89.69
474.187	75.69
474.406	87.69
474.625	88.69
474.844	89.69
475.063	86.69
475.282	94.69
475.501	73.69
475.72	80.69
475.939	86.69
476.158	76.69
476.377	75.69
476.596	87.69
476.814	98.69
477.033	86.69
477.252	63.69
477.471	85.69
477.69	90.69
477.908	85.69
478.127	91.69
478.346	96.69
478.564	92.69
478.783	102.69
479.002	86.69
479.22	93.69
479.439	92.69
479.658	89.69
479.876	74.69
480.095	89.69
480.313	94.69
480.532	90.69
480.751	96.69
480.969	84.69
481.188	76.69
481.406	87.69
481.624	77.69
481.843	94.69
482.061	85.69
482.28	87.69
482.498	78.69
482.717	83.69
482.935	78.69
483.153	87.69
483.372	94.69
483.59	92.69
483.808	100.69
484.027	100.69
484.245	91.69
484.463	80.69
484.681	96.69
484.9	92.69
485.118	73.69
485.336	75.69
485.554	80.69
485.772	89.69
485.99	94.69
486.209	85.69
486.427	78.69
486.645	82.69
486.863	96.69
487.081	92.69
487.299	81.69
487.517	85.69
487.735	102.69
487.953	89.69
488.171	87.69
488.389	106.69
488.607	93.69
488.825	89.69
489.043	79.69
489.261	91.69
489.479	92.69
489.696	93.69
489.914	100.69
490.132	86.69
490.35	82.69
490.568	104.69
490.786	96.69
491.003	82.69
491.221	88.69
491.439	90.69
491.657	90.69
491.874	92.69
492.092	88.69
492.31	98.69
492.527	73.69
492.745	93.69
492.963	90.69
493.18	90.69
493.398	83.69
493.615	99.69
493.833	101.69
494.05	73.69
494.268	87.69
494.485	85.69
494.703	79.69
494.92	105.69
495.138	72.69
495.355	81.69
495.573	85.69
495.79	82.69
496.008	74.69
496.225	86.69
496.442	86.69
496.66	94.69
496.877	91.69
497.094	102.69
497.312	80.69
497.529	90.69
497.746	98.69
497.963	104.69
498.181	97.69
498.398	91.69
498.615	96.69
498.832	88.69
499.049	99.69
499.267	95.69
499.484	98.69
499.701	98.69
499.918	103.69
500.135	105.69
500.352	116.69
500.569	118.69
500.786	119.69
501.003	90.69
501.22	106.69
501.437	96.69
501.654	96.69
501.871	108.69
502.088	109.69
502.305	95.69
502.522	87.69
502.739	96.69
502.956	98.69
503.172	98.69
503.389	96.69
503.606	84.69
503.823	108.69
504.04	105.69
504.256	82.69
504.473	88.69
504.69	83.69
504.907	91.69
505.123	92.69
505.34	102.69
505.557	86.69
505.773	103.69
505.99	87.69
506.207	84.69
506.423	95.69
506.64	86.69
506.856	85.69
507.073	90.69
507.289	75.69
507.506	95.69
507.722	92.69
507.939	81.69
508.155	85.69
508.372	88.69
508.588	80.69
508.805	75.69
509.021	92.69
509.238	85.69
509.454	95.69
509.67	94.69
509.887	83.69
510.103	74.69
510.319	84.69
510.536	92.69
510.752	92.69
510.968	99.69
511.184	93.69
511.401	99.69
511.617	95.69
511.833	81.69
512.049	92.69
512.265	88.69
512.481	89.69
512.698	90.69
512.914	92.69
513.13	86.69
513.346	80.69
513.562	89.69
513.778	90.69
513.994	98.69
514.21	93.69
514.426	82.69
514.642	95.69
514.858	85.69
515.074	86.69
515.29	83.69
515.506	83.69
515.721	93.69
515.937	96.69
516.153	88.69
516.369	92.69
516.585	87.69
516.801	94.69
517.016	88.69
517.232	94.69
517.448	94.69
517.664	96.69
517.879	100.69
518.095	102.69
518.311	91.69
518.527	93.69
518.742	85.69
518.958	102.69
519.173	85.69
519.389	75.69
