Data from BG_HRD10591_054.txt Node
Date: Fri May 16 15:27:14 EDT 2025
User: Yrep
Spectrometer: HR+D1059
Trigger mode: 1
Integration Time (sec): 1.000000E-1
Scans to average: 1
Electric dark correction enabled: true
Nonlinearity correction enabled: false
Boxcar width: 0
XAxis mode: Wavelengths
Number of Pixels in Spectrum: 2048
>>>>>Begin Spectral Data<<<<<
223.165	-18
223.4	-18
223.635	-18
223.869	-18
224.104	-13
224.338	-19
224.573	-20
224.808	-21
225.042	-5
225.277	-10
225.511	-3
225.746	5
225.98	4
226.215	13
226.449	24
226.683	28
226.918	22
227.152	31
227.387	47
227.621	27
227.856	44
228.09	38
228.324	55
228.559	51
228.793	50
229.027	57
229.262	70
229.496	66
229.73	67
229.964	85
230.199	79
230.433	61
230.667	73
230.901	66
231.136	85
231.37	80
231.604	85
231.838	59
232.072	108
232.306	69
232.541	71
232.775	78
233.009	88
233.243	87
233.477	83
233.711	70
233.945	72
234.179	92
234.413	76
234.647	74
234.881	76
235.115	88
235.349	72
235.583	82
235.817	75
236.051	74
236.285	69
236.519	83
236.753	79
236.987	76
237.221	77
237.455	87
237.689	85
237.922	66
238.156	75
238.39	83
238.624	70
238.858	82
239.091	80
239.325	75
239.559	74
239.793	80
240.027	75
240.26	77
240.494	82
240.728	87
240.961	66
241.195	80
241.429	66
241.662	83
241.896	84
242.13	72
242.363	73
242.597	79
242.83	73
243.064	68
243.298	67
243.531	74
243.765	63
243.998	65
244.232	71
244.465	61
244.699	75
244.932	75
245.166	76
245.399	62
245.633	71
245.866	71
246.099	77
246.333	73
246.566	81
246.8	75
247.033	80
247.266	87
247.5	78
247.733	75
247.966	78
248.2	63
248.433	80
248.666	78
248.899	92
249.133	78
249.366	76
249.599	75
249.832	72
250.066	81
250.299	88
250.532	88
250.765	70
250.998	84
251.231	81
251.465	99
251.698	99
251.931	78
252.164	87
252.397	78
252.63	86
252.863	83
253.096	86
253.329	71
253.562	76
253.795	90
254.028	74
254.261	84
254.494	86
254.727	80
254.96	90
255.193	89
255.426	86
255.659	87
255.892	79
256.124	88
256.357	82
256.59	90
256.823	79
257.056	68
257.289	73
257.521	67
257.754	81
257.987	80
258.22	85
258.452	73
258.685	81
258.918	68
259.151	95
259.383	81
259.616	75
259.849	79
260.081	81
260.314	86
260.547	83
260.779	80
261.012	87
261.244	80
261.477	97
261.71	95
261.942	73
262.175	74
262.407	84
262.64	81
262.872	83
263.105	79
263.337	96
263.57	88
263.802	76
264.035	88
264.267	81
264.499	71
264.732	90
264.964	79
265.197	89
265.429	81
265.661	89
265.894	89
266.126	78
266.358	85
266.591	86
266.823	71
267.055	87
267.287	91
267.52	91
267.752	92
267.984	76
268.216	65
268.448	101
268.681	77
268.913	85
269.145	96
269.377	105
269.609	84
269.841	72
270.073	87
270.306	75
270.538	89
270.77	77
271.002	90
271.234	81
271.466	104
271.698	76
271.93	89
272.162	85
272.394	80
272.626	77
272.858	97
273.09	83
273.322	97
273.553	71
273.785	85
274.017	75
274.249	79
274.481	74
274.713	87
274.945	94
275.176	78
275.408	85
275.64	81
275.872	75
276.104	92
276.335	94
276.567	74
276.799	81
277.031	75
277.262	74
277.494	83
277.726	100
277.957	74
278.189	85
278.421	88
278.652	80
278.884	71
279.115	87
279.347	99
279.579	92
279.81	93
280.042	91
280.273	85
280.505	100
280.736	94
280.968	88
281.199	82
281.431	90
281.662	79
281.894	83
282.125	77
282.356	80
282.588	101
282.819	87
283.051	96
283.282	83
283.513	79
283.745	86
283.976	96
284.207	94
284.439	81
284.67	100
284.901	79
285.132	75
285.364	78
285.595	89
285.826	74
286.057	86
286.288	93
286.52	86
286.751	95
286.982	96
287.213	94
287.444	101
287.675	92
287.906	81
288.138	92
288.369	86
288.6	85
288.831	92
289.062	88
289.293	103
289.524	79
289.755	80
289.986	78
290.217	93
290.448	88
290.679	84
290.91	85
291.141	89
291.371	86
291.602	95
291.833	92
292.064	71
292.295	91
292.526	94
292.757	72
292.987	71
293.218	89
293.449	87
293.68	89
293.91	81
294.141	79
294.372	80
294.603	96
294.833	79
295.064	83
295.295	80
295.525	79
295.756	78
295.987	80
296.217	78
296.448	84
296.679	76
296.909	98
297.14	89
297.37	88
297.601	101
297.831	89
298.062	88
298.292	86
298.523	89
298.753	66
298.984	81
299.214	76
299.445	97
299.675	89
299.905	82
300.136	105
300.366	75
300.597	105
300.827	71
301.057	94
301.288	94
301.518	95
301.748	83
301.979	104
302.209	84
302.439	84
302.669	89
302.9	77
303.13	62
303.36	87
303.59	86
303.82	76
304.051	75
304.281	87
304.511	85
304.741	78
304.971	87
305.201	72
305.431	88
305.661	88
305.891	88
306.121	95
306.352	94
306.582	101
306.812	81
307.042	91
307.272	78
307.502	68
307.731	93
307.961	100
308.191	91
308.421	88
308.651	81
308.881	85
309.111	73
309.341	97
309.571	88
309.8	90
310.03	83
310.26	93
310.49	90
310.72	87
310.949	79
311.179	85
311.409	75
311.639	77
311.868	86
312.098	98
312.328	91
312.557	83
312.787	81
313.017	96
313.246	103
313.476	83
313.706	111
313.935	90
314.165	78
314.394	85
314.624	80
314.853	81
315.083	88
315.312	83
315.542	72
315.771	92
316.001	86
316.23	93
316.46	103
316.689	90
316.919	77
317.148	99
317.377	84
317.607	81
317.836	94
318.065	97
318.295	84
318.524	91
318.753	84
318.983	95
319.212	86
319.441	79
319.67	82
319.9	80
320.129	85
320.358	87
320.587	80
320.816	83
321.046	94
321.275	89
321.504	76
321.733	81
321.962	89
322.191	76
322.42	83
322.649	87
322.878	78
323.108	81
323.337	90
323.566	92
323.795	81
324.024	86
324.253	80
324.482	80
324.71	85
324.939	97
325.168	100
325.397	91
325.626	71
325.855	78
326.084	86
326.313	88
326.542	91
326.77	79
326.999	88
327.228	73
327.457	91
327.686	104
327.914	78
328.143	87
328.372	86
328.6	92
328.829	94
329.058	81
329.287	83
329.515	80
329.744	88
329.972	98
330.201	90
330.43	85
330.658	78
330.887	89
331.115	88
331.344	99
331.572	98
331.801	79
332.03	96
332.258	88
332.486	78
332.715	72
332.943	84
333.172	84
333.4	78
333.629	102
333.857	93
334.085	96
334.314	87
334.542	81
334.771	87
334.999	92
335.227	93
335.455	73
335.684	99
335.912	91
336.14	83
336.369	86
336.597	79
336.825	83
337.053	86
337.281	89
337.51	75
337.738	75
337.966	85
338.194	89
338.422	91
338.65	87
338.878	76
339.106	77
339.334	87
339.562	98
339.79	85
340.018	90
340.246	88
340.474	78
340.702	89
340.93	78
341.158	83
341.386	81
341.614	86
341.842	90
342.07	92
342.298	87
342.526	72
342.754	86
342.981	81
343.209	75
343.437	79
343.665	87
343.893	78
344.12	91
344.348	90
344.576	81
344.804	75
345.031	91
345.259	91
345.487	101
345.714	87
345.942	85
346.17	85
346.397	81
346.625	94
346.853	87
347.08	95
347.308	98
347.535	79
347.763	83
347.99	89
348.218	80
348.445	91
348.673	80
348.9	87
349.128	92
349.355	83
349.583	89
349.81	76
350.037	93
350.265	90
350.492	90
350.72	94
350.947	82
351.174	84
351.402	81
351.629	85
351.856	91
352.083	84
352.311	97
352.538	84
352.765	79
352.992	90
353.22	92
353.447	102
353.674	99
353.901	85
354.128	95
354.355	86
354.583	87
354.81	85
355.037	86
355.264	99
355.491	79
355.718	87
355.945	83
356.172	83
356.399	82
356.626	84
356.853	87
357.08	85
357.307	102
357.534	77
357.761	73
357.988	84
358.215	76
358.441	85
358.668	80
358.895	78
359.122	94
359.349	71
359.576	88
359.802	86
360.029	88
360.256	83
360.483	87
360.709	77
360.936	87
361.163	77
361.39	92
361.616	86
361.843	83
362.07	97
362.296	77
362.523	99
362.749	86
362.976	79
363.203	99
363.429	79
363.656	92
363.882	83
364.109	82
364.335	81
364.562	89
364.788	84
365.015	80
365.241	83
365.468	94
365.694	91
365.92	83
366.147	83
366.373	87
366.599	85
366.826	77
367.052	77
367.278	86
367.505	95
367.731	78
367.957	76
368.184	69
368.41	83
368.636	93
368.862	96
369.089	79
369.315	56
369.541	88
369.767	99
369.993	81
370.219	101
370.445	81
370.672	79
370.898	87
371.124	87
371.35	92
371.576	71
371.802	99
372.028	97
372.254	91
372.48	84
372.706	89
372.932	88
373.158	73
373.384	83
373.61	92
373.835	92
374.061	90
374.287	71
374.513	85
374.739	78
374.965	85
375.191	80
375.416	94
375.642	95
375.868	87
376.094	89
376.319	97
376.545	80
376.771	93
376.997	87
377.222	95
377.448	84
377.674	82
377.899	86
378.125	68
378.35	79
378.576	80
378.802	64
379.027	91
379.253	96
379.478	91
379.704	96
379.929	104
380.155	75
380.38	105
380.606	86
380.831	85
381.057	87
381.282	76
381.507	80
381.733	80
381.958	83
382.184	82
382.409	88
382.634	80
382.86	82
383.085	80
383.31	79
383.535	91
383.761	77
383.986	81
384.211	77
384.436	84
384.662	84
384.887	73
385.112	87
385.337	78
385.562	84
385.787	88
386.013	99
386.238	89
386.463	94
386.688	103
386.913	103
387.138	101
387.363	83
387.588	93
387.813	93
388.038	93
388.263	78
388.488	81
388.713	80
388.938	81
389.163	84
389.387	83
389.612	91
389.837	95
390.062	91
390.287	72
390.512	77
390.736	96
390.961	91
391.186	75
391.411	99
391.636	96
391.86	99
392.085	86
392.31	64
392.534	83
392.759	105
392.984	83
393.208	89
393.433	90
393.658	81
393.882	90
394.107	87
394.331	80
394.556	83
394.78	78
395.005	89
395.229	79
395.454	93
395.678	91
395.903	99
396.127	88
396.352	75
396.576	87
396.801	100
397.025	76
397.249	84
397.474	96
397.698	83
397.922	85
398.147	89
398.371	81
398.595	81
398.82	83
399.044	79
399.268	78
399.492	88
399.717	82
399.941	83
400.165	87
400.389	93
400.613	81
400.837	94
401.062	90
401.286	82
401.51	95
401.734	83
401.958	81
402.182	79
402.406	90
402.63	82
402.854	92
403.078	92
403.302	84
403.526	102
403.75	80
403.974	85
404.198	88
404.422	78
404.645	85
404.869	82
405.093	84
405.317	83
405.541	80
405.765	83
405.988	97
406.212	93
406.436	90
406.66	90
406.883	79
407.107	91
407.331	73
407.555	97
407.778	91
408.002	89
408.226	84
408.449	81
408.673	85
408.896	81
409.12	76
409.344	94
409.567	84
409.791	79
410.014	94
410.238	83
410.461	83
410.685	87
410.908	91
411.132	88
411.355	93
411.578	77
411.802	76
412.025	76
412.249	75
412.472	87
412.695	79
412.919	84
413.142	89
413.365	83
413.589	83
413.812	86
414.035	81
414.258	94
414.482	82
414.705	98
414.928	79
415.151	84
415.374	83
415.597	75
415.821	75
416.044	105
416.267	93
416.49	99
416.713	94
416.936	83
417.159	85
417.382	86
417.605	101
417.828	78
418.051	94
418.274	89
418.497	80
418.72	80
418.943	82
419.166	85
419.389	91
419.611	103
419.834	79
420.057	83
420.28	87
420.503	100
420.726	98
420.948	84
421.171	90
421.394	101
421.617	91
421.839	87
422.062	76
422.285	87
422.507	85
422.73	86
422.953	78
423.175	89
423.398	87
423.621	90
423.843	85
424.066	97
424.288	75
424.511	79
424.733	83
424.956	91
425.178	92
425.401	90
425.623	87
425.846	92
426.068	105
426.291	94
426.513	88
426.735	92
426.958	92
427.18	78
427.402	89
427.625	80
427.847	76
428.069	81
428.292	79
428.514	85
428.736	87
428.958	89
429.181	85
429.403	85
429.625	88
429.847	78
430.069	74
430.292	79
430.514	80
430.736	80
430.958	81
431.18	87
431.402	94
431.624	84
431.846	90
432.068	73
432.29	77
432.512	88
432.734	80
432.956	105
433.178	85
433.4	91
433.622	82
433.844	94
434.066	85
434.287	87
434.509	87
434.731	92
434.953	63
435.175	71
435.397	75
435.618	81
435.84	86
436.062	85
436.284	86
436.505	89
436.727	94
436.949	97
437.17	76
437.392	89
437.614	71
437.835	77
438.057	79
438.278	78
438.5	92
438.721	85
438.943	84
439.165	96
439.386	100
439.608	79
439.829	80
440.05	89
440.272	95
440.493	91
440.715	100
440.936	83
441.158	94
441.379	76
441.6	90
441.822	85
442.043	85
442.264	83
442.486	73
442.707	89
442.928	77
443.149	87
443.371	83
443.592	79
443.813	86
444.034	86
444.255	99
444.476	85
444.698	78
444.919	89
445.14	164
445.361	127
445.582	75
445.803	96
446.024	75
446.245	80
446.466	86
446.687	88
446.908	93
447.129	84
447.35	91
447.571	95
447.792	80
448.013	83
448.234	88
448.455	85
448.675	83
448.896	76
449.117	86
449.338	83
449.559	65
449.779	81
450	90
450.221	65
450.442	63
450.662	79
450.883	82
451.104	87
451.324	87
451.545	79
451.766	83
451.986	89
452.207	90
452.428	92
452.648	88
452.869	81
453.089	80
453.31	85
453.53	84
453.751	86
453.971	77
454.192	80
454.412	85
454.633	81
454.853	101
455.073	86
455.294	79
455.514	69
455.734	102
455.955	83
456.175	94
456.395	85
456.616	98
456.836	88
457.056	91
457.276	96
457.497	86
457.717	84
457.937	84
458.157	86
458.377	95
458.598	78
458.818	88
459.038	82
459.258	73
459.478	94
459.698	78
459.918	88
460.138	82
460.358	85
460.578	76
460.798	75
461.018	91
461.238	88
461.458	106
461.678	99
461.898	87
462.118	76
462.338	92
462.558	76
462.777	93
462.997	97
463.217	93
463.437	92
463.657	80
463.876	95
464.096	86
464.316	99
464.536	84
464.755	96
464.975	96
465.195	72
465.414	85
465.634	96
465.854	82
466.073	77
466.293	78
466.512	79
466.732	81
466.951	88
467.171	92
467.391	72
467.61	94
467.829	76
468.049	80
468.268	76
468.488	80
468.707	97
468.927	95
469.146	77
469.365	94
469.585	73
469.804	72
470.023	89
470.243	81
470.462	83
470.681	84
470.901	85
471.12	84
471.339	85
471.558	99
471.777	89
471.997	77
472.216	89
472.435	96
472.654	83
472.873	96
473.092	81
473.311	68
473.53	93
473.749	87
473.968	77
474.187	73
474.406	76
474.625	95
474.844	90
475.063	69
475.282	83
475.501	93
475.72	78
475.939	89
476.158	87
476.377	105
476.596	78
476.814	89
477.033	84
477.252	80
477.471	84
477.69	84
477.908	69
478.127	83
478.346	82
478.564	89
478.783	92
479.002	87
479.22	91
479.439	74
479.658	77
479.876	85
480.095	86
480.313	73
480.532	103
480.751	89
480.969	79
481.188	88
481.406	106
481.624	92
481.843	67
482.061	85
482.28	78
482.498	101
482.717	88
482.935	81
483.153	85
483.372	77
483.59	101
483.808	87
484.027	83
484.245	82
484.463	92
484.681	93
484.9	81
485.118	84
485.336	96
485.554	84
485.772	85
485.99	71
486.209	101
486.427	88
486.645	96
486.863	83
487.081	81
487.299	81
487.517	81
487.735	88
487.953	87
488.171	97
488.389	79
488.607	90
488.825	94
489.043	73
489.261	91
489.479	90
489.696	85
489.914	80
490.132	95
490.35	105
490.568	66
490.786	79
491.003	65
491.221	76
491.439	87
491.657	99
491.874	93
492.092	92
492.31	80
492.527	74
492.745	83
492.963	84
493.18	84
493.398	93
493.615	75
493.833	74
494.05	89
494.268	89
494.485	99
494.703	87
494.92	87
495.138	88
495.355	75
495.573	109
495.79	102
496.008	92
496.225	93
496.442	75
496.66	92
496.877	92
497.094	101
497.312	90
497.529	90
497.746	88
497.963	93
498.181	89
498.398	106
498.615	93
498.832	83
499.049	91
499.267	97
499.484	96
499.701	101
499.918	99
500.135	103
500.352	106
500.569	99
500.786	106
501.003	96
501.22	90
501.437	102
501.654	94
501.871	85
502.088	99
502.305	99
502.522	106
502.739	88
502.956	98
503.172	96
503.389	96
503.606	88
503.823	83
504.04	90
504.256	92
504.473	95
504.69	91
504.907	82
505.123	75
505.34	83
505.557	105
505.773	102
505.99	85
506.207	83
506.423	92
506.64	94
506.856	85
507.073	101
507.289	83
507.506	96
507.722	103
507.939	101
508.155	93
508.372	93
508.588	78
508.805	92
509.021	87
509.238	91
509.454	91
509.67	75
509.887	83
510.103	87
510.319	85
510.536	87
510.752	94
510.968	73
511.184	92
511.401	74
511.617	87
511.833	83
512.049	69
512.265	89
512.481	79
512.698	84
512.914	92
513.13	94
513.346	73
513.562	95
513.778	84
513.994	77
514.21	83
514.426	91
514.642	86
514.858	73
515.074	91
515.29	89
515.506	86
515.721	71
515.937	94
516.153	95
516.369	79
516.585	91
516.801	86
517.016	98
517.232	87
517.448	94
517.664	90
517.879	75
518.095	83
518.311	90
518.527	85
518.742	95
518.958	92
519.173	91
519.389	103
519.605	87
519.82	77
520.036	96
520.251	99
520.467	99
520.682	83
520.898	93
521.113	84
521.329	89
521.544	92
521.76	75
521.975	87
522.19	78
522.406	95
522.621	79
522.836	102
523.052	97
523.267	92
523.482	74
523.698	84
523.913	96
524.128	81
524.343	92
524.559	101
524.774	82
524.989	91
525.204	90
525.419	91
525.634	86
525.849	96
526.064	93
526.28	78
526.495	69
526.71	94
526.925	79
527.14	85
527.355	83
527.57	74
527.785	80
527.999	92
528.214	95
528.429	91
528.644	95
528.859	91
529.074	84
529.289	80
529.503	94
529.718	94
529.933	100
530.148	93
530.363	103
530.577	97
530.792	89
531.007	78
531.221	88
531.436	80
531.651	83
531.865	93
532.08	93
532.295	85
532.509	89
532.724	88
532.938	84
533.153	92
533.367	84
533.582	79
533.796	99
534.011	80
534.225	88
534.44	77
534.654	73
534.868	80
535.083	84
535.297	83
535.511	84
535.726	81
535.94	88
536.154	87
536.369	81
536.583	80
536.797	100
537.011	96
537.225	99
537.44	77
537.654	87
537.868	79
538.082	83
538.296	80
538.51	91
538.724	88
538.938	92
539.153	91
539.367	83
539.581	79
539.795	80
540.009	93
540.222	96
540.436	82
540.65	75
540.864	91
541.078	91
541.292	97
541.506	83
541.72	95
541.934	81
542.147	85
542.361	90
542.575	82
542.789	80
543.002	79
543.216	88
543.43	87
543.644	79
543.857	105
544.071	93
544.285	103
544.498	90
544.712	88
544.925	88
545.139	80
545.352	89
545.566	77
545.779	85
545.993	76
546.206	84
546.42	85
546.633	100
546.847	78
547.06	93
547.274	86
547.487	95
547.7	82
547.914	83
548.127	88
548.34	93
548.554	97
548.767	95
548.98	99
549.193	83
549.407	85
549.62	99
549.833	86
550.046	91
550.259	97
550.473	87
550.686	83
550.899	85
551.112	76
551.325	76
551.538	92
551.751	95
551.964	76
552.177	95
552.39	92
552.603	89
552.816	100
553.029	91
553.242	95
553.455	74
553.667	88
553.88	101
554.093	101
554.306	93
554.519	87
554.732	77
554.944	102
555.157	87
555.37	85
555.583	86
555.795	95
556.008	85
556.221	89
556.433	100
556.646	79
556.859	84
557.071	81
557.284	96
557.496	103
557.709	86
557.921	86
558.134	86
558.346	85
558.559	94
558.771	71
558.984	78
559.196	86
559.409	91
559.621	86
559.833	78
560.046	80
560.258	84
560.47	95
560.683	91
560.895	109
561.107	98
561.32	94
561.532	84
561.744	81
561.956	85
562.168	94
562.381	86
562.593	80
562.805	81
563.017	92
563.229	88
563.441	81
563.653	80
563.865	79
564.077	84
564.289	96
564.501	84
564.713	96
564.925	79
565.137	88
565.349	94
565.561	89
565.773	87
565.985	101
566.197	85
566.408	101
566.62	100
566.832	97
567.044	95
567.255	98
567.467	101
567.679	82
567.891	96
568.102	107
568.314	103
568.526	89
568.737	94
568.949	77
569.161	91
569.372	94
569.584	75
569.795	90
570.007	91
570.218	90
570.43	83
570.641	76
570.853	105
571.064	86
571.276	83
571.487	91
571.698	103
571.91	90
572.121	100
572.333	91
572.544	72
572.755	90
572.966	81
573.178	83
573.389	90
573.6	90
573.811	97
574.023	108
574.234	101
574.445	104
574.656	96
574.867	87
575.078	86
575.289	80
575.501	80
575.712	96
575.923	105
576.134	77
576.345	90
576.556	89
576.767	85
576.978	92
577.188	80
577.399	90
577.61	89
577.821	79
578.032	88
578.243	94
578.454	78
578.665	91
578.875	82
579.086	81
579.297	81
579.508	76
579.718	87
579.929	109
580.14	93
580.35	75
580.561	100
580.772	96
580.982	85
581.193	80
581.403	88
581.614	90
581.825	92
582.035	81
582.246	93
582.456	82
582.667	77
582.877	65
583.087	83
583.298	98
583.508	99
583.719	75
583.929	99
584.139	89
584.35	79
584.56	94
584.77	86
584.981	83
585.191	92
585.401	74
585.611	79
585.821	104
586.032	92
586.242	87
586.452	77
586.662	91
586.872	89
587.082	84
587.292	82
587.502	95
587.713	92
587.923	79
588.133	99
588.343	69
588.553	97
588.762	94
588.972	99
589.182	75
589.392	92
