Data from BG_HRD10591_048.txt Node
Date: Fri May 16 15:27:11 EDT 2025
User: Yrep
Spectrometer: HR+D1059
Trigger mode: 1
Integration Time (sec): 1.000000E-1
Scans to average: 1
Electric dark correction enabled: true
Nonlinearity correction enabled: false
Boxcar width: 0
XAxis mode: Wavelengths
Number of Pixels in Spectrum: 2048
>>>>>Begin Spectral Data<<<<<
223.165	-6.69
223.4	-6.69
223.635	-6.69
223.869	-28.69
224.104	-17.69
224.338	-16.69
224.573	-18.69
224.808	-19.69
225.042	-1.69
225.277	-0.69
225.511	-10.69
225.746	3.31
225.98	16.31
226.215	9.31
226.449	21.31
226.683	16.31
226.918	15.31
227.152	39.31
227.387	40.31
227.621	58.31
227.856	46.31
228.09	56.31
228.324	48.31
228.559	48.31
228.793	51.31
229.027	63.31
229.262	69.31
229.496	69.31
229.73	68.31
229.964	79.31
230.199	58.31
230.433	76.31
230.667	76.31
230.901	92.31
231.136	74.31
231.37	73.31
231.604	82.31
231.838	69.31
232.072	85.31
232.306	87.31
232.541	70.31
232.775	101.31
233.009	81.31
233.243	85.31
233.477	80.31
233.711	86.31
233.945	80.31
234.179	79.31
234.413	82.31
234.647	85.31
234.881	79.31
235.115	79.31
235.349	84.31
235.583	95.31
235.817	76.31
236.051	84.31
236.285	71.31
236.519	83.31
236.753	80.31
236.987	80.31
237.221	70.31
237.455	73.31
237.689	77.31
237.922	68.31
238.156	78.31
238.39	77.31
238.624	75.31
238.858	88.31
239.091	77.31
239.325	74.31
239.559	82.31
239.793	96.31
240.027	71.31
240.26	83.31
240.494	82.31
240.728	82.31
240.961	85.31
241.195	68.31
241.429	64.31
241.662	71.31
241.896	85.31
242.13	64.31
242.363	92.31
242.597	82.31
242.83	77.31
243.064	73.31
243.298	84.31
243.531	71.31
243.765	70.31
243.998	75.31
244.232	74.31
244.465	76.31
244.699	70.31
244.932	80.31
245.166	77.31
245.399	73.31
245.633	64.31
245.866	82.31
246.099	71.31
246.333	96.31
246.566	85.31
246.8	83.31
247.033	79.31
247.266	75.31
247.5	85.31
247.733	81.31
247.966	73.31
248.2	81.31
248.433	73.31
248.666	76.31
248.899	81.31
249.133	81.31
249.366	87.31
249.599	89.31
249.832	89.31
250.066	82.31
250.299	80.31
250.532	78.31
250.765	74.31
250.998	76.31
251.231	76.31
251.465	73.31
251.698	75.31
251.931	75.31
252.164	93.31
252.397	78.31
252.63	70.31
252.863	91.31
253.096	79.31
253.329	74.31
253.562	89.31
253.795	84.31
254.028	73.31
254.261	81.31
254.494	84.31
254.727	71.31
254.96	86.31
255.193	85.31
255.426	68.31
255.659	78.31
255.892	74.31
256.124	83.31
256.357	84.31
256.59	93.31
256.823	82.31
257.056	65.31
257.289	85.31
257.521	79.31
257.754	69.31
257.987	69.31
258.22	78.31
258.452	75.31
258.685	67.31
258.918	88.31
259.151	71.31
259.383	87.31
259.616	110.31
259.849	85.31
260.081	78.31
260.314	83.31
260.547	81.31
260.779	76.31
261.012	96.31
261.244	80.31
261.477	78.31
261.71	75.31
261.942	89.31
262.175	76.31
262.407	83.31
262.64	81.31
262.872	86.31
263.105	90.31
263.337	95.31
263.57	74.31
263.802	87.31
264.035	89.31
264.267	79.31
264.499	77.31
264.732	88.31
264.964	80.31
265.197	98.31
265.429	73.31
265.661	71.31
265.894	77.31
266.126	82.31
266.358	74.31
266.591	89.31
266.823	95.31
267.055	79.31
267.287	91.31
267.52	77.31
267.752	71.31
267.984	87.31
268.216	89.31
268.448	73.31
268.681	80.31
268.913	83.31
269.145	85.31
269.377	87.31
269.609	85.31
269.841	87.31
270.073	82.31
270.306	78.31
270.538	84.31
270.77	82.31
271.002	81.31
271.234	93.31
271.466	79.31
271.698	89.31
271.93	91.31
272.162	83.31
272.394	80.31
272.626	83.31
272.858	103.31
273.09	88.31
273.322	86.31
273.553	90.31
273.785	87.31
274.017	79.31
274.249	81.31
274.481	88.31
274.713	75.31
274.945	102.31
275.176	107.31
275.408	92.31
275.64	85.31
275.872	84.31
276.104	93.31
276.335	81.31
276.567	91.31
276.799	79.31
277.031	82.31
277.262	82.31
277.494	68.31
277.726	86.31
277.957	86.31
278.189	91.31
278.421	88.31
278.652	82.31
278.884	90.31
279.115	98.31
279.347	81.31
279.579	85.31
279.81	86.31
280.042	83.31
280.273	72.31
280.505	92.31
280.736	79.31
280.968	79.31
281.199	81.31
281.431	86.31
281.662	91.31
281.894	90.31
282.125	91.31
282.356	103.31
282.588	84.31
282.819	84.31
283.051	90.31
283.282	107.31
283.513	97.31
283.745	81.31
283.976	91.31
284.207	92.31
284.439	78.31
284.67	92.31
284.901	83.31
285.132	89.31
285.364	72.31
285.595	84.31
285.826	76.31
286.057	82.31
286.288	86.31
286.52	86.31
286.751	78.31
286.982	89.31
287.213	71.31
287.444	85.31
287.675	102.31
287.906	93.31
288.138	80.31
288.369	91.31
288.6	65.31
288.831	84.31
289.062	91.31
289.293	92.31
289.524	91.31
289.755	85.31
289.986	79.31
290.217	85.31
290.448	92.31
290.679	88.31
290.91	81.31
291.141	95.31
291.371	90.31
291.602	100.31
291.833	85.31
292.064	91.31
292.295	93.31
292.526	82.31
292.757	73.31
292.987	74.31
293.218	88.31
293.449	79.31
293.68	83.31
293.91	77.31
294.141	86.31
294.372	80.31
294.603	84.31
294.833	99.31
295.064	97.31
295.295	82.31
295.525	80.31
295.756	90.31
295.987	82.31
296.217	83.31
296.448	88.31
296.679	93.31
296.909	69.31
297.14	77.31
297.37	90.31
297.601	100.31
297.831	85.31
298.062	92.31
298.292	91.31
298.523	96.31
298.753	93.31
298.984	97.31
299.214	86.31
299.445	76.31
299.675	105.31
299.905	89.31
300.136	93.31
300.366	84.31
300.597	80.31
300.827	80.31
301.057	80.31
301.288	83.31
301.518	94.31
301.748	111.31
301.979	94.31
302.209	94.31
302.439	82.31
302.669	87.31
302.9	82.31
303.13	83.31
303.36	83.31
303.59	82.31
303.82	82.31
304.051	81.31
304.281	82.31
304.511	89.31
304.741	98.31
304.971	86.31
305.201	103.31
305.431	98.31
305.661	82.31
305.891	83.31
306.121	103.31
306.352	92.31
306.582	87.31
306.812	90.31
307.042	85.31
307.272	91.31
307.502	97.31
307.731	101.31
307.961	98.31
308.191	68.31
308.421	80.31
308.651	93.31
308.881	90.31
309.111	87.31
309.341	104.31
309.571	79.31
309.8	79.31
310.03	82.31
310.26	94.31
310.49	94.31
310.72	82.31
310.949	79.31
311.179	86.31
311.409	87.31
311.639	78.31
311.868	92.31
312.098	82.31
312.328	74.31
312.557	86.31
312.787	81.31
313.017	89.31
313.246	82.31
313.476	68.31
313.706	94.31
313.935	97.31
314.165	91.31
314.394	98.31
314.624	90.31
314.853	84.31
315.083	66.31
315.312	81.31
315.542	95.31
315.771	108.31
316.001	68.31
316.23	95.31
316.46	101.31
316.689	81.31
316.919	85.31
317.148	101.31
317.377	85.31
317.607	85.31
317.836	71.31
318.065	89.31
318.295	89.31
318.524	89.31
318.753	97.31
318.983	83.31
319.212	97.31
319.441	84.31
319.67	94.31
319.9	97.31
320.129	81.31
320.358	88.31
320.587	95.31
320.816	91.31
321.046	81.31
321.275	88.31
321.504	91.31
321.733	92.31
321.962	82.31
322.191	74.31
322.42	72.31
322.649	86.31
322.878	84.31
323.108	75.31
323.337	92.31
323.566	90.31
323.795	77.31
324.024	81.31
324.253	97.31
324.482	79.31
324.71	84.31
324.939	89.31
325.168	75.31
325.397	76.31
325.626	94.31
325.855	93.31
326.084	86.31
326.313	89.31
326.542	95.31
326.77	80.31
326.999	77.31
327.228	76.31
327.457	76.31
327.686	87.31
327.914	90.31
328.143	78.31
328.372	94.31
328.6	94.31
328.829	87.31
329.058	91.31
329.287	72.31
329.515	101.31
329.744	85.31
329.972	78.31
330.201	80.31
330.43	82.31
330.658	80.31
330.887	88.31
331.115	98.31
331.344	90.31
331.572	88.31
331.801	80.31
332.03	85.31
332.258	91.31
332.486	91.31
332.715	87.31
332.943	80.31
333.172	90.31
333.4	86.31
333.629	101.31
333.857	89.31
334.085	79.31
334.314	79.31
334.542	90.31
334.771	91.31
334.999	90.31
335.227	79.31
335.455	79.31
335.684	93.31
335.912	104.31
336.14	85.31
336.369	95.31
336.597	77.31
336.825	91.31
337.053	79.31
337.281	81.31
337.51	77.31
337.738	90.31
337.966	90.31
338.194	93.31
338.422	93.31
338.65	90.31
338.878	91.31
339.106	96.31
339.334	94.31
339.562	83.31
339.79	66.31
340.018	90.31
340.246	87.31
340.474	80.31
340.702	89.31
340.93	97.31
341.158	90.31
341.386	100.31
341.614	88.31
341.842	77.31
342.07	80.31
342.298	86.31
342.526	75.31
342.754	80.31
342.981	81.31
343.209	86.31
343.437	106.31
343.665	95.31
343.893	82.31
344.12	80.31
344.348	88.31
344.576	94.31
344.804	88.31
345.031	81.31
345.259	77.31
345.487	94.31
345.714	102.31
345.942	100.31
346.17	84.31
346.397	75.31
346.625	72.31
346.853	73.31
347.08	78.31
347.308	86.31
347.535	77.31
347.763	89.31
347.99	75.31
348.218	90.31
348.445	85.31
348.673	86.31
348.9	81.31
349.128	86.31
349.355	82.31
349.583	93.31
349.81	91.31
350.037	87.31
350.265	71.31
350.492	86.31
350.72	88.31
350.947	83.31
351.174	88.31
351.402	74.31
351.629	83.31
351.856	87.31
352.083	88.31
352.311	85.31
352.538	97.31
352.765	89.31
352.992	89.31
353.22	91.31
353.447	81.31
353.674	76.31
353.901	80.31
354.128	90.31
354.355	95.31
354.583	87.31
354.81	87.31
355.037	101.31
355.264	88.31
355.491	77.31
355.718	91.31
355.945	85.31
356.172	83.31
356.399	76.31
356.626	85.31
356.853	87.31
357.08	83.31
357.307	101.31
357.534	91.31
357.761	92.31
357.988	96.31
358.215	73.31
358.441	87.31
358.668	87.31
358.895	100.31
359.122	78.31
359.349	73.31
359.576	88.31
359.802	86.31
360.029	84.31
360.256	93.31
360.483	101.31
360.709	81.31
360.936	82.31
361.163	87.31
361.39	73.31
361.616	90.31
361.843	94.31
362.07	88.31
362.296	81.31
362.523	77.31
362.749	84.31
362.976	94.31
363.203	81.31
363.429	91.31
363.656	81.31
363.882	93.31
364.109	94.31
364.335	96.31
364.562	90.31
364.788	81.31
365.015	79.31
365.241	91.31
365.468	87.31
365.694	86.31
365.92	74.31
366.147	72.31
366.373	80.31
366.599	76.31
366.826	64.31
367.052	78.31
367.278	101.31
367.505	73.31
367.731	101.31
367.957	88.31
368.184	92.31
368.41	89.31
368.636	98.31
368.862	87.31
369.089	94.31
369.315	91.31
369.541	87.31
369.767	83.31
369.993	86.31
370.219	92.31
370.445	81.31
370.672	76.31
370.898	83.31
371.124	99.31
371.35	73.31
371.576	77.31
371.802	81.31
372.028	88.31
372.254	98.31
372.48	105.31
372.706	92.31
372.932	86.31
373.158	89.31
373.384	80.31
373.61	83.31
373.835	85.31
374.061	82.31
374.287	86.31
374.513	78.31
374.739	91.31
374.965	93.31
375.191	85.31
375.416	91.31
375.642	98.31
375.868	102.31
376.094	84.31
376.319	82.31
376.545	92.31
376.771	91.31
376.997	81.31
377.222	93.31
377.448	79.31
377.674	86.31
377.899	80.31
378.125	90.31
378.35	87.31
378.576	95.31
378.802	77.31
379.027	79.31
379.253	94.31
379.478	87.31
379.704	96.31
379.929	76.31
380.155	94.31
380.38	85.31
380.606	81.31
380.831	84.31
381.057	104.31
381.282	99.31
381.507	95.31
381.733	94.31
381.958	93.31
382.184	77.31
382.409	82.31
382.634	91.31
382.86	97.31
383.085	77.31
383.31	92.31
383.535	79.31
383.761	83.31
383.986	75.31
384.211	82.31
384.436	90.31
384.662	89.31
384.887	75.31
385.112	77.31
385.337	93.31
385.562	83.31
385.787	98.31
386.013	84.31
386.238	78.31
386.463	93.31
386.688	102.31
386.913	82.31
387.138	87.31
387.363	84.31
387.588	99.31
387.813	82.31
388.038	90.31
388.263	62.31
388.488	89.31
388.713	81.31
388.938	81.31
389.163	74.31
389.387	92.31
389.612	74.31
389.837	75.31
390.062	76.31
390.287	82.31
390.512	89.31
390.736	61.31
390.961	84.31
391.186	85.31
391.411	105.31
391.636	83.31
391.86	90.31
392.085	94.31
392.31	79.31
392.534	93.31
392.759	85.31
392.984	85.31
393.208	75.31
393.433	81.31
393.658	78.31
393.882	85.31
394.107	97.31
394.331	79.31
394.556	67.31
394.78	79.31
395.005	84.31
395.229	97.31
395.454	92.31
395.678	83.31
395.903	104.31
396.127	77.31
396.352	77.31
396.576	80.31
396.801	87.31
397.025	94.31
397.249	77.31
397.474	103.31
397.698	91.31
397.922	83.31
398.147	90.31
398.371	76.31
398.595	73.31
398.82	75.31
399.044	90.31
399.268	86.31
399.492	89.31
399.717	93.31
399.941	100.31
400.165	87.31
400.389	104.31
400.613	91.31
400.837	76.31
401.062	71.31
401.286	82.31
401.51	95.31
401.734	95.31
401.958	97.31
402.182	95.31
402.406	103.31
402.63	82.31
402.854	90.31
403.078	97.31
403.302	89.31
403.526	98.31
403.75	90.31
403.974	92.31
404.198	83.31
404.422	89.31
404.645	87.31
404.869	86.31
405.093	95.31
405.317	81.31
405.541	79.31
405.765	67.31
405.988	87.31
406.212	103.31
406.436	86.31
406.66	81.31
406.883	82.31
407.107	92.31
407.331	80.31
407.555	104.31
407.778	101.31
408.002	92.31
408.226	83.31
408.449	82.31
408.673	88.31
408.896	89.31
409.12	101.31
409.344	91.31
409.567	92.31
409.791	91.31
410.014	91.31
410.238	85.31
410.461	93.31
410.685	87.31
410.908	95.31
411.132	78.31
411.355	93.31
411.578	82.31
411.802	89.31
412.025	99.31
412.249	82.31
412.472	92.31
412.695	83.31
412.919	94.31
413.142	87.31
413.365	92.31
413.589	95.31
413.812	92.31
414.035	91.31
414.258	89.31
414.482	86.31
414.705	81.31
414.928	91.31
415.151	90.31
415.374	80.31
415.597	94.31
415.821	86.31
416.044	92.31
416.267	86.31
416.49	82.31
416.713	92.31
416.936	94.31
417.159	91.31
417.382	86.31
417.605	78.31
417.828	89.31
418.051	73.31
418.274	95.31
418.497	87.31
418.72	92.31
418.943	92.31
419.166	88.31
419.389	105.31
419.611	87.31
419.834	87.31
420.057	70.31
420.28	72.31
420.503	102.31
420.726	90.31
420.948	84.31
421.171	89.31
421.394	87.31
421.617	74.31
421.839	101.31
422.062	90.31
422.285	90.31
422.507	81.31
422.73	92.31
422.953	83.31
423.175	101.31
423.398	81.31
423.621	82.31
423.843	89.31
424.066	91.31
424.288	81.31
424.511	83.31
424.733	87.31
424.956	84.31
425.178	100.31
425.401	83.31
425.623	87.31
425.846	74.31
426.068	89.31
426.291	94.31
426.513	87.31
426.735	79.31
426.958	75.31
427.18	81.31
427.402	79.31
427.625	88.31
427.847	67.31
428.069	72.31
428.292	73.31
428.514	94.31
428.736	72.31
428.958	90.31
429.181	85.31
429.403	85.31
429.625	88.31
429.847	80.31
430.069	78.31
430.292	85.31
430.514	94.31
430.736	91.31
430.958	83.31
431.18	83.31
431.402	90.31
431.624	101.31
431.846	81.31
432.068	77.31
432.29	97.31
432.512	76.31
432.734	86.31
432.956	92.31
433.178	99.31
433.4	87.31
433.622	82.31
433.844	88.31
434.066	90.31
434.287	73.31
434.509	96.31
434.731	87.31
434.953	82.31
435.175	85.31
435.397	94.31
435.618	91.31
435.84	85.31
436.062	74.31
436.284	79.31
436.505	88.31
436.727	78.31
436.949	90.31
437.17	98.31
437.392	75.31
437.614	88.31
437.835	87.31
438.057	90.31
438.278	72.31
438.5	85.31
438.721	88.31
438.943	90.31
439.165	89.31
439.386	88.31
439.608	86.31
439.829	89.31
440.05	88.31
440.272	86.31
440.493	83.31
440.715	87.31
440.936	92.31
441.158	90.31
441.379	94.31
441.6	89.31
441.822	95.31
442.043	91.31
442.264	95.31
442.486	91.31
442.707	83.31
442.928	96.31
443.149	94.31
443.371	96.31
443.592	88.31
443.813	90.31
444.034	83.31
444.255	93.31
444.476	92.31
444.698	96.31
444.919	95.31
445.14	176.31
445.361	121.31
445.582	89.31
445.803	91.31
446.024	88.31
446.245	77.31
446.466	81.31
446.687	93.31
446.908	94.31
447.129	91.31
447.35	82.31
447.571	83.31
447.792	93.31
448.013	94.31
448.234	87.31
448.455	86.31
448.675	85.31
448.896	83.31
449.117	96.31
449.338	88.31
449.559	81.31
449.779	89.31
450	82.31
450.221	92.31
450.442	90.31
450.662	81.31
450.883	104.31
451.104	89.31
451.324	92.31
451.545	77.31
451.766	74.31
451.986	89.31
452.207	79.31
452.428	77.31
452.648	89.31
452.869	79.31
453.089	89.31
453.31	92.31
453.53	80.31
453.751	77.31
453.971	78.31
454.192	78.31
454.412	82.31
454.633	86.31
454.853	82.31
455.073	93.31
455.294	77.31
455.514	83.31
455.734	98.31
455.955	97.31
456.175	75.31
456.395	93.31
456.616	85.31
456.836	88.31
457.056	94.31
457.276	92.31
457.497	84.31
457.717	88.31
457.937	102.31
458.157	89.31
458.377	78.31
458.598	89.31
458.818	72.31
459.038	89.31
459.258	83.31
459.478	94.31
459.698	83.31
459.918	95.31
460.138	88.31
460.358	79.31
460.578	91.31
460.798	101.31
461.018	89.31
461.238	77.31
461.458	88.31
461.678	83.31
461.898	77.31
462.118	97.31
462.338	93.31
462.558	78.31
462.777	86.31
462.997	93.31
463.217	87.31
463.437	86.31
463.657	90.31
463.876	110.31
464.096	94.31
464.316	88.31
464.536	96.31
464.755	96.31
464.975	91.31
465.195	90.31
465.414	91.31
465.634	89.31
465.854	83.31
466.073	90.31
466.293	77.31
466.512	85.31
466.732	84.31
466.951	91.31
467.171	76.31
467.391	103.31
467.61	97.31
467.829	85.31
468.049	87.31
468.268	81.31
468.488	97.31
468.707	86.31
468.927	77.31
469.146	87.31
469.365	82.31
469.585	85.31
469.804	89.31
470.023	70.31
470.243	92.31
470.462	90.31
470.681	87.31
470.901	87.31
471.12	101.31
471.339	87.31
471.558	92.31
471.777	92.31
471.997	82.31
472.216	93.31
472.435	88.31
472.654	91.31
472.873	93.31
473.092	81.31
473.311	79.31
473.53	69.31
473.749	87.31
473.968	90.31
474.187	94.31
474.406	95.31
474.625	87.31
474.844	94.31
475.063	81.31
475.282	97.31
475.501	91.31
475.72	91.31
475.939	91.31
476.158	89.31
476.377	83.31
476.596	87.31
476.814	70.31
477.033	77.31
477.252	75.31
477.471	85.31
477.69	96.31
477.908	98.31
478.127	86.31
478.346	83.31
478.564	84.31
478.783	91.31
479.002	88.31
479.22	99.31
479.439	90.31
479.658	95.31
479.876	94.31
480.095	98.31
480.313	98.31
480.532	91.31
480.751	94.31
480.969	86.31
481.188	79.31
481.406	90.31
481.624	85.31
481.843	86.31
482.061	85.31
482.28	88.31
482.498	95.31
482.717	82.31
482.935	85.31
483.153	97.31
483.372	95.31
483.59	78.31
483.808	81.31
484.027	73.31
484.245	90.31
484.463	78.31
484.681	96.31
484.9	88.31
485.118	80.31
485.336	95.31
485.554	111.31
485.772	86.31
485.99	82.31
486.209	89.31
486.427	79.31
486.645	83.31
486.863	104.31
487.081	89.31
487.299	96.31
487.517	95.31
487.735	93.31
487.953	86.31
488.171	79.31
488.389	98.31
488.607	87.31
488.825	82.31
489.043	77.31
489.261	84.31
489.479	87.31
489.696	86.31
489.914	89.31
490.132	82.31
490.35	79.31
490.568	87.31
490.786	91.31
491.003	97.31
491.221	90.31
491.439	91.31
491.657	96.31
491.874	92.31
492.092	92.31
492.31	92.31
492.527	102.31
492.745	77.31
492.963	97.31
493.18	94.31
493.398	87.31
493.615	81.31
493.833	76.31
494.05	87.31
494.268	81.31
494.485	95.31
494.703	103.31
494.92	86.31
495.138	84.31
495.355	97.31
495.573	96.31
495.79	81.31
496.008	92.31
496.225	90.31
496.442	88.31
496.66	94.31
496.877	97.31
497.094	84.31
497.312	86.31
497.529	85.31
497.746	89.31
497.963	79.31
498.181	89.31
498.398	82.31
498.615	91.31
498.832	96.31
499.049	97.31
499.267	99.31
499.484	92.31
499.701	81.31
499.918	97.31
500.135	104.31
500.352	102.31
500.569	110.31
500.786	110.31
501.003	90.31
501.22	111.31
501.437	105.31
501.654	90.31
501.871	99.31
502.088	91.31
502.305	83.31
502.522	101.31
502.739	85.31
502.956	105.31
503.172	90.31
503.389	107.31
503.606	101.31
503.823	95.31
504.04	103.31
504.256	83.31
504.473	83.31
504.69	97.31
504.907	99.31
505.123	96.31
505.34	91.31
505.557	82.31
505.773	89.31
505.99	90.31
506.207	93.31
506.423	95.31
506.64	86.31
506.856	96.31
507.073	103.31
507.289	94.31
507.506	94.31
507.722	93.31
507.939	91.31
508.155	86.31
508.372	84.31
508.588	90.31
508.805	92.31
509.021	94.31
509.238	94.31
509.454	88.31
509.67	101.31
509.887	91.31
510.103	89.31
510.319	93.31
510.536	86.31
510.752	82.31
510.968	95.31
511.184	81.31
511.401	88.31
511.617	80.31
511.833	81.31
512.049	93.31
512.265	90.31
512.481	101.31
512.698	87.31
512.914	77.31
513.13	79.31
513.346	94.31
513.562	91.31
513.778	89.31
513.994	81.31
514.21	76.31
514.426	92.31
514.642	97.31
514.858	87.31
515.074	91.31
515.29	97.31
515.506	85.31
515.721	99.31
515.937	86.31
516.153	97.31
516.369	85.31
516.585	90.31
516.801	102.31
517.016	94.31
517.232	93.31
517.448	114.31
517.664	103.31
517.879	98.31
518.095	96.31
518.311	94.31
518.527	86.31
518.742	82.31
518.958	95.31
519.173	92.31
