Data from BG_HRD10591_096.txt Node
Date: Fri May 16 15:27:35 EDT 2025
User: Yrep
Spectrometer: HR+D1059
Trigger mode: 1
Integration Time (sec): 1.000000E-1
Scans to average: 1
Electric dark correction enabled: true
Nonlinearity correction enabled: false
Boxcar width: 0
XAxis mode: Wavelengths
Number of Pixels in Spectrum: 2048
>>>>>Begin Spectral Data<<<<<
223.165	-17.06
223.4	-17.06
223.635	-17.06
223.869	-12.06
224.104	-22.06
224.338	-28.06
224.573	-6.06
224.808	-12.06
225.042	-11.06
225.277	2.94
225.511	-3.06
225.746	6.94
225.98	-5.06
226.215	-0.06
226.449	14.94
226.683	26.94
226.918	21.94
227.152	42.94
227.387	13.94
227.621	48.94
227.856	34.94
228.09	46.94
228.324	49.94
228.559	56.94
228.793	58.94
229.027	63.94
229.262	70.94
229.496	52.94
229.73	53.94
229.964	74.94
230.199	74.94
230.433	62.94
230.667	73.94
230.901	77.94
231.136	82.94
231.37	85.94
231.604	76.94
231.838	81.94
232.072	79.94
232.306	79.94
232.541	79.94
232.775	87.94
233.009	78.94
233.243	78.94
233.477	88.94
233.711	83.94
233.945	85.94
234.179	70.94
234.413	79.94
234.647	77.94
234.881	79.94
235.115	76.94
235.349	58.94
235.583	73.94
235.817	73.94
236.051	87.94
236.285	87.94
236.519	60.94
236.753	63.94
236.987	73.94
237.221	65.94
237.455	66.94
237.689	73.94
237.922	61.94
238.156	81.94
238.39	77.94
238.624	78.94
238.858	65.94
239.091	77.94
239.325	75.94
239.559	75.94
239.793	75.94
240.027	64.94
240.26	82.94
240.494	73.94
240.728	85.94
240.961	63.94
241.195	77.94
241.429	81.94
241.662	77.94
241.896	82.94
242.13	88.94
242.363	82.94
242.597	70.94
242.83	68.94
243.064	56.94
243.298	80.94
243.531	84.94
243.765	73.94
243.998	77.94
244.232	74.94
244.465	87.94
244.699	84.94
244.932	79.94
245.166	65.94
245.399	82.94
245.633	74.94
245.866	78.94
246.099	73.94
246.333	70.94
246.566	65.94
246.8	67.94
247.033	64.94
247.266	81.94
247.5	77.94
247.733	73.94
247.966	85.94
248.2	80.94
248.433	77.94
248.666	76.94
248.899	83.94
249.133	70.94
249.366	86.94
249.599	83.94
249.832	77.94
250.066	71.94
250.299	79.94
250.532	86.94
250.765	72.94
250.998	83.94
251.231	86.94
251.465	71.94
251.698	80.94
251.931	69.94
252.164	73.94
252.397	63.94
252.63	84.94
252.863	85.94
253.096	83.94
253.329	82.94
253.562	74.94
253.795	88.94
254.028	71.94
254.261	84.94
254.494	77.94
254.727	91.94
254.96	75.94
255.193	54.94
255.426	81.94
255.659	69.94
255.892	77.94
256.124	90.94
256.357	69.94
256.59	83.94
256.823	76.94
257.056	63.94
257.289	75.94
257.521	85.94
257.754	76.94
257.987	92.94
258.22	70.94
258.452	72.94
258.685	72.94
258.918	76.94
259.151	76.94
259.383	76.94
259.616	77.94
259.849	91.94
260.081	79.94
260.314	95.94
260.547	63.94
260.779	66.94
261.012	69.94
261.244	83.94
261.477	84.94
261.71	66.94
261.942	89.94
262.175	76.94
262.407	76.94
262.64	67.94
262.872	86.94
263.105	86.94
263.337	84.94
263.57	73.94
263.802	81.94
264.035	90.94
264.267	89.94
264.499	69.94
264.732	79.94
264.964	69.94
265.197	73.94
265.429	91.94
265.661	83.94
265.894	66.94
266.126	81.94
266.358	78.94
266.591	68.94
266.823	69.94
267.055	85.94
267.287	83.94
267.52	70.94
267.752	91.94
267.984	88.94
268.216	78.94
268.448	79.94
268.681	77.94
268.913	69.94
269.145	88.94
269.377	84.94
269.609	82.94
269.841	73.94
270.073	86.94
270.306	86.94
270.538	83.94
270.77	84.94
271.002	78.94
271.234	85.94
271.466	84.94
271.698	92.94
271.93	97.94
272.162	73.94
272.394	67.94
272.626	79.94
272.858	76.94
273.09	89.94
273.322	80.94
273.553	102.94
273.785	99.94
274.017	74.94
274.249	84.94
274.481	76.94
274.713	85.94
274.945	103.94
275.176	65.94
275.408	86.94
275.64	87.94
275.872	75.94
276.104	89.94
276.335	76.94
276.567	68.94
276.799	85.94
277.031	72.94
277.262	83.94
277.494	88.94
277.726	86.94
277.957	89.94
278.189	87.94
278.421	90.94
278.652	97.94
278.884	81.94
279.115	93.94
279.347	78.94
279.579	78.94
279.81	94.94
280.042	93.94
280.273	79.94
280.505	82.94
280.736	76.94
280.968	71.94
281.199	88.94
281.431	86.94
281.662	83.94
281.894	79.94
282.125	89.94
282.356	64.94
282.588	86.94
282.819	87.94
283.051	73.94
283.282	79.94
283.513	106.94
283.745	66.94
283.976	85.94
284.207	97.94
284.439	73.94
284.67	71.94
284.901	92.94
285.132	76.94
285.364	75.94
285.595	85.94
285.826	78.94
286.057	93.94
286.288	93.94
286.52	79.94
286.751	81.94
286.982	82.94
287.213	67.94
287.444	82.94
287.675	81.94
287.906	93.94
288.138	93.94
288.369	91.94
288.6	83.94
288.831	82.94
289.062	77.94
289.293	73.94
289.524	80.94
289.755	91.94
289.986	77.94
290.217	81.94
290.448	90.94
290.679	97.94
290.91	75.94
291.141	85.94
291.371	92.94
291.602	86.94
291.833	80.94
292.064	84.94
292.295	70.94
292.526	90.94
292.757	69.94
292.987	93.94
293.218	78.94
293.449	90.94
293.68	83.94
293.91	79.94
294.141	94.94
294.372	96.94
294.603	84.94
294.833	89.94
295.064	81.94
295.295	83.94
295.525	82.94
295.756	79.94
295.987	93.94
296.217	77.94
296.448	77.94
296.679	92.94
296.909	86.94
297.14	80.94
297.37	76.94
297.601	79.94
297.831	87.94
298.062	82.94
298.292	77.94
298.523	73.94
298.753	78.94
298.984	67.94
299.214	85.94
299.445	86.94
299.675	90.94
299.905	73.94
300.136	81.94
300.366	83.94
300.597	85.94
300.827	89.94
301.057	90.94
301.288	88.94
301.518	82.94
301.748	76.94
301.979	100.94
302.209	85.94
302.439	77.94
302.669	79.94
302.9	83.94
303.13	80.94
303.36	83.94
303.59	73.94
303.82	93.94
304.051	88.94
304.281	76.94
304.511	103.94
304.741	79.94
304.971	96.94
305.201	77.94
305.431	73.94
305.661	90.94
305.891	87.94
306.121	83.94
306.352	86.94
306.582	92.94
306.812	64.94
307.042	84.94
307.272	84.94
307.502	89.94
307.731	72.94
307.961	86.94
308.191	75.94
308.421	75.94
308.651	87.94
308.881	69.94
309.111	79.94
309.341	101.94
309.571	83.94
309.8	77.94
310.03	90.94
310.26	93.94
310.49	75.94
310.72	89.94
310.949	83.94
311.179	73.94
311.409	87.94
311.639	85.94
311.868	101.94
312.098	91.94
312.328	97.94
312.557	87.94
312.787	90.94
313.017	75.94
313.246	81.94
313.476	85.94
313.706	87.94
313.935	84.94
314.165	92.94
314.394	93.94
314.624	90.94
314.853	76.94
315.083	93.94
315.312	97.94
315.542	86.94
315.771	103.94
316.001	92.94
316.23	81.94
316.46	76.94
316.689	82.94
316.919	85.94
317.148	79.94
317.377	92.94
317.607	72.94
317.836	73.94
318.065	98.94
318.295	85.94
318.524	84.94
318.753	96.94
318.983	81.94
319.212	82.94
319.441	89.94
319.67	92.94
319.9	86.94
320.129	93.94
320.358	83.94
320.587	94.94
320.816	93.94
321.046	87.94
321.275	81.94
321.504	86.94
321.733	80.94
321.962	97.94
322.191	94.94
322.42	93.94
322.649	84.94
322.878	72.94
323.108	89.94
323.337	77.94
323.566	80.94
323.795	84.94
324.024	73.94
324.253	90.94
324.482	85.94
324.71	81.94
324.939	91.94
325.168	78.94
325.397	86.94
325.626	104.94
325.855	92.94
326.084	97.94
326.313	88.94
326.542	91.94
326.77	105.94
326.999	79.94
327.228	92.94
327.457	86.94
327.686	83.94
327.914	84.94
328.143	79.94
328.372	89.94
328.6	94.94
328.829	84.94
329.058	71.94
329.287	89.94
329.515	85.94
329.744	81.94
329.972	91.94
330.201	75.94
330.43	87.94
330.658	103.94
330.887	85.94
331.115	95.94
331.344	87.94
331.572	79.94
331.801	92.94
332.03	103.94
332.258	93.94
332.486	97.94
332.715	94.94
332.943	85.94
333.172	81.94
333.4	78.94
333.629	80.94
333.857	81.94
334.085	90.94
334.314	77.94
334.542	77.94
334.771	91.94
334.999	74.94
335.227	84.94
335.455	95.94
335.684	88.94
335.912	86.94
336.14	100.94
336.369	93.94
336.597	88.94
336.825	101.94
337.053	80.94
337.281	82.94
337.51	93.94
337.738	87.94
337.966	83.94
338.194	89.94
338.422	80.94
338.65	91.94
338.878	88.94
339.106	82.94
339.334	95.94
339.562	88.94
339.79	82.94
340.018	93.94
340.246	85.94
340.474	99.94
340.702	81.94
340.93	85.94
341.158	91.94
341.386	86.94
341.614	76.94
341.842	99.94
342.07	98.94
342.298	92.94
342.526	79.94
342.754	84.94
342.981	88.94
343.209	88.94
343.437	98.94
343.665	86.94
343.893	83.94
344.12	87.94
344.348	68.94
344.576	74.94
344.804	89.94
345.031	103.94
345.259	87.94
345.487	78.94
345.714	99.94
345.942	64.94
346.17	93.94
346.397	79.94
346.625	79.94
346.853	88.94
347.08	89.94
347.308	68.94
347.535	85.94
347.763	77.94
347.99	86.94
348.218	89.94
348.445	77.94
348.673	83.94
348.9	91.94
349.128	89.94
349.355	68.94
349.583	88.94
349.81	77.94
350.037	83.94
350.265	79.94
350.492	92.94
350.72	97.94
350.947	79.94
351.174	90.94
351.402	86.94
351.629	74.94
351.856	77.94
352.083	71.94
352.311	89.94
352.538	75.94
352.765	86.94
352.992	81.94
353.22	83.94
353.447	85.94
353.674	81.94
353.901	88.94
354.128	89.94
354.355	79.94
354.583	82.94
354.81	72.94
355.037	76.94
355.264	89.94
355.491	90.94
355.718	82.94
355.945	77.94
356.172	91.94
356.399	79.94
356.626	92.94
356.853	76.94
357.08	91.94
357.307	89.94
357.534	78.94
357.761	86.94
357.988	85.94
358.215	75.94
358.441	72.94
358.668	85.94
358.895	86.94
359.122	90.94
359.349	75.94
359.576	80.94
359.802	83.94
360.029	76.94
360.256	77.94
360.483	82.94
360.709	89.94
360.936	88.94
361.163	85.94
361.39	100.94
361.616	85.94
361.843	88.94
362.07	98.94
362.296	88.94
362.523	77.94
362.749	88.94
362.976	78.94
363.203	86.94
363.429	85.94
363.656	81.94
363.882	71.94
364.109	70.94
364.335	81.94
364.562	83.94
364.788	87.94
365.015	80.94
365.241	73.94
365.468	83.94
365.694	84.94
365.92	86.94
366.147	88.94
366.373	83.94
366.599	86.94
366.826	89.94
367.052	75.94
367.278	82.94
367.505	93.94
367.731	83.94
367.957	91.94
368.184	78.94
368.41	81.94
368.636	85.94
368.862	90.94
369.089	85.94
369.315	74.94
369.541	90.94
369.767	73.94
369.993	90.94
370.219	77.94
370.445	79.94
370.672	99.94
370.898	86.94
371.124	77.94
371.35	82.94
371.576	92.94
371.802	86.94
372.028	81.94
372.254	87.94
372.48	75.94
372.706	77.94
372.932	73.94
373.158	82.94
373.384	80.94
373.61	85.94
373.835	86.94
374.061	78.94
374.287	80.94
374.513	79.94
374.739	95.94
374.965	79.94
375.191	70.94
375.416	78.94
375.642	76.94
375.868	86.94
376.094	83.94
376.319	81.94
376.545	76.94
376.771	90.94
376.997	99.94
377.222	97.94
377.448	100.94
377.674	89.94
377.899	82.94
378.125	79.94
378.35	82.94
378.576	82.94
378.802	74.94
379.027	73.94
379.253	97.94
379.478	66.94
379.704	82.94
379.929	91.94
380.155	91.94
380.38	89.94
380.606	85.94
380.831	87.94
381.057	83.94
381.282	77.94
381.507	94.94
381.733	85.94
381.958	83.94
382.184	78.94
382.409	86.94
382.634	87.94
382.86	81.94
383.085	99.94
383.31	95.94
383.535	89.94
383.761	73.94
383.986	82.94
384.211	85.94
384.436	95.94
384.662	68.94
384.887	79.94
385.112	78.94
385.337	75.94
385.562	93.94
385.787	77.94
386.013	93.94
386.238	86.94
386.463	76.94
386.688	103.94
386.913	74.94
387.138	75.94
387.363	83.94
387.588	86.94
387.813	91.94
388.038	97.94
388.263	88.94
388.488	78.94
388.713	88.94
388.938	86.94
389.163	92.94
389.387	106.94
389.612	75.94
389.837	81.94
390.062	78.94
390.287	75.94
390.512	86.94
390.736	79.94
390.961	77.94
391.186	83.94
391.411	77.94
391.636	60.94
391.86	77.94
392.085	97.94
392.31	84.94
392.534	83.94
392.759	91.94
392.984	78.94
393.208	82.94
393.433	79.94
393.658	98.94
393.882	89.94
394.107	67.94
394.331	88.94
394.556	80.94
394.78	92.94
395.005	87.94
395.229	94.94
395.454	81.94
395.678	86.94
395.903	79.94
396.127	72.94
396.352	80.94
396.576	84.94
396.801	93.94
397.025	81.94
397.249	81.94
397.474	78.94
397.698	88.94
397.922	83.94
398.147	83.94
398.371	86.94
398.595	99.94
398.82	91.94
399.044	90.94
399.268	85.94
399.492	86.94
399.717	92.94
399.941	77.94
400.165	84.94
400.389	91.94
400.613	76.94
400.837	92.94
401.062	97.94
401.286	70.94
401.51	84.94
401.734	94.94
401.958	73.94
402.182	88.94
402.406	84.94
402.63	78.94
402.854	87.94
403.078	85.94
403.302	86.94
403.526	100.94
403.75	103.94
403.974	85.94
404.198	92.94
404.422	95.94
404.645	89.94
404.869	83.94
405.093	86.94
405.317	85.94
405.541	98.94
405.765	89.94
405.988	73.94
406.212	99.94
406.436	80.94
406.66	92.94
406.883	73.94
407.107	92.94
407.331	86.94
407.555	97.94
407.778	87.94
408.002	84.94
408.226	86.94
408.449	87.94
408.673	92.94
408.896	91.94
409.12	86.94
409.344	91.94
409.567	86.94
409.791	95.94
410.014	94.94
410.238	84.94
410.461	89.94
410.685	83.94
410.908	87.94
411.132	80.94
411.355	78.94
411.578	92.94
411.802	94.94
412.025	76.94
412.249	72.94
412.472	73.94
412.695	79.94
412.919	80.94
413.142	87.94
413.365	78.94
413.589	92.94
413.812	91.94
414.035	90.94
414.258	84.94
414.482	87.94
414.705	81.94
414.928	86.94
415.151	93.94
415.374	86.94
415.597	81.94
415.821	97.94
416.044	66.94
416.267	85.94
416.49	94.94
416.713	84.94
416.936	85.94
417.159	81.94
417.382	75.94
417.605	86.94
417.828	80.94
418.051	81.94
418.274	85.94
418.497	94.94
418.72	73.94
418.943	97.94
419.166	77.94
419.389	85.94
419.611	66.94
419.834	83.94
420.057	76.94
420.28	90.94
420.503	78.94
420.726	80.94
420.948	85.94
421.171	88.94
421.394	78.94
421.617	101.94
421.839	80.94
422.062	85.94
422.285	87.94
422.507	74.94
422.73	90.94
422.953	84.94
423.175	80.94
423.398	87.94
423.621	82.94
423.843	88.94
424.066	73.94
424.288	78.94
424.511	87.94
424.733	71.94
424.956	84.94
425.178	83.94
425.401	81.94
425.623	90.94
425.846	82.94
426.068	100.94
426.291	87.94
426.513	91.94
426.735	85.94
426.958	84.94
427.18	92.94
427.402	82.94
427.625	71.94
427.847	73.94
428.069	86.94
428.292	73.94
428.514	78.94
428.736	83.94
428.958	86.94
429.181	89.94
429.403	81.94
429.625	75.94
429.847	85.94
430.069	79.94
430.292	92.94
430.514	85.94
430.736	81.94
430.958	76.94
431.18	78.94
431.402	91.94
431.624	89.94
431.846	68.94
432.068	67.94
432.29	97.94
432.512	89.94
432.734	79.94
432.956	80.94
433.178	79.94
433.4	87.94
433.622	76.94
433.844	79.94
434.066	79.94
434.287	70.94
434.509	92.94
434.731	95.94
434.953	83.94
435.175	90.94
435.397	88.94
435.618	73.94
435.84	78.94
436.062	92.94
436.284	71.94
436.505	91.94
436.727	82.94
436.949	82.94
437.17	85.94
437.392	73.94
437.614	73.94
437.835	69.94
438.057	82.94
438.278	74.94
438.5	88.94
438.721	84.94
438.943	91.94
439.165	83.94
439.386	81.94
439.608	87.94
439.829	80.94
440.05	84.94
440.272	78.94
440.493	90.94
440.715	105.94
440.936	89.94
441.158	79.94
441.379	74.94
441.6	95.94
441.822	87.94
442.043	70.94
442.264	73.94
442.486	89.94
442.707	85.94
442.928	81.94
443.149	83.94
443.371	87.94
443.592	76.94
443.813	95.94
444.034	80.94
444.255	94.94
444.476	87.94
444.698	90.94
444.919	92.94
445.14	157.94
445.361	121.94
445.582	77.94
445.803	81.94
446.024	98.94
446.245	91.94
446.466	90.94
446.687	92.94
446.908	76.94
447.129	81.94
447.35	62.94
447.571	75.94
447.792	88.94
448.013	86.94
448.234	84.94
448.455	75.94
448.675	81.94
448.896	83.94
449.117	75.94
449.338	103.94
449.559	82.94
449.779	85.94
450	84.94
450.221	81.94
450.442	99.94
450.662	83.94
450.883	79.94
451.104	101.94
451.324	92.94
451.545	82.94
451.766	77.94
451.986	79.94
452.207	93.94
452.428	87.94
452.648	76.94
452.869	79.94
453.089	74.94
453.31	74.94
453.53	73.94
453.751	78.94
453.971	84.94
454.192	82.94
454.412	82.94
454.633	88.94
454.853	99.94
455.073	82.94
455.294	101.94
455.514	97.94
455.734	97.94
455.955	77.94
456.175	73.94
456.395	84.94
456.616	79.94
456.836	91.94
457.056	87.94
457.276	90.94
457.497	81.94
457.717	93.94
457.937	77.94
458.157	87.94
458.377	92.94
458.598	67.94
458.818	82.94
459.038	81.94
459.258	79.94
459.478	77.94
459.698	85.94
459.918	79.94
460.138	80.94
460.358	85.94
460.578	101.94
460.798	63.94
461.018	88.94
461.238	92.94
461.458	87.94
461.678	90.94
461.898	87.94
462.118	85.94
462.338	83.94
462.558	100.94
462.777	88.94
462.997	95.94
463.217	95.94
463.437	79.94
463.657	93.94
463.876	85.94
464.096	91.94
464.316	88.94
464.536	84.94
464.755	88.94
464.975	94.94
465.195	83.94
465.414	69.94
465.634	87.94
465.854	86.94
466.073	83.94
466.293	82.94
466.512	77.94
466.732	67.94
466.951	87.94
467.171	84.94
467.391	91.94
467.61	80.94
467.829	81.94
468.049	94.94
468.268	91.94
468.488	61.94
468.707	70.94
468.927	76.94
469.146	98.94
469.365	77.94
469.585	91.94
469.804	83.94
470.023	92.94
470.243	89.94
470.462	86.94
470.681	82.94
470.901	70.94
471.12	82.94
471.339	73.94
471.558	82.94
471.777	82.94
471.997	84.94
472.216	77.94
472.435	89.94
472.654	58.94
472.873	93.94
473.092	75.94
473.311	93.94
473.53	87.94
473.749	82.94
473.968	91.94
474.187	81.94
474.406	88.94
474.625	74.94
474.844	93.94
475.063	76.94
475.282	86.94
475.501	73.94
475.72	77.94
475.939	82.94
476.158	75.94
476.377	90.94
476.596	82.94
476.814	62.94
477.033	84.94
477.252	100.94
477.471	96.94
477.69	89.94
477.908	81.94
478.127	88.94
478.346	101.94
478.564	85.94
478.783	101.94
479.002	88.94
479.22	90.94
479.439	79.94
479.658	89.94
479.876	99.94
480.095	87.94
480.313	91.94
480.532	90.94
480.751	69.94
480.969	79.94
481.188	78.94
481.406	86.94
481.624	76.94
481.843	79.94
482.061	74.94
482.28	106.94
482.498	92.94
482.717	75.94
482.935	81.94
483.153	79.94
483.372	81.94
483.59	82.94
483.808	94.94
484.027	80.94
484.245	84.94
484.463	96.94
484.681	90.94
484.9	86.94
485.118	95.94
485.336	79.94
485.554	93.94
485.772	82.94
485.99	94.94
486.209	90.94
486.427	87.94
486.645	92.94
486.863	94.94
487.081	103.94
487.299	89.94
487.517	105.94
487.735	84.94
487.953	84.94
488.171	85.94
488.389	81.94
488.607	96.94
488.825	76.94
489.043	84.94
489.261	83.94
489.479	85.94
489.696	85.94
489.914	75.94
490.132	78.94
490.35	82.94
490.568	89.94
490.786	85.94
491.003	79.94
491.221	87.94
491.439	76.94
491.657	99.94
491.874	86.94
492.092	93.94
492.31	76.94
492.527	90.94
492.745	82.94
492.963	84.94
493.18	74.94
493.398	94.94
493.615	94.94
493.833	85.94
494.05	87.94
494.268	97.94
494.485	86.94
494.703	81.94
494.92	85.94
495.138	68.94
495.355	86.94
495.573	74.94
495.79	90.94
496.008	87.94
496.225	90.94
496.442	85.94
496.66	101.94
496.877	83.94
497.094	87.94
497.312	90.94
497.529	76.94
497.746	80.94
497.963	101.94
498.181	82.94
498.398	97.94
498.615	100.94
498.832	87.94
499.049	90.94
499.267	102.94
499.484	89.94
499.701	98.94
499.918	101.94
500.135	100.94
500.352	104.94
500.569	107.94
500.786	109.94
501.003	114.94
501.22	99.94
501.437	97.94
501.654	101.94
501.871	115.94
502.088	87.94
502.305	85.94
502.522	87.94
502.739	81.94
502.956	83.94
503.172	95.94
503.389	99.94
503.606	97.94
503.823	102.94
504.04	92.94
504.256	83.94
504.473	89.94
504.69	83.94
504.907	106.94
505.123	94.94
505.34	91.94
505.557	92.94
505.773	107.94
505.99	79.94
506.207	78.94
506.423	87.94
506.64	87.94
506.856	77.94
507.073	84.94
507.289	81.94
507.506	83.94
507.722	91.94
507.939	88.94
508.155	95.94
508.372	80.94
508.588	78.94
508.805	80.94
509.021	86.94
509.238	71.94
509.454	82.94
509.67	85.94
509.887	91.94
510.103	77.94
510.319	90.94
510.536	94.94
510.752	73.94
510.968	95.94
511.184	101.94
511.401	97.94
511.617	67.94
511.833	89.94
512.049	90.94
512.265	92.94
512.481	84.94
512.698	92.94
512.914	79.94
513.13	97.94
513.346	94.94
513.562	105.94
513.778	82.94
513.994	68.94
514.21	90.94
514.426	77.94
514.642	88.94
514.858	91.94
515.074	89.94
515.29	90.94
515.506	83.94
515.721	93.94
515.937	85.94
516.153	73.94
516.369	100.94
516.585	87.94
516.801	71.94
517.016	88.94
517.232	83.94
517.448	89.94
517.664	90.94
517.879	84.94
518.095	84.94
518.311	94.94
518.527	97.94
518.742	88.94
518.958	79.94
519.173	107.94
519.389	91.94
519.605	92.94
