Data from BG_HRD10591_055.txt Node
Date: Fri May 16 15:27:14 EDT 2025
User: Yrep
Spectrometer: HR+D1059
Trigger mode: 1
Integration Time (sec): 1.000000E-1
Scans to average: 1
Electric dark correction enabled: true
Nonlinearity correction enabled: false
Boxcar width: 0
XAxis mode: Wavelengths
Number of Pixels in Spectrum: 2048
>>>>>Begin Spectral Data<<<<<
223.165	-18.62
223.4	-18.62
223.635	-18.62
223.869	-32.62
224.104	-5.62
224.338	-10.62
224.573	-8.62
224.808	-18.62
225.042	-7.62
225.277	-14.62
225.511	-0.62
225.746	0.38
225.98	6.38
226.215	16.38
226.449	19.38
226.683	16.38
226.918	27.38
227.152	31.38
227.387	47.38
227.621	29.38
227.856	41.38
228.09	47.38
228.324	49.38
228.559	52.38
228.793	71.38
229.027	63.38
229.262	76.38
229.496	57.38
229.73	71.38
229.964	77.38
230.199	87.38
230.433	72.38
230.667	59.38
230.901	65.38
231.136	78.38
231.37	74.38
231.604	81.38
231.838	95.38
232.072	75.38
232.306	93.38
232.541	78.38
232.775	91.38
233.009	82.38
233.243	83.38
233.477	86.38
233.711	83.38
233.945	58.38
234.179	77.38
234.413	84.38
234.647	74.38
234.881	88.38
235.115	84.38
235.349	79.38
235.583	80.38
235.817	59.38
236.051	79.38
236.285	84.38
236.519	76.38
236.753	68.38
236.987	78.38
237.221	73.38
237.455	73.38
237.689	61.38
237.922	69.38
238.156	73.38
238.39	75.38
238.624	73.38
238.858	67.38
239.091	81.38
239.325	82.38
239.559	76.38
239.793	65.38
240.027	83.38
240.26	73.38
240.494	78.38
240.728	73.38
240.961	75.38
241.195	75.38
241.429	88.38
241.662	71.38
241.896	68.38
242.13	54.38
242.363	73.38
242.597	82.38
242.83	90.38
243.064	84.38
243.298	89.38
243.531	61.38
243.765	73.38
243.998	64.38
244.232	78.38
244.465	71.38
244.699	79.38
244.932	87.38
245.166	72.38
245.399	66.38
245.633	74.38
245.866	87.38
246.099	85.38
246.333	67.38
246.566	79.38
246.8	79.38
247.033	73.38
247.266	80.38
247.5	81.38
247.733	81.38
247.966	64.38
248.2	64.38
248.433	69.38
248.666	75.38
248.899	75.38
249.133	72.38
249.366	77.38
249.599	83.38
249.832	82.38
250.066	82.38
250.299	88.38
250.532	73.38
250.765	79.38
250.998	81.38
251.231	71.38
251.465	68.38
251.698	80.38
251.931	80.38
252.164	87.38
252.397	88.38
252.63	71.38
252.863	75.38
253.096	76.38
253.329	75.38
253.562	88.38
253.795	78.38
254.028	82.38
254.261	69.38
254.494	74.38
254.727	73.38
254.96	67.38
255.193	75.38
255.426	89.38
255.659	84.38
255.892	88.38
256.124	81.38
256.357	78.38
256.59	71.38
256.823	77.38
257.056	67.38
257.289	75.38
257.521	85.38
257.754	85.38
257.987	89.38
258.22	76.38
258.452	79.38
258.685	78.38
258.918	75.38
259.151	74.38
259.383	78.38
259.616	80.38
259.849	79.38
260.081	82.38
260.314	94.38
260.547	78.38
260.779	75.38
261.012	73.38
261.244	88.38
261.477	81.38
261.71	83.38
261.942	82.38
262.175	91.38
262.407	76.38
262.64	81.38
262.872	83.38
263.105	81.38
263.337	93.38
263.57	70.38
263.802	69.38
264.035	90.38
264.267	101.38
264.499	90.38
264.732	68.38
264.964	83.38
265.197	85.38
265.429	85.38
265.661	85.38
265.894	85.38
266.126	75.38
266.358	75.38
266.591	86.38
266.823	73.38
267.055	89.38
267.287	97.38
267.52	78.38
267.752	82.38
267.984	90.38
268.216	85.38
268.448	69.38
268.681	72.38
268.913	90.38
269.145	81.38
269.377	83.38
269.609	73.38
269.841	91.38
270.073	86.38
270.306	68.38
270.538	80.38
270.77	79.38
271.002	80.38
271.234	94.38
271.466	87.38
271.698	71.38
271.93	77.38
272.162	86.38
272.394	82.38
272.626	82.38
272.858	66.38
273.09	77.38
273.322	91.38
273.553	88.38
273.785	71.38
274.017	94.38
274.249	81.38
274.481	82.38
274.713	78.38
274.945	76.38
275.176	66.38
275.408	81.38
275.64	90.38
275.872	62.38
276.104	96.38
276.335	80.38
276.567	88.38
276.799	66.38
277.031	79.38
277.262	86.38
277.494	85.38
277.726	95.38
277.957	98.38
278.189	91.38
278.421	78.38
278.652	88.38
278.884	67.38
279.115	81.38
279.347	75.38
279.579	82.38
279.81	82.38
280.042	77.38
280.273	88.38
280.505	94.38
280.736	99.38
280.968	85.38
281.199	81.38
281.431	81.38
281.662	87.38
281.894	96.38
282.125	91.38
282.356	79.38
282.588	82.38
282.819	81.38
283.051	85.38
283.282	81.38
283.513	77.38
283.745	89.38
283.976	93.38
284.207	73.38
284.439	87.38
284.67	83.38
284.901	82.38
285.132	64.38
285.364	78.38
285.595	73.38
285.826	87.38
286.057	75.38
286.288	80.38
286.52	89.38
286.751	73.38
286.982	90.38
287.213	84.38
287.444	87.38
287.675	89.38
287.906	87.38
288.138	87.38
288.369	76.38
288.6	81.38
288.831	75.38
289.062	86.38
289.293	74.38
289.524	85.38
289.755	78.38
289.986	86.38
290.217	78.38
290.448	81.38
290.679	76.38
290.91	73.38
291.141	82.38
291.371	83.38
291.602	86.38
291.833	91.38
292.064	91.38
292.295	85.38
292.526	95.38
292.757	83.38
292.987	101.38
293.218	89.38
293.449	79.38
293.68	93.38
293.91	91.38
294.141	86.38
294.372	88.38
294.603	77.38
294.833	80.38
295.064	80.38
295.295	80.38
295.525	80.38
295.756	80.38
295.987	87.38
296.217	85.38
296.448	76.38
296.679	86.38
296.909	105.38
297.14	90.38
297.37	78.38
297.601	83.38
297.831	77.38
298.062	91.38
298.292	80.38
298.523	89.38
298.753	93.38
298.984	77.38
299.214	70.38
299.445	82.38
299.675	71.38
299.905	94.38
300.136	86.38
300.366	73.38
300.597	80.38
300.827	84.38
301.057	96.38
301.288	94.38
301.518	89.38
301.748	87.38
301.979	99.38
302.209	86.38
302.439	85.38
302.669	78.38
302.9	83.38
303.13	70.38
303.36	82.38
303.59	64.38
303.82	65.38
304.051	83.38
304.281	87.38
304.511	85.38
304.741	90.38
304.971	93.38
305.201	87.38
305.431	89.38
305.661	84.38
305.891	94.38
306.121	80.38
306.352	94.38
306.582	88.38
306.812	90.38
307.042	84.38
307.272	95.38
307.502	80.38
307.731	74.38
307.961	89.38
308.191	73.38
308.421	74.38
308.651	94.38
308.881	89.38
309.111	96.38
309.341	73.38
309.571	69.38
309.8	91.38
310.03	88.38
310.26	75.38
310.49	75.38
310.72	71.38
310.949	93.38
311.179	85.38
311.409	83.38
311.639	67.38
311.868	78.38
312.098	67.38
312.328	85.38
312.557	74.38
312.787	77.38
313.017	74.38
313.246	91.38
313.476	82.38
313.706	77.38
313.935	88.38
314.165	83.38
314.394	76.38
314.624	87.38
314.853	83.38
315.083	89.38
315.312	96.38
315.542	81.38
315.771	80.38
316.001	90.38
316.23	73.38
316.46	89.38
316.689	81.38
316.919	79.38
317.148	79.38
317.377	85.38
317.607	80.38
317.836	89.38
318.065	85.38
318.295	78.38
318.524	96.38
318.753	94.38
318.983	89.38
319.212	86.38
319.441	89.38
319.67	87.38
319.9	77.38
320.129	103.38
320.358	91.38
320.587	87.38
320.816	73.38
321.046	78.38
321.275	72.38
321.504	80.38
321.733	91.38
321.962	97.38
322.191	81.38
322.42	82.38
322.649	94.38
322.878	89.38
323.108	77.38
323.337	82.38
323.566	90.38
323.795	89.38
324.024	60.38
324.253	76.38
324.482	97.38
324.71	92.38
324.939	98.38
325.168	88.38
325.397	84.38
325.626	85.38
325.855	83.38
326.084	99.38
326.313	90.38
326.542	84.38
326.77	91.38
326.999	92.38
327.228	77.38
327.457	78.38
327.686	89.38
327.914	69.38
328.143	86.38
328.372	80.38
328.6	78.38
328.829	87.38
329.058	90.38
329.287	80.38
329.515	81.38
329.744	94.38
329.972	92.38
330.201	83.38
330.43	86.38
330.658	66.38
330.887	82.38
331.115	84.38
331.344	80.38
331.572	70.38
331.801	89.38
332.03	89.38
332.258	82.38
332.486	88.38
332.715	79.38
332.943	77.38
333.172	93.38
333.4	78.38
333.629	81.38
333.857	73.38
334.085	93.38
334.314	85.38
334.542	76.38
334.771	86.38
334.999	64.38
335.227	86.38
335.455	83.38
335.684	78.38
335.912	96.38
336.14	97.38
336.369	81.38
336.597	84.38
336.825	98.38
337.053	75.38
337.281	79.38
337.51	85.38
337.738	81.38
337.966	82.38
338.194	101.38
338.422	71.38
338.65	91.38
338.878	76.38
339.106	83.38
339.334	83.38
339.562	82.38
339.79	93.38
340.018	92.38
340.246	91.38
340.474	91.38
340.702	86.38
340.93	89.38
341.158	79.38
341.386	67.38
341.614	75.38
341.842	78.38
342.07	87.38
342.298	84.38
342.526	69.38
342.754	70.38
342.981	75.38
343.209	87.38
343.437	97.38
343.665	88.38
343.893	75.38
344.12	83.38
344.348	86.38
344.576	97.38
344.804	94.38
345.031	79.38
345.259	80.38
345.487	83.38
345.714	84.38
345.942	89.38
346.17	79.38
346.397	71.38
346.625	94.38
346.853	73.38
347.08	80.38
347.308	103.38
347.535	95.38
347.763	93.38
347.99	90.38
348.218	89.38
348.445	81.38
348.673	81.38
348.9	69.38
349.128	86.38
349.355	77.38
349.583	73.38
349.81	99.38
350.037	90.38
350.265	75.38
350.492	76.38
350.72	93.38
350.947	69.38
351.174	77.38
351.402	83.38
351.629	85.38
351.856	86.38
352.083	79.38
352.311	82.38
352.538	73.38
352.765	72.38
352.992	86.38
353.22	81.38
353.447	95.38
353.674	94.38
353.901	85.38
354.128	93.38
354.355	73.38
354.583	95.38
354.81	87.38
355.037	79.38
355.264	97.38
355.491	82.38
355.718	75.38
355.945	90.38
356.172	84.38
356.399	80.38
356.626	91.38
356.853	77.38
357.08	80.38
357.307	81.38
357.534	88.38
357.761	87.38
357.988	94.38
358.215	85.38
358.441	68.38
358.668	90.38
358.895	79.38
359.122	81.38
359.349	74.38
359.576	90.38
359.802	80.38
360.029	89.38
360.256	85.38
360.483	75.38
360.709	86.38
360.936	82.38
361.163	78.38
361.39	74.38
361.616	83.38
361.843	73.38
362.07	95.38
362.296	73.38
362.523	76.38
362.749	88.38
362.976	74.38
363.203	74.38
363.429	79.38
363.656	103.38
363.882	80.38
364.109	105.38
364.335	89.38
364.562	77.38
364.788	73.38
365.015	73.38
365.241	92.38
365.468	92.38
365.694	78.38
365.92	82.38
366.147	79.38
366.373	90.38
366.599	82.38
366.826	82.38
367.052	91.38
367.278	92.38
367.505	96.38
367.731	90.38
367.957	78.38
368.184	79.38
368.41	96.38
368.636	80.38
368.862	87.38
369.089	85.38
369.315	87.38
369.541	93.38
369.767	94.38
369.993	92.38
370.219	89.38
370.445	77.38
370.672	82.38
370.898	88.38
371.124	84.38
371.35	86.38
371.576	85.38
371.802	79.38
372.028	81.38
372.254	88.38
372.48	79.38
372.706	79.38
372.932	91.38
373.158	78.38
373.384	79.38
373.61	69.38
373.835	87.38
374.061	89.38
374.287	82.38
374.513	85.38
374.739	81.38
374.965	94.38
375.191	74.38
375.416	87.38
375.642	87.38
375.868	87.38
376.094	89.38
376.319	95.38
376.545	79.38
376.771	72.38
376.997	93.38
377.222	85.38
377.448	86.38
377.674	63.38
377.899	82.38
378.125	67.38
378.35	81.38
378.576	78.38
378.802	91.38
379.027	87.38
379.253	86.38
379.478	83.38
379.704	73.38
379.929	81.38
380.155	74.38
380.38	71.38
380.606	75.38
380.831	67.38
381.057	80.38
381.282	81.38
381.507	88.38
381.733	88.38
381.958	84.38
382.184	87.38
382.409	73.38
382.634	87.38
382.86	85.38
383.085	79.38
383.31	88.38
383.535	85.38
383.761	83.38
383.986	78.38
384.211	93.38
384.436	80.38
384.662	77.38
384.887	69.38
385.112	86.38
385.337	80.38
385.562	74.38
385.787	84.38
386.013	86.38
386.238	81.38
386.463	67.38
386.688	96.38
386.913	85.38
387.138	82.38
387.363	80.38
387.588	72.38
387.813	70.38
388.038	71.38
388.263	82.38
388.488	77.38
388.713	86.38
388.938	75.38
389.163	69.38
389.387	91.38
389.612	92.38
389.837	73.38
390.062	79.38
390.287	77.38
390.512	90.38
390.736	88.38
390.961	88.38
391.186	81.38
391.411	88.38
391.636	88.38
391.86	83.38
392.085	86.38
392.31	89.38
392.534	95.38
392.759	87.38
392.984	99.38
393.208	82.38
393.433	85.38
393.658	69.38
393.882	102.38
394.107	83.38
394.331	59.38
394.556	95.38
394.78	85.38
395.005	80.38
395.229	85.38
395.454	91.38
395.678	68.38
395.903	83.38
396.127	92.38
396.352	87.38
396.576	74.38
396.801	83.38
397.025	88.38
397.249	85.38
397.474	74.38
397.698	72.38
397.922	73.38
398.147	74.38
398.371	60.38
398.595	72.38
398.82	77.38
399.044	75.38
399.268	78.38
399.492	81.38
399.717	76.38
399.941	74.38
400.165	92.38
400.389	77.38
400.613	79.38
400.837	89.38
401.062	73.38
401.286	80.38
401.51	69.38
401.734	69.38
401.958	77.38
402.182	80.38
402.406	65.38
402.63	82.38
402.854	87.38
403.078	75.38
403.302	81.38
403.526	73.38
403.75	71.38
403.974	75.38
404.198	82.38
404.422	73.38
404.645	90.38
404.869	87.38
405.093	86.38
405.317	86.38
405.541	76.38
405.765	88.38
405.988	81.38
406.212	80.38
406.436	77.38
406.66	79.38
406.883	62.38
407.107	78.38
407.331	79.38
407.555	74.38
407.778	91.38
408.002	74.38
408.226	74.38
408.449	80.38
408.673	78.38
408.896	82.38
409.12	80.38
409.344	88.38
409.567	86.38
409.791	77.38
410.014	84.38
410.238	77.38
410.461	84.38
410.685	94.38
410.908	75.38
411.132	90.38
411.355	71.38
411.578	77.38
411.802	71.38
412.025	80.38
412.249	72.38
412.472	81.38
412.695	86.38
412.919	87.38
413.142	79.38
413.365	83.38
413.589	94.38
413.812	71.38
414.035	67.38
414.258	90.38
414.482	81.38
414.705	70.38
414.928	82.38
415.151	81.38
415.374	83.38
415.597	77.38
415.821	78.38
416.044	72.38
416.267	81.38
416.49	78.38
416.713	93.38
416.936	87.38
417.159	90.38
417.382	85.38
417.605	93.38
417.828	102.38
418.051	81.38
418.274	73.38
418.497	79.38
418.72	84.38
418.943	72.38
419.166	69.38
419.389	82.38
419.611	87.38
419.834	64.38
420.057	76.38
420.28	75.38
420.503	91.38
420.726	70.38
420.948	88.38
421.171	73.38
421.394	70.38
421.617	81.38
421.839	77.38
422.062	75.38
422.285	90.38
422.507	77.38
422.73	66.38
422.953	90.38
423.175	74.38
423.398	68.38
423.621	74.38
423.843	83.38
424.066	83.38
424.288	77.38
424.511	78.38
424.733	89.38
424.956	93.38
425.178	83.38
425.401	77.38
425.623	86.38
425.846	76.38
426.068	85.38
426.291	79.38
426.513	93.38
426.735	71.38
426.958	84.38
427.18	79.38
427.402	83.38
427.625	77.38
427.847	68.38
428.069	80.38
428.292	74.38
428.514	67.38
428.736	78.38
428.958	75.38
429.181	75.38
429.403	87.38
429.625	87.38
429.847	93.38
430.069	81.38
430.292	83.38
430.514	92.38
430.736	66.38
430.958	65.38
431.18	77.38
431.402	75.38
431.624	83.38
431.846	86.38
432.068	69.38
432.29	75.38
432.512	71.38
432.734	81.38
432.956	83.38
433.178	90.38
433.4	87.38
433.622	76.38
433.844	65.38
434.066	93.38
434.287	90.38
434.509	73.38
434.731	67.38
434.953	76.38
435.175	74.38
435.397	75.38
435.618	90.38
435.84	77.38
436.062	67.38
436.284	82.38
436.505	75.38
436.727	76.38
436.949	75.38
437.17	73.38
437.392	98.38
437.614	97.38
437.835	87.38
438.057	79.38
438.278	76.38
438.5	80.38
438.721	73.38
438.943	83.38
439.165	77.38
439.386	83.38
439.608	92.38
439.829	88.38
440.05	77.38
440.272	92.38
440.493	81.38
440.715	86.38
440.936	85.38
441.158	85.38
441.379	72.38
441.6	72.38
441.822	64.38
442.043	75.38
442.264	77.38
442.486	80.38
442.707	90.38
442.928	81.38
443.149	77.38
443.371	78.38
443.592	85.38
443.813	75.38
444.034	86.38
444.255	84.38
444.476	87.38
444.698	77.38
444.919	82.38
445.14	166.38
445.361	113.38
445.582	73.38
445.803	88.38
446.024	68.38
446.245	83.38
446.466	79.38
446.687	86.38
446.908	66.38
447.129	85.38
447.35	87.38
447.571	84.38
447.792	93.38
448.013	77.38
448.234	75.38
448.455	88.38
448.675	85.38
448.896	74.38
449.117	70.38
449.338	85.38
449.559	89.38
449.779	98.38
450	82.38
450.221	77.38
450.442	89.38
450.662	88.38
450.883	86.38
451.104	75.38
451.324	73.38
451.545	91.38
451.766	76.38
451.986	80.38
452.207	68.38
452.428	81.38
452.648	77.38
452.869	85.38
453.089	87.38
453.31	78.38
453.53	86.38
453.751	86.38
453.971	76.38
454.192	77.38
454.412	92.38
454.633	68.38
454.853	83.38
455.073	79.38
455.294	77.38
455.514	88.38
455.734	97.38
455.955	83.38
456.175	68.38
456.395	81.38
456.616	69.38
456.836	77.38
457.056	84.38
457.276	97.38
457.497	80.38
457.717	82.38
457.937	80.38
458.157	78.38
458.377	79.38
458.598	103.38
458.818	73.38
459.038	85.38
459.258	82.38
459.478	83.38
459.698	87.38
459.918	94.38
460.138	92.38
460.358	79.38
460.578	68.38
460.798	90.38
461.018	73.38
461.238	69.38
461.458	75.38
461.678	89.38
461.898	74.38
462.118	81.38
462.338	94.38
462.558	83.38
462.777	78.38
462.997	85.38
463.217	77.38
463.437	73.38
463.657	78.38
463.876	80.38
464.096	87.38
464.316	82.38
464.536	81.38
464.755	96.38
464.975	69.38
465.195	77.38
465.414	84.38
465.634	81.38
465.854	92.38
466.073	83.38
466.293	71.38
466.512	76.38
466.732	68.38
466.951	67.38
467.171	80.38
467.391	91.38
467.61	90.38
467.829	71.38
468.049	86.38
468.268	67.38
468.488	76.38
468.707	75.38
468.927	83.38
469.146	83.38
469.365	96.38
469.585	82.38
469.804	93.38
470.023	90.38
470.243	86.38
470.462	86.38
470.681	84.38
470.901	84.38
471.12	74.38
471.339	70.38
471.558	83.38
471.777	64.38
471.997	57.38
472.216	78.38
472.435	85.38
472.654	90.38
472.873	81.38
473.092	84.38
473.311	85.38
473.53	74.38
473.749	77.38
473.968	71.38
474.187	96.38
474.406	79.38
474.625	84.38
474.844	75.38
475.063	82.38
475.282	81.38
475.501	95.38
475.72	84.38
475.939	81.38
476.158	79.38
476.377	85.38
476.596	79.38
476.814	87.38
477.033	89.38
477.252	85.38
477.471	66.38
477.69	95.38
477.908	79.38
478.127	89.38
478.346	85.38
478.564	73.38
478.783	77.38
479.002	78.38
479.22	87.38
479.439	84.38
479.658	75.38
479.876	69.38
480.095	87.38
480.313	85.38
480.532	80.38
480.751	81.38
480.969	77.38
481.188	82.38
481.406	76.38
481.624	83.38
481.843	91.38
482.061	86.38
482.28	84.38
482.498	85.38
482.717	84.38
482.935	93.38
483.153	83.38
483.372	78.38
483.59	97.38
483.808	79.38
484.027	84.38
484.245	74.38
484.463	81.38
484.681	95.38
484.9	82.38
485.118	87.38
485.336	66.38
485.554	81.38
485.772	89.38
485.99	74.38
486.209	86.38
486.427	72.38
486.645	85.38
486.863	90.38
487.081	80.38
487.299	86.38
487.517	69.38
487.735	88.38
487.953	77.38
488.171	65.38
488.389	81.38
488.607	86.38
488.825	82.38
489.043	63.38
489.261	92.38
489.479	79.38
489.696	91.38
489.914	87.38
490.132	81.38
490.35	87.38
490.568	65.38
490.786	83.38
491.003	79.38
491.221	94.38
491.439	91.38
491.657	65.38
491.874	76.38
492.092	90.38
492.31	87.38
492.527	93.38
492.745	76.38
492.963	100.38
493.18	73.38
493.398	76.38
493.615	71.38
493.833	77.38
494.05	89.38
494.268	87.38
494.485	86.38
494.703	79.38
494.92	81.38
495.138	80.38
495.355	95.38
495.573	83.38
495.79	67.38
496.008	83.38
496.225	81.38
496.442	79.38
496.66	74.38
496.877	88.38
497.094	92.38
497.312	89.38
497.529	73.38
497.746	75.38
497.963	89.38
498.181	83.38
498.398	89.38
498.615	75.38
498.832	82.38
499.049	74.38
499.267	77.38
499.484	79.38
499.701	81.38
499.918	94.38
500.135	91.38
500.352	90.38
500.569	95.38
500.786	95.38
501.003	81.38
501.22	71.38
501.437	63.38
501.654	78.38
501.871	79.38
502.088	74.38
502.305	76.38
502.522	90.38
502.739	78.38
502.956	77.38
503.172	81.38
503.389	84.38
503.606	81.38
503.823	75.38
504.04	95.38
504.256	89.38
504.473	83.38
504.69	90.38
504.907	84.38
505.123	92.38
505.34	83.38
505.557	70.38
505.773	85.38
505.99	97.38
506.207	82.38
506.423	79.38
506.64	81.38
506.856	84.38
507.073	77.38
507.289	91.38
507.506	85.38
507.722	85.38
507.939	80.38
508.155	80.38
508.372	69.38
508.588	86.38
508.805	76.38
509.021	77.38
509.238	85.38
509.454	75.38
509.67	74.38
509.887	89.38
510.103	91.38
510.319	74.38
510.536	86.38
510.752	82.38
510.968	83.38
511.184	90.38
511.401	82.38
511.617	84.38
511.833	75.38
512.049	71.38
512.265	79.38
512.481	91.38
512.698	77.38
512.914	83.38
513.13	77.38
513.346	83.38
513.562	79.38
513.778	82.38
513.994	71.38
514.21	81.38
514.426	97.38
514.642	84.38
514.858	71.38
515.074	95.38
515.29	103.38
515.506	97.38
515.721	96.38
515.937	88.38
516.153	77.38
516.369	76.38
516.585	70.38
516.801	70.38
517.016	81.38
517.232	86.38
517.448	75.38
517.664	85.38
517.879	83.38
518.095	73.38
518.311	89.38
518.527	75.38
518.742	89.38
518.958	108.38
519.173	78.38
519.389	83.38
519.605	83.38
519.82	86.38
520.036	77.38
520.251	77.38
