Data from BG_HRD10591_002.txt Node
Date: Fri May 16 15:26:48 EDT 2025
User: Yrep
Spectrometer: HR+D1059
Trigger mode: 1
Integration Time (sec): 1.000000E-1
Scans to average: 1
Electric dark correction enabled: true
Nonlinearity correction enabled: false
Boxcar width: 0
XAxis mode: Wavelengths
Number of Pixels in Spectrum: 2048
>>>>>Begin Spectral Data<<<<<
223.165	-14.62
223.4	-14.62
223.635	-14.62
223.869	-36.62
224.104	-30.62
224.338	-22.62
224.573	-16.62
224.808	-9.62
225.042	-7.62
225.277	-23.62
225.511	4.38
225.746	-5.62
225.98	9.38
226.215	29.38
226.449	35.38
226.683	21.38
226.918	36.38
227.152	31.38
227.387	36.38
227.621	40.38
227.856	27.38
228.09	42.38
228.324	44.38
228.559	49.38
228.793	56.38
229.027	65.38
229.262	64.38
229.496	70.38
229.73	67.38
229.964	70.38
230.199	83.38
230.433	74.38
230.667	73.38
230.901	74.38
231.136	78.38
231.37	81.38
231.604	75.38
231.838	91.38
232.072	78.38
232.306	75.38
232.541	90.38
232.775	79.38
233.009	85.38
233.243	87.38
233.477	72.38
233.711	85.38
233.945	76.38
234.179	78.38
234.413	76.38
234.647	78.38
234.881	90.38
235.115	75.38
235.349	67.38
235.583	77.38
235.817	83.38
236.051	84.38
236.285	75.38
236.519	67.38
236.753	65.38
236.987	76.38
237.221	68.38
237.455	85.38
237.689	64.38
237.922	69.38
238.156	70.38
238.39	75.38
238.624	58.38
238.858	60.38
239.091	70.38
239.325	59.38
239.559	70.38
239.793	74.38
240.027	83.38
240.26	79.38
240.494	65.38
240.728	62.38
240.961	68.38
241.195	78.38
241.429	66.38
241.662	87.38
241.896	66.38
242.13	69.38
242.363	78.38
242.597	72.38
242.83	79.38
243.064	72.38
243.298	87.38
243.531	82.38
243.765	87.38
243.998	70.38
244.232	82.38
244.465	80.38
244.699	83.38
244.932	85.38
245.166	76.38
245.399	85.38
245.633	84.38
245.866	85.38
246.099	80.38
246.333	74.38
246.566	65.38
246.8	85.38
247.033	87.38
247.266	70.38
247.5	84.38
247.733	72.38
247.966	77.38
248.2	79.38
248.433	83.38
248.666	76.38
248.899	74.38
249.133	83.38
249.366	78.38
249.599	91.38
249.832	64.38
250.066	84.38
250.299	86.38
250.532	62.38
250.765	70.38
250.998	79.38
251.231	88.38
251.465	74.38
251.698	74.38
251.931	89.38
252.164	78.38
252.397	85.38
252.63	74.38
252.863	72.38
253.096	82.38
253.329	76.38
253.562	69.38
253.795	78.38
254.028	81.38
254.261	68.38
254.494	94.38
254.727	83.38
254.96	81.38
255.193	75.38
255.426	92.38
255.659	82.38
255.892	80.38
256.124	82.38
256.357	85.38
256.59	88.38
256.823	73.38
257.056	70.38
257.289	74.38
257.521	72.38
257.754	72.38
257.987	82.38
258.22	77.38
258.452	83.38
258.685	83.38
258.918	60.38
259.151	85.38
259.383	84.38
259.616	68.38
259.849	67.38
260.081	64.38
260.314	89.38
260.547	63.38
260.779	93.38
261.012	64.38
261.244	68.38
261.477	87.38
261.71	79.38
261.942	79.38
262.175	88.38
262.407	90.38
262.64	82.38
262.872	78.38
263.105	72.38
263.337	86.38
263.57	65.38
263.802	77.38
264.035	84.38
264.267	94.38
264.499	82.38
264.732	88.38
264.964	71.38
265.197	70.38
265.429	92.38
265.661	89.38
265.894	91.38
266.126	89.38
266.358	86.38
266.591	78.38
266.823	100.38
267.055	90.38
267.287	81.38
267.52	71.38
267.752	88.38
267.984	92.38
268.216	90.38
268.448	92.38
268.681	86.38
268.913	82.38
269.145	82.38
269.377	67.38
269.609	75.38
269.841	99.38
270.073	82.38
270.306	76.38
270.538	81.38
270.77	76.38
271.002	84.38
271.234	92.38
271.466	82.38
271.698	86.38
271.93	82.38
272.162	80.38
272.394	89.38
272.626	97.38
272.858	84.38
273.09	92.38
273.322	85.38
273.553	80.38
273.785	86.38
274.017	79.38
274.249	80.38
274.481	79.38
274.713	76.38
274.945	88.38
275.176	77.38
275.408	98.38
275.64	90.38
275.872	90.38
276.104	92.38
276.335	89.38
276.567	82.38
276.799	85.38
277.031	87.38
277.262	83.38
277.494	78.38
277.726	90.38
277.957	93.38
278.189	91.38
278.421	86.38
278.652	84.38
278.884	94.38
279.115	71.38
279.347	73.38
279.579	75.38
279.81	88.38
280.042	79.38
280.273	98.38
280.505	80.38
280.736	104.38
280.968	82.38
281.199	78.38
281.431	79.38
281.662	91.38
281.894	87.38
282.125	71.38
282.356	82.38
282.588	93.38
282.819	79.38
283.051	86.38
283.282	92.38
283.513	90.38
283.745	86.38
283.976	96.38
284.207	87.38
284.439	90.38
284.67	81.38
284.901	92.38
285.132	78.38
285.364	87.38
285.595	86.38
285.826	89.38
286.057	90.38
286.288	90.38
286.52	95.38
286.751	86.38
286.982	80.38
287.213	75.38
287.444	88.38
287.675	92.38
287.906	93.38
288.138	81.38
288.369	76.38
288.6	84.38
288.831	69.38
289.062	84.38
289.293	83.38
289.524	76.38
289.755	72.38
289.986	74.38
290.217	72.38
290.448	83.38
290.679	92.38
290.91	92.38
291.141	86.38
291.371	77.38
291.602	86.38
291.833	91.38
292.064	104.38
292.295	92.38
292.526	83.38
292.757	82.38
292.987	89.38
293.218	87.38
293.449	91.38
293.68	74.38
293.91	94.38
294.141	86.38
294.372	68.38
294.603	75.38
294.833	74.38
295.064	93.38
295.295	92.38
295.525	95.38
295.756	98.38
295.987	82.38
296.217	90.38
296.448	89.38
296.679	99.38
296.909	85.38
297.14	78.38
297.37	80.38
297.601	80.38
297.831	102.38
298.062	84.38
298.292	90.38
298.523	87.38
298.753	72.38
298.984	86.38
299.214	79.38
299.445	63.38
299.675	79.38
299.905	82.38
300.136	90.38
300.366	80.38
300.597	71.38
300.827	90.38
301.057	78.38
301.288	92.38
301.518	71.38
301.748	87.38
301.979	96.38
302.209	90.38
302.439	80.38
302.669	89.38
302.9	94.38
303.13	88.38
303.36	83.38
303.59	79.38
303.82	95.38
304.051	78.38
304.281	76.38
304.511	90.38
304.741	78.38
304.971	89.38
305.201	88.38
305.431	88.38
305.661	89.38
305.891	90.38
306.121	87.38
306.352	80.38
306.582	72.38
306.812	83.38
307.042	85.38
307.272	78.38
307.502	88.38
307.731	82.38
307.961	90.38
308.191	84.38
308.421	85.38
308.651	82.38
308.881	98.38
309.111	75.38
309.341	83.38
309.571	90.38
309.8	86.38
310.03	85.38
310.26	91.38
310.49	88.38
310.72	92.38
310.949	99.38
311.179	94.38
311.409	90.38
311.639	76.38
311.868	87.38
312.098	88.38
312.328	85.38
312.557	78.38
312.787	84.38
313.017	85.38
313.246	108.38
313.476	93.38
313.706	76.38
313.935	85.38
314.165	73.38
314.394	85.38
314.624	74.38
314.853	77.38
315.083	82.38
315.312	72.38
315.542	88.38
315.771	75.38
316.001	87.38
316.23	84.38
316.46	94.38
316.689	92.38
316.919	79.38
317.148	89.38
317.377	75.38
317.607	95.38
317.836	91.38
318.065	73.38
318.295	79.38
318.524	88.38
318.753	90.38
318.983	93.38
319.212	78.38
319.441	92.38
319.67	100.38
319.9	87.38
320.129	92.38
320.358	90.38
320.587	88.38
320.816	83.38
321.046	84.38
321.275	82.38
321.504	80.38
321.733	80.38
321.962	90.38
322.191	85.38
322.42	86.38
322.649	96.38
322.878	84.38
323.108	84.38
323.337	82.38
323.566	85.38
323.795	77.38
324.024	82.38
324.253	74.38
324.482	73.38
324.71	84.38
324.939	85.38
325.168	84.38
325.397	99.38
325.626	70.38
325.855	74.38
326.084	95.38
326.313	86.38
326.542	85.38
326.77	94.38
326.999	69.38
327.228	96.38
327.457	81.38
327.686	76.38
327.914	78.38
328.143	99.38
328.372	75.38
328.6	88.38
328.829	82.38
329.058	90.38
329.287	81.38
329.515	78.38
329.744	78.38
329.972	83.38
330.201	85.38
330.43	87.38
330.658	81.38
330.887	95.38
331.115	77.38
331.344	74.38
331.572	99.38
331.801	94.38
332.03	84.38
332.258	79.38
332.486	81.38
332.715	74.38
332.943	83.38
333.172	84.38
333.4	94.38
333.629	93.38
333.857	95.38
334.085	89.38
334.314	99.38
334.542	86.38
334.771	94.38
334.999	84.38
335.227	89.38
335.455	85.38
335.684	90.38
335.912	87.38
336.14	83.38
336.369	102.38
336.597	86.38
336.825	72.38
337.053	102.38
337.281	104.38
337.51	101.38
337.738	94.38
337.966	76.38
338.194	69.38
338.422	93.38
338.65	83.38
338.878	93.38
339.106	63.38
339.334	72.38
339.562	73.38
339.79	93.38
340.018	77.38
340.246	79.38
340.474	100.38
340.702	94.38
340.93	91.38
341.158	73.38
341.386	85.38
341.614	91.38
341.842	88.38
342.07	82.38
342.298	81.38
342.526	80.38
342.754	98.38
342.981	87.38
343.209	94.38
343.437	88.38
343.665	87.38
343.893	79.38
344.12	87.38
344.348	79.38
344.576	67.38
344.804	80.38
345.031	88.38
345.259	88.38
345.487	83.38
345.714	75.38
345.942	74.38
346.17	94.38
346.397	88.38
346.625	88.38
346.853	74.38
347.08	78.38
347.308	77.38
347.535	76.38
347.763	78.38
347.99	74.38
348.218	93.38
348.445	70.38
348.673	95.38
348.9	77.38
349.128	76.38
349.355	79.38
349.583	85.38
349.81	77.38
350.037	90.38
350.265	87.38
350.492	94.38
350.72	90.38
350.947	87.38
351.174	78.38
351.402	74.38
351.629	79.38
351.856	74.38
352.083	78.38
352.311	79.38
352.538	81.38
352.765	73.38
352.992	87.38
353.22	95.38
353.447	86.38
353.674	92.38
353.901	87.38
354.128	90.38
354.355	95.38
354.583	80.38
354.81	93.38
355.037	88.38
355.264	85.38
355.491	89.38
355.718	91.38
355.945	83.38
356.172	81.38
356.399	81.38
356.626	71.38
356.853	89.38
357.08	86.38
357.307	75.38
357.534	68.38
357.761	83.38
357.988	90.38
358.215	92.38
358.441	82.38
358.668	83.38
358.895	75.38
359.122	74.38
359.349	74.38
359.576	87.38
359.802	94.38
360.029	95.38
360.256	75.38
360.483	76.38
360.709	86.38
360.936	99.38
361.163	89.38
361.39	92.38
361.616	88.38
361.843	86.38
362.07	90.38
362.296	83.38
362.523	100.38
362.749	81.38
362.976	81.38
363.203	82.38
363.429	91.38
363.656	103.38
363.882	86.38
364.109	87.38
364.335	93.38
364.562	84.38
364.788	81.38
365.015	79.38
365.241	77.38
365.468	96.38
365.694	70.38
365.92	88.38
366.147	75.38
366.373	87.38
366.599	79.38
366.826	72.38
367.052	80.38
367.278	89.38
367.505	86.38
367.731	87.38
367.957	84.38
368.184	86.38
368.41	86.38
368.636	93.38
368.862	95.38
369.089	94.38
369.315	77.38
369.541	82.38
369.767	86.38
369.993	83.38
370.219	82.38
370.445	94.38
370.672	84.38
370.898	82.38
371.124	71.38
371.35	84.38
371.576	89.38
371.802	91.38
372.028	80.38
372.254	73.38
372.48	82.38
372.706	88.38
372.932	92.38
373.158	90.38
373.384	83.38
373.61	79.38
373.835	87.38
374.061	92.38
374.287	83.38
374.513	90.38
374.739	87.38
374.965	80.38
375.191	76.38
375.416	92.38
375.642	98.38
375.868	94.38
376.094	92.38
376.319	81.38
376.545	77.38
376.771	86.38
376.997	87.38
377.222	92.38
377.448	86.38
377.674	90.38
377.899	87.38
378.125	88.38
378.35	91.38
378.576	89.38
378.802	87.38
379.027	81.38
379.253	77.38
379.478	84.38
379.704	81.38
379.929	80.38
380.155	85.38
380.38	80.38
380.606	78.38
380.831	64.38
381.057	86.38
381.282	75.38
381.507	87.38
381.733	73.38
381.958	78.38
382.184	75.38
382.409	78.38
382.634	88.38
382.86	74.38
383.085	86.38
383.31	68.38
383.535	80.38
383.761	86.38
383.986	84.38
384.211	108.38
384.436	103.38
384.662	77.38
384.887	87.38
385.112	83.38
385.337	93.38
385.562	84.38
385.787	88.38
386.013	79.38
386.238	70.38
386.463	88.38
386.688	86.38
386.913	84.38
387.138	70.38
387.363	82.38
387.588	83.38
387.813	82.38
388.038	88.38
388.263	97.38
388.488	86.38
388.713	89.38
388.938	82.38
389.163	85.38
389.387	78.38
389.612	72.38
389.837	75.38
390.062	76.38
390.287	91.38
390.512	94.38
390.736	79.38
390.961	86.38
391.186	68.38
391.411	73.38
391.636	72.38
391.86	84.38
392.085	81.38
392.31	79.38
392.534	87.38
392.759	103.38
392.984	89.38
393.208	95.38
393.433	88.38
393.658	76.38
393.882	78.38
394.107	92.38
394.331	77.38
394.556	85.38
394.78	71.38
395.005	73.38
395.229	83.38
395.454	81.38
395.678	74.38
395.903	85.38
396.127	78.38
396.352	84.38
396.576	79.38
396.801	92.38
397.025	88.38
397.249	74.38
397.474	90.38
397.698	87.38
397.922	101.38
398.147	92.38
398.371	75.38
398.595	94.38
398.82	84.38
399.044	68.38
399.268	99.38
399.492	90.38
399.717	84.38
399.941	74.38
400.165	104.38
400.389	90.38
400.613	80.38
400.837	81.38
401.062	86.38
401.286	88.38
401.51	85.38
401.734	84.38
401.958	76.38
402.182	88.38
402.406	85.38
402.63	93.38
402.854	90.38
403.078	87.38
403.302	70.38
403.526	95.38
403.75	101.38
403.974	98.38
404.198	88.38
404.422	88.38
404.645	68.38
404.869	68.38
405.093	68.38
405.317	101.38
405.541	82.38
405.765	92.38
405.988	88.38
406.212	91.38
406.436	78.38
406.66	92.38
406.883	78.38
407.107	80.38
407.331	92.38
407.555	74.38
407.778	87.38
408.002	98.38
408.226	68.38
408.449	85.38
408.673	85.38
408.896	87.38
409.12	88.38
409.344	90.38
409.567	72.38
409.791	95.38
410.014	95.38
410.238	84.38
410.461	76.38
410.685	101.38
410.908	82.38
411.132	95.38
411.355	78.38
411.578	99.38
411.802	86.38
412.025	80.38
412.249	82.38
412.472	89.38
412.695	75.38
412.919	88.38
413.142	79.38
413.365	104.38
413.589	77.38
413.812	88.38
414.035	96.38
414.258	88.38
414.482	98.38
414.705	105.38
414.928	92.38
415.151	90.38
415.374	85.38
415.597	89.38
415.821	85.38
416.044	86.38
416.267	89.38
416.49	75.38
416.713	86.38
416.936	81.38
417.159	65.38
417.382	76.38
417.605	91.38
417.828	86.38
418.051	83.38
418.274	85.38
418.497	81.38
418.72	78.38
418.943	87.38
419.166	83.38
419.389	91.38
419.611	88.38
419.834	96.38
420.057	89.38
420.28	79.38
420.503	78.38
420.726	74.38
420.948	92.38
421.171	76.38
421.394	83.38
421.617	88.38
421.839	87.38
422.062	77.38
422.285	89.38
422.507	81.38
422.73	92.38
422.953	94.38
423.175	92.38
423.398	86.38
423.621	95.38
423.843	79.38
424.066	89.38
424.288	101.38
424.511	84.38
424.733	90.38
424.956	86.38
425.178	80.38
425.401	76.38
425.623	74.38
425.846	82.38
426.068	89.38
426.291	94.38
426.513	77.38
426.735	90.38
426.958	95.38
427.18	98.38
427.402	86.38
427.625	77.38
427.847	80.38
428.069	81.38
428.292	93.38
428.514	100.38
428.736	89.38
428.958	71.38
429.181	95.38
429.403	84.38
429.625	78.38
429.847	90.38
430.069	86.38
430.292	88.38
430.514	91.38
430.736	79.38
430.958	68.38
431.18	83.38
431.402	78.38
431.624	98.38
431.846	90.38
432.068	78.38
432.29	84.38
432.512	76.38
432.734	90.38
432.956	78.38
433.178	79.38
433.4	76.38
433.622	85.38
433.844	96.38
434.066	100.38
434.287	80.38
434.509	86.38
434.731	95.38
434.953	79.38
435.175	86.38
435.397	92.38
435.618	80.38
435.84	85.38
436.062	77.38
436.284	88.38
436.505	84.38
436.727	72.38
436.949	94.38
437.17	79.38
437.392	75.38
437.614	75.38
437.835	98.38
438.057	90.38
438.278	85.38
438.5	82.38
438.721	75.38
438.943	86.38
439.165	76.38
439.386	76.38
439.608	84.38
439.829	75.38
440.05	70.38
440.272	88.38
440.493	87.38
440.715	94.38
440.936	102.38
441.158	82.38
441.379	90.38
441.6	86.38
441.822	95.38
442.043	82.38
442.264	85.38
442.486	75.38
442.707	73.38
442.928	106.38
443.149	82.38
443.371	80.38
443.592	97.38
443.813	82.38
444.034	91.38
444.255	80.38
444.476	93.38
444.698	84.38
444.919	82.38
445.14	162.38
445.361	110.38
445.582	96.38
445.803	82.38
446.024	96.38
446.245	96.38
446.466	82.38
446.687	69.38
446.908	86.38
447.129	76.38
447.35	88.38
447.571	91.38
447.792	83.38
448.013	88.38
448.234	93.38
448.455	90.38
448.675	79.38
448.896	74.38
449.117	84.38
449.338	72.38
449.559	93.38
449.779	92.38
450	87.38
450.221	84.38
450.442	84.38
450.662	77.38
450.883	70.38
451.104	81.38
451.324	84.38
451.545	88.38
451.766	81.38
451.986	86.38
452.207	92.38
452.428	87.38
452.648	98.38
452.869	85.38
453.089	76.38
453.31	85.38
453.53	83.38
453.751	86.38
453.971	90.38
454.192	86.38
454.412	77.38
454.633	100.38
454.853	75.38
455.073	79.38
455.294	73.38
455.514	84.38
455.734	74.38
455.955	91.38
456.175	108.38
456.395	91.38
456.616	87.38
456.836	79.38
457.056	82.38
457.276	75.38
457.497	82.38
457.717	75.38
457.937	76.38
458.157	89.38
458.377	91.38
458.598	77.38
458.818	91.38
459.038	86.38
459.258	90.38
459.478	84.38
459.698	83.38
459.918	92.38
460.138	86.38
460.358	91.38
460.578	78.38
460.798	87.38
461.018	72.38
461.238	92.38
461.458	92.38
461.678	86.38
461.898	90.38
462.118	79.38
462.338	95.38
462.558	75.38
462.777	85.38
462.997	94.38
463.217	78.38
463.437	85.38
463.657	81.38
463.876	81.38
464.096	87.38
464.316	79.38
464.536	79.38
464.755	86.38
464.975	72.38
465.195	96.38
465.414	79.38
465.634	80.38
465.854	99.38
466.073	98.38
466.293	100.38
466.512	84.38
466.732	94.38
466.951	70.38
467.171	82.38
467.391	95.38
467.61	86.38
467.829	72.38
468.049	88.38
468.268	92.38
468.488	76.38
468.707	88.38
468.927	86.38
469.146	99.38
469.365	89.38
469.585	74.38
469.804	94.38
470.023	101.38
470.243	90.38
470.462	94.38
470.681	73.38
470.901	85.38
471.12	87.38
471.339	79.38
471.558	90.38
471.777	89.38
471.997	94.38
472.216	78.38
472.435	84.38
472.654	101.38
472.873	101.38
473.092	72.38
473.311	78.38
473.53	91.38
473.749	78.38
473.968	94.38
474.187	93.38
474.406	89.38
474.625	85.38
474.844	88.38
475.063	88.38
475.282	95.38
475.501	82.38
475.72	96.38
475.939	74.38
476.158	82.38
476.377	99.38
476.596	80.38
476.814	87.38
477.033	79.38
477.252	88.38
477.471	95.38
477.69	90.38
477.908	78.38
478.127	89.38
478.346	78.38
478.564	80.38
478.783	84.38
479.002	94.38
479.22	83.38
479.439	91.38
479.658	76.38
479.876	92.38
480.095	92.38
480.313	86.38
480.532	82.38
480.751	76.38
480.969	88.38
481.188	90.38
481.406	101.38
481.624	90.38
481.843	88.38
482.061	76.38
482.28	84.38
482.498	90.38
482.717	90.38
482.935	82.38
483.153	85.38
483.372	101.38
483.59	95.38
483.808	84.38
484.027	71.38
484.245	84.38
484.463	72.38
484.681	96.38
484.9	76.38
485.118	79.38
485.336	91.38
485.554	91.38
485.772	81.38
485.99	77.38
486.209	92.38
486.427	80.38
486.645	84.38
486.863	82.38
487.081	88.38
487.299	102.38
487.517	87.38
487.735	93.38
487.953	84.38
488.171	86.38
488.389	66.38
488.607	77.38
488.825	84.38
489.043	88.38
489.261	90.38
489.479	85.38
489.696	91.38
489.914	91.38
490.132	93.38
490.35	80.38
490.568	77.38
490.786	80.38
491.003	80.38
491.221	92.38
491.439	76.38
491.657	84.38
491.874	93.38
492.092	94.38
492.31	92.38
492.527	102.38
492.745	92.38
492.963	88.38
493.18	101.38
493.398	85.38
493.615	90.38
493.833	86.38
494.05	85.38
494.268	80.38
494.485	100.38
494.703	101.38
494.92	92.38
495.138	106.38
495.355	86.38
495.573	80.38
495.79	102.38
496.008	86.38
496.225	100.38
496.442	83.38
496.66	95.38
496.877	89.38
497.094	71.38
497.312	81.38
497.529	81.38
497.746	85.38
497.963	99.38
498.181	80.38
498.398	94.38
498.615	93.38
498.832	92.38
499.049	104.38
499.267	104.38
499.484	93.38
499.701	102.38
499.918	90.38
500.135	108.38
500.352	106.38
500.569	108.38
500.786	112.38
501.003	99.38
501.22	94.38
501.437	92.38
501.654	81.38
501.871	93.38
502.088	99.38
502.305	98.38
502.522	100.38
502.739	102.38
502.956	84.38
503.172	93.38
503.389	98.38
503.606	85.38
503.823	80.38
504.04	76.38
504.256	102.38
504.473	93.38
504.69	100.38
504.907	106.38
505.123	97.38
505.34	85.38
505.557	77.38
505.773	88.38
505.99	80.38
506.207	77.38
506.423	92.38
506.64	98.38
506.856	78.38
507.073	104.38
507.289	84.38
507.506	90.38
507.722	84.38
507.939	92.38
508.155	80.38
508.372	80.38
508.588	90.38
508.805	84.38
509.021	91.38
509.238	89.38
509.454	75.38
509.67	97.38
509.887	97.38
510.103	98.38
510.319	92.38
510.536	88.38
510.752	85.38
510.968	93.38
511.184	85.38
511.401	78.38
511.617	78.38
511.833	92.38
512.049	96.38
512.265	85.38
512.481	90.38
512.698	87.38
512.914	86.38
513.13	99.38
513.346	92.38
513.562	85.38
513.778	97.38
513.994	84.38
514.21	89.38
514.426	80.38
514.642	83.38
514.858	79.38
515.074	71.38
515.29	77.38
515.506	86.38
515.721	72.38
515.937	80.38
516.153	86.38
516.369	81.38
516.585	81.38
516.801	83.38
517.016	106.38
517.232	76.38
517.448	99.38
517.664	91.38
517.879	92.38
518.095	97.38
518.311	96.38
518.527	85.38
518.742	96.38
518.958	90.38
519.173	103.38
519.389	86.38
519.605	90.38
