Data from BG_HRD10591_085.txt Node
Date: Fri May 16 15:27:29 EDT 2025
User: Yrep
Spectrometer: HR+D1059
Trigger mode: 1
Integration Time (sec): 1.000000E-1
Scans to average: 1
Electric dark correction enabled: true
Nonlinearity correction enabled: false
Boxcar width: 0
XAxis mode: Wavelengths
Number of Pixels in Spectrum: 2048
>>>>>Begin Spectral Data<<<<<
223.165	-9.31
223.4	-9.31
223.635	-9.31
223.869	-20.31
224.104	-20.31
224.338	-9.31
224.573	-18.31
224.808	-28.31
225.042	-12.31
225.277	-6.31
225.511	-6.31
225.746	3.69
225.98	1.69
226.215	4.69
226.449	26.69
226.683	29.69
226.918	28.69
227.152	35.69
227.387	31.69
227.621	41.69
227.856	42.69
228.09	62.69
228.324	41.69
228.559	55.69
228.793	56.69
229.027	61.69
229.262	61.69
229.496	73.69
229.73	76.69
229.964	72.69
230.199	80.69
230.433	80.69
230.667	76.69
230.901	84.69
231.136	85.69
231.37	77.69
231.604	81.69
231.838	93.69
232.072	88.69
232.306	83.69
232.541	82.69
232.775	87.69
233.009	75.69
233.243	80.69
233.477	81.69
233.711	93.69
233.945	80.69
234.179	82.69
234.413	86.69
234.647	59.69
234.881	83.69
235.115	77.69
235.349	87.69
235.583	81.69
235.817	74.69
236.051	84.69
236.285	75.69
236.519	74.69
236.753	67.69
236.987	75.69
237.221	93.69
237.455	84.69
237.689	79.69
237.922	91.69
238.156	93.69
238.39	87.69
238.624	81.69
238.858	75.69
239.091	88.69
239.325	85.69
239.559	71.69
239.793	75.69
240.027	68.69
240.26	80.69
240.494	82.69
240.728	94.69
240.961	78.69
241.195	83.69
241.429	100.69
241.662	87.69
241.896	87.69
242.13	77.69
242.363	81.69
242.597	85.69
242.83	89.69
243.064	87.69
243.298	83.69
243.531	84.69
243.765	79.69
243.998	95.69
244.232	88.69
244.465	68.69
244.699	63.69
244.932	75.69
245.166	71.69
245.399	78.69
245.633	77.69
245.866	83.69
246.099	82.69
246.333	87.69
246.566	79.69
246.8	79.69
247.033	82.69
247.266	81.69
247.5	73.69
247.733	92.69
247.966	84.69
248.2	77.69
248.433	81.69
248.666	70.69
248.899	88.69
249.133	74.69
249.366	78.69
249.599	84.69
249.832	80.69
250.066	88.69
250.299	75.69
250.532	83.69
250.765	62.69
250.998	79.69
251.231	82.69
251.465	75.69
251.698	87.69
251.931	75.69
252.164	87.69
252.397	85.69
252.63	88.69
252.863	88.69
253.096	86.69
253.329	77.69
253.562	78.69
253.795	81.69
254.028	87.69
254.261	84.69
254.494	88.69
254.727	79.69
254.96	62.69
255.193	76.69
255.426	83.69
255.659	77.69
255.892	82.69
256.124	89.69
256.357	82.69
256.59	87.69
256.823	87.69
257.056	78.69
257.289	77.69
257.521	75.69
257.754	88.69
257.987	87.69
258.22	72.69
258.452	84.69
258.685	76.69
258.918	80.69
259.151	72.69
259.383	89.69
259.616	80.69
259.849	88.69
260.081	85.69
260.314	85.69
260.547	79.69
260.779	69.69
261.012	67.69
261.244	67.69
261.477	95.69
261.71	72.69
261.942	76.69
262.175	87.69
262.407	76.69
262.64	82.69
262.872	80.69
263.105	65.69
263.337	71.69
263.57	75.69
263.802	83.69
264.035	87.69
264.267	89.69
264.499	89.69
264.732	80.69
264.964	77.69
265.197	79.69
265.429	68.69
265.661	85.69
265.894	70.69
266.126	92.69
266.358	93.69
266.591	86.69
266.823	83.69
267.055	85.69
267.287	85.69
267.52	79.69
267.752	80.69
267.984	83.69
268.216	91.69
268.448	91.69
268.681	80.69
268.913	86.69
269.145	95.69
269.377	94.69
269.609	85.69
269.841	81.69
270.073	88.69
270.306	97.69
270.538	83.69
270.77	80.69
271.002	89.69
271.234	76.69
271.466	89.69
271.698	89.69
271.93	90.69
272.162	88.69
272.394	83.69
272.626	92.69
272.858	94.69
273.09	88.69
273.322	72.69
273.553	79.69
273.785	75.69
274.017	87.69
274.249	91.69
274.481	90.69
274.713	94.69
274.945	108.69
275.176	79.69
275.408	81.69
275.64	84.69
275.872	91.69
276.104	96.69
276.335	80.69
276.567	92.69
276.799	92.69
277.031	81.69
277.262	83.69
277.494	69.69
277.726	78.69
277.957	74.69
278.189	92.69
278.421	96.69
278.652	89.69
278.884	84.69
279.115	76.69
279.347	75.69
279.579	77.69
279.81	74.69
280.042	76.69
280.273	83.69
280.505	92.69
280.736	79.69
280.968	87.69
281.199	89.69
281.431	79.69
281.662	87.69
281.894	87.69
282.125	83.69
282.356	86.69
282.588	88.69
282.819	81.69
283.051	82.69
283.282	89.69
283.513	84.69
283.745	86.69
283.976	75.69
284.207	61.69
284.439	88.69
284.67	88.69
284.901	89.69
285.132	98.69
285.364	89.69
285.595	87.69
285.826	94.69
286.057	100.69
286.288	89.69
286.52	80.69
286.751	96.69
286.982	87.69
287.213	85.69
287.444	84.69
287.675	96.69
287.906	81.69
288.138	80.69
288.369	95.69
288.6	93.69
288.831	97.69
289.062	84.69
289.293	82.69
289.524	77.69
289.755	90.69
289.986	88.69
290.217	95.69
290.448	85.69
290.679	93.69
290.91	75.69
291.141	81.69
291.371	75.69
291.602	83.69
291.833	87.69
292.064	91.69
292.295	91.69
292.526	83.69
292.757	109.69
292.987	76.69
293.218	82.69
293.449	75.69
293.68	94.69
293.91	97.69
294.141	93.69
294.372	88.69
294.603	87.69
294.833	93.69
295.064	89.69
295.295	90.69
295.525	79.69
295.756	90.69
295.987	77.69
296.217	88.69
296.448	78.69
296.679	76.69
296.909	75.69
297.14	93.69
297.37	104.69
297.601	90.69
297.831	83.69
298.062	75.69
298.292	69.69
298.523	86.69
298.753	88.69
298.984	91.69
299.214	80.69
299.445	90.69
299.675	83.69
299.905	81.69
300.136	88.69
300.366	82.69
300.597	87.69
300.827	85.69
301.057	86.69
301.288	88.69
301.518	81.69
301.748	91.69
301.979	107.69
302.209	84.69
302.439	80.69
302.669	87.69
302.9	85.69
303.13	87.69
303.36	89.69
303.59	77.69
303.82	84.69
304.051	75.69
304.281	85.69
304.511	95.69
304.741	96.69
304.971	83.69
305.201	93.69
305.431	73.69
305.661	90.69
305.891	89.69
306.121	88.69
306.352	91.69
306.582	79.69
306.812	89.69
307.042	77.69
307.272	88.69
307.502	77.69
307.731	93.69
307.961	84.69
308.191	97.69
308.421	95.69
308.651	89.69
308.881	70.69
309.111	76.69
309.341	86.69
309.571	95.69
309.8	72.69
310.03	91.69
310.26	92.69
310.49	75.69
310.72	83.69
310.949	87.69
311.179	84.69
311.409	82.69
311.639	94.69
311.868	88.69
312.098	89.69
312.328	72.69
312.557	84.69
312.787	85.69
313.017	98.69
313.246	74.69
313.476	92.69
313.706	88.69
313.935	64.69
314.165	95.69
314.394	92.69
314.624	91.69
314.853	97.69
315.083	80.69
315.312	89.69
315.542	79.69
315.771	83.69
316.001	98.69
316.23	93.69
316.46	75.69
316.689	83.69
316.919	90.69
317.148	89.69
317.377	98.69
317.607	88.69
317.836	83.69
318.065	91.69
318.295	71.69
318.524	96.69
318.753	86.69
318.983	87.69
319.212	80.69
319.441	84.69
319.67	77.69
319.9	90.69
320.129	85.69
320.358	83.69
320.587	90.69
320.816	96.69
321.046	68.69
321.275	91.69
321.504	80.69
321.733	79.69
321.962	83.69
322.191	82.69
322.42	83.69
322.649	92.69
322.878	94.69
323.108	83.69
323.337	86.69
323.566	103.69
323.795	92.69
324.024	91.69
324.253	98.69
324.482	77.69
324.71	99.69
324.939	83.69
325.168	77.69
325.397	80.69
325.626	93.69
325.855	97.69
326.084	92.69
326.313	96.69
326.542	81.69
326.77	83.69
326.999	96.69
327.228	91.69
327.457	91.69
327.686	99.69
327.914	104.69
328.143	82.69
328.372	99.69
328.6	80.69
328.829	76.69
329.058	86.69
329.287	79.69
329.515	99.69
329.744	84.69
329.972	70.69
330.201	81.69
330.43	95.69
330.658	98.69
330.887	87.69
331.115	67.69
331.344	93.69
331.572	95.69
331.801	81.69
332.03	89.69
332.258	79.69
332.486	91.69
332.715	91.69
332.943	92.69
333.172	83.69
333.4	75.69
333.629	83.69
333.857	87.69
334.085	83.69
334.314	79.69
334.542	92.69
334.771	77.69
334.999	61.69
335.227	74.69
335.455	80.69
335.684	93.69
335.912	80.69
336.14	83.69
336.369	86.69
336.597	96.69
336.825	94.69
337.053	86.69
337.281	83.69
337.51	79.69
337.738	91.69
337.966	82.69
338.194	87.69
338.422	96.69
338.65	98.69
338.878	94.69
339.106	94.69
339.334	101.69
339.562	82.69
339.79	81.69
340.018	79.69
340.246	95.69
340.474	91.69
340.702	98.69
340.93	97.69
341.158	75.69
341.386	85.69
341.614	88.69
341.842	89.69
342.07	90.69
342.298	99.69
342.526	82.69
342.754	80.69
342.981	87.69
343.209	87.69
343.437	94.69
343.665	91.69
343.893	97.69
344.12	70.69
344.348	93.69
344.576	84.69
344.804	89.69
345.031	93.69
345.259	78.69
345.487	88.69
345.714	91.69
345.942	82.69
346.17	98.69
346.397	83.69
346.625	89.69
346.853	80.69
347.08	88.69
347.308	62.69
347.535	86.69
347.763	74.69
347.99	83.69
348.218	83.69
348.445	79.69
348.673	84.69
348.9	86.69
349.128	87.69
349.355	77.69
349.583	81.69
349.81	98.69
350.037	84.69
350.265	80.69
350.492	80.69
350.72	90.69
350.947	81.69
351.174	77.69
351.402	88.69
351.629	80.69
351.856	77.69
352.083	78.69
352.311	92.69
352.538	79.69
352.765	63.69
352.992	81.69
353.22	82.69
353.447	73.69
353.674	73.69
353.901	81.69
354.128	88.69
354.355	84.69
354.583	85.69
354.81	86.69
355.037	94.69
355.264	84.69
355.491	79.69
355.718	67.69
355.945	101.69
356.172	68.69
356.399	77.69
356.626	86.69
356.853	94.69
357.08	91.69
357.307	88.69
357.534	88.69
357.761	87.69
357.988	84.69
358.215	85.69
358.441	82.69
358.668	81.69
358.895	77.69
359.122	74.69
359.349	75.69
359.576	89.69
359.802	79.69
360.029	69.69
360.256	89.69
360.483	78.69
360.709	82.69
360.936	94.69
361.163	81.69
361.39	85.69
361.616	81.69
361.843	74.69
362.07	84.69
362.296	98.69
362.523	94.69
362.749	90.69
362.976	91.69
363.203	89.69
363.429	70.69
363.656	84.69
363.882	67.69
364.109	80.69
364.335	94.69
364.562	89.69
364.788	87.69
365.015	93.69
365.241	93.69
365.468	87.69
365.694	89.69
365.92	92.69
366.147	92.69
366.373	101.69
366.599	88.69
366.826	93.69
367.052	93.69
367.278	84.69
367.505	88.69
367.731	81.69
367.957	86.69
368.184	88.69
368.41	75.69
368.636	93.69
368.862	81.69
369.089	78.69
369.315	84.69
369.541	83.69
369.767	80.69
369.993	85.69
370.219	97.69
370.445	84.69
370.672	91.69
370.898	82.69
371.124	101.69
371.35	74.69
371.576	85.69
371.802	82.69
372.028	74.69
372.254	84.69
372.48	83.69
372.706	88.69
372.932	84.69
373.158	88.69
373.384	104.69
373.61	97.69
373.835	93.69
374.061	88.69
374.287	89.69
374.513	92.69
374.739	75.69
374.965	82.69
375.191	94.69
375.416	84.69
375.642	85.69
375.868	92.69
376.094	85.69
376.319	85.69
376.545	89.69
376.771	72.69
376.997	86.69
377.222	99.69
377.448	92.69
377.674	91.69
377.899	83.69
378.125	80.69
378.35	91.69
378.576	80.69
378.802	93.69
379.027	83.69
379.253	84.69
379.478	84.69
379.704	76.69
379.929	86.69
380.155	90.69
380.38	79.69
380.606	78.69
380.831	80.69
381.057	84.69
381.282	85.69
381.507	72.69
381.733	74.69
381.958	84.69
382.184	79.69
382.409	90.69
382.634	100.69
382.86	87.69
383.085	91.69
383.31	87.69
383.535	76.69
383.761	69.69
383.986	94.69
384.211	80.69
384.436	90.69
384.662	71.69
384.887	87.69
385.112	79.69
385.337	87.69
385.562	69.69
385.787	84.69
386.013	89.69
386.238	85.69
386.463	73.69
386.688	98.69
386.913	95.69
387.138	78.69
387.363	85.69
387.588	88.69
387.813	83.69
388.038	83.69
388.263	72.69
388.488	84.69
388.713	94.69
388.938	92.69
389.163	70.69
389.387	89.69
389.612	68.69
389.837	83.69
390.062	82.69
390.287	87.69
390.512	70.69
390.736	77.69
390.961	85.69
391.186	85.69
391.411	97.69
391.636	60.69
391.86	90.69
392.085	80.69
392.31	83.69
392.534	89.69
392.759	101.69
392.984	77.69
393.208	78.69
393.433	77.69
393.658	69.69
393.882	85.69
394.107	87.69
394.331	87.69
394.556	82.69
394.78	79.69
395.005	83.69
395.229	95.69
395.454	93.69
395.678	66.69
395.903	87.69
396.127	82.69
396.352	75.69
396.576	82.69
396.801	75.69
397.025	84.69
397.249	74.69
397.474	87.69
397.698	83.69
397.922	77.69
398.147	96.69
398.371	91.69
398.595	83.69
398.82	96.69
399.044	101.69
399.268	67.69
399.492	69.69
399.717	89.69
399.941	78.69
400.165	84.69
400.389	79.69
400.613	79.69
400.837	79.69
401.062	72.69
401.286	81.69
401.51	87.69
401.734	81.69
401.958	99.69
402.182	90.69
402.406	76.69
402.63	73.69
402.854	89.69
403.078	79.69
403.302	67.69
403.526	77.69
403.75	81.69
403.974	86.69
404.198	85.69
404.422	75.69
404.645	92.69
404.869	78.69
405.093	79.69
405.317	82.69
405.541	87.69
405.765	71.69
405.988	71.69
406.212	76.69
406.436	85.69
406.66	88.69
406.883	79.69
407.107	73.69
407.331	80.69
407.555	86.69
407.778	82.69
408.002	78.69
408.226	84.69
408.449	93.69
408.673	84.69
408.896	76.69
409.12	84.69
409.344	89.69
409.567	83.69
409.791	70.69
410.014	94.69
410.238	88.69
410.461	81.69
410.685	91.69
410.908	82.69
411.132	88.69
411.355	87.69
411.578	80.69
411.802	81.69
412.025	90.69
412.249	86.69
412.472	80.69
412.695	80.69
412.919	89.69
413.142	81.69
413.365	73.69
413.589	72.69
413.812	76.69
414.035	81.69
414.258	87.69
414.482	79.69
414.705	87.69
414.928	91.69
415.151	95.69
415.374	89.69
415.597	96.69
415.821	85.69
416.044	84.69
416.267	83.69
416.49	87.69
416.713	76.69
416.936	86.69
417.159	81.69
417.382	81.69
417.605	81.69
417.828	79.69
418.051	73.69
418.274	88.69
418.497	81.69
418.72	100.69
418.943	92.69
419.166	96.69
419.389	90.69
419.611	75.69
419.834	86.69
420.057	84.69
420.28	88.69
420.503	83.69
420.726	78.69
420.948	84.69
421.171	81.69
421.394	77.69
421.617	77.69
421.839	79.69
422.062	88.69
422.285	90.69
422.507	74.69
422.73	59.69
422.953	79.69
423.175	76.69
423.398	87.69
423.621	87.69
423.843	82.69
424.066	81.69
424.288	81.69
424.511	84.69
424.733	69.69
424.956	82.69
425.178	83.69
425.401	76.69
425.623	67.69
425.846	75.69
426.068	81.69
426.291	87.69
426.513	88.69
426.735	72.69
426.958	81.69
427.18	93.69
427.402	74.69
427.625	112.69
427.847	71.69
428.069	87.69
428.292	90.69
428.514	92.69
428.736	77.69
428.958	84.69
429.181	61.69
429.403	75.69
429.625	76.69
429.847	83.69
430.069	63.69
430.292	75.69
430.514	85.69
430.736	81.69
430.958	93.69
431.18	70.69
431.402	79.69
431.624	100.69
431.846	81.69
432.068	84.69
432.29	80.69
432.512	88.69
432.734	69.69
432.956	93.69
433.178	95.69
433.4	81.69
433.622	84.69
433.844	91.69
434.066	85.69
434.287	89.69
434.509	87.69
434.731	81.69
434.953	94.69
435.175	88.69
435.397	78.69
435.618	82.69
435.84	80.69
436.062	90.69
436.284	67.69
436.505	77.69
436.727	86.69
436.949	79.69
437.17	79.69
437.392	60.69
437.614	75.69
437.835	79.69
438.057	80.69
438.278	91.69
438.5	81.69
438.721	78.69
438.943	79.69
439.165	71.69
439.386	85.69
439.608	103.69
439.829	78.69
440.05	77.69
440.272	77.69
440.493	87.69
440.715	76.69
440.936	83.69
441.158	82.69
441.379	77.69
441.6	91.69
441.822	81.69
442.043	92.69
442.264	75.69
442.486	77.69
442.707	65.69
442.928	77.69
443.149	75.69
443.371	85.69
443.592	89.69
443.813	85.69
444.034	84.69
444.255	85.69
444.476	85.69
444.698	84.69
444.919	87.69
445.14	149.69
445.361	101.69
445.582	77.69
445.803	96.69
446.024	82.69
446.245	94.69
446.466	72.69
446.687	87.69
446.908	87.69
447.129	94.69
447.35	79.69
447.571	84.69
447.792	71.69
448.013	75.69
448.234	81.69
448.455	86.69
448.675	96.69
448.896	81.69
449.117	80.69
449.338	80.69
449.559	83.69
449.779	96.69
450	84.69
450.221	91.69
450.442	74.69
450.662	76.69
450.883	89.69
451.104	93.69
451.324	86.69
451.545	83.69
451.766	83.69
451.986	77.69
452.207	83.69
452.428	95.69
452.648	79.69
452.869	67.69
453.089	83.69
453.31	76.69
453.53	89.69
453.751	97.69
453.971	82.69
454.192	84.69
454.412	95.69
454.633	80.69
454.853	82.69
455.073	100.69
455.294	84.69
455.514	80.69
455.734	89.69
455.955	97.69
456.175	63.69
456.395	91.69
456.616	91.69
456.836	79.69
457.056	85.69
457.276	91.69
457.497	75.69
457.717	83.69
457.937	84.69
458.157	76.69
458.377	83.69
458.598	89.69
458.818	97.69
459.038	93.69
459.258	68.69
459.478	69.69
459.698	75.69
459.918	77.69
460.138	77.69
460.358	92.69
460.578	74.69
460.798	80.69
461.018	78.69
461.238	93.69
461.458	83.69
461.678	89.69
461.898	94.69
462.118	75.69
462.338	80.69
462.558	81.69
462.777	80.69
462.997	82.69
463.217	69.69
463.437	70.69
463.657	85.69
463.876	80.69
464.096	67.69
464.316	71.69
464.536	90.69
464.755	77.69
464.975	83.69
465.195	87.69
465.414	83.69
465.634	83.69
465.854	69.69
466.073	89.69
466.293	76.69
466.512	80.69
466.732	80.69
466.951	95.69
467.171	90.69
467.391	89.69
467.61	78.69
467.829	73.69
468.049	79.69
468.268	64.69
468.488	91.69
468.707	84.69
468.927	80.69
469.146	98.69
469.365	79.69
469.585	82.69
469.804	82.69
470.023	85.69
470.243	87.69
470.462	85.69
470.681	77.69
470.901	94.69
471.12	79.69
471.339	83.69
471.558	81.69
471.777	70.69
471.997	81.69
472.216	75.69
472.435	93.69
472.654	77.69
472.873	79.69
473.092	82.69
473.311	77.69
473.53	83.69
473.749	78.69
473.968	83.69
474.187	75.69
474.406	65.69
474.625	76.69
474.844	85.69
475.063	72.69
475.282	83.69
475.501	88.69
475.72	92.69
475.939	64.69
476.158	74.69
476.377	71.69
476.596	81.69
476.814	85.69
477.033	88.69
477.252	78.69
477.471	90.69
477.69	96.69
477.908	94.69
478.127	95.69
478.346	71.69
478.564	81.69
478.783	73.69
479.002	73.69
479.22	83.69
479.439	90.69
479.658	92.69
479.876	83.69
480.095	77.69
480.313	83.69
480.532	90.69
480.751	89.69
480.969	87.69
481.188	92.69
481.406	85.69
481.624	90.69
481.843	83.69
482.061	72.69
482.28	75.69
482.498	90.69
482.717	95.69
482.935	78.69
483.153	91.69
483.372	83.69
483.59	90.69
483.808	90.69
484.027	81.69
484.245	83.69
484.463	79.69
484.681	98.69
484.9	96.69
485.118	74.69
485.336	83.69
485.554	74.69
485.772	83.69
485.99	96.69
486.209	77.69
486.427	74.69
486.645	61.69
486.863	89.69
487.081	87.69
487.299	77.69
487.517	98.69
487.735	77.69
487.953	92.69
488.171	84.69
488.389	77.69
488.607	77.69
488.825	85.69
489.043	84.69
489.261	77.69
489.479	95.69
489.696	81.69
489.914	81.69
490.132	84.69
490.35	87.69
490.568	75.69
490.786	79.69
491.003	87.69
491.221	87.69
491.439	76.69
491.657	83.69
491.874	97.69
492.092	85.69
492.31	76.69
492.527	82.69
492.745	93.69
492.963	96.69
493.18	105.69
493.398	87.69
493.615	80.69
493.833	78.69
494.05	73.69
494.268	95.69
494.485	95.69
494.703	73.69
494.92	85.69
495.138	89.69
495.355	89.69
495.573	84.69
495.79	81.69
496.008	75.69
496.225	89.69
496.442	98.69
496.66	86.69
496.877	78.69
497.094	79.69
497.312	84.69
497.529	100.69
497.746	81.69
497.963	73.69
498.181	82.69
498.398	88.69
498.615	80.69
498.832	71.69
499.049	89.69
499.267	75.69
499.484	85.69
499.701	87.69
499.918	81.69
500.135	85.69
500.352	78.69
500.569	80.69
500.786	76.69
501.003	73.69
501.22	85.69
501.437	98.69
501.654	92.69
501.871	82.69
502.088	83.69
502.305	85.69
502.522	78.69
502.739	89.69
502.956	79.69
503.172	83.69
503.389	88.69
503.606	81.69
503.823	87.69
504.04	87.69
504.256	86.69
504.473	93.69
504.69	88.69
504.907	85.69
505.123	93.69
505.34	76.69
505.557	87.69
505.773	89.69
505.99	83.69
506.207	87.69
506.423	82.69
506.64	77.69
506.856	77.69
507.073	91.69
507.289	76.69
507.506	80.69
507.722	91.69
507.939	75.69
508.155	80.69
508.372	97.69
508.588	83.69
508.805	78.69
509.021	92.69
509.238	91.69
509.454	81.69
509.67	84.69
509.887	75.69
510.103	81.69
510.319	86.69
510.536	93.69
510.752	92.69
510.968	76.69
511.184	66.69
511.401	75.69
511.617	80.69
511.833	84.69
512.049	93.69
512.265	82.69
512.481	87.69
512.698	77.69
512.914	95.69
513.13	97.69
513.346	73.69
513.562	86.69
513.778	84.69
513.994	79.69
514.21	90.69
514.426	88.69
514.642	88.69
514.858	89.69
515.074	93.69
515.29	89.69
515.506	80.69
515.721	89.69
515.937	77.69
516.153	80.69
516.369	79.69
516.585	61.69
516.801	91.69
517.016	74.69
517.232	84.69
517.448	88.69
517.664	98.69
517.879	75.69
518.095	93.69
518.311	80.69
518.527	84.69
518.742	93.69
518.958	91.69
519.173	85.69
519.389	76.69
519.605	69.69
519.82	83.69
520.036	91.69
