Data from BG_HRD10591_068.txt Node
Date: Fri May 16 15:27:21 EDT 2025
User: Yrep
Spectrometer: HR+D1059
Trigger mode: 1
Integration Time (sec): 1.000000E-1
Scans to average: 1
Electric dark correction enabled: true
Nonlinearity correction enabled: false
Boxcar width: 0
XAxis mode: Wavelengths
Number of Pixels in Spectrum: 2048
>>>>>Begin Spectral Data<<<<<
223.165	-12.88
223.4	-12.88
223.635	-12.88
223.869	-19.88
224.104	-17.88
224.338	-16.88
224.573	-23.88
224.808	-14.88
225.042	-13.88
225.277	2.12
225.511	-6.88
225.746	-4.88
225.98	7.12
226.215	27.12
226.449	23.12
226.683	18.12
226.918	28.12
227.152	26.12
227.387	44.12
227.621	36.12
227.856	55.12
228.09	49.12
228.324	63.12
228.559	69.12
228.793	50.12
229.027	49.12
229.262	72.12
229.496	66.12
229.73	70.12
229.964	72.12
230.199	64.12
230.433	59.12
230.667	73.12
230.901	68.12
231.136	77.12
231.37	83.12
231.604	72.12
231.838	84.12
232.072	81.12
232.306	78.12
232.541	72.12
232.775	81.12
233.009	89.12
233.243	73.12
233.477	77.12
233.711	82.12
233.945	89.12
234.179	83.12
234.413	83.12
234.647	84.12
234.881	76.12
235.115	88.12
235.349	77.12
235.583	77.12
235.817	88.12
236.051	61.12
236.285	79.12
236.519	79.12
236.753	69.12
236.987	64.12
237.221	69.12
237.455	68.12
237.689	70.12
237.922	66.12
238.156	79.12
238.39	82.12
238.624	70.12
238.858	76.12
239.091	82.12
239.325	67.12
239.559	73.12
239.793	79.12
240.027	76.12
240.26	82.12
240.494	93.12
240.728	77.12
240.961	72.12
241.195	80.12
241.429	81.12
241.662	70.12
241.896	65.12
242.13	76.12
242.363	91.12
242.597	70.12
242.83	64.12
243.064	67.12
243.298	88.12
243.531	76.12
243.765	84.12
243.998	91.12
244.232	78.12
244.465	95.12
244.699	84.12
244.932	75.12
245.166	69.12
245.399	77.12
245.633	75.12
245.866	79.12
246.099	76.12
246.333	67.12
246.566	75.12
246.8	83.12
247.033	79.12
247.266	69.12
247.5	93.12
247.733	76.12
247.966	74.12
248.2	74.12
248.433	85.12
248.666	91.12
248.899	74.12
249.133	80.12
249.366	73.12
249.599	67.12
249.832	68.12
250.066	85.12
250.299	82.12
250.532	90.12
250.765	88.12
250.998	82.12
251.231	82.12
251.465	72.12
251.698	89.12
251.931	82.12
252.164	82.12
252.397	72.12
252.63	85.12
252.863	93.12
253.096	68.12
253.329	88.12
253.562	81.12
253.795	84.12
254.028	79.12
254.261	80.12
254.494	92.12
254.727	78.12
254.96	73.12
255.193	87.12
255.426	77.12
255.659	85.12
255.892	95.12
256.124	67.12
256.357	59.12
256.59	79.12
256.823	90.12
257.056	87.12
257.289	77.12
257.521	87.12
257.754	71.12
257.987	72.12
258.22	79.12
258.452	82.12
258.685	82.12
258.918	83.12
259.151	79.12
259.383	83.12
259.616	78.12
259.849	72.12
260.081	79.12
260.314	86.12
260.547	72.12
260.779	89.12
261.012	85.12
261.244	75.12
261.477	80.12
261.71	75.12
261.942	79.12
262.175	73.12
262.407	78.12
262.64	87.12
262.872	87.12
263.105	99.12
263.337	89.12
263.57	98.12
263.802	77.12
264.035	89.12
264.267	83.12
264.499	84.12
264.732	81.12
264.964	87.12
265.197	80.12
265.429	87.12
265.661	76.12
265.894	85.12
266.126	65.12
266.358	81.12
266.591	68.12
266.823	81.12
267.055	81.12
267.287	80.12
267.52	95.12
267.752	83.12
267.984	81.12
268.216	91.12
268.448	91.12
268.681	84.12
268.913	77.12
269.145	88.12
269.377	86.12
269.609	73.12
269.841	91.12
270.073	91.12
270.306	82.12
270.538	85.12
270.77	80.12
271.002	79.12
271.234	77.12
271.466	86.12
271.698	81.12
271.93	90.12
272.162	78.12
272.394	82.12
272.626	80.12
272.858	74.12
273.09	88.12
273.322	74.12
273.553	84.12
273.785	95.12
274.017	77.12
274.249	101.12
274.481	87.12
274.713	90.12
274.945	84.12
275.176	81.12
275.408	75.12
275.64	96.12
275.872	81.12
276.104	82.12
276.335	80.12
276.567	70.12
276.799	97.12
277.031	103.12
277.262	88.12
277.494	79.12
277.726	79.12
277.957	76.12
278.189	108.12
278.421	83.12
278.652	93.12
278.884	84.12
279.115	65.12
279.347	77.12
279.579	84.12
279.81	77.12
280.042	83.12
280.273	89.12
280.505	77.12
280.736	75.12
280.968	84.12
281.199	84.12
281.431	87.12
281.662	96.12
281.894	80.12
282.125	81.12
282.356	78.12
282.588	77.12
282.819	89.12
283.051	77.12
283.282	77.12
283.513	83.12
283.745	100.12
283.976	97.12
284.207	81.12
284.439	98.12
284.67	89.12
284.901	85.12
285.132	77.12
285.364	90.12
285.595	76.12
285.826	84.12
286.057	87.12
286.288	83.12
286.52	81.12
286.751	85.12
286.982	72.12
287.213	84.12
287.444	89.12
287.675	81.12
287.906	96.12
288.138	95.12
288.369	89.12
288.6	79.12
288.831	77.12
289.062	87.12
289.293	88.12
289.524	89.12
289.755	83.12
289.986	93.12
290.217	93.12
290.448	93.12
290.679	89.12
290.91	85.12
291.141	87.12
291.371	94.12
291.602	94.12
291.833	91.12
292.064	85.12
292.295	99.12
292.526	91.12
292.757	99.12
292.987	87.12
293.218	93.12
293.449	82.12
293.68	81.12
293.91	79.12
294.141	87.12
294.372	91.12
294.603	82.12
294.833	72.12
295.064	91.12
295.295	89.12
295.525	98.12
295.756	87.12
295.987	87.12
296.217	83.12
296.448	92.12
296.679	100.12
296.909	80.12
297.14	95.12
297.37	79.12
297.601	87.12
297.831	99.12
298.062	90.12
298.292	85.12
298.523	96.12
298.753	87.12
298.984	102.12
299.214	83.12
299.445	86.12
299.675	89.12
299.905	85.12
300.136	78.12
300.366	90.12
300.597	97.12
300.827	91.12
301.057	91.12
301.288	74.12
301.518	84.12
301.748	97.12
301.979	91.12
302.209	90.12
302.439	82.12
302.669	72.12
302.9	88.12
303.13	96.12
303.36	99.12
303.59	95.12
303.82	83.12
304.051	92.12
304.281	92.12
304.511	82.12
304.741	101.12
304.971	92.12
305.201	69.12
305.431	78.12
305.661	89.12
305.891	89.12
306.121	81.12
306.352	77.12
306.582	76.12
306.812	86.12
307.042	87.12
307.272	88.12
307.502	84.12
307.731	83.12
307.961	82.12
308.191	91.12
308.421	79.12
308.651	84.12
308.881	87.12
309.111	71.12
309.341	76.12
309.571	81.12
309.8	96.12
310.03	89.12
310.26	91.12
310.49	69.12
310.72	90.12
310.949	91.12
311.179	74.12
311.409	85.12
311.639	83.12
311.868	84.12
312.098	93.12
312.328	86.12
312.557	75.12
312.787	89.12
313.017	85.12
313.246	69.12
313.476	76.12
313.706	83.12
313.935	90.12
314.165	79.12
314.394	75.12
314.624	87.12
314.853	97.12
315.083	77.12
315.312	96.12
315.542	82.12
315.771	71.12
316.001	89.12
316.23	80.12
316.46	96.12
316.689	90.12
316.919	91.12
317.148	92.12
317.377	97.12
317.607	82.12
317.836	90.12
318.065	79.12
318.295	89.12
318.524	84.12
318.753	88.12
318.983	84.12
319.212	88.12
319.441	85.12
319.67	87.12
319.9	79.12
320.129	96.12
320.358	71.12
320.587	98.12
320.816	82.12
321.046	80.12
321.275	84.12
321.504	80.12
321.733	79.12
321.962	91.12
322.191	81.12
322.42	74.12
322.649	87.12
322.878	101.12
323.108	92.12
323.337	72.12
323.566	94.12
323.795	79.12
324.024	88.12
324.253	87.12
324.482	101.12
324.71	95.12
324.939	78.12
325.168	101.12
325.397	81.12
325.626	99.12
325.855	85.12
326.084	87.12
326.313	85.12
326.542	103.12
326.77	91.12
326.999	87.12
327.228	83.12
327.457	88.12
327.686	84.12
327.914	100.12
328.143	84.12
328.372	99.12
328.6	85.12
328.829	90.12
329.058	87.12
329.287	89.12
329.515	77.12
329.744	87.12
329.972	84.12
330.201	83.12
330.43	78.12
330.658	81.12
330.887	88.12
331.115	80.12
331.344	73.12
331.572	93.12
331.801	103.12
332.03	87.12
332.258	74.12
332.486	81.12
332.715	100.12
332.943	88.12
333.172	85.12
333.4	99.12
333.629	91.12
333.857	92.12
334.085	77.12
334.314	92.12
334.542	79.12
334.771	90.12
334.999	87.12
335.227	99.12
335.455	77.12
335.684	89.12
335.912	108.12
336.14	79.12
336.369	103.12
336.597	80.12
336.825	98.12
337.053	83.12
337.281	92.12
337.51	89.12
337.738	83.12
337.966	81.12
338.194	85.12
338.422	87.12
338.65	79.12
338.878	93.12
339.106	85.12
339.334	87.12
339.562	72.12
339.79	84.12
340.018	69.12
340.246	79.12
340.474	95.12
340.702	70.12
340.93	80.12
341.158	78.12
341.386	82.12
341.614	92.12
341.842	76.12
342.07	83.12
342.298	90.12
342.526	87.12
342.754	88.12
342.981	81.12
343.209	82.12
343.437	118.12
343.665	94.12
343.893	91.12
344.12	96.12
344.348	78.12
344.576	87.12
344.804	86.12
345.031	82.12
345.259	71.12
345.487	80.12
345.714	84.12
345.942	92.12
346.17	65.12
346.397	89.12
346.625	73.12
346.853	83.12
347.08	95.12
347.308	91.12
347.535	89.12
347.763	81.12
347.99	82.12
348.218	86.12
348.445	91.12
348.673	97.12
348.9	91.12
349.128	95.12
349.355	87.12
349.583	79.12
349.81	70.12
350.037	84.12
350.265	83.12
350.492	76.12
350.72	83.12
350.947	99.12
351.174	88.12
351.402	83.12
351.629	77.12
351.856	86.12
352.083	67.12
352.311	66.12
352.538	83.12
352.765	88.12
352.992	97.12
353.22	98.12
353.447	75.12
353.674	107.12
353.901	79.12
354.128	76.12
354.355	79.12
354.583	81.12
354.81	68.12
355.037	101.12
355.264	85.12
355.491	90.12
355.718	93.12
355.945	89.12
356.172	78.12
356.399	98.12
356.626	87.12
356.853	73.12
357.08	89.12
357.307	85.12
357.534	80.12
357.761	71.12
357.988	97.12
358.215	90.12
358.441	90.12
358.668	81.12
358.895	87.12
359.122	91.12
359.349	82.12
359.576	82.12
359.802	78.12
360.029	76.12
360.256	77.12
360.483	90.12
360.709	77.12
360.936	79.12
361.163	88.12
361.39	78.12
361.616	75.12
361.843	93.12
362.07	85.12
362.296	84.12
362.523	84.12
362.749	83.12
362.976	94.12
363.203	86.12
363.429	87.12
363.656	86.12
363.882	88.12
364.109	97.12
364.335	80.12
364.562	79.12
364.788	79.12
365.015	94.12
365.241	79.12
365.468	89.12
365.694	79.12
365.92	92.12
366.147	79.12
366.373	77.12
366.599	79.12
366.826	99.12
367.052	83.12
367.278	81.12
367.505	86.12
367.731	78.12
367.957	93.12
368.184	79.12
368.41	75.12
368.636	86.12
368.862	85.12
369.089	82.12
369.315	94.12
369.541	82.12
369.767	74.12
369.993	78.12
370.219	89.12
370.445	83.12
370.672	77.12
370.898	95.12
371.124	83.12
371.35	83.12
371.576	72.12
371.802	77.12
372.028	74.12
372.254	90.12
372.48	81.12
372.706	79.12
372.932	78.12
373.158	73.12
373.384	78.12
373.61	82.12
373.835	82.12
374.061	90.12
374.287	83.12
374.513	92.12
374.739	85.12
374.965	97.12
375.191	80.12
375.416	93.12
375.642	84.12
375.868	90.12
376.094	106.12
376.319	94.12
376.545	71.12
376.771	77.12
376.997	70.12
377.222	93.12
377.448	81.12
377.674	95.12
377.899	81.12
378.125	81.12
378.35	85.12
378.576	84.12
378.802	83.12
379.027	81.12
379.253	85.12
379.478	84.12
379.704	77.12
379.929	81.12
380.155	79.12
380.38	95.12
380.606	69.12
380.831	79.12
381.057	75.12
381.282	96.12
381.507	86.12
381.733	93.12
381.958	63.12
382.184	87.12
382.409	86.12
382.634	81.12
382.86	93.12
383.085	89.12
383.31	72.12
383.535	69.12
383.761	80.12
383.986	78.12
384.211	86.12
384.436	85.12
384.662	95.12
384.887	87.12
385.112	77.12
385.337	82.12
385.562	69.12
385.787	85.12
386.013	87.12
386.238	81.12
386.463	100.12
386.688	89.12
386.913	86.12
387.138	77.12
387.363	96.12
387.588	90.12
387.813	88.12
388.038	79.12
388.263	78.12
388.488	81.12
388.713	82.12
388.938	78.12
389.163	84.12
389.387	100.12
389.612	93.12
389.837	92.12
390.062	95.12
390.287	87.12
390.512	83.12
390.736	99.12
390.961	90.12
391.186	96.12
391.411	89.12
391.636	90.12
391.86	75.12
392.085	74.12
392.31	76.12
392.534	83.12
392.759	89.12
392.984	71.12
393.208	79.12
393.433	83.12
393.658	99.12
393.882	85.12
394.107	89.12
394.331	89.12
394.556	83.12
394.78	75.12
395.005	79.12
395.229	80.12
395.454	97.12
395.678	74.12
395.903	87.12
396.127	92.12
396.352	92.12
396.576	67.12
396.801	75.12
397.025	69.12
397.249	86.12
397.474	79.12
397.698	80.12
397.922	80.12
398.147	91.12
398.371	80.12
398.595	103.12
398.82	71.12
399.044	88.12
399.268	88.12
399.492	83.12
399.717	81.12
399.941	82.12
400.165	89.12
400.389	76.12
400.613	95.12
400.837	98.12
401.062	56.12
401.286	73.12
401.51	75.12
401.734	78.12
401.958	92.12
402.182	83.12
402.406	63.12
402.63	73.12
402.854	79.12
403.078	75.12
403.302	86.12
403.526	87.12
403.75	83.12
403.974	85.12
404.198	84.12
404.422	78.12
404.645	80.12
404.869	80.12
405.093	93.12
405.317	75.12
405.541	77.12
405.765	74.12
405.988	84.12
406.212	76.12
406.436	66.12
406.66	76.12
406.883	81.12
407.107	83.12
407.331	78.12
407.555	79.12
407.778	83.12
408.002	90.12
408.226	89.12
408.449	82.12
408.673	88.12
408.896	74.12
409.12	82.12
409.344	84.12
409.567	89.12
409.791	85.12
410.014	87.12
410.238	91.12
410.461	87.12
410.685	88.12
410.908	90.12
411.132	90.12
411.355	84.12
411.578	70.12
411.802	74.12
412.025	96.12
412.249	86.12
412.472	90.12
412.695	77.12
412.919	66.12
413.142	82.12
413.365	76.12
413.589	91.12
413.812	81.12
414.035	75.12
414.258	92.12
414.482	75.12
414.705	90.12
414.928	78.12
415.151	79.12
415.374	89.12
415.597	84.12
415.821	78.12
416.044	74.12
416.267	88.12
416.49	89.12
416.713	80.12
416.936	82.12
417.159	81.12
417.382	69.12
417.605	77.12
417.828	78.12
418.051	79.12
418.274	93.12
418.497	85.12
418.72	89.12
418.943	83.12
419.166	80.12
419.389	90.12
419.611	74.12
419.834	85.12
420.057	79.12
420.28	72.12
420.503	69.12
420.726	71.12
420.948	88.12
421.171	88.12
421.394	82.12
421.617	96.12
421.839	87.12
422.062	84.12
422.285	87.12
422.507	82.12
422.73	83.12
422.953	72.12
423.175	87.12
423.398	83.12
423.621	92.12
423.843	69.12
424.066	75.12
424.288	94.12
424.511	87.12
424.733	83.12
424.956	94.12
425.178	83.12
425.401	79.12
425.623	95.12
425.846	82.12
426.068	78.12
426.291	73.12
426.513	83.12
426.735	85.12
426.958	84.12
427.18	79.12
427.402	100.12
427.625	88.12
427.847	103.12
428.069	93.12
428.292	95.12
428.514	80.12
428.736	83.12
428.958	84.12
429.181	80.12
429.403	77.12
429.625	77.12
429.847	81.12
430.069	89.12
430.292	79.12
430.514	72.12
430.736	78.12
430.958	76.12
431.18	74.12
431.402	82.12
431.624	88.12
431.846	66.12
432.068	73.12
432.29	83.12
432.512	81.12
432.734	87.12
432.956	77.12
433.178	95.12
433.4	82.12
433.622	79.12
433.844	77.12
434.066	84.12
434.287	76.12
434.509	84.12
434.731	80.12
434.953	77.12
435.175	83.12
435.397	83.12
435.618	87.12
435.84	90.12
436.062	81.12
436.284	83.12
436.505	74.12
436.727	95.12
436.949	80.12
437.17	85.12
437.392	83.12
437.614	85.12
437.835	80.12
438.057	79.12
438.278	83.12
438.5	85.12
438.721	88.12
438.943	87.12
439.165	92.12
439.386	88.12
439.608	85.12
439.829	82.12
440.05	72.12
440.272	73.12
440.493	80.12
440.715	91.12
440.936	87.12
441.158	89.12
441.379	82.12
441.6	91.12
441.822	88.12
442.043	75.12
442.264	79.12
442.486	89.12
442.707	85.12
442.928	96.12
443.149	83.12
443.371	92.12
443.592	87.12
443.813	92.12
444.034	93.12
444.255	82.12
444.476	75.12
444.698	93.12
444.919	78.12
445.14	143.12
445.361	117.12
445.582	84.12
445.803	80.12
446.024	90.12
446.245	79.12
446.466	77.12
446.687	75.12
446.908	95.12
447.129	87.12
447.35	71.12
447.571	77.12
447.792	69.12
448.013	90.12
448.234	88.12
448.455	67.12
448.675	83.12
448.896	101.12
449.117	82.12
449.338	90.12
449.559	90.12
449.779	81.12
450	76.12
450.221	72.12
450.442	88.12
450.662	83.12
450.883	91.12
451.104	88.12
451.324	69.12
451.545	78.12
451.766	77.12
451.986	75.12
452.207	83.12
452.428	82.12
452.648	84.12
452.869	84.12
453.089	83.12
453.31	71.12
453.53	74.12
453.751	70.12
453.971	70.12
454.192	75.12
454.412	91.12
454.633	80.12
454.853	83.12
455.073	86.12
455.294	92.12
455.514	76.12
455.734	88.12
455.955	65.12
456.175	88.12
456.395	80.12
456.616	87.12
456.836	89.12
457.056	75.12
457.276	74.12
457.497	83.12
457.717	83.12
457.937	80.12
458.157	74.12
458.377	84.12
458.598	79.12
458.818	73.12
459.038	110.12
459.258	90.12
459.478	95.12
459.698	95.12
459.918	73.12
460.138	80.12
460.358	72.12
460.578	91.12
460.798	84.12
461.018	88.12
461.238	93.12
461.458	72.12
461.678	84.12
461.898	83.12
462.118	78.12
462.338	79.12
462.558	77.12
462.777	83.12
462.997	79.12
463.217	85.12
463.437	93.12
463.657	79.12
463.876	73.12
464.096	78.12
464.316	93.12
464.536	84.12
464.755	87.12
464.975	78.12
465.195	93.12
465.414	75.12
465.634	81.12
465.854	90.12
466.073	93.12
466.293	85.12
466.512	92.12
466.732	83.12
466.951	88.12
467.171	88.12
467.391	72.12
467.61	86.12
467.829	82.12
468.049	75.12
468.268	85.12
468.488	83.12
468.707	76.12
468.927	66.12
469.146	76.12
469.365	78.12
469.585	91.12
469.804	95.12
470.023	76.12
470.243	84.12
470.462	68.12
470.681	73.12
470.901	73.12
471.12	76.12
471.339	91.12
471.558	87.12
471.777	77.12
471.997	77.12
472.216	83.12
472.435	68.12
472.654	78.12
472.873	93.12
473.092	84.12
473.311	83.12
473.53	82.12
473.749	90.12
473.968	77.12
474.187	85.12
474.406	82.12
474.625	83.12
474.844	91.12
475.063	79.12
475.282	89.12
475.501	83.12
475.72	96.12
475.939	82.12
476.158	80.12
476.377	65.12
476.596	79.12
476.814	89.12
477.033	81.12
477.252	72.12
477.471	68.12
477.69	75.12
477.908	80.12
478.127	87.12
478.346	81.12
478.564	91.12
478.783	84.12
479.002	103.12
479.22	75.12
479.439	80.12
479.658	84.12
479.876	87.12
480.095	79.12
480.313	89.12
480.532	95.12
480.751	92.12
480.969	72.12
481.188	75.12
481.406	94.12
481.624	81.12
481.843	69.12
482.061	90.12
482.28	89.12
482.498	72.12
482.717	79.12
482.935	88.12
483.153	73.12
483.372	82.12
483.59	90.12
483.808	81.12
484.027	93.12
484.245	95.12
484.463	80.12
484.681	69.12
484.9	82.12
485.118	89.12
485.336	91.12
485.554	79.12
485.772	93.12
485.99	88.12
486.209	80.12
486.427	87.12
486.645	84.12
486.863	71.12
487.081	68.12
487.299	81.12
487.517	88.12
487.735	89.12
487.953	100.12
488.171	77.12
488.389	78.12
488.607	89.12
488.825	81.12
489.043	78.12
489.261	84.12
489.479	98.12
489.696	88.12
489.914	91.12
490.132	81.12
490.35	89.12
490.568	87.12
490.786	92.12
491.003	85.12
491.221	83.12
491.439	75.12
491.657	66.12
491.874	82.12
492.092	77.12
492.31	77.12
492.527	83.12
492.745	87.12
492.963	70.12
493.18	78.12
493.398	80.12
493.615	79.12
493.833	84.12
494.05	81.12
494.268	80.12
494.485	84.12
494.703	81.12
494.92	79.12
495.138	93.12
495.355	95.12
495.573	70.12
495.79	78.12
496.008	95.12
496.225	85.12
496.442	87.12
496.66	77.12
496.877	73.12
497.094	74.12
497.312	77.12
497.529	75.12
497.746	89.12
497.963	96.12
498.181	96.12
498.398	96.12
498.615	79.12
498.832	87.12
499.049	82.12
499.267	84.12
499.484	84.12
499.701	77.12
499.918	73.12
500.135	84.12
500.352	87.12
500.569	81.12
500.786	76.12
501.003	85.12
501.22	87.12
501.437	76.12
501.654	76.12
501.871	98.12
502.088	91.12
502.305	79.12
502.522	80.12
502.739	85.12
502.956	84.12
503.172	90.12
503.389	83.12
503.606	89.12
503.823	81.12
504.04	79.12
504.256	90.12
504.473	81.12
504.69	71.12
504.907	92.12
505.123	78.12
505.34	84.12
505.557	77.12
505.773	82.12
505.99	81.12
506.207	87.12
506.423	88.12
506.64	76.12
506.856	85.12
507.073	77.12
507.289	84.12
507.506	88.12
507.722	84.12
507.939	88.12
508.155	79.12
508.372	83.12
508.588	79.12
508.805	92.12
509.021	81.12
509.238	81.12
509.454	84.12
509.67	70.12
509.887	96.12
510.103	86.12
510.319	86.12
510.536	83.12
510.752	75.12
510.968	96.12
511.184	93.12
511.401	85.12
511.617	91.12
511.833	92.12
512.049	85.12
512.265	77.12
512.481	82.12
512.698	103.12
512.914	92.12
513.13	89.12
513.346	80.12
513.562	84.12
513.778	96.12
513.994	82.12
514.21	86.12
514.426	82.12
514.642	88.12
514.858	82.12
515.074	90.12
515.29	78.12
515.506	84.12
515.721	87.12
515.937	75.12
516.153	96.12
516.369	95.12
516.585	101.12
516.801	93.12
517.016	93.12
517.232	73.12
517.448	96.12
517.664	87.12
517.879	79.12
518.095	93.12
518.311	75.12
518.527	93.12
518.742	94.12
518.958	90.12
519.173	90.12
519.389	91.12
519.605	90.12
519.82	83.12
