Data from BG_HRD10591_094.txt Node
Date: Fri May 16 15:27:34 EDT 2025
User: Yrep
Spectrometer: HR+D1059
Trigger mode: 1
Integration Time (sec): 1.000000E-1
Scans to average: 1
Electric dark correction enabled: true
Nonlinearity correction enabled: false
Boxcar width: 0
XAxis mode: Wavelengths
Number of Pixels in Spectrum: 2048
>>>>>Begin Spectral Data<<<<<
223.165	-21.38
223.4	-21.38
223.635	-21.38
223.869	-24.38
224.104	-20.38
224.338	-14.38
224.573	-16.38
224.808	-7.38
225.042	5.62
225.277	2.62
225.511	-6.38
225.746	7.62
225.98	10.62
226.215	6.62
226.449	14.62
226.683	20.62
226.918	16.62
227.152	25.62
227.387	31.62
227.621	44.62
227.856	49.62
228.09	55.62
228.324	67.62
228.559	66.62
228.793	70.62
229.027	59.62
229.262	71.62
229.496	61.62
229.73	61.62
229.964	70.62
230.199	57.62
230.433	67.62
230.667	62.62
230.901	87.62
231.136	79.62
231.37	73.62
231.604	61.62
231.838	76.62
232.072	87.62
232.306	77.62
232.541	87.62
232.775	80.62
233.009	78.62
233.243	82.62
233.477	85.62
233.711	78.62
233.945	89.62
234.179	72.62
234.413	68.62
234.647	80.62
234.881	101.62
235.115	89.62
235.349	80.62
235.583	82.62
235.817	74.62
236.051	80.62
236.285	76.62
236.519	88.62
236.753	79.62
236.987	77.62
237.221	82.62
237.455	74.62
237.689	80.62
237.922	61.62
238.156	74.62
238.39	73.62
238.624	79.62
238.858	66.62
239.091	72.62
239.325	73.62
239.559	89.62
239.793	77.62
240.027	70.62
240.26	76.62
240.494	87.62
240.728	72.62
240.961	76.62
241.195	71.62
241.429	73.62
241.662	76.62
241.896	73.62
242.13	76.62
242.363	82.62
242.597	87.62
242.83	76.62
243.064	67.62
243.298	59.62
243.531	81.62
243.765	79.62
243.998	89.62
244.232	85.62
244.465	50.62
244.699	74.62
244.932	68.62
245.166	81.62
245.399	90.62
245.633	82.62
245.866	68.62
246.099	80.62
246.333	85.62
246.566	71.62
246.8	88.62
247.033	61.62
247.266	70.62
247.5	75.62
247.733	73.62
247.966	67.62
248.2	74.62
248.433	76.62
248.666	74.62
248.899	78.62
249.133	74.62
249.366	68.62
249.599	76.62
249.832	74.62
250.066	85.62
250.299	65.62
250.532	83.62
250.765	82.62
250.998	96.62
251.231	77.62
251.465	72.62
251.698	78.62
251.931	79.62
252.164	59.62
252.397	70.62
252.63	64.62
252.863	73.62
253.096	79.62
253.329	79.62
253.562	91.62
253.795	93.62
254.028	82.62
254.261	82.62
254.494	68.62
254.727	74.62
254.96	81.62
255.193	81.62
255.426	78.62
255.659	67.62
255.892	78.62
256.124	94.62
256.357	78.62
256.59	86.62
256.823	72.62
257.056	77.62
257.289	85.62
257.521	70.62
257.754	73.62
257.987	75.62
258.22	87.62
258.452	80.62
258.685	67.62
258.918	80.62
259.151	74.62
259.383	78.62
259.616	79.62
259.849	79.62
260.081	71.62
260.314	76.62
260.547	81.62
260.779	63.62
261.012	67.62
261.244	89.62
261.477	94.62
261.71	77.62
261.942	67.62
262.175	85.62
262.407	71.62
262.64	78.62
262.872	74.62
263.105	80.62
263.337	77.62
263.57	78.62
263.802	91.62
264.035	68.62
264.267	65.62
264.499	73.62
264.732	83.62
264.964	91.62
265.197	71.62
265.429	65.62
265.661	64.62
265.894	82.62
266.126	93.62
266.358	81.62
266.591	70.62
266.823	79.62
267.055	75.62
267.287	80.62
267.52	70.62
267.752	84.62
267.984	82.62
268.216	70.62
268.448	81.62
268.681	92.62
268.913	78.62
269.145	88.62
269.377	81.62
269.609	85.62
269.841	80.62
270.073	86.62
270.306	83.62
270.538	78.62
270.77	83.62
271.002	81.62
271.234	77.62
271.466	85.62
271.698	79.62
271.93	70.62
272.162	86.62
272.394	87.62
272.626	87.62
272.858	74.62
273.09	89.62
273.322	81.62
273.553	80.62
273.785	73.62
274.017	91.62
274.249	96.62
274.481	82.62
274.713	81.62
274.945	96.62
275.176	77.62
275.408	91.62
275.64	99.62
275.872	76.62
276.104	79.62
276.335	88.62
276.567	84.62
276.799	79.62
277.031	77.62
277.262	76.62
277.494	90.62
277.726	87.62
277.957	78.62
278.189	75.62
278.421	97.62
278.652	80.62
278.884	89.62
279.115	92.62
279.347	89.62
279.579	80.62
279.81	63.62
280.042	83.62
280.273	78.62
280.505	89.62
280.736	76.62
280.968	95.62
281.199	95.62
281.431	86.62
281.662	74.62
281.894	83.62
282.125	79.62
282.356	83.62
282.588	108.62
282.819	77.62
283.051	82.62
283.282	86.62
283.513	87.62
283.745	98.62
283.976	86.62
284.207	74.62
284.439	90.62
284.67	84.62
284.901	87.62
285.132	87.62
285.364	72.62
285.595	83.62
285.826	80.62
286.057	92.62
286.288	85.62
286.52	78.62
286.751	77.62
286.982	88.62
287.213	81.62
287.444	92.62
287.675	90.62
287.906	73.62
288.138	85.62
288.369	89.62
288.6	90.62
288.831	89.62
289.062	91.62
289.293	81.62
289.524	89.62
289.755	98.62
289.986	73.62
290.217	92.62
290.448	97.62
290.679	86.62
290.91	78.62
291.141	98.62
291.371	85.62
291.602	82.62
291.833	91.62
292.064	67.62
292.295	84.62
292.526	75.62
292.757	88.62
292.987	105.62
293.218	82.62
293.449	70.62
293.68	81.62
293.91	85.62
294.141	101.62
294.372	76.62
294.603	91.62
294.833	76.62
295.064	78.62
295.295	76.62
295.525	98.62
295.756	82.62
295.987	86.62
296.217	86.62
296.448	87.62
296.679	76.62
296.909	81.62
297.14	85.62
297.37	85.62
297.601	101.62
297.831	83.62
298.062	92.62
298.292	85.62
298.523	78.62
298.753	85.62
298.984	81.62
299.214	77.62
299.445	88.62
299.675	79.62
299.905	94.62
300.136	81.62
300.366	73.62
300.597	78.62
300.827	85.62
301.057	85.62
301.288	80.62
301.518	89.62
301.748	77.62
301.979	85.62
302.209	85.62
302.439	76.62
302.669	68.62
302.9	81.62
303.13	72.62
303.36	86.62
303.59	78.62
303.82	93.62
304.051	75.62
304.281	81.62
304.511	80.62
304.741	70.62
304.971	82.62
305.201	87.62
305.431	85.62
305.661	86.62
305.891	76.62
306.121	102.62
306.352	76.62
306.582	78.62
306.812	87.62
307.042	89.62
307.272	89.62
307.502	84.62
307.731	79.62
307.961	89.62
308.191	75.62
308.421	83.62
308.651	64.62
308.881	81.62
309.111	75.62
309.341	87.62
309.571	72.62
309.8	69.62
310.03	85.62
310.26	89.62
310.49	92.62
310.72	74.62
310.949	83.62
311.179	87.62
311.409	86.62
311.639	76.62
311.868	90.62
312.098	74.62
312.328	88.62
312.557	78.62
312.787	86.62
313.017	79.62
313.246	76.62
313.476	89.62
313.706	86.62
313.935	78.62
314.165	93.62
314.394	91.62
314.624	81.62
314.853	88.62
315.083	70.62
315.312	78.62
315.542	89.62
315.771	72.62
316.001	93.62
316.23	75.62
316.46	79.62
316.689	88.62
316.919	78.62
317.148	78.62
317.377	92.62
317.607	94.62
317.836	81.62
318.065	82.62
318.295	83.62
318.524	77.62
318.753	91.62
318.983	87.62
319.212	74.62
319.441	95.62
319.67	90.62
319.9	89.62
320.129	80.62
320.358	75.62
320.587	82.62
320.816	94.62
321.046	85.62
321.275	66.62
321.504	85.62
321.733	76.62
321.962	81.62
322.191	75.62
322.42	87.62
322.649	62.62
322.878	93.62
323.108	75.62
323.337	91.62
323.566	85.62
323.795	81.62
324.024	91.62
324.253	88.62
324.482	81.62
324.71	77.62
324.939	85.62
325.168	77.62
325.397	101.62
325.626	77.62
325.855	82.62
326.084	76.62
326.313	91.62
326.542	71.62
326.77	68.62
326.999	73.62
327.228	78.62
327.457	81.62
327.686	68.62
327.914	87.62
328.143	73.62
328.372	90.62
328.6	75.62
328.829	94.62
329.058	103.62
329.287	97.62
329.515	75.62
329.744	86.62
329.972	102.62
330.201	75.62
330.43	81.62
330.658	84.62
330.887	69.62
331.115	90.62
331.344	96.62
331.572	82.62
331.801	80.62
332.03	87.62
332.258	73.62
332.486	81.62
332.715	95.62
332.943	80.62
333.172	80.62
333.4	77.62
333.629	87.62
333.857	86.62
334.085	73.62
334.314	89.62
334.542	88.62
334.771	92.62
334.999	65.62
335.227	81.62
335.455	80.62
335.684	72.62
335.912	75.62
336.14	99.62
336.369	91.62
336.597	73.62
336.825	88.62
337.053	95.62
337.281	87.62
337.51	83.62
337.738	98.62
337.966	77.62
338.194	71.62
338.422	90.62
338.65	88.62
338.878	87.62
339.106	63.62
339.334	94.62
339.562	90.62
339.79	75.62
340.018	78.62
340.246	86.62
340.474	88.62
340.702	73.62
340.93	80.62
341.158	83.62
341.386	79.62
341.614	78.62
341.842	88.62
342.07	75.62
342.298	85.62
342.526	92.62
342.754	94.62
342.981	87.62
343.209	78.62
343.437	101.62
343.665	78.62
343.893	76.62
344.12	97.62
344.348	85.62
344.576	73.62
344.804	81.62
345.031	90.62
345.259	86.62
345.487	81.62
345.714	95.62
345.942	86.62
346.17	81.62
346.397	69.62
346.625	82.62
346.853	77.62
347.08	82.62
347.308	80.62
347.535	79.62
347.763	76.62
347.99	82.62
348.218	93.62
348.445	82.62
348.673	96.62
348.9	81.62
349.128	74.62
349.355	80.62
349.583	101.62
349.81	86.62
350.037	81.62
350.265	77.62
350.492	85.62
350.72	85.62
350.947	78.62
351.174	79.62
351.402	86.62
351.629	89.62
351.856	81.62
352.083	65.62
352.311	98.62
352.538	84.62
352.765	82.62
352.992	80.62
353.22	85.62
353.447	83.62
353.674	87.62
353.901	86.62
354.128	76.62
354.355	94.62
354.583	89.62
354.81	84.62
355.037	90.62
355.264	75.62
355.491	63.62
355.718	81.62
355.945	83.62
356.172	82.62
356.399	87.62
356.626	81.62
356.853	85.62
357.08	79.62
357.307	92.62
357.534	86.62
357.761	74.62
357.988	94.62
358.215	79.62
358.441	67.62
358.668	70.62
358.895	78.62
359.122	78.62
359.349	88.62
359.576	70.62
359.802	77.62
360.029	76.62
360.256	82.62
360.483	88.62
360.709	81.62
360.936	79.62
361.163	75.62
361.39	73.62
361.616	92.62
361.843	69.62
362.07	96.62
362.296	93.62
362.523	66.62
362.749	75.62
362.976	83.62
363.203	83.62
363.429	72.62
363.656	67.62
363.882	71.62
364.109	80.62
364.335	86.62
364.562	89.62
364.788	75.62
365.015	82.62
365.241	79.62
365.468	74.62
365.694	74.62
365.92	81.62
366.147	78.62
366.373	80.62
366.599	85.62
366.826	81.62
367.052	80.62
367.278	87.62
367.505	90.62
367.731	94.62
367.957	82.62
368.184	70.62
368.41	69.62
368.636	86.62
368.862	78.62
369.089	83.62
369.315	74.62
369.541	83.62
369.767	77.62
369.993	84.62
370.219	89.62
370.445	94.62
370.672	89.62
370.898	92.62
371.124	88.62
371.35	72.62
371.576	72.62
371.802	82.62
372.028	82.62
372.254	68.62
372.48	84.62
372.706	90.62
372.932	79.62
373.158	85.62
373.384	79.62
373.61	70.62
373.835	86.62
374.061	86.62
374.287	84.62
374.513	83.62
374.739	81.62
374.965	81.62
375.191	81.62
375.416	76.62
375.642	80.62
375.868	93.62
376.094	77.62
376.319	83.62
376.545	82.62
376.771	87.62
376.997	85.62
377.222	84.62
377.448	67.62
377.674	77.62
377.899	74.62
378.125	73.62
378.35	92.62
378.576	85.62
378.802	75.62
379.027	74.62
379.253	83.62
379.478	94.62
379.704	90.62
379.929	76.62
380.155	77.62
380.38	92.62
380.606	77.62
380.831	67.62
381.057	91.62
381.282	86.62
381.507	61.62
381.733	80.62
381.958	90.62
382.184	91.62
382.409	72.62
382.634	85.62
382.86	76.62
383.085	93.62
383.31	91.62
383.535	74.62
383.761	91.62
383.986	80.62
384.211	80.62
384.436	91.62
384.662	92.62
384.887	89.62
385.112	84.62
385.337	74.62
385.562	77.62
385.787	77.62
386.013	78.62
386.238	82.62
386.463	71.62
386.688	96.62
386.913	72.62
387.138	84.62
387.363	72.62
387.588	88.62
387.813	82.62
388.038	82.62
388.263	85.62
388.488	82.62
388.713	81.62
388.938	77.62
389.163	96.62
389.387	80.62
389.612	65.62
389.837	82.62
390.062	91.62
390.287	96.62
390.512	74.62
390.736	72.62
390.961	82.62
391.186	98.62
391.411	90.62
391.636	80.62
391.86	90.62
392.085	87.62
392.31	75.62
392.534	77.62
392.759	83.62
392.984	82.62
393.208	77.62
393.433	85.62
393.658	81.62
393.882	80.62
394.107	91.62
394.331	85.62
394.556	69.62
394.78	82.62
395.005	67.62
395.229	98.62
395.454	89.62
395.678	86.62
395.903	80.62
396.127	64.62
396.352	92.62
396.576	74.62
396.801	85.62
397.025	91.62
397.249	85.62
397.474	94.62
397.698	87.62
397.922	82.62
398.147	81.62
398.371	74.62
398.595	81.62
398.82	86.62
399.044	71.62
399.268	99.62
399.492	97.62
399.717	89.62
399.941	79.62
400.165	114.62
400.389	80.62
400.613	84.62
400.837	82.62
401.062	79.62
401.286	80.62
401.51	77.62
401.734	75.62
401.958	92.62
402.182	79.62
402.406	78.62
402.63	89.62
402.854	100.62
403.078	95.62
403.302	101.62
403.526	82.62
403.75	65.62
403.974	79.62
404.198	81.62
404.422	79.62
404.645	86.62
404.869	87.62
405.093	80.62
405.317	73.62
405.541	62.62
405.765	77.62
405.988	72.62
406.212	87.62
406.436	72.62
406.66	79.62
406.883	101.62
407.107	69.62
407.331	89.62
407.555	82.62
407.778	84.62
408.002	85.62
408.226	73.62
408.449	90.62
408.673	74.62
408.896	60.62
409.12	77.62
409.344	89.62
409.567	90.62
409.791	66.62
410.014	80.62
410.238	95.62
410.461	82.62
410.685	87.62
410.908	74.62
411.132	96.62
411.355	89.62
411.578	87.62
411.802	72.62
412.025	88.62
412.249	82.62
412.472	80.62
412.695	78.62
412.919	98.62
413.142	91.62
413.365	65.62
413.589	76.62
413.812	81.62
414.035	77.62
414.258	76.62
414.482	89.62
414.705	82.62
414.928	85.62
415.151	77.62
415.374	77.62
415.597	82.62
415.821	79.62
416.044	84.62
416.267	85.62
416.49	87.62
416.713	77.62
416.936	67.62
417.159	85.62
417.382	65.62
417.605	75.62
417.828	87.62
418.051	91.62
418.274	84.62
418.497	104.62
418.72	86.62
418.943	91.62
419.166	71.62
419.389	75.62
419.611	66.62
419.834	67.62
420.057	71.62
420.28	73.62
420.503	65.62
420.726	78.62
420.948	96.62
421.171	77.62
421.394	67.62
421.617	79.62
421.839	84.62
422.062	85.62
422.285	94.62
422.507	81.62
422.73	75.62
422.953	75.62
423.175	79.62
423.398	64.62
423.621	83.62
423.843	82.62
424.066	75.62
424.288	80.62
424.511	83.62
424.733	82.62
424.956	78.62
425.178	81.62
425.401	72.62
425.623	79.62
425.846	69.62
426.068	78.62
426.291	80.62
426.513	85.62
426.735	88.62
426.958	70.62
427.18	88.62
427.402	63.62
427.625	79.62
427.847	79.62
428.069	82.62
428.292	77.62
428.514	88.62
428.736	86.62
428.958	86.62
429.181	77.62
429.403	85.62
429.625	83.62
429.847	74.62
430.069	79.62
430.292	75.62
430.514	71.62
430.736	85.62
430.958	82.62
431.18	85.62
431.402	69.62
431.624	81.62
431.846	82.62
432.068	75.62
432.29	89.62
432.512	82.62
432.734	64.62
432.956	78.62
433.178	95.62
433.4	75.62
433.622	95.62
433.844	91.62
434.066	91.62
434.287	77.62
434.509	73.62
434.731	87.62
434.953	75.62
435.175	81.62
435.397	80.62
435.618	74.62
435.84	87.62
436.062	67.62
436.284	89.62
436.505	81.62
436.727	73.62
436.949	89.62
437.17	79.62
437.392	76.62
437.614	85.62
437.835	87.62
438.057	88.62
438.278	79.62
438.5	89.62
438.721	90.62
438.943	86.62
439.165	102.62
439.386	83.62
439.608	80.62
439.829	75.62
440.05	85.62
440.272	89.62
440.493	86.62
440.715	69.62
440.936	80.62
441.158	70.62
441.379	82.62
441.6	68.62
441.822	81.62
442.043	83.62
442.264	87.62
442.486	87.62
442.707	81.62
442.928	83.62
443.149	73.62
443.371	93.62
443.592	70.62
443.813	73.62
444.034	81.62
444.255	83.62
444.476	71.62
444.698	84.62
444.919	73.62
445.14	140.62
445.361	115.62
445.582	89.62
445.803	87.62
446.024	77.62
446.245	76.62
446.466	71.62
446.687	72.62
446.908	79.62
447.129	87.62
447.35	75.62
447.571	73.62
447.792	68.62
448.013	78.62
448.234	87.62
448.455	78.62
448.675	80.62
448.896	79.62
449.117	81.62
449.338	73.62
449.559	90.62
449.779	78.62
450	88.62
450.221	80.62
450.442	89.62
450.662	81.62
450.883	85.62
451.104	86.62
451.324	85.62
451.545	102.62
451.766	67.62
451.986	75.62
452.207	70.62
452.428	82.62
452.648	70.62
452.869	85.62
453.089	80.62
453.31	88.62
453.53	78.62
453.751	66.62
453.971	70.62
454.192	77.62
454.412	68.62
454.633	88.62
454.853	85.62
455.073	85.62
455.294	93.62
455.514	76.62
455.734	77.62
455.955	88.62
456.175	74.62
456.395	80.62
456.616	72.62
456.836	81.62
457.056	79.62
457.276	72.62
457.497	85.62
457.717	80.62
457.937	78.62
458.157	82.62
458.377	95.62
458.598	89.62
458.818	76.62
459.038	86.62
459.258	79.62
459.478	74.62
459.698	73.62
459.918	100.62
460.138	85.62
460.358	79.62
460.578	72.62
460.798	75.62
461.018	80.62
461.238	87.62
461.458	79.62
461.678	84.62
461.898	80.62
462.118	63.62
462.338	75.62
462.558	82.62
462.777	72.62
462.997	87.62
463.217	86.62
463.437	78.62
463.657	82.62
463.876	88.62
464.096	90.62
464.316	91.62
464.536	74.62
464.755	63.62
464.975	84.62
465.195	89.62
465.414	77.62
465.634	83.62
465.854	79.62
466.073	86.62
466.293	87.62
466.512	82.62
466.732	80.62
466.951	85.62
467.171	80.62
467.391	81.62
467.61	84.62
467.829	82.62
468.049	75.62
468.268	94.62
468.488	90.62
468.707	89.62
468.927	90.62
469.146	81.62
469.365	82.62
469.585	89.62
469.804	88.62
470.023	79.62
470.243	74.62
470.462	86.62
470.681	70.62
470.901	67.62
471.12	81.62
471.339	82.62
471.558	81.62
471.777	85.62
471.997	74.62
472.216	94.62
472.435	86.62
472.654	63.62
472.873	72.62
473.092	73.62
473.311	70.62
473.53	80.62
473.749	70.62
473.968	94.62
474.187	87.62
474.406	83.62
474.625	79.62
474.844	89.62
475.063	85.62
475.282	74.62
475.501	89.62
475.72	84.62
475.939	87.62
476.158	68.62
476.377	84.62
476.596	76.62
476.814	87.62
477.033	88.62
477.252	85.62
477.471	87.62
477.69	89.62
477.908	94.62
478.127	86.62
478.346	75.62
478.564	90.62
478.783	68.62
479.002	74.62
479.22	69.62
479.439	79.62
479.658	96.62
479.876	83.62
480.095	84.62
480.313	92.62
480.532	71.62
480.751	90.62
480.969	81.62
481.188	74.62
481.406	71.62
481.624	82.62
481.843	86.62
482.061	78.62
482.28	93.62
482.498	62.62
482.717	75.62
482.935	75.62
483.153	80.62
483.372	74.62
483.59	83.62
483.808	88.62
484.027	76.62
484.245	79.62
484.463	77.62
484.681	77.62
484.9	76.62
485.118	86.62
485.336	88.62
485.554	77.62
485.772	78.62
485.99	78.62
486.209	91.62
486.427	78.62
486.645	100.62
486.863	80.62
487.081	74.62
487.299	75.62
487.517	87.62
487.735	78.62
487.953	83.62
488.171	78.62
488.389	95.62
488.607	97.62
488.825	85.62
489.043	85.62
489.261	86.62
489.479	88.62
489.696	74.62
489.914	69.62
490.132	87.62
490.35	84.62
490.568	77.62
490.786	84.62
491.003	85.62
491.221	71.62
491.439	80.62
491.657	93.62
491.874	80.62
492.092	76.62
492.31	86.62
492.527	81.62
492.745	80.62
492.963	81.62
493.18	93.62
493.398	82.62
493.615	91.62
493.833	80.62
494.05	73.62
494.268	93.62
494.485	64.62
494.703	83.62
494.92	71.62
495.138	70.62
495.355	85.62
495.573	82.62
495.79	76.62
496.008	90.62
496.225	79.62
496.442	68.62
496.66	82.62
496.877	69.62
497.094	92.62
497.312	89.62
497.529	90.62
497.746	72.62
497.963	72.62
498.181	73.62
498.398	79.62
498.615	73.62
498.832	72.62
499.049	86.62
499.267	79.62
499.484	86.62
499.701	92.62
499.918	72.62
500.135	77.62
500.352	69.62
500.569	89.62
500.786	81.62
501.003	83.62
501.22	71.62
501.437	81.62
501.654	69.62
501.871	82.62
502.088	82.62
502.305	93.62
502.522	91.62
502.739	88.62
502.956	79.62
503.172	88.62
503.389	75.62
503.606	74.62
503.823	89.62
504.04	81.62
504.256	80.62
504.473	75.62
504.69	87.62
504.907	74.62
505.123	81.62
505.34	89.62
505.557	74.62
505.773	78.62
505.99	67.62
506.207	80.62
506.423	87.62
506.64	77.62
506.856	83.62
507.073	88.62
507.289	89.62
507.506	69.62
507.722	81.62
507.939	83.62
508.155	81.62
508.372	84.62
508.588	77.62
508.805	89.62
509.021	77.62
509.238	77.62
509.454	67.62
509.67	83.62
509.887	88.62
510.103	86.62
510.319	73.62
510.536	77.62
510.752	81.62
510.968	86.62
511.184	74.62
511.401	84.62
511.617	88.62
511.833	89.62
512.049	93.62
512.265	81.62
512.481	82.62
512.698	82.62
512.914	81.62
513.13	80.62
513.346	70.62
513.562	85.62
513.778	91.62
513.994	89.62
514.21	83.62
514.426	98.62
514.642	88.62
514.858	81.62
515.074	81.62
515.29	74.62
515.506	91.62
515.721	92.62
515.937	86.62
516.153	73.62
516.369	86.62
516.585	98.62
516.801	90.62
517.016	65.62
517.232	59.62
517.448	82.62
517.664	78.62
517.879	78.62
518.095	80.62
518.311	84.62
518.527	73.62
518.742	82.62
518.958	81.62
519.173	79.62
519.389	86.62
519.605	77.62
519.82	88.62
520.036	82.62
