Data from BG_HRD10591_058.txt Node
Date: Fri May 16 15:27:16 EDT 2025
User: Yrep
Spectrometer: HR+D1059
Trigger mode: 1
Integration Time (sec): 1.000000E-1
Scans to average: 1
Electric dark correction enabled: true
Nonlinearity correction enabled: false
Boxcar width: 0
XAxis mode: Wavelengths
Number of Pixels in Spectrum: 2048
>>>>>Begin Spectral Data<<<<<
223.165	-26.88
223.4	-26.88
223.635	-26.88
223.869	-16.88
224.104	-9.88
224.338	-9.88
224.573	-10.88
224.808	-20.88
225.042	-12.88
225.277	-5.88
225.511	-1.88
225.746	16.12
225.98	-12.88
226.215	-0.88
226.449	34.12
226.683	28.12
226.918	16.12
227.152	35.12
227.387	18.12
227.621	37.12
227.856	44.12
228.09	43.12
228.324	45.12
228.559	71.12
228.793	58.12
229.027	61.12
229.262	74.12
229.496	68.12
229.73	71.12
229.964	68.12
230.199	72.12
230.433	61.12
230.667	74.12
230.901	74.12
231.136	63.12
231.37	75.12
231.604	76.12
231.838	84.12
232.072	77.12
232.306	75.12
232.541	82.12
232.775	66.12
233.009	81.12
233.243	74.12
233.477	62.12
233.711	84.12
233.945	68.12
234.179	84.12
234.413	72.12
234.647	84.12
234.881	74.12
235.115	61.12
235.349	79.12
235.583	78.12
235.817	83.12
236.051	82.12
236.285	77.12
236.519	70.12
236.753	70.12
236.987	73.12
237.221	70.12
237.455	78.12
237.689	75.12
237.922	73.12
238.156	74.12
238.39	57.12
238.624	69.12
238.858	66.12
239.091	73.12
239.325	63.12
239.559	74.12
239.793	62.12
240.027	82.12
240.26	93.12
240.494	82.12
240.728	80.12
240.961	86.12
241.195	74.12
241.429	66.12
241.662	74.12
241.896	74.12
242.13	77.12
242.363	69.12
242.597	65.12
242.83	81.12
243.064	74.12
243.298	74.12
243.531	65.12
243.765	75.12
243.998	83.12
244.232	76.12
244.465	82.12
244.699	82.12
244.932	68.12
245.166	72.12
245.399	80.12
245.633	69.12
245.866	73.12
246.099	62.12
246.333	76.12
246.566	82.12
246.8	84.12
247.033	75.12
247.266	75.12
247.5	72.12
247.733	78.12
247.966	59.12
248.2	70.12
248.433	71.12
248.666	75.12
248.899	75.12
249.133	85.12
249.366	69.12
249.599	78.12
249.832	83.12
250.066	78.12
250.299	86.12
250.532	82.12
250.765	88.12
250.998	83.12
251.231	89.12
251.465	88.12
251.698	69.12
251.931	70.12
252.164	70.12
252.397	91.12
252.63	76.12
252.863	77.12
253.096	78.12
253.329	84.12
253.562	71.12
253.795	68.12
254.028	76.12
254.261	80.12
254.494	82.12
254.727	79.12
254.96	76.12
255.193	80.12
255.426	83.12
255.659	75.12
255.892	83.12
256.124	82.12
256.357	70.12
256.59	73.12
256.823	76.12
257.056	85.12
257.289	74.12
257.521	78.12
257.754	69.12
257.987	71.12
258.22	76.12
258.452	82.12
258.685	76.12
258.918	75.12
259.151	61.12
259.383	72.12
259.616	70.12
259.849	88.12
260.081	90.12
260.314	73.12
260.547	78.12
260.779	80.12
261.012	74.12
261.244	77.12
261.477	90.12
261.71	92.12
261.942	79.12
262.175	71.12
262.407	80.12
262.64	77.12
262.872	76.12
263.105	85.12
263.337	74.12
263.57	80.12
263.802	76.12
264.035	70.12
264.267	74.12
264.499	80.12
264.732	74.12
264.964	69.12
265.197	70.12
265.429	85.12
265.661	86.12
265.894	87.12
266.126	75.12
266.358	78.12
266.591	87.12
266.823	76.12
267.055	67.12
267.287	74.12
267.52	84.12
267.752	68.12
267.984	71.12
268.216	76.12
268.448	101.12
268.681	84.12
268.913	74.12
269.145	87.12
269.377	90.12
269.609	80.12
269.841	94.12
270.073	78.12
270.306	82.12
270.538	84.12
270.77	80.12
271.002	83.12
271.234	78.12
271.466	82.12
271.698	68.12
271.93	96.12
272.162	87.12
272.394	74.12
272.626	76.12
272.858	85.12
273.09	82.12
273.322	84.12
273.553	73.12
273.785	72.12
274.017	86.12
274.249	84.12
274.481	91.12
274.713	81.12
274.945	86.12
275.176	86.12
275.408	71.12
275.64	90.12
275.872	77.12
276.104	91.12
276.335	90.12
276.567	83.12
276.799	71.12
277.031	66.12
277.262	79.12
277.494	82.12
277.726	82.12
277.957	69.12
278.189	80.12
278.421	83.12
278.652	80.12
278.884	76.12
279.115	86.12
279.347	74.12
279.579	86.12
279.81	79.12
280.042	99.12
280.273	82.12
280.505	91.12
280.736	75.12
280.968	82.12
281.199	94.12
281.431	78.12
281.662	96.12
281.894	90.12
282.125	88.12
282.356	76.12
282.588	88.12
282.819	89.12
283.051	83.12
283.282	100.12
283.513	82.12
283.745	72.12
283.976	82.12
284.207	81.12
284.439	92.12
284.67	93.12
284.901	74.12
285.132	80.12
285.364	80.12
285.595	88.12
285.826	78.12
286.057	83.12
286.288	78.12
286.52	84.12
286.751	80.12
286.982	84.12
287.213	82.12
287.444	98.12
287.675	83.12
287.906	87.12
288.138	87.12
288.369	92.12
288.6	72.12
288.831	79.12
289.062	92.12
289.293	83.12
289.524	78.12
289.755	88.12
289.986	77.12
290.217	84.12
290.448	88.12
290.679	77.12
290.91	71.12
291.141	85.12
291.371	82.12
291.602	93.12
291.833	68.12
292.064	90.12
292.295	90.12
292.526	75.12
292.757	76.12
292.987	89.12
293.218	91.12
293.449	82.12
293.68	59.12
293.91	90.12
294.141	92.12
294.372	86.12
294.603	98.12
294.833	72.12
295.064	89.12
295.295	77.12
295.525	85.12
295.756	77.12
295.987	76.12
296.217	90.12
296.448	91.12
296.679	90.12
296.909	93.12
297.14	90.12
297.37	85.12
297.601	80.12
297.831	73.12
298.062	88.12
298.292	74.12
298.523	91.12
298.753	98.12
298.984	88.12
299.214	88.12
299.445	86.12
299.675	76.12
299.905	92.12
300.136	71.12
300.366	80.12
300.597	85.12
300.827	84.12
301.057	87.12
301.288	76.12
301.518	97.12
301.748	82.12
301.979	79.12
302.209	91.12
302.439	84.12
302.669	84.12
302.9	78.12
303.13	79.12
303.36	90.12
303.59	88.12
303.82	79.12
304.051	89.12
304.281	83.12
304.511	70.12
304.741	82.12
304.971	94.12
305.201	73.12
305.431	82.12
305.661	102.12
305.891	85.12
306.121	85.12
306.352	87.12
306.582	75.12
306.812	91.12
307.042	91.12
307.272	88.12
307.502	88.12
307.731	85.12
307.961	99.12
308.191	98.12
308.421	80.12
308.651	86.12
308.881	83.12
309.111	83.12
309.341	75.12
309.571	87.12
309.8	76.12
310.03	82.12
310.26	90.12
310.49	77.12
310.72	84.12
310.949	79.12
311.179	90.12
311.409	79.12
311.639	82.12
311.868	80.12
312.098	90.12
312.328	77.12
312.557	93.12
312.787	100.12
313.017	94.12
313.246	84.12
313.476	92.12
313.706	93.12
313.935	84.12
314.165	90.12
314.394	83.12
314.624	89.12
314.853	86.12
315.083	84.12
315.312	98.12
315.542	87.12
315.771	92.12
316.001	91.12
316.23	84.12
316.46	79.12
316.689	83.12
316.919	92.12
317.148	87.12
317.377	106.12
317.607	83.12
317.836	86.12
318.065	86.12
318.295	83.12
318.524	76.12
318.753	68.12
318.983	72.12
319.212	85.12
319.441	84.12
319.67	92.12
319.9	75.12
320.129	90.12
320.358	94.12
320.587	77.12
320.816	89.12
321.046	102.12
321.275	85.12
321.504	90.12
321.733	77.12
321.962	82.12
322.191	74.12
322.42	88.12
322.649	88.12
322.878	95.12
323.108	75.12
323.337	83.12
323.566	88.12
323.795	91.12
324.024	89.12
324.253	85.12
324.482	101.12
324.71	85.12
324.939	92.12
325.168	102.12
325.397	87.12
325.626	92.12
325.855	85.12
326.084	80.12
326.313	76.12
326.542	84.12
326.77	86.12
326.999	80.12
327.228	64.12
327.457	74.12
327.686	91.12
327.914	95.12
328.143	92.12
328.372	83.12
328.6	86.12
328.829	82.12
329.058	77.12
329.287	93.12
329.515	78.12
329.744	83.12
329.972	88.12
330.201	77.12
330.43	85.12
330.658	85.12
330.887	91.12
331.115	84.12
331.344	83.12
331.572	95.12
331.801	88.12
332.03	78.12
332.258	71.12
332.486	94.12
332.715	92.12
332.943	89.12
333.172	92.12
333.4	83.12
333.629	83.12
333.857	91.12
334.085	77.12
334.314	77.12
334.542	91.12
334.771	78.12
334.999	91.12
335.227	79.12
335.455	85.12
335.684	91.12
335.912	80.12
336.14	88.12
336.369	87.12
336.597	87.12
336.825	82.12
337.053	70.12
337.281	77.12
337.51	79.12
337.738	87.12
337.966	91.12
338.194	82.12
338.422	63.12
338.65	98.12
338.878	84.12
339.106	83.12
339.334	94.12
339.562	93.12
339.79	88.12
340.018	82.12
340.246	85.12
340.474	86.12
340.702	86.12
340.93	85.12
341.158	91.12
341.386	85.12
341.614	94.12
341.842	84.12
342.07	99.12
342.298	71.12
342.526	76.12
342.754	74.12
342.981	75.12
343.209	78.12
343.437	104.12
343.665	87.12
343.893	78.12
344.12	96.12
344.348	88.12
344.576	74.12
344.804	78.12
345.031	84.12
345.259	82.12
345.487	85.12
345.714	81.12
345.942	90.12
346.17	82.12
346.397	100.12
346.625	87.12
346.853	80.12
347.08	70.12
347.308	100.12
347.535	72.12
347.763	82.12
347.99	72.12
348.218	87.12
348.445	93.12
348.673	86.12
348.9	88.12
349.128	79.12
349.355	83.12
349.583	76.12
349.81	79.12
350.037	87.12
350.265	82.12
350.492	84.12
350.72	86.12
350.947	79.12
351.174	95.12
351.402	92.12
351.629	83.12
351.856	77.12
352.083	80.12
352.311	91.12
352.538	87.12
352.765	91.12
352.992	92.12
353.22	79.12
353.447	78.12
353.674	85.12
353.901	92.12
354.128	79.12
354.355	71.12
354.583	80.12
354.81	72.12
355.037	100.12
355.264	81.12
355.491	93.12
355.718	67.12
355.945	79.12
356.172	98.12
356.399	79.12
356.626	78.12
356.853	85.12
357.08	85.12
357.307	82.12
357.534	73.12
357.761	80.12
357.988	86.12
358.215	83.12
358.441	71.12
358.668	85.12
358.895	92.12
359.122	74.12
359.349	85.12
359.576	76.12
359.802	66.12
360.029	74.12
360.256	77.12
360.483	71.12
360.709	77.12
360.936	91.12
361.163	78.12
361.39	81.12
361.616	91.12
361.843	93.12
362.07	94.12
362.296	94.12
362.523	80.12
362.749	90.12
362.976	86.12
363.203	89.12
363.429	94.12
363.656	84.12
363.882	85.12
364.109	82.12
364.335	75.12
364.562	77.12
364.788	84.12
365.015	83.12
365.241	85.12
365.468	94.12
365.694	74.12
365.92	81.12
366.147	81.12
366.373	79.12
366.599	87.12
366.826	84.12
367.052	81.12
367.278	82.12
367.505	87.12
367.731	79.12
367.957	80.12
368.184	84.12
368.41	83.12
368.636	65.12
368.862	71.12
369.089	88.12
369.315	89.12
369.541	87.12
369.767	91.12
369.993	78.12
370.219	80.12
370.445	77.12
370.672	85.12
370.898	85.12
371.124	82.12
371.35	82.12
371.576	83.12
371.802	84.12
372.028	83.12
372.254	82.12
372.48	86.12
372.706	73.12
372.932	84.12
373.158	80.12
373.384	79.12
373.61	86.12
373.835	100.12
374.061	84.12
374.287	90.12
374.513	83.12
374.739	88.12
374.965	84.12
375.191	93.12
375.416	70.12
375.642	87.12
375.868	79.12
376.094	69.12
376.319	82.12
376.545	91.12
376.771	68.12
376.997	79.12
377.222	90.12
377.448	90.12
377.674	77.12
377.899	85.12
378.125	87.12
378.35	90.12
378.576	78.12
378.802	69.12
379.027	69.12
379.253	77.12
379.478	100.12
379.704	89.12
379.929	92.12
380.155	88.12
380.38	75.12
380.606	80.12
380.831	77.12
381.057	84.12
381.282	90.12
381.507	88.12
381.733	95.12
381.958	78.12
382.184	77.12
382.409	79.12
382.634	85.12
382.86	83.12
383.085	93.12
383.31	91.12
383.535	82.12
383.761	80.12
383.986	81.12
384.211	86.12
384.436	82.12
384.662	87.12
384.887	81.12
385.112	79.12
385.337	95.12
385.562	94.12
385.787	96.12
386.013	84.12
386.238	92.12
386.463	69.12
386.688	97.12
386.913	77.12
387.138	76.12
387.363	86.12
387.588	81.12
387.813	79.12
388.038	79.12
388.263	67.12
388.488	82.12
388.713	98.12
388.938	93.12
389.163	75.12
389.387	69.12
389.612	77.12
389.837	88.12
390.062	84.12
390.287	66.12
390.512	75.12
390.736	93.12
390.961	78.12
391.186	74.12
391.411	88.12
391.636	84.12
391.86	90.12
392.085	82.12
392.31	89.12
392.534	80.12
392.759	89.12
392.984	94.12
393.208	74.12
393.433	79.12
393.658	86.12
393.882	94.12
394.107	84.12
394.331	84.12
394.556	84.12
394.78	89.12
395.005	84.12
395.229	82.12
395.454	82.12
395.678	99.12
395.903	84.12
396.127	87.12
396.352	90.12
396.576	74.12
396.801	85.12
397.025	81.12
397.249	86.12
397.474	103.12
397.698	91.12
397.922	88.12
398.147	79.12
398.371	75.12
398.595	82.12
398.82	81.12
399.044	85.12
399.268	84.12
399.492	108.12
399.717	91.12
399.941	91.12
400.165	76.12
400.389	86.12
400.613	95.12
400.837	88.12
401.062	79.12
401.286	80.12
401.51	88.12
401.734	69.12
401.958	94.12
402.182	90.12
402.406	92.12
402.63	83.12
402.854	91.12
403.078	94.12
403.302	70.12
403.526	84.12
403.75	90.12
403.974	88.12
404.198	77.12
404.422	80.12
404.645	77.12
404.869	79.12
405.093	87.12
405.317	76.12
405.541	85.12
405.765	86.12
405.988	88.12
406.212	85.12
406.436	79.12
406.66	89.12
406.883	92.12
407.107	99.12
407.331	95.12
407.555	79.12
407.778	90.12
408.002	75.12
408.226	82.12
408.449	90.12
408.673	79.12
408.896	86.12
409.12	84.12
409.344	79.12
409.567	75.12
409.791	82.12
410.014	88.12
410.238	75.12
410.461	84.12
410.685	75.12
410.908	81.12
411.132	86.12
411.355	93.12
411.578	102.12
411.802	85.12
412.025	92.12
412.249	86.12
412.472	80.12
412.695	82.12
412.919	80.12
413.142	84.12
413.365	86.12
413.589	76.12
413.812	74.12
414.035	84.12
414.258	82.12
414.482	88.12
414.705	74.12
414.928	88.12
415.151	83.12
415.374	81.12
415.597	86.12
415.821	95.12
416.044	85.12
416.267	84.12
416.49	86.12
416.713	78.12
416.936	89.12
417.159	91.12
417.382	86.12
417.605	81.12
417.828	87.12
418.051	74.12
418.274	80.12
418.497	74.12
418.72	60.12
418.943	82.12
419.166	78.12
419.389	96.12
419.611	78.12
419.834	90.12
420.057	84.12
420.28	85.12
420.503	85.12
420.726	82.12
420.948	74.12
421.171	86.12
421.394	77.12
421.617	78.12
421.839	87.12
422.062	88.12
422.285	74.12
422.507	71.12
422.73	109.12
422.953	80.12
423.175	92.12
423.398	89.12
423.621	86.12
423.843	87.12
424.066	84.12
424.288	79.12
424.511	91.12
424.733	92.12
424.956	83.12
425.178	93.12
425.401	88.12
425.623	82.12
425.846	84.12
426.068	94.12
426.291	72.12
426.513	82.12
426.735	70.12
426.958	82.12
427.18	80.12
427.402	79.12
427.625	76.12
427.847	75.12
428.069	81.12
428.292	80.12
428.514	98.12
428.736	84.12
428.958	69.12
429.181	85.12
429.403	78.12
429.625	85.12
429.847	93.12
430.069	80.12
430.292	86.12
430.514	77.12
430.736	78.12
430.958	85.12
431.18	79.12
431.402	91.12
431.624	74.12
431.846	89.12
432.068	86.12
432.29	76.12
432.512	82.12
432.734	92.12
432.956	89.12
433.178	94.12
433.4	77.12
433.622	79.12
433.844	88.12
434.066	94.12
434.287	84.12
434.509	94.12
434.731	72.12
434.953	80.12
435.175	82.12
435.397	89.12
435.618	78.12
435.84	94.12
436.062	84.12
436.284	86.12
436.505	91.12
436.727	76.12
436.949	95.12
437.17	84.12
437.392	68.12
437.614	82.12
437.835	91.12
438.057	77.12
438.278	72.12
438.5	76.12
438.721	82.12
438.943	83.12
439.165	79.12
439.386	90.12
439.608	78.12
439.829	99.12
440.05	88.12
440.272	70.12
440.493	90.12
440.715	87.12
440.936	86.12
441.158	71.12
441.379	79.12
441.6	95.12
441.822	94.12
442.043	79.12
442.264	101.12
442.486	71.12
442.707	64.12
442.928	90.12
443.149	97.12
443.371	89.12
443.592	74.12
443.813	75.12
444.034	89.12
444.255	94.12
444.476	84.12
444.698	85.12
444.919	96.12
445.14	154.12
445.361	118.12
445.582	87.12
445.803	100.12
446.024	88.12
446.245	90.12
446.466	90.12
446.687	95.12
446.908	92.12
447.129	91.12
447.35	80.12
447.571	77.12
447.792	76.12
448.013	86.12
448.234	77.12
448.455	92.12
448.675	79.12
448.896	89.12
449.117	98.12
449.338	92.12
449.559	78.12
449.779	88.12
450	96.12
450.221	78.12
450.442	76.12
450.662	80.12
450.883	85.12
451.104	95.12
451.324	95.12
451.545	84.12
451.766	111.12
451.986	85.12
452.207	88.12
452.428	82.12
452.648	78.12
452.869	76.12
453.089	80.12
453.31	73.12
453.53	86.12
453.751	92.12
453.971	84.12
454.192	79.12
454.412	82.12
454.633	79.12
454.853	91.12
455.073	75.12
455.294	88.12
455.514	78.12
455.734	78.12
455.955	81.12
456.175	88.12
456.395	78.12
456.616	71.12
456.836	78.12
457.056	89.12
457.276	90.12
457.497	75.12
457.717	77.12
457.937	85.12
458.157	82.12
458.377	84.12
458.598	80.12
458.818	69.12
459.038	83.12
459.258	80.12
459.478	87.12
459.698	84.12
459.918	93.12
460.138	74.12
460.358	86.12
460.578	96.12
460.798	78.12
461.018	70.12
461.238	87.12
461.458	80.12
461.678	77.12
461.898	78.12
462.118	86.12
462.338	86.12
462.558	99.12
462.777	82.12
462.997	88.12
463.217	74.12
463.437	92.12
463.657	82.12
463.876	91.12
464.096	74.12
464.316	74.12
464.536	83.12
464.755	86.12
464.975	70.12
465.195	93.12
465.414	86.12
465.634	94.12
465.854	71.12
466.073	104.12
466.293	83.12
466.512	85.12
466.732	87.12
466.951	81.12
467.171	87.12
467.391	75.12
467.61	80.12
467.829	89.12
468.049	76.12
468.268	87.12
468.488	88.12
468.707	86.12
468.927	95.12
469.146	84.12
469.365	86.12
469.585	91.12
469.804	79.12
470.023	74.12
470.243	83.12
470.462	96.12
470.681	91.12
470.901	84.12
471.12	78.12
471.339	78.12
471.558	75.12
471.777	95.12
471.997	82.12
472.216	92.12
472.435	94.12
472.654	91.12
472.873	82.12
473.092	83.12
473.311	85.12
473.53	78.12
473.749	84.12
473.968	98.12
474.187	86.12
474.406	105.12
474.625	78.12
474.844	95.12
475.063	83.12
475.282	98.12
475.501	87.12
475.72	84.12
475.939	98.12
476.158	91.12
476.377	78.12
476.596	77.12
476.814	86.12
477.033	85.12
477.252	84.12
477.471	72.12
477.69	92.12
477.908	92.12
478.127	89.12
478.346	82.12
478.564	88.12
478.783	81.12
479.002	107.12
479.22	80.12
479.439	94.12
479.658	79.12
479.876	77.12
480.095	83.12
480.313	83.12
480.532	74.12
480.751	96.12
480.969	100.12
481.188	85.12
481.406	80.12
481.624	80.12
481.843	82.12
482.061	99.12
482.28	81.12
482.498	89.12
482.717	77.12
482.935	79.12
483.153	94.12
483.372	71.12
483.59	76.12
483.808	80.12
484.027	78.12
484.245	83.12
484.463	84.12
484.681	84.12
484.9	89.12
485.118	83.12
485.336	68.12
485.554	93.12
485.772	98.12
485.99	81.12
486.209	104.12
486.427	84.12
486.645	85.12
486.863	84.12
487.081	93.12
487.299	84.12
487.517	103.12
487.735	80.12
487.953	111.12
488.171	90.12
488.389	86.12
488.607	80.12
488.825	97.12
489.043	94.12
489.261	90.12
489.479	92.12
489.696	95.12
489.914	72.12
490.132	92.12
490.35	112.12
490.568	79.12
490.786	95.12
491.003	95.12
491.221	76.12
491.439	71.12
491.657	115.12
491.874	84.12
492.092	94.12
492.31	89.12
492.527	76.12
492.745	78.12
492.963	91.12
493.18	100.12
493.398	93.12
493.615	82.12
493.833	94.12
494.05	106.12
494.268	91.12
494.485	79.12
494.703	89.12
494.92	92.12
495.138	72.12
495.355	98.12
495.573	91.12
495.79	90.12
496.008	84.12
496.225	107.12
496.442	87.12
496.66	91.12
496.877	90.12
497.094	88.12
497.312	79.12
497.529	72.12
497.746	86.12
497.963	86.12
498.181	78.12
498.398	63.12
498.615	90.12
498.832	86.12
499.049	98.12
499.267	100.12
499.484	96.12
499.701	104.12
499.918	112.12
500.135	108.12
500.352	107.12
500.569	105.12
500.786	109.12
501.003	86.12
501.22	95.12
501.437	97.12
501.654	90.12
501.871	88.12
502.088	87.12
502.305	94.12
502.522	102.12
502.739	88.12
502.956	90.12
503.172	99.12
503.389	83.12
503.606	84.12
503.823	77.12
504.04	100.12
504.256	86.12
504.473	84.12
504.69	94.12
504.907	88.12
505.123	87.12
505.34	85.12
505.557	104.12
505.773	92.12
505.99	80.12
506.207	86.12
506.423	87.12
506.64	72.12
506.856	76.12
507.073	70.12
507.289	95.12
507.506	85.12
507.722	91.12
507.939	96.12
508.155	111.12
508.372	78.12
508.588	84.12
508.805	102.12
509.021	82.12
509.238	88.12
509.454	95.12
509.67	85.12
509.887	87.12
510.103	86.12
510.319	84.12
510.536	77.12
510.752	87.12
510.968	79.12
511.184	105.12
511.401	76.12
511.617	88.12
511.833	91.12
512.049	91.12
512.265	87.12
512.481	83.12
512.698	80.12
512.914	87.12
513.13	86.12
513.346	97.12
513.562	83.12
513.778	88.12
513.994	78.12
514.21	84.12
514.426	100.12
514.642	79.12
514.858	91.12
515.074	73.12
515.29	89.12
515.506	86.12
515.721	90.12
515.937	89.12
516.153	85.12
516.369	88.12
516.585	75.12
516.801	79.12
517.016	88.12
517.232	88.12
517.448	88.12
517.664	91.12
517.879	75.12
518.095	77.12
518.311	72.12
518.527	83.12
518.742	88.12
518.958	90.12
519.173	90.12
519.389	86.12
519.605	90.12
