Data from BG_HRD10591_075.txt Node
Date: Fri May 16 15:27:24 EDT 2025
User: Yrep
Spectrometer: HR+D1059
Trigger mode: 1
Integration Time (sec): 1.000000E-1
Scans to average: 1
Electric dark correction enabled: true
Nonlinearity correction enabled: false
Boxcar width: 0
XAxis mode: Wavelengths
Number of Pixels in Spectrum: 2048
>>>>>Begin Spectral Data<<<<<
223.165	-16.88
223.4	-16.88
223.635	-16.88
223.869	-17.88
224.104	-20.88
224.338	-31.88
224.573	-13.88
224.808	-10.88
225.042	-10.88
225.277	-7.88
225.511	-11.88
225.746	-5.88
225.98	13.12
226.215	19.12
226.449	25.12
226.683	27.12
226.918	26.12
227.152	38.12
227.387	29.12
227.621	48.12
227.856	48.12
228.09	33.12
228.324	59.12
228.559	57.12
228.793	67.12
229.027	56.12
229.262	55.12
229.496	54.12
229.73	67.12
229.964	77.12
230.199	64.12
230.433	61.12
230.667	66.12
230.901	77.12
231.136	80.12
231.37	71.12
231.604	68.12
231.838	76.12
232.072	84.12
232.306	89.12
232.541	84.12
232.775	81.12
233.009	77.12
233.243	73.12
233.477	66.12
233.711	74.12
233.945	88.12
234.179	91.12
234.413	88.12
234.647	68.12
234.881	79.12
235.115	90.12
235.349	85.12
235.583	76.12
235.817	86.12
236.051	71.12
236.285	76.12
236.519	77.12
236.753	69.12
236.987	80.12
237.221	79.12
237.455	81.12
237.689	70.12
237.922	71.12
238.156	70.12
238.39	65.12
238.624	77.12
238.858	80.12
239.091	72.12
239.325	83.12
239.559	81.12
239.793	70.12
240.027	70.12
240.26	72.12
240.494	82.12
240.728	66.12
240.961	69.12
241.195	74.12
241.429	83.12
241.662	72.12
241.896	80.12
242.13	72.12
242.363	88.12
242.597	78.12
242.83	79.12
243.064	76.12
243.298	63.12
243.531	74.12
243.765	86.12
243.998	80.12
244.232	72.12
244.465	64.12
244.699	75.12
244.932	70.12
245.166	82.12
245.399	66.12
245.633	74.12
245.866	79.12
246.099	76.12
246.333	76.12
246.566	85.12
246.8	72.12
247.033	67.12
247.266	84.12
247.5	81.12
247.733	77.12
247.966	70.12
248.2	76.12
248.433	76.12
248.666	72.12
248.899	82.12
249.133	80.12
249.366	67.12
249.599	94.12
249.832	91.12
250.066	90.12
250.299	81.12
250.532	86.12
250.765	76.12
250.998	89.12
251.231	85.12
251.465	67.12
251.698	70.12
251.931	83.12
252.164	72.12
252.397	68.12
252.63	78.12
252.863	63.12
253.096	65.12
253.329	70.12
253.562	84.12
253.795	64.12
254.028	76.12
254.261	91.12
254.494	76.12
254.727	87.12
254.96	77.12
255.193	87.12
255.426	84.12
255.659	82.12
255.892	82.12
256.124	65.12
256.357	90.12
256.59	80.12
256.823	80.12
257.056	73.12
257.289	74.12
257.521	79.12
257.754	73.12
257.987	83.12
258.22	76.12
258.452	71.12
258.685	90.12
258.918	94.12
259.151	75.12
259.383	86.12
259.616	72.12
259.849	88.12
260.081	73.12
260.314	74.12
260.547	80.12
260.779	79.12
261.012	78.12
261.244	77.12
261.477	77.12
261.71	67.12
261.942	76.12
262.175	91.12
262.407	70.12
262.64	86.12
262.872	72.12
263.105	69.12
263.337	98.12
263.57	75.12
263.802	84.12
264.035	88.12
264.267	68.12
264.499	70.12
264.732	88.12
264.964	63.12
265.197	64.12
265.429	75.12
265.661	82.12
265.894	87.12
266.126	86.12
266.358	85.12
266.591	74.12
266.823	77.12
267.055	79.12
267.287	90.12
267.52	74.12
267.752	78.12
267.984	83.12
268.216	68.12
268.448	81.12
268.681	73.12
268.913	82.12
269.145	70.12
269.377	82.12
269.609	90.12
269.841	71.12
270.073	101.12
270.306	78.12
270.538	72.12
270.77	91.12
271.002	77.12
271.234	94.12
271.466	77.12
271.698	78.12
271.93	61.12
272.162	80.12
272.394	92.12
272.626	78.12
272.858	78.12
273.09	90.12
273.322	84.12
273.553	93.12
273.785	83.12
274.017	81.12
274.249	86.12
274.481	77.12
274.713	75.12
274.945	72.12
275.176	63.12
275.408	66.12
275.64	81.12
275.872	84.12
276.104	69.12
276.335	75.12
276.567	81.12
276.799	86.12
277.031	81.12
277.262	91.12
277.494	74.12
277.726	95.12
277.957	86.12
278.189	85.12
278.421	76.12
278.652	86.12
278.884	84.12
279.115	84.12
279.347	85.12
279.579	67.12
279.81	78.12
280.042	82.12
280.273	85.12
280.505	93.12
280.736	85.12
280.968	71.12
281.199	80.12
281.431	82.12
281.662	77.12
281.894	82.12
282.125	89.12
282.356	94.12
282.588	75.12
282.819	74.12
283.051	80.12
283.282	83.12
283.513	98.12
283.745	77.12
283.976	72.12
284.207	99.12
284.439	89.12
284.67	80.12
284.901	82.12
285.132	77.12
285.364	80.12
285.595	82.12
285.826	83.12
286.057	90.12
286.288	84.12
286.52	92.12
286.751	83.12
286.982	72.12
287.213	88.12
287.444	81.12
287.675	85.12
287.906	85.12
288.138	98.12
288.369	80.12
288.6	89.12
288.831	75.12
289.062	92.12
289.293	89.12
289.524	91.12
289.755	74.12
289.986	86.12
290.217	95.12
290.448	84.12
290.679	93.12
290.91	91.12
291.141	85.12
291.371	100.12
291.602	92.12
291.833	87.12
292.064	91.12
292.295	70.12
292.526	68.12
292.757	74.12
292.987	69.12
293.218	82.12
293.449	89.12
293.68	75.12
293.91	72.12
294.141	92.12
294.372	81.12
294.603	91.12
294.833	70.12
295.064	84.12
295.295	95.12
295.525	91.12
295.756	79.12
295.987	81.12
296.217	77.12
296.448	78.12
296.679	74.12
296.909	82.12
297.14	80.12
297.37	75.12
297.601	82.12
297.831	72.12
298.062	62.12
298.292	82.12
298.523	95.12
298.753	87.12
298.984	83.12
299.214	76.12
299.445	80.12
299.675	76.12
299.905	84.12
300.136	78.12
300.366	78.12
300.597	84.12
300.827	86.12
301.057	94.12
301.288	84.12
301.518	96.12
301.748	72.12
301.979	84.12
302.209	78.12
302.439	84.12
302.669	80.12
302.9	84.12
303.13	86.12
303.36	86.12
303.59	83.12
303.82	91.12
304.051	78.12
304.281	85.12
304.511	76.12
304.741	74.12
304.971	87.12
305.201	86.12
305.431	90.12
305.661	82.12
305.891	81.12
306.121	92.12
306.352	84.12
306.582	70.12
306.812	82.12
307.042	79.12
307.272	76.12
307.502	77.12
307.731	83.12
307.961	76.12
308.191	82.12
308.421	91.12
308.651	87.12
308.881	79.12
309.111	74.12
309.341	95.12
309.571	77.12
309.8	99.12
310.03	90.12
310.26	75.12
310.49	83.12
310.72	80.12
310.949	88.12
311.179	93.12
311.409	83.12
311.639	95.12
311.868	93.12
312.098	82.12
312.328	76.12
312.557	83.12
312.787	95.12
313.017	90.12
313.246	100.12
313.476	105.12
313.706	79.12
313.935	93.12
314.165	77.12
314.394	72.12
314.624	90.12
314.853	91.12
315.083	79.12
315.312	80.12
315.542	92.12
315.771	82.12
316.001	87.12
316.23	90.12
316.46	75.12
316.689	82.12
316.919	85.12
317.148	62.12
317.377	80.12
317.607	93.12
317.836	72.12
318.065	76.12
318.295	79.12
318.524	87.12
318.753	94.12
318.983	93.12
319.212	85.12
319.441	77.12
319.67	79.12
319.9	83.12
320.129	71.12
320.358	80.12
320.587	87.12
320.816	92.12
321.046	82.12
321.275	90.12
321.504	80.12
321.733	89.12
321.962	68.12
322.191	88.12
322.42	83.12
322.649	74.12
322.878	90.12
323.108	81.12
323.337	73.12
323.566	86.12
323.795	77.12
324.024	86.12
324.253	91.12
324.482	88.12
324.71	77.12
324.939	83.12
325.168	70.12
325.397	88.12
325.626	98.12
325.855	84.12
326.084	94.12
326.313	76.12
326.542	103.12
326.77	88.12
326.999	80.12
327.228	82.12
327.457	97.12
327.686	75.12
327.914	85.12
328.143	100.12
328.372	79.12
328.6	88.12
328.829	85.12
329.058	86.12
329.287	82.12
329.515	72.12
329.744	94.12
329.972	86.12
330.201	89.12
330.43	89.12
330.658	83.12
330.887	82.12
331.115	70.12
331.344	89.12
331.572	86.12
331.801	96.12
332.03	90.12
332.258	74.12
332.486	80.12
332.715	92.12
332.943	70.12
333.172	84.12
333.4	86.12
333.629	74.12
333.857	77.12
334.085	90.12
334.314	99.12
334.542	87.12
334.771	85.12
334.999	86.12
335.227	88.12
335.455	79.12
335.684	85.12
335.912	88.12
336.14	89.12
336.369	81.12
336.597	82.12
336.825	72.12
337.053	75.12
337.281	74.12
337.51	76.12
337.738	80.12
337.966	88.12
338.194	88.12
338.422	87.12
338.65	96.12
338.878	77.12
339.106	79.12
339.334	88.12
339.562	84.12
339.79	84.12
340.018	73.12
340.246	79.12
340.474	90.12
340.702	80.12
340.93	76.12
341.158	73.12
341.386	102.12
341.614	75.12
341.842	67.12
342.07	86.12
342.298	79.12
342.526	92.12
342.754	92.12
342.981	87.12
343.209	88.12
343.437	87.12
343.665	79.12
343.893	86.12
344.12	80.12
344.348	82.12
344.576	74.12
344.804	76.12
345.031	65.12
345.259	89.12
345.487	93.12
345.714	85.12
345.942	91.12
346.17	80.12
346.397	78.12
346.625	81.12
346.853	75.12
347.08	79.12
347.308	87.12
347.535	78.12
347.763	98.12
347.99	72.12
348.218	93.12
348.445	85.12
348.673	86.12
348.9	76.12
349.128	91.12
349.355	74.12
349.583	88.12
349.81	91.12
350.037	86.12
350.265	82.12
350.492	91.12
350.72	64.12
350.947	88.12
351.174	82.12
351.402	78.12
351.629	85.12
351.856	84.12
352.083	83.12
352.311	80.12
352.538	87.12
352.765	71.12
352.992	82.12
353.22	70.12
353.447	88.12
353.674	87.12
353.901	87.12
354.128	88.12
354.355	76.12
354.583	84.12
354.81	70.12
355.037	80.12
355.264	91.12
355.491	78.12
355.718	78.12
355.945	81.12
356.172	85.12
356.399	85.12
356.626	74.12
356.853	88.12
357.08	65.12
357.307	94.12
357.534	78.12
357.761	82.12
357.988	103.12
358.215	82.12
358.441	86.12
358.668	86.12
358.895	79.12
359.122	87.12
359.349	65.12
359.576	70.12
359.802	70.12
360.029	90.12
360.256	105.12
360.483	81.12
360.709	59.12
360.936	75.12
361.163	92.12
361.39	94.12
361.616	91.12
361.843	74.12
362.07	93.12
362.296	103.12
362.523	78.12
362.749	78.12
362.976	84.12
363.203	78.12
363.429	75.12
363.656	79.12
363.882	85.12
364.109	81.12
364.335	80.12
364.562	74.12
364.788	68.12
365.015	70.12
365.241	72.12
365.468	93.12
365.694	53.12
365.92	81.12
366.147	82.12
366.373	79.12
366.599	90.12
366.826	91.12
367.052	85.12
367.278	76.12
367.505	74.12
367.731	94.12
367.957	75.12
368.184	77.12
368.41	79.12
368.636	80.12
368.862	89.12
369.089	94.12
369.315	75.12
369.541	78.12
369.767	78.12
369.993	79.12
370.219	83.12
370.445	84.12
370.672	74.12
370.898	87.12
371.124	77.12
371.35	79.12
371.576	82.12
371.802	82.12
372.028	78.12
372.254	89.12
372.48	89.12
372.706	79.12
372.932	79.12
373.158	86.12
373.384	97.12
373.61	91.12
373.835	95.12
374.061	86.12
374.287	79.12
374.513	85.12
374.739	82.12
374.965	84.12
375.191	79.12
375.416	86.12
375.642	77.12
375.868	76.12
376.094	77.12
376.319	78.12
376.545	71.12
376.771	78.12
376.997	83.12
377.222	74.12
377.448	77.12
377.674	80.12
377.899	75.12
378.125	72.12
378.35	80.12
378.576	86.12
378.802	91.12
379.027	87.12
379.253	76.12
379.478	71.12
379.704	75.12
379.929	75.12
380.155	80.12
380.38	77.12
380.606	82.12
380.831	84.12
381.057	87.12
381.282	75.12
381.507	71.12
381.733	85.12
381.958	76.12
382.184	85.12
382.409	76.12
382.634	87.12
382.86	77.12
383.085	88.12
383.31	75.12
383.535	84.12
383.761	72.12
383.986	75.12
384.211	79.12
384.436	83.12
384.662	84.12
384.887	91.12
385.112	80.12
385.337	70.12
385.562	87.12
385.787	97.12
386.013	79.12
386.238	82.12
386.463	82.12
386.688	93.12
386.913	83.12
387.138	79.12
387.363	75.12
387.588	89.12
387.813	83.12
388.038	85.12
388.263	82.12
388.488	70.12
388.713	75.12
388.938	89.12
389.163	70.12
389.387	63.12
389.612	83.12
389.837	90.12
390.062	85.12
390.287	87.12
390.512	89.12
390.736	80.12
390.961	85.12
391.186	74.12
391.411	67.12
391.636	69.12
391.86	80.12
392.085	82.12
392.31	89.12
392.534	86.12
392.759	76.12
392.984	75.12
393.208	70.12
393.433	73.12
393.658	78.12
393.882	74.12
394.107	79.12
394.331	72.12
394.556	70.12
394.78	86.12
395.005	85.12
395.229	72.12
395.454	81.12
395.678	84.12
395.903	80.12
396.127	74.12
396.352	76.12
396.576	82.12
396.801	101.12
397.025	73.12
397.249	72.12
397.474	89.12
397.698	78.12
397.922	81.12
398.147	91.12
398.371	86.12
398.595	90.12
398.82	67.12
399.044	80.12
399.268	67.12
399.492	70.12
399.717	74.12
399.941	72.12
400.165	81.12
400.389	79.12
400.613	89.12
400.837	84.12
401.062	78.12
401.286	64.12
401.51	92.12
401.734	70.12
401.958	78.12
402.182	73.12
402.406	69.12
402.63	92.12
402.854	77.12
403.078	85.12
403.302	79.12
403.526	79.12
403.75	80.12
403.974	82.12
404.198	69.12
404.422	98.12
404.645	83.12
404.869	65.12
405.093	71.12
405.317	93.12
405.541	62.12
405.765	85.12
405.988	68.12
406.212	67.12
406.436	71.12
406.66	72.12
406.883	82.12
407.107	78.12
407.331	77.12
407.555	85.12
407.778	88.12
408.002	87.12
408.226	80.12
408.449	82.12
408.673	78.12
408.896	62.12
409.12	87.12
409.344	78.12
409.567	82.12
409.791	74.12
410.014	71.12
410.238	80.12
410.461	82.12
410.685	88.12
410.908	85.12
411.132	82.12
411.355	70.12
411.578	65.12
411.802	85.12
412.025	84.12
412.249	90.12
412.472	64.12
412.695	74.12
412.919	78.12
413.142	83.12
413.365	68.12
413.589	86.12
413.812	77.12
414.035	75.12
414.258	80.12
414.482	80.12
414.705	82.12
414.928	84.12
415.151	87.12
415.374	82.12
415.597	68.12
415.821	74.12
416.044	68.12
416.267	82.12
416.49	84.12
416.713	85.12
416.936	81.12
417.159	83.12
417.382	72.12
417.605	81.12
417.828	80.12
418.051	75.12
418.274	82.12
418.497	83.12
418.72	85.12
418.943	82.12
419.166	80.12
419.389	77.12
419.611	90.12
419.834	78.12
420.057	79.12
420.28	76.12
420.503	82.12
420.726	76.12
420.948	70.12
421.171	83.12
421.394	83.12
421.617	73.12
421.839	83.12
422.062	80.12
422.285	71.12
422.507	90.12
422.73	74.12
422.953	79.12
423.175	84.12
423.398	69.12
423.621	80.12
423.843	82.12
424.066	83.12
424.288	76.12
424.511	84.12
424.733	79.12
424.956	94.12
425.178	89.12
425.401	74.12
425.623	78.12
425.846	74.12
426.068	78.12
426.291	79.12
426.513	107.12
426.735	68.12
426.958	73.12
427.18	78.12
427.402	78.12
427.625	82.12
427.847	75.12
428.069	78.12
428.292	78.12
428.514	88.12
428.736	80.12
428.958	78.12
429.181	86.12
429.403	92.12
429.625	76.12
429.847	92.12
430.069	82.12
430.292	71.12
430.514	65.12
430.736	89.12
430.958	87.12
431.18	66.12
431.402	83.12
431.624	67.12
431.846	78.12
432.068	78.12
432.29	61.12
432.512	80.12
432.734	76.12
432.956	70.12
433.178	78.12
433.4	74.12
433.622	79.12
433.844	80.12
434.066	71.12
434.287	79.12
434.509	85.12
434.731	86.12
434.953	74.12
435.175	78.12
435.397	72.12
435.618	86.12
435.84	91.12
436.062	73.12
436.284	72.12
436.505	92.12
436.727	88.12
436.949	85.12
437.17	80.12
437.392	82.12
437.614	68.12
437.835	55.12
438.057	78.12
438.278	75.12
438.5	76.12
438.721	80.12
438.943	80.12
439.165	80.12
439.386	74.12
439.608	76.12
439.829	75.12
440.05	91.12
440.272	83.12
440.493	79.12
440.715	79.12
440.936	77.12
441.158	88.12
441.379	79.12
441.6	76.12
441.822	67.12
442.043	63.12
442.264	74.12
442.486	78.12
442.707	78.12
442.928	77.12
443.149	67.12
443.371	87.12
443.592	72.12
443.813	79.12
444.034	74.12
444.255	94.12
444.476	87.12
444.698	70.12
444.919	72.12
445.14	136.12
445.361	114.12
445.582	73.12
445.803	85.12
446.024	92.12
446.245	76.12
446.466	66.12
446.687	82.12
446.908	66.12
447.129	76.12
447.35	81.12
447.571	87.12
447.792	69.12
448.013	77.12
448.234	75.12
448.455	83.12
448.675	86.12
448.896	66.12
449.117	74.12
449.338	87.12
449.559	79.12
449.779	93.12
450	78.12
450.221	77.12
450.442	80.12
450.662	72.12
450.883	76.12
451.104	87.12
451.324	81.12
451.545	70.12
451.766	75.12
451.986	80.12
452.207	84.12
452.428	87.12
452.648	85.12
452.869	64.12
453.089	73.12
453.31	77.12
453.53	87.12
453.751	77.12
453.971	79.12
454.192	70.12
454.412	71.12
454.633	73.12
454.853	63.12
455.073	85.12
455.294	75.12
455.514	80.12
455.734	69.12
455.955	69.12
456.175	96.12
456.395	86.12
456.616	65.12
456.836	58.12
457.056	85.12
457.276	70.12
457.497	76.12
457.717	81.12
457.937	74.12
458.157	80.12
458.377	74.12
458.598	86.12
458.818	79.12
459.038	84.12
459.258	74.12
459.478	65.12
459.698	76.12
459.918	73.12
460.138	77.12
460.358	76.12
460.578	85.12
460.798	78.12
461.018	84.12
461.238	82.12
461.458	82.12
461.678	80.12
461.898	82.12
462.118	71.12
462.338	90.12
462.558	94.12
462.777	88.12
462.997	80.12
463.217	71.12
463.437	75.12
463.657	79.12
463.876	92.12
464.096	77.12
464.316	80.12
464.536	80.12
464.755	98.12
464.975	69.12
465.195	85.12
465.414	70.12
465.634	69.12
465.854	69.12
466.073	88.12
466.293	76.12
466.512	73.12
466.732	72.12
466.951	82.12
467.171	78.12
467.391	84.12
467.61	70.12
467.829	76.12
468.049	83.12
468.268	73.12
468.488	67.12
468.707	83.12
468.927	73.12
469.146	81.12
469.365	89.12
469.585	94.12
469.804	84.12
470.023	58.12
470.243	83.12
470.462	73.12
470.681	88.12
470.901	68.12
471.12	74.12
471.339	78.12
471.558	84.12
471.777	83.12
471.997	85.12
472.216	71.12
472.435	82.12
472.654	76.12
472.873	89.12
473.092	75.12
473.311	79.12
473.53	82.12
473.749	86.12
473.968	74.12
474.187	74.12
474.406	102.12
474.625	77.12
474.844	78.12
475.063	80.12
475.282	89.12
475.501	82.12
475.72	91.12
475.939	77.12
476.158	69.12
476.377	73.12
476.596	79.12
476.814	86.12
477.033	85.12
477.252	72.12
477.471	87.12
477.69	91.12
477.908	73.12
478.127	77.12
478.346	86.12
478.564	75.12
478.783	72.12
479.002	74.12
479.22	80.12
479.439	89.12
479.658	89.12
479.876	95.12
480.095	76.12
480.313	81.12
480.532	80.12
480.751	74.12
480.969	80.12
481.188	86.12
481.406	82.12
481.624	98.12
481.843	78.12
482.061	74.12
482.28	79.12
482.498	73.12
482.717	75.12
482.935	79.12
483.153	79.12
483.372	74.12
483.59	81.12
483.808	75.12
484.027	76.12
484.245	78.12
484.463	72.12
484.681	75.12
484.9	86.12
485.118	74.12
485.336	83.12
485.554	80.12
485.772	76.12
485.99	86.12
486.209	95.12
486.427	73.12
486.645	97.12
486.863	83.12
487.081	79.12
487.299	72.12
487.517	91.12
487.735	85.12
487.953	91.12
488.171	80.12
488.389	72.12
488.607	79.12
488.825	81.12
489.043	90.12
489.261	93.12
489.479	92.12
489.696	84.12
489.914	78.12
490.132	64.12
490.35	90.12
490.568	80.12
490.786	74.12
491.003	86.12
491.221	84.12
491.439	84.12
491.657	67.12
491.874	85.12
492.092	73.12
492.31	89.12
492.527	82.12
492.745	81.12
492.963	85.12
493.18	88.12
493.398	77.12
493.615	71.12
493.833	58.12
494.05	78.12
494.268	77.12
494.485	85.12
494.703	68.12
494.92	82.12
495.138	76.12
495.355	78.12
495.573	86.12
495.79	79.12
496.008	71.12
496.225	80.12
496.442	63.12
496.66	89.12
496.877	75.12
497.094	78.12
497.312	86.12
497.529	84.12
497.746	79.12
497.963	89.12
498.181	79.12
498.398	87.12
498.615	85.12
498.832	83.12
499.049	84.12
499.267	82.12
499.484	94.12
499.701	79.12
499.918	90.12
500.135	80.12
500.352	90.12
500.569	85.12
500.786	84.12
501.003	85.12
501.22	80.12
501.437	83.12
501.654	68.12
501.871	70.12
502.088	86.12
502.305	83.12
502.522	91.12
502.739	84.12
502.956	90.12
503.172	84.12
503.389	80.12
503.606	75.12
503.823	88.12
504.04	81.12
504.256	86.12
504.473	70.12
504.69	83.12
504.907	91.12
505.123	86.12
505.34	75.12
505.557	78.12
505.773	82.12
505.99	75.12
506.207	72.12
506.423	86.12
506.64	91.12
506.856	87.12
507.073	82.12
507.289	86.12
507.506	82.12
507.722	59.12
507.939	97.12
508.155	77.12
508.372	86.12
508.588	84.12
508.805	81.12
509.021	85.12
509.238	89.12
509.454	67.12
509.67	91.12
509.887	87.12
510.103	72.12
510.319	83.12
510.536	92.12
510.752	92.12
510.968	91.12
511.184	76.12
511.401	79.12
511.617	84.12
511.833	88.12
512.049	92.12
512.265	83.12
512.481	84.12
512.698	88.12
512.914	80.12
513.13	92.12
513.346	91.12
513.562	80.12
513.778	77.12
513.994	90.12
514.21	83.12
514.426	78.12
514.642	82.12
514.858	87.12
515.074	80.12
515.29	83.12
515.506	87.12
515.721	78.12
515.937	87.12
516.153	88.12
516.369	87.12
516.585	76.12
516.801	87.12
517.016	89.12
517.232	75.12
517.448	81.12
517.664	91.12
517.879	85.12
518.095	77.12
518.311	90.12
518.527	72.12
518.742	76.12
518.958	83.12
519.173	76.12
519.389	92.12
519.605	86.12
519.82	77.12
520.036	72.12
