Data from BG_HRD10591_045.txt Node
Date: Fri May 16 15:27:09 EDT 2025
User: Yrep
Spectrometer: HR+D1059
Trigger mode: 1
Integration Time (sec): 1.000000E-1
Scans to average: 1
Electric dark correction enabled: true
Nonlinearity correction enabled: false
Boxcar width: 0
XAxis mode: Wavelengths
Number of Pixels in Spectrum: 2048
>>>>>Begin Spectral Data<<<<<
223.165	-17.81
223.4	-17.81
223.635	-17.81
223.869	-16.81
224.104	-19.81
224.338	-15.81
224.573	-3.81
224.808	-7.81
225.042	-12.81
225.277	-6.81
225.511	-22.81
225.746	-4.81
225.98	15.19
226.215	30.19
226.449	4.19
226.683	23.19
226.918	22.19
227.152	34.19
227.387	34.19
227.621	44.19
227.856	46.19
228.09	45.19
228.324	56.19
228.559	64.19
228.793	54.19
229.027	63.19
229.262	60.19
229.496	68.19
229.73	71.19
229.964	66.19
230.199	74.19
230.433	74.19
230.667	73.19
230.901	78.19
231.136	72.19
231.37	80.19
231.604	72.19
231.838	74.19
232.072	79.19
232.306	84.19
232.541	79.19
232.775	87.19
233.009	77.19
233.243	80.19
233.477	74.19
233.711	81.19
233.945	65.19
234.179	73.19
234.413	88.19
234.647	78.19
234.881	93.19
235.115	78.19
235.349	83.19
235.583	75.19
235.817	78.19
236.051	71.19
236.285	79.19
236.519	71.19
236.753	61.19
236.987	89.19
237.221	76.19
237.455	71.19
237.689	66.19
237.922	79.19
238.156	70.19
238.39	71.19
238.624	72.19
238.858	74.19
239.091	68.19
239.325	77.19
239.559	65.19
239.793	78.19
240.027	78.19
240.26	84.19
240.494	73.19
240.728	74.19
240.961	74.19
241.195	73.19
241.429	77.19
241.662	84.19
241.896	90.19
242.13	74.19
242.363	71.19
242.597	66.19
242.83	79.19
243.064	66.19
243.298	66.19
243.531	80.19
243.765	90.19
243.998	63.19
244.232	73.19
244.465	60.19
244.699	71.19
244.932	71.19
245.166	58.19
245.399	68.19
245.633	61.19
245.866	86.19
246.099	90.19
246.333	56.19
246.566	74.19
246.8	81.19
247.033	93.19
247.266	75.19
247.5	76.19
247.733	78.19
247.966	75.19
248.2	72.19
248.433	75.19
248.666	93.19
248.899	81.19
249.133	57.19
249.366	81.19
249.599	81.19
249.832	85.19
250.066	72.19
250.299	68.19
250.532	94.19
250.765	79.19
250.998	68.19
251.231	72.19
251.465	89.19
251.698	78.19
251.931	76.19
252.164	66.19
252.397	66.19
252.63	81.19
252.863	82.19
253.096	80.19
253.329	76.19
253.562	77.19
253.795	76.19
254.028	96.19
254.261	82.19
254.494	82.19
254.727	80.19
254.96	77.19
255.193	78.19
255.426	84.19
255.659	84.19
255.892	86.19
256.124	80.19
256.357	81.19
256.59	69.19
256.823	72.19
257.056	84.19
257.289	84.19
257.521	85.19
257.754	72.19
257.987	94.19
258.22	82.19
258.452	75.19
258.685	88.19
258.918	79.19
259.151	80.19
259.383	82.19
259.616	77.19
259.849	80.19
260.081	93.19
260.314	85.19
260.547	82.19
260.779	80.19
261.012	80.19
261.244	81.19
261.477	88.19
261.71	74.19
261.942	67.19
262.175	92.19
262.407	82.19
262.64	91.19
262.872	86.19
263.105	76.19
263.337	80.19
263.57	84.19
263.802	87.19
264.035	83.19
264.267	83.19
264.499	77.19
264.732	84.19
264.964	80.19
265.197	64.19
265.429	65.19
265.661	93.19
265.894	83.19
266.126	84.19
266.358	82.19
266.591	64.19
266.823	94.19
267.055	76.19
267.287	92.19
267.52	74.19
267.752	95.19
267.984	87.19
268.216	72.19
268.448	66.19
268.681	68.19
268.913	95.19
269.145	76.19
269.377	77.19
269.609	86.19
269.841	77.19
270.073	93.19
270.306	77.19
270.538	81.19
270.77	73.19
271.002	89.19
271.234	76.19
271.466	76.19
271.698	70.19
271.93	82.19
272.162	88.19
272.394	82.19
272.626	82.19
272.858	81.19
273.09	80.19
273.322	81.19
273.553	93.19
273.785	78.19
274.017	83.19
274.249	84.19
274.481	83.19
274.713	70.19
274.945	88.19
275.176	78.19
275.408	78.19
275.64	90.19
275.872	90.19
276.104	92.19
276.335	78.19
276.567	90.19
276.799	82.19
277.031	79.19
277.262	74.19
277.494	58.19
277.726	82.19
277.957	74.19
278.189	97.19
278.421	77.19
278.652	80.19
278.884	86.19
279.115	81.19
279.347	72.19
279.579	81.19
279.81	98.19
280.042	84.19
280.273	81.19
280.505	84.19
280.736	88.19
280.968	76.19
281.199	86.19
281.431	88.19
281.662	87.19
281.894	76.19
282.125	69.19
282.356	89.19
282.588	90.19
282.819	79.19
283.051	76.19
283.282	81.19
283.513	78.19
283.745	73.19
283.976	90.19
284.207	80.19
284.439	89.19
284.67	80.19
284.901	102.19
285.132	88.19
285.364	89.19
285.595	97.19
285.826	71.19
286.057	81.19
286.288	77.19
286.52	74.19
286.751	85.19
286.982	93.19
287.213	82.19
287.444	88.19
287.675	89.19
287.906	88.19
288.138	93.19
288.369	76.19
288.6	72.19
288.831	82.19
289.062	89.19
289.293	93.19
289.524	89.19
289.755	83.19
289.986	85.19
290.217	78.19
290.448	85.19
290.679	83.19
290.91	95.19
291.141	92.19
291.371	75.19
291.602	86.19
291.833	77.19
292.064	97.19
292.295	82.19
292.526	78.19
292.757	78.19
292.987	85.19
293.218	93.19
293.449	97.19
293.68	77.19
293.91	89.19
294.141	89.19
294.372	77.19
294.603	82.19
294.833	84.19
295.064	93.19
295.295	86.19
295.525	85.19
295.756	83.19
295.987	87.19
296.217	78.19
296.448	84.19
296.679	82.19
296.909	97.19
297.14	101.19
297.37	77.19
297.601	86.19
297.831	80.19
298.062	85.19
298.292	80.19
298.523	72.19
298.753	88.19
298.984	87.19
299.214	76.19
299.445	86.19
299.675	75.19
299.905	79.19
300.136	104.19
300.366	90.19
300.597	81.19
300.827	79.19
301.057	83.19
301.288	90.19
301.518	87.19
301.748	102.19
301.979	100.19
302.209	97.19
302.439	78.19
302.669	98.19
302.9	87.19
303.13	70.19
303.36	86.19
303.59	98.19
303.82	102.19
304.051	73.19
304.281	85.19
304.511	81.19
304.741	90.19
304.971	89.19
305.201	82.19
305.431	88.19
305.661	76.19
305.891	89.19
306.121	90.19
306.352	72.19
306.582	83.19
306.812	80.19
307.042	82.19
307.272	89.19
307.502	82.19
307.731	92.19
307.961	82.19
308.191	80.19
308.421	85.19
308.651	79.19
308.881	88.19
309.111	96.19
309.341	84.19
309.571	89.19
309.8	88.19
310.03	89.19
310.26	85.19
310.49	79.19
310.72	85.19
310.949	82.19
311.179	102.19
311.409	82.19
311.639	89.19
311.868	93.19
312.098	80.19
312.328	77.19
312.557	100.19
312.787	81.19
313.017	72.19
313.246	82.19
313.476	79.19
313.706	93.19
313.935	93.19
314.165	103.19
314.394	80.19
314.624	89.19
314.853	80.19
315.083	79.19
315.312	98.19
315.542	88.19
315.771	93.19
316.001	73.19
316.23	76.19
316.46	81.19
316.689	95.19
316.919	92.19
317.148	81.19
317.377	90.19
317.607	99.19
317.836	87.19
318.065	78.19
318.295	88.19
318.524	76.19
318.753	88.19
318.983	82.19
319.212	87.19
319.441	94.19
319.67	84.19
319.9	88.19
320.129	85.19
320.358	76.19
320.587	85.19
320.816	91.19
321.046	71.19
321.275	86.19
321.504	85.19
321.733	73.19
321.962	71.19
322.191	100.19
322.42	79.19
322.649	81.19
322.878	80.19
323.108	93.19
323.337	74.19
323.566	66.19
323.795	70.19
324.024	74.19
324.253	79.19
324.482	76.19
324.71	72.19
324.939	100.19
325.168	85.19
325.397	71.19
325.626	91.19
325.855	89.19
326.084	78.19
326.313	95.19
326.542	82.19
326.77	89.19
326.999	90.19
327.228	98.19
327.457	81.19
327.686	85.19
327.914	79.19
328.143	80.19
328.372	95.19
328.6	86.19
328.829	86.19
329.058	93.19
329.287	87.19
329.515	96.19
329.744	79.19
329.972	85.19
330.201	71.19
330.43	80.19
330.658	92.19
330.887	91.19
331.115	85.19
331.344	81.19
331.572	100.19
331.801	84.19
332.03	91.19
332.258	85.19
332.486	80.19
332.715	76.19
332.943	74.19
333.172	76.19
333.4	86.19
333.629	82.19
333.857	81.19
334.085	85.19
334.314	88.19
334.542	90.19
334.771	93.19
334.999	82.19
335.227	98.19
335.455	76.19
335.684	93.19
335.912	78.19
336.14	86.19
336.369	87.19
336.597	80.19
336.825	85.19
337.053	84.19
337.281	70.19
337.51	91.19
337.738	99.19
337.966	87.19
338.194	76.19
338.422	77.19
338.65	100.19
338.878	85.19
339.106	72.19
339.334	88.19
339.562	83.19
339.79	90.19
340.018	95.19
340.246	83.19
340.474	93.19
340.702	76.19
340.93	79.19
341.158	76.19
341.386	87.19
341.614	79.19
341.842	89.19
342.07	92.19
342.298	79.19
342.526	84.19
342.754	74.19
342.981	87.19
343.209	89.19
343.437	95.19
343.665	93.19
343.893	85.19
344.12	82.19
344.348	83.19
344.576	87.19
344.804	95.19
345.031	79.19
345.259	80.19
345.487	94.19
345.714	79.19
345.942	78.19
346.17	88.19
346.397	82.19
346.625	78.19
346.853	77.19
347.08	104.19
347.308	87.19
347.535	82.19
347.763	81.19
347.99	84.19
348.218	87.19
348.445	88.19
348.673	89.19
348.9	79.19
349.128	94.19
349.355	85.19
349.583	74.19
349.81	85.19
350.037	76.19
350.265	93.19
350.492	106.19
350.72	79.19
350.947	101.19
351.174	85.19
351.402	92.19
351.629	74.19
351.856	81.19
352.083	95.19
352.311	84.19
352.538	81.19
352.765	102.19
352.992	85.19
353.22	100.19
353.447	85.19
353.674	87.19
353.901	89.19
354.128	74.19
354.355	75.19
354.583	82.19
354.81	87.19
355.037	90.19
355.264	81.19
355.491	79.19
355.718	95.19
355.945	76.19
356.172	92.19
356.399	80.19
356.626	94.19
356.853	88.19
357.08	86.19
357.307	84.19
357.534	84.19
357.761	90.19
357.988	90.19
358.215	80.19
358.441	89.19
358.668	84.19
358.895	100.19
359.122	85.19
359.349	87.19
359.576	73.19
359.802	101.19
360.029	96.19
360.256	95.19
360.483	86.19
360.709	76.19
360.936	90.19
361.163	90.19
361.39	83.19
361.616	92.19
361.843	90.19
362.07	86.19
362.296	88.19
362.523	90.19
362.749	84.19
362.976	79.19
363.203	84.19
363.429	77.19
363.656	81.19
363.882	98.19
364.109	77.19
364.335	84.19
364.562	68.19
364.788	74.19
365.015	84.19
365.241	98.19
365.468	75.19
365.694	79.19
365.92	89.19
366.147	87.19
366.373	82.19
366.599	84.19
366.826	88.19
367.052	74.19
367.278	67.19
367.505	78.19
367.731	84.19
367.957	81.19
368.184	78.19
368.41	80.19
368.636	80.19
368.862	76.19
369.089	86.19
369.315	95.19
369.541	100.19
369.767	97.19
369.993	99.19
370.219	95.19
370.445	86.19
370.672	89.19
370.898	84.19
371.124	96.19
371.35	80.19
371.576	65.19
371.802	73.19
372.028	84.19
372.254	89.19
372.48	78.19
372.706	81.19
372.932	77.19
373.158	85.19
373.384	86.19
373.61	93.19
373.835	89.19
374.061	86.19
374.287	74.19
374.513	82.19
374.739	86.19
374.965	82.19
375.191	76.19
375.416	77.19
375.642	80.19
375.868	86.19
376.094	95.19
376.319	76.19
376.545	86.19
376.771	89.19
376.997	82.19
377.222	82.19
377.448	90.19
377.674	95.19
377.899	81.19
378.125	90.19
378.35	74.19
378.576	89.19
378.802	81.19
379.027	82.19
379.253	71.19
379.478	77.19
379.704	91.19
379.929	80.19
380.155	80.19
380.38	71.19
380.606	82.19
380.831	84.19
381.057	84.19
381.282	89.19
381.507	82.19
381.733	86.19
381.958	84.19
382.184	84.19
382.409	75.19
382.634	80.19
382.86	79.19
383.085	85.19
383.31	77.19
383.535	76.19
383.761	80.19
383.986	74.19
384.211	69.19
384.436	80.19
384.662	84.19
384.887	93.19
385.112	80.19
385.337	89.19
385.562	81.19
385.787	84.19
386.013	87.19
386.238	82.19
386.463	81.19
386.688	110.19
386.913	83.19
387.138	81.19
387.363	88.19
387.588	91.19
387.813	85.19
388.038	82.19
388.263	81.19
388.488	83.19
388.713	91.19
388.938	74.19
389.163	78.19
389.387	73.19
389.612	94.19
389.837	81.19
390.062	85.19
390.287	80.19
390.512	80.19
390.736	89.19
390.961	93.19
391.186	76.19
391.411	90.19
391.636	89.19
391.86	74.19
392.085	86.19
392.31	74.19
392.534	87.19
392.759	84.19
392.984	91.19
393.208	81.19
393.433	75.19
393.658	89.19
393.882	92.19
394.107	96.19
394.331	87.19
394.556	79.19
394.78	80.19
395.005	76.19
395.229	74.19
395.454	87.19
395.678	78.19
395.903	71.19
396.127	86.19
396.352	78.19
396.576	76.19
396.801	90.19
397.025	87.19
397.249	78.19
397.474	102.19
397.698	84.19
397.922	81.19
398.147	83.19
398.371	77.19
398.595	70.19
398.82	91.19
399.044	77.19
399.268	92.19
399.492	94.19
399.717	93.19
399.941	87.19
400.165	101.19
400.389	72.19
400.613	82.19
400.837	90.19
401.062	84.19
401.286	73.19
401.51	69.19
401.734	72.19
401.958	85.19
402.182	76.19
402.406	67.19
402.63	73.19
402.854	82.19
403.078	92.19
403.302	79.19
403.526	65.19
403.75	86.19
403.974	66.19
404.198	74.19
404.422	79.19
404.645	88.19
404.869	88.19
405.093	95.19
405.317	72.19
405.541	70.19
405.765	83.19
405.988	73.19
406.212	80.19
406.436	90.19
406.66	72.19
406.883	85.19
407.107	87.19
407.331	73.19
407.555	82.19
407.778	83.19
408.002	94.19
408.226	87.19
408.449	83.19
408.673	91.19
408.896	74.19
409.12	83.19
409.344	91.19
409.567	78.19
409.791	74.19
410.014	79.19
410.238	82.19
410.461	88.19
410.685	75.19
410.908	82.19
411.132	100.19
411.355	76.19
411.578	87.19
411.802	75.19
412.025	70.19
412.249	81.19
412.472	61.19
412.695	74.19
412.919	74.19
413.142	72.19
413.365	80.19
413.589	77.19
413.812	80.19
414.035	78.19
414.258	76.19
414.482	88.19
414.705	87.19
414.928	84.19
415.151	75.19
415.374	90.19
415.597	70.19
415.821	79.19
416.044	86.19
416.267	83.19
416.49	84.19
416.713	83.19
416.936	86.19
417.159	74.19
417.382	71.19
417.605	77.19
417.828	80.19
418.051	92.19
418.274	75.19
418.497	79.19
418.72	92.19
418.943	76.19
419.166	77.19
419.389	82.19
419.611	84.19
419.834	78.19
420.057	85.19
420.28	89.19
420.503	82.19
420.726	74.19
420.948	89.19
421.171	76.19
421.394	78.19
421.617	76.19
421.839	76.19
422.062	71.19
422.285	77.19
422.507	81.19
422.73	68.19
422.953	75.19
423.175	102.19
423.398	94.19
423.621	89.19
423.843	77.19
424.066	80.19
424.288	66.19
424.511	90.19
424.733	84.19
424.956	67.19
425.178	86.19
425.401	75.19
425.623	90.19
425.846	81.19
426.068	82.19
426.291	84.19
426.513	82.19
426.735	87.19
426.958	68.19
427.18	89.19
427.402	80.19
427.625	90.19
427.847	76.19
428.069	85.19
428.292	80.19
428.514	97.19
428.736	88.19
428.958	80.19
429.181	85.19
429.403	95.19
429.625	80.19
429.847	74.19
430.069	79.19
430.292	78.19
430.514	75.19
430.736	77.19
430.958	87.19
431.18	65.19
431.402	75.19
431.624	80.19
431.846	79.19
432.068	58.19
432.29	76.19
432.512	95.19
432.734	96.19
432.956	78.19
433.178	90.19
433.4	75.19
433.622	80.19
433.844	96.19
434.066	74.19
434.287	86.19
434.509	85.19
434.731	81.19
434.953	85.19
435.175	87.19
435.397	77.19
435.618	81.19
435.84	93.19
436.062	93.19
436.284	80.19
436.505	85.19
436.727	81.19
436.949	72.19
437.17	81.19
437.392	80.19
437.614	73.19
437.835	61.19
438.057	77.19
438.278	82.19
438.5	90.19
438.721	77.19
438.943	76.19
439.165	81.19
439.386	89.19
439.608	81.19
439.829	81.19
440.05	86.19
440.272	85.19
440.493	86.19
440.715	85.19
440.936	81.19
441.158	75.19
441.379	93.19
441.6	64.19
441.822	82.19
442.043	73.19
442.264	82.19
442.486	82.19
442.707	62.19
442.928	82.19
443.149	85.19
443.371	76.19
443.592	86.19
443.813	92.19
444.034	92.19
444.255	88.19
444.476	81.19
444.698	88.19
444.919	66.19
445.14	166.19
445.361	121.19
445.582	81.19
445.803	89.19
446.024	83.19
446.245	64.19
446.466	88.19
446.687	88.19
446.908	85.19
447.129	97.19
447.35	84.19
447.571	84.19
447.792	84.19
448.013	82.19
448.234	84.19
448.455	95.19
448.675	76.19
448.896	79.19
449.117	76.19
449.338	73.19
449.559	79.19
449.779	71.19
450	80.19
450.221	77.19
450.442	85.19
450.662	81.19
450.883	79.19
451.104	86.19
451.324	80.19
451.545	83.19
451.766	79.19
451.986	80.19
452.207	87.19
452.428	78.19
452.648	82.19
452.869	79.19
453.089	92.19
453.31	76.19
453.53	76.19
453.751	76.19
453.971	77.19
454.192	78.19
454.412	74.19
454.633	70.19
454.853	69.19
455.073	74.19
455.294	70.19
455.514	74.19
455.734	87.19
455.955	65.19
456.175	88.19
456.395	83.19
456.616	75.19
456.836	86.19
457.056	82.19
457.276	80.19
457.497	85.19
457.717	91.19
457.937	85.19
458.157	77.19
458.377	98.19
458.598	69.19
458.818	74.19
459.038	90.19
459.258	90.19
459.478	85.19
459.698	84.19
459.918	100.19
460.138	73.19
460.358	85.19
460.578	80.19
460.798	84.19
461.018	89.19
461.238	78.19
461.458	88.19
461.678	78.19
461.898	95.19
462.118	76.19
462.338	87.19
462.558	83.19
462.777	85.19
462.997	76.19
463.217	84.19
463.437	73.19
463.657	80.19
463.876	78.19
464.096	75.19
464.316	79.19
464.536	87.19
464.755	87.19
464.975	80.19
465.195	93.19
465.414	74.19
465.634	89.19
465.854	87.19
466.073	88.19
466.293	80.19
466.512	81.19
466.732	56.19
466.951	86.19
467.171	83.19
467.391	76.19
467.61	76.19
467.829	93.19
468.049	79.19
468.268	72.19
468.488	71.19
468.707	67.19
468.927	72.19
469.146	86.19
469.365	82.19
469.585	80.19
469.804	70.19
470.023	72.19
470.243	75.19
470.462	80.19
470.681	72.19
470.901	81.19
471.12	86.19
471.339	88.19
471.558	95.19
471.777	70.19
471.997	83.19
472.216	90.19
472.435	88.19
472.654	69.19
472.873	88.19
473.092	92.19
473.311	80.19
473.53	85.19
473.749	80.19
473.968	83.19
474.187	94.19
474.406	80.19
474.625	78.19
474.844	91.19
475.063	83.19
475.282	90.19
475.501	97.19
475.72	85.19
475.939	84.19
476.158	66.19
476.377	84.19
476.596	75.19
476.814	92.19
477.033	90.19
477.252	81.19
477.471	86.19
477.69	80.19
477.908	92.19
478.127	82.19
478.346	75.19
478.564	76.19
478.783	76.19
479.002	82.19
479.22	86.19
479.439	89.19
479.658	93.19
479.876	72.19
480.095	84.19
480.313	90.19
480.532	79.19
480.751	90.19
480.969	100.19
481.188	85.19
481.406	87.19
481.624	61.19
481.843	84.19
482.061	89.19
482.28	75.19
482.498	75.19
482.717	95.19
482.935	81.19
483.153	78.19
483.372	81.19
483.59	79.19
483.808	85.19
484.027	88.19
484.245	95.19
484.463	102.19
484.681	92.19
484.9	85.19
485.118	77.19
485.336	71.19
485.554	90.19
485.772	81.19
485.99	79.19
486.209	79.19
486.427	85.19
486.645	77.19
486.863	91.19
487.081	88.19
487.299	94.19
487.517	74.19
487.735	82.19
487.953	85.19
488.171	84.19
488.389	78.19
488.607	86.19
488.825	89.19
489.043	77.19
489.261	70.19
489.479	62.19
489.696	70.19
489.914	72.19
490.132	82.19
490.35	86.19
490.568	64.19
490.786	79.19
491.003	87.19
491.221	85.19
491.439	72.19
491.657	80.19
491.874	74.19
492.092	83.19
492.31	89.19
492.527	82.19
492.745	91.19
492.963	71.19
493.18	76.19
493.398	70.19
493.615	73.19
493.833	85.19
494.05	91.19
494.268	92.19
494.485	80.19
494.703	88.19
494.92	86.19
495.138	84.19
495.355	80.19
495.573	84.19
495.79	73.19
496.008	79.19
496.225	85.19
496.442	84.19
496.66	88.19
496.877	79.19
497.094	79.19
497.312	84.19
497.529	87.19
497.746	77.19
497.963	89.19
498.181	92.19
498.398	74.19
498.615	90.19
498.832	80.19
499.049	75.19
499.267	89.19
499.484	86.19
499.701	74.19
499.918	89.19
500.135	81.19
500.352	91.19
500.569	70.19
500.786	84.19
501.003	86.19
501.22	72.19
501.437	78.19
501.654	69.19
501.871	72.19
502.088	93.19
502.305	80.19
502.522	80.19
502.739	89.19
502.956	82.19
503.172	81.19
503.389	79.19
503.606	80.19
503.823	73.19
504.04	77.19
504.256	95.19
504.473	78.19
504.69	94.19
504.907	92.19
505.123	72.19
505.34	77.19
505.557	86.19
505.773	79.19
505.99	86.19
506.207	73.19
506.423	74.19
506.64	72.19
506.856	93.19
507.073	90.19
507.289	80.19
507.506	80.19
507.722	70.19
507.939	55.19
508.155	75.19
508.372	76.19
508.588	74.19
508.805	82.19
509.021	91.19
509.238	76.19
509.454	69.19
509.67	86.19
509.887	84.19
510.103	72.19
510.319	73.19
510.536	83.19
510.752	85.19
510.968	76.19
511.184	94.19
511.401	82.19
511.617	83.19
511.833	84.19
512.049	89.19
512.265	91.19
512.481	70.19
512.698	78.19
512.914	74.19
513.13	89.19
513.346	83.19
513.562	80.19
513.778	80.19
513.994	82.19
514.21	84.19
514.426	85.19
514.642	88.19
514.858	80.19
515.074	78.19
515.29	97.19
515.506	87.19
515.721	89.19
515.937	88.19
516.153	87.19
516.369	79.19
516.585	78.19
516.801	94.19
517.016	88.19
517.232	75.19
517.448	88.19
517.664	78.19
517.879	84.19
518.095	82.19
518.311	73.19
518.527	88.19
518.742	88.19
518.958	84.19
519.173	79.19
519.389	84.19
519.605	77.19
519.82	93.19
520.036	81.19
