Data from BG_HRD10591_038.txt Node
Date: Fri May 16 15:27:06 EDT 2025
User: Yrep
Spectrometer: HR+D1059
Trigger mode: 1
Integration Time (sec): 1.000000E-1
Scans to average: 1
Electric dark correction enabled: true
Nonlinearity correction enabled: false
Boxcar width: 0
XAxis mode: Wavelengths
Number of Pixels in Spectrum: 2048
>>>>>Begin Spectral Data<<<<<
223.165	-2.44
223.4	-2.44
223.635	-2.44
223.869	-13.44
224.104	-16.44
224.338	-13.44
224.573	-17.44
224.808	-14.44
225.042	-12.44
225.277	-18.44
225.511	1.56
225.746	-2.44
225.98	23.56
226.215	4.56
226.449	19.56
226.683	10.56
226.918	25.56
227.152	25.56
227.387	37.56
227.621	38.56
227.856	43.56
228.09	41.56
228.324	51.56
228.559	57.56
228.793	79.56
229.027	68.56
229.262	77.56
229.496	62.56
229.73	71.56
229.964	75.56
230.199	82.56
230.433	81.56
230.667	78.56
230.901	83.56
231.136	86.56
231.37	82.56
231.604	84.56
231.838	83.56
232.072	91.56
232.306	82.56
232.541	84.56
232.775	80.56
233.009	74.56
233.243	84.56
233.477	88.56
233.711	72.56
233.945	84.56
234.179	85.56
234.413	75.56
234.647	80.56
234.881	94.56
235.115	78.56
235.349	89.56
235.583	93.56
235.817	83.56
236.051	90.56
236.285	86.56
236.519	80.56
236.753	76.56
236.987	90.56
237.221	98.56
237.455	93.56
237.689	84.56
237.922	69.56
238.156	84.56
238.39	76.56
238.624	60.56
238.858	82.56
239.091	75.56
239.325	76.56
239.559	76.56
239.793	75.56
240.027	78.56
240.26	92.56
240.494	90.56
240.728	81.56
240.961	80.56
241.195	85.56
241.429	78.56
241.662	67.56
241.896	90.56
242.13	81.56
242.363	84.56
242.597	72.56
242.83	85.56
243.064	83.56
243.298	89.56
243.531	70.56
243.765	70.56
243.998	94.56
244.232	74.56
244.465	84.56
244.699	82.56
244.932	67.56
245.166	73.56
245.399	86.56
245.633	90.56
245.866	95.56
246.099	96.56
246.333	71.56
246.566	68.56
246.8	72.56
247.033	69.56
247.266	69.56
247.5	82.56
247.733	85.56
247.966	92.56
248.2	93.56
248.433	77.56
248.666	85.56
248.899	78.56
249.133	82.56
249.366	77.56
249.599	92.56
249.832	89.56
250.066	77.56
250.299	83.56
250.532	81.56
250.765	81.56
250.998	81.56
251.231	86.56
251.465	80.56
251.698	77.56
251.931	71.56
252.164	76.56
252.397	76.56
252.63	94.56
252.863	74.56
253.096	83.56
253.329	86.56
253.562	84.56
253.795	86.56
254.028	88.56
254.261	78.56
254.494	87.56
254.727	96.56
254.96	94.56
255.193	92.56
255.426	60.56
255.659	89.56
255.892	89.56
256.124	87.56
256.357	95.56
256.59	77.56
256.823	78.56
257.056	84.56
257.289	88.56
257.521	89.56
257.754	85.56
257.987	84.56
258.22	100.56
258.452	89.56
258.685	79.56
258.918	77.56
259.151	82.56
259.383	85.56
259.616	85.56
259.849	79.56
260.081	90.56
260.314	93.56
260.547	89.56
260.779	89.56
261.012	75.56
261.244	78.56
261.477	90.56
261.71	81.56
261.942	92.56
262.175	84.56
262.407	102.56
262.64	69.56
262.872	83.56
263.105	85.56
263.337	80.56
263.57	79.56
263.802	82.56
264.035	82.56
264.267	75.56
264.499	93.56
264.732	85.56
264.964	84.56
265.197	93.56
265.429	97.56
265.661	72.56
265.894	83.56
266.126	97.56
266.358	77.56
266.591	90.56
266.823	97.56
267.055	83.56
267.287	84.56
267.52	85.56
267.752	90.56
267.984	92.56
268.216	83.56
268.448	94.56
268.681	85.56
268.913	89.56
269.145	75.56
269.377	80.56
269.609	91.56
269.841	99.56
270.073	92.56
270.306	90.56
270.538	89.56
270.77	81.56
271.002	94.56
271.234	98.56
271.466	74.56
271.698	85.56
271.93	93.56
272.162	92.56
272.394	84.56
272.626	91.56
272.858	79.56
273.09	83.56
273.322	80.56
273.553	84.56
273.785	97.56
274.017	96.56
274.249	90.56
274.481	88.56
274.713	101.56
274.945	87.56
275.176	85.56
275.408	85.56
275.64	92.56
275.872	85.56
276.104	88.56
276.335	96.56
276.567	84.56
276.799	90.56
277.031	84.56
277.262	80.56
277.494	98.56
277.726	94.56
277.957	90.56
278.189	90.56
278.421	83.56
278.652	87.56
278.884	87.56
279.115	100.56
279.347	76.56
279.579	74.56
279.81	90.56
280.042	79.56
280.273	89.56
280.505	77.56
280.736	96.56
280.968	89.56
281.199	96.56
281.431	73.56
281.662	87.56
281.894	71.56
282.125	101.56
282.356	97.56
282.588	99.56
282.819	98.56
283.051	89.56
283.282	89.56
283.513	85.56
283.745	79.56
283.976	81.56
284.207	85.56
284.439	86.56
284.67	96.56
284.901	79.56
285.132	83.56
285.364	89.56
285.595	88.56
285.826	78.56
286.057	91.56
286.288	87.56
286.52	97.56
286.751	112.56
286.982	76.56
287.213	91.56
287.444	88.56
287.675	93.56
287.906	86.56
288.138	77.56
288.369	83.56
288.6	85.56
288.831	88.56
289.062	86.56
289.293	79.56
289.524	76.56
289.755	77.56
289.986	76.56
290.217	92.56
290.448	94.56
290.679	92.56
290.91	110.56
291.141	91.56
291.371	97.56
291.602	105.56
291.833	82.56
292.064	90.56
292.295	95.56
292.526	82.56
292.757	74.56
292.987	91.56
293.218	85.56
293.449	81.56
293.68	92.56
293.91	86.56
294.141	97.56
294.372	97.56
294.603	94.56
294.833	101.56
295.064	91.56
295.295	90.56
295.525	96.56
295.756	91.56
295.987	94.56
296.217	94.56
296.448	98.56
296.679	90.56
296.909	100.56
297.14	96.56
297.37	90.56
297.601	92.56
297.831	94.56
298.062	87.56
298.292	82.56
298.523	74.56
298.753	93.56
298.984	94.56
299.214	87.56
299.445	77.56
299.675	93.56
299.905	97.56
300.136	80.56
300.366	82.56
300.597	93.56
300.827	92.56
301.057	101.56
301.288	79.56
301.518	98.56
301.748	93.56
301.979	90.56
302.209	85.56
302.439	78.56
302.669	96.56
302.9	100.56
303.13	90.56
303.36	89.56
303.59	100.56
303.82	97.56
304.051	93.56
304.281	88.56
304.511	81.56
304.741	93.56
304.971	80.56
305.201	79.56
305.431	89.56
305.661	102.56
305.891	88.56
306.121	96.56
306.352	92.56
306.582	92.56
306.812	90.56
307.042	89.56
307.272	78.56
307.502	95.56
307.731	104.56
307.961	83.56
308.191	84.56
308.421	92.56
308.651	94.56
308.881	75.56
309.111	89.56
309.341	83.56
309.571	85.56
309.8	87.56
310.03	88.56
310.26	93.56
310.49	89.56
310.72	89.56
310.949	85.56
311.179	88.56
311.409	98.56
311.639	94.56
311.868	100.56
312.098	97.56
312.328	94.56
312.557	81.56
312.787	102.56
313.017	95.56
313.246	98.56
313.476	98.56
313.706	74.56
313.935	85.56
314.165	85.56
314.394	86.56
314.624	86.56
314.853	86.56
315.083	86.56
315.312	80.56
315.542	90.56
315.771	89.56
316.001	80.56
316.23	66.56
316.46	68.56
316.689	82.56
316.919	85.56
317.148	96.56
317.377	88.56
317.607	83.56
317.836	95.56
318.065	86.56
318.295	86.56
318.524	93.56
318.753	90.56
318.983	74.56
319.212	89.56
319.441	80.56
319.67	90.56
319.9	95.56
320.129	85.56
320.358	85.56
320.587	106.56
320.816	80.56
321.046	94.56
321.275	91.56
321.504	92.56
321.733	92.56
321.962	91.56
322.191	98.56
322.42	87.56
322.649	100.56
322.878	92.56
323.108	82.56
323.337	90.56
323.566	78.56
323.795	89.56
324.024	97.56
324.253	80.56
324.482	85.56
324.71	78.56
324.939	93.56
325.168	83.56
325.397	98.56
325.626	88.56
325.855	88.56
326.084	91.56
326.313	86.56
326.542	86.56
326.77	92.56
326.999	76.56
327.228	85.56
327.457	79.56
327.686	85.56
327.914	102.56
328.143	93.56
328.372	98.56
328.6	88.56
328.829	90.56
329.058	80.56
329.287	72.56
329.515	84.56
329.744	87.56
329.972	95.56
330.201	106.56
330.43	101.56
330.658	90.56
330.887	85.56
331.115	87.56
331.344	87.56
331.572	94.56
331.801	77.56
332.03	95.56
332.258	98.56
332.486	76.56
332.715	73.56
332.943	98.56
333.172	87.56
333.4	89.56
333.629	89.56
333.857	86.56
334.085	84.56
334.314	89.56
334.542	93.56
334.771	84.56
334.999	89.56
335.227	86.56
335.455	85.56
335.684	89.56
335.912	86.56
336.14	87.56
336.369	80.56
336.597	79.56
336.825	72.56
337.053	96.56
337.281	93.56
337.51	97.56
337.738	89.56
337.966	95.56
338.194	89.56
338.422	94.56
338.65	82.56
338.878	77.56
339.106	91.56
339.334	94.56
339.562	82.56
339.79	86.56
340.018	95.56
340.246	94.56
340.474	85.56
340.702	82.56
340.93	79.56
341.158	74.56
341.386	77.56
341.614	82.56
341.842	85.56
342.07	74.56
342.298	80.56
342.526	84.56
342.754	89.56
342.981	88.56
343.209	92.56
343.437	102.56
343.665	88.56
343.893	95.56
344.12	93.56
344.348	93.56
344.576	86.56
344.804	96.56
345.031	94.56
345.259	83.56
345.487	93.56
345.714	81.56
345.942	89.56
346.17	94.56
346.397	92.56
346.625	89.56
346.853	86.56
347.08	74.56
347.308	88.56
347.535	83.56
347.763	84.56
347.99	89.56
348.218	97.56
348.445	93.56
348.673	84.56
348.9	92.56
349.128	97.56
349.355	93.56
349.583	79.56
349.81	81.56
350.037	88.56
350.265	95.56
350.492	83.56
350.72	76.56
350.947	90.56
351.174	96.56
351.402	88.56
351.629	88.56
351.856	83.56
352.083	69.56
352.311	90.56
352.538	79.56
352.765	83.56
352.992	81.56
353.22	85.56
353.447	87.56
353.674	92.56
353.901	92.56
354.128	105.56
354.355	84.56
354.583	69.56
354.81	88.56
355.037	92.56
355.264	88.56
355.491	84.56
355.718	88.56
355.945	78.56
356.172	84.56
356.399	79.56
356.626	87.56
356.853	98.56
357.08	79.56
357.307	85.56
357.534	94.56
357.761	82.56
357.988	86.56
358.215	94.56
358.441	98.56
358.668	84.56
358.895	93.56
359.122	65.56
359.349	81.56
359.576	82.56
359.802	85.56
360.029	93.56
360.256	81.56
360.483	79.56
360.709	69.56
360.936	94.56
361.163	88.56
361.39	86.56
361.616	71.56
361.843	93.56
362.07	88.56
362.296	91.56
362.523	93.56
362.749	90.56
362.976	95.56
363.203	86.56
363.429	87.56
363.656	94.56
363.882	101.56
364.109	78.56
364.335	92.56
364.562	77.56
364.788	76.56
365.015	80.56
365.241	80.56
365.468	93.56
365.694	83.56
365.92	74.56
366.147	84.56
366.373	93.56
366.599	79.56
366.826	86.56
367.052	85.56
367.278	95.56
367.505	93.56
367.731	87.56
367.957	81.56
368.184	86.56
368.41	79.56
368.636	98.56
368.862	85.56
369.089	84.56
369.315	85.56
369.541	76.56
369.767	92.56
369.993	85.56
370.219	79.56
370.445	90.56
370.672	90.56
370.898	87.56
371.124	90.56
371.35	71.56
371.576	95.56
371.802	100.56
372.028	94.56
372.254	82.56
372.48	81.56
372.706	74.56
372.932	76.56
373.158	80.56
373.384	93.56
373.61	79.56
373.835	85.56
374.061	89.56
374.287	86.56
374.513	91.56
374.739	88.56
374.965	79.56
375.191	86.56
375.416	71.56
375.642	87.56
375.868	85.56
376.094	80.56
376.319	95.56
376.545	85.56
376.771	85.56
376.997	88.56
377.222	99.56
377.448	97.56
377.674	109.56
377.899	91.56
378.125	81.56
378.35	94.56
378.576	89.56
378.802	98.56
379.027	86.56
379.253	92.56
379.478	83.56
379.704	79.56
379.929	83.56
380.155	89.56
380.38	77.56
380.606	90.56
380.831	91.56
381.057	92.56
381.282	79.56
381.507	91.56
381.733	93.56
381.958	99.56
382.184	91.56
382.409	85.56
382.634	101.56
382.86	88.56
383.085	101.56
383.31	62.56
383.535	79.56
383.761	83.56
383.986	78.56
384.211	86.56
384.436	86.56
384.662	93.56
384.887	89.56
385.112	84.56
385.337	91.56
385.562	77.56
385.787	83.56
386.013	87.56
386.238	84.56
386.463	104.56
386.688	100.56
386.913	79.56
387.138	87.56
387.363	86.56
387.588	83.56
387.813	89.56
388.038	86.56
388.263	79.56
388.488	83.56
388.713	68.56
388.938	82.56
389.163	77.56
389.387	71.56
389.612	88.56
389.837	82.56
390.062	91.56
390.287	101.56
390.512	93.56
390.736	79.56
390.961	78.56
391.186	81.56
391.411	77.56
391.636	85.56
391.86	91.56
392.085	79.56
392.31	85.56
392.534	85.56
392.759	81.56
392.984	89.56
393.208	87.56
393.433	85.56
393.658	86.56
393.882	86.56
394.107	90.56
394.331	91.56
394.556	83.56
394.78	89.56
395.005	91.56
395.229	94.56
395.454	91.56
395.678	82.56
395.903	105.56
396.127	79.56
396.352	93.56
396.576	98.56
396.801	106.56
397.025	89.56
397.249	79.56
397.474	92.56
397.698	81.56
397.922	91.56
398.147	89.56
398.371	83.56
398.595	99.56
398.82	84.56
399.044	93.56
399.268	77.56
399.492	82.56
399.717	88.56
399.941	96.56
400.165	86.56
400.389	82.56
400.613	85.56
400.837	77.56
401.062	91.56
401.286	82.56
401.51	80.56
401.734	85.56
401.958	85.56
402.182	85.56
402.406	82.56
402.63	92.56
402.854	82.56
403.078	81.56
403.302	87.56
403.526	68.56
403.75	82.56
403.974	83.56
404.198	85.56
404.422	86.56
404.645	75.56
404.869	62.56
405.093	75.56
405.317	97.56
405.541	94.56
405.765	83.56
405.988	65.56
406.212	87.56
406.436	84.56
406.66	79.56
406.883	86.56
407.107	99.56
407.331	91.56
407.555	85.56
407.778	61.56
408.002	91.56
408.226	83.56
408.449	92.56
408.673	81.56
408.896	78.56
409.12	87.56
409.344	77.56
409.567	88.56
409.791	79.56
410.014	88.56
410.238	96.56
410.461	86.56
410.685	91.56
410.908	85.56
411.132	77.56
411.355	74.56
411.578	93.56
411.802	73.56
412.025	82.56
412.249	95.56
412.472	95.56
412.695	81.56
412.919	75.56
413.142	84.56
413.365	78.56
413.589	100.56
413.812	83.56
414.035	79.56
414.258	92.56
414.482	86.56
414.705	73.56
414.928	91.56
415.151	95.56
415.374	86.56
415.597	75.56
415.821	69.56
416.044	92.56
416.267	89.56
416.49	90.56
416.713	94.56
416.936	84.56
417.159	84.56
417.382	84.56
417.605	86.56
417.828	82.56
418.051	83.56
418.274	85.56
418.497	74.56
418.72	90.56
418.943	82.56
419.166	71.56
419.389	72.56
419.611	87.56
419.834	76.56
420.057	81.56
420.28	92.56
420.503	83.56
420.726	77.56
420.948	73.56
421.171	81.56
421.394	82.56
421.617	92.56
421.839	79.56
422.062	84.56
422.285	84.56
422.507	77.56
422.73	80.56
422.953	78.56
423.175	90.56
423.398	73.56
423.621	74.56
423.843	85.56
424.066	82.56
424.288	94.56
424.511	85.56
424.733	85.56
424.956	81.56
425.178	50.56
425.401	76.56
425.623	79.56
425.846	82.56
426.068	79.56
426.291	75.56
426.513	91.56
426.735	100.56
426.958	83.56
427.18	77.56
427.402	84.56
427.625	84.56
427.847	85.56
428.069	73.56
428.292	82.56
428.514	97.56
428.736	90.56
428.958	82.56
429.181	84.56
429.403	95.56
429.625	81.56
429.847	83.56
430.069	82.56
430.292	89.56
430.514	77.56
430.736	79.56
430.958	82.56
431.18	92.56
431.402	99.56
431.624	94.56
431.846	79.56
432.068	90.56
432.29	70.56
432.512	82.56
432.734	83.56
432.956	79.56
433.178	79.56
433.4	85.56
433.622	81.56
433.844	84.56
434.066	91.56
434.287	87.56
434.509	83.56
434.731	82.56
434.953	81.56
435.175	81.56
435.397	78.56
435.618	68.56
435.84	75.56
436.062	76.56
436.284	80.56
436.505	78.56
436.727	91.56
436.949	75.56
437.17	90.56
437.392	97.56
437.614	65.56
437.835	81.56
438.057	87.56
438.278	101.56
438.5	74.56
438.721	87.56
438.943	92.56
439.165	81.56
439.386	86.56
439.608	87.56
439.829	85.56
440.05	80.56
440.272	80.56
440.493	80.56
440.715	96.56
440.936	82.56
441.158	85.56
441.379	86.56
441.6	77.56
441.822	82.56
442.043	86.56
442.264	77.56
442.486	75.56
442.707	76.56
442.928	93.56
443.149	74.56
443.371	79.56
443.592	78.56
443.813	94.56
444.034	91.56
444.255	87.56
444.476	81.56
444.698	90.56
444.919	72.56
445.14	154.56
445.361	129.56
445.582	85.56
445.803	79.56
446.024	85.56
446.245	88.56
446.466	77.56
446.687	86.56
446.908	86.56
447.129	96.56
447.35	84.56
447.571	71.56
447.792	91.56
448.013	89.56
448.234	76.56
448.455	86.56
448.675	84.56
448.896	82.56
449.117	75.56
449.338	80.56
449.559	83.56
449.779	86.56
450	82.56
450.221	89.56
450.442	85.56
450.662	88.56
450.883	73.56
451.104	85.56
451.324	82.56
451.545	68.56
451.766	84.56
451.986	83.56
452.207	91.56
452.428	87.56
452.648	79.56
452.869	90.56
453.089	80.56
453.31	91.56
453.53	111.56
453.751	77.56
453.971	80.56
454.192	81.56
454.412	86.56
454.633	91.56
454.853	92.56
455.073	76.56
455.294	89.56
455.514	90.56
455.734	84.56
455.955	89.56
456.175	86.56
456.395	93.56
456.616	98.56
456.836	75.56
457.056	79.56
457.276	82.56
457.497	90.56
457.717	92.56
457.937	81.56
458.157	93.56
458.377	77.56
458.598	87.56
458.818	87.56
459.038	92.56
459.258	83.56
459.478	79.56
459.698	75.56
459.918	89.56
460.138	85.56
460.358	81.56
460.578	86.56
460.798	80.56
461.018	95.56
461.238	97.56
461.458	78.56
461.678	84.56
461.898	77.56
462.118	82.56
462.338	71.56
462.558	72.56
462.777	77.56
462.997	94.56
463.217	86.56
463.437	83.56
463.657	73.56
463.876	80.56
464.096	95.56
464.316	94.56
464.536	86.56
464.755	84.56
464.975	83.56
465.195	80.56
465.414	104.56
465.634	91.56
465.854	79.56
466.073	84.56
466.293	85.56
466.512	83.56
466.732	96.56
466.951	84.56
467.171	90.56
467.391	80.56
467.61	84.56
467.829	81.56
468.049	75.56
468.268	106.56
468.488	85.56
468.707	69.56
468.927	78.56
469.146	76.56
469.365	91.56
469.585	77.56
469.804	75.56
470.023	75.56
470.243	84.56
470.462	75.56
470.681	83.56
470.901	85.56
471.12	75.56
471.339	86.56
471.558	83.56
471.777	95.56
471.997	90.56
472.216	78.56
472.435	96.56
472.654	94.56
472.873	93.56
473.092	81.56
473.311	93.56
473.53	94.56
473.749	95.56
473.968	92.56
474.187	75.56
474.406	81.56
474.625	76.56
474.844	91.56
475.063	78.56
475.282	85.56
475.501	85.56
475.72	77.56
475.939	87.56
476.158	84.56
476.377	74.56
476.596	76.56
476.814	89.56
477.033	98.56
477.252	84.56
477.471	84.56
477.69	91.56
477.908	81.56
478.127	81.56
478.346	79.56
478.564	85.56
478.783	75.56
479.002	90.56
479.22	96.56
479.439	100.56
479.658	96.56
479.876	80.56
480.095	83.56
480.313	94.56
480.532	89.56
480.751	92.56
480.969	81.56
481.188	81.56
481.406	97.56
481.624	81.56
481.843	79.56
482.061	86.56
482.28	89.56
482.498	78.56
482.717	91.56
482.935	92.56
483.153	99.56
483.372	91.56
483.59	84.56
483.808	67.56
484.027	81.56
484.245	80.56
484.463	95.56
484.681	100.56
484.9	77.56
485.118	88.56
485.336	94.56
485.554	84.56
485.772	91.56
485.99	89.56
486.209	82.56
486.427	72.56
486.645	81.56
486.863	79.56
487.081	85.56
487.299	77.56
487.517	88.56
487.735	91.56
487.953	90.56
488.171	91.56
488.389	91.56
488.607	95.56
488.825	83.56
489.043	81.56
489.261	84.56
489.479	69.56
489.696	86.56
489.914	86.56
490.132	80.56
490.35	78.56
490.568	82.56
490.786	91.56
491.003	100.56
491.221	103.56
491.439	71.56
491.657	79.56
491.874	92.56
492.092	81.56
492.31	83.56
492.527	89.56
492.745	73.56
492.963	81.56
493.18	93.56
493.398	80.56
493.615	72.56
493.833	90.56
494.05	78.56
494.268	81.56
494.485	82.56
494.703	87.56
494.92	72.56
495.138	77.56
495.355	86.56
495.573	82.56
495.79	78.56
496.008	100.56
496.225	84.56
496.442	87.56
496.66	77.56
496.877	77.56
497.094	82.56
497.312	81.56
497.529	86.56
497.746	75.56
497.963	90.56
498.181	100.56
498.398	93.56
498.615	84.56
498.832	82.56
499.049	81.56
499.267	91.56
499.484	90.56
499.701	88.56
499.918	87.56
500.135	58.56
500.352	81.56
500.569	86.56
500.786	82.56
501.003	89.56
501.22	80.56
501.437	83.56
501.654	76.56
501.871	87.56
502.088	69.56
502.305	82.56
502.522	90.56
502.739	94.56
502.956	93.56
503.172	93.56
503.389	89.56
503.606	91.56
503.823	100.56
504.04	85.56
504.256	89.56
504.473	79.56
504.69	87.56
504.907	102.56
505.123	91.56
505.34	86.56
505.557	106.56
505.773	94.56
505.99	84.56
506.207	74.56
506.423	81.56
506.64	90.56
506.856	90.56
507.073	96.56
507.289	91.56
507.506	88.56
507.722	83.56
507.939	94.56
508.155	99.56
508.372	98.56
508.588	80.56
508.805	90.56
509.021	86.56
509.238	79.56
509.454	86.56
509.67	85.56
509.887	101.56
510.103	91.56
510.319	85.56
510.536	75.56
510.752	93.56
510.968	86.56
511.184	75.56
511.401	92.56
511.617	92.56
511.833	83.56
512.049	101.56
512.265	73.56
512.481	81.56
512.698	93.56
512.914	93.56
513.13	91.56
513.346	93.56
513.562	85.56
513.778	82.56
513.994	75.56
514.21	114.56
514.426	85.56
514.642	86.56
514.858	65.56
515.074	91.56
515.29	99.56
515.506	82.56
515.721	82.56
515.937	93.56
516.153	94.56
516.369	86.56
516.585	80.56
516.801	82.56
517.016	98.56
517.232	91.56
517.448	89.56
517.664	96.56
517.879	103.56
518.095	95.56
518.311	93.56
518.527	85.56
518.742	74.56
518.958	87.56
519.173	77.56
519.389	69.56
519.605	95.56
