Data from BG_HRD10591_028.txt Node
Date: Fri May 16 15:27:01 EDT 2025
User: Yrep
Spectrometer: HR+D1059
Trigger mode: 1
Integration Time (sec): 1.000000E-1
Scans to average: 1
Electric dark correction enabled: true
Nonlinearity correction enabled: false
Boxcar width: 0
XAxis mode: Wavelengths
Number of Pixels in Spectrum: 2048
>>>>>Begin Spectral Data<<<<<
223.165	-12.44
223.4	-12.44
223.635	-12.44
223.869	-19.44
224.104	-34.44
224.338	-6.44
224.573	-22.44
224.808	6.56
225.042	-7.44
225.277	-8.44
225.511	-8.44
225.746	8.56
225.98	1.56
226.215	22.56
226.449	30.56
226.683	4.56
226.918	22.56
227.152	22.56
227.387	32.56
227.621	50.56
227.856	45.56
228.09	40.56
228.324	55.56
228.559	57.56
228.793	61.56
229.027	67.56
229.262	54.56
229.496	80.56
229.73	71.56
229.964	71.56
230.199	61.56
230.433	75.56
230.667	79.56
230.901	87.56
231.136	77.56
231.37	76.56
231.604	78.56
231.838	75.56
232.072	77.56
232.306	90.56
232.541	80.56
232.775	77.56
233.009	75.56
233.243	91.56
233.477	65.56
233.711	89.56
233.945	73.56
234.179	91.56
234.413	68.56
234.647	77.56
234.881	79.56
235.115	63.56
235.349	72.56
235.583	73.56
235.817	88.56
236.051	73.56
236.285	82.56
236.519	95.56
236.753	73.56
236.987	84.56
237.221	73.56
237.455	73.56
237.689	73.56
237.922	74.56
238.156	66.56
238.39	87.56
238.624	95.56
238.858	63.56
239.091	72.56
239.325	71.56
239.559	62.56
239.793	80.56
240.027	83.56
240.26	79.56
240.494	77.56
240.728	81.56
240.961	72.56
241.195	73.56
241.429	72.56
241.662	89.56
241.896	79.56
242.13	74.56
242.363	74.56
242.597	77.56
242.83	78.56
243.064	63.56
243.298	80.56
243.531	72.56
243.765	84.56
243.998	59.56
244.232	75.56
244.465	78.56
244.699	84.56
244.932	63.56
245.166	80.56
245.399	83.56
245.633	71.56
245.866	95.56
246.099	68.56
246.333	77.56
246.566	83.56
246.8	73.56
247.033	66.56
247.266	71.56
247.5	86.56
247.733	77.56
247.966	77.56
248.2	76.56
248.433	71.56
248.666	76.56
248.899	78.56
249.133	80.56
249.366	85.56
249.599	80.56
249.832	86.56
250.066	71.56
250.299	76.56
250.532	64.56
250.765	70.56
250.998	95.56
251.231	66.56
251.465	79.56
251.698	75.56
251.931	76.56
252.164	80.56
252.397	82.56
252.63	79.56
252.863	69.56
253.096	83.56
253.329	85.56
253.562	83.56
253.795	75.56
254.028	85.56
254.261	88.56
254.494	78.56
254.727	84.56
254.96	83.56
255.193	85.56
255.426	87.56
255.659	71.56
255.892	79.56
256.124	85.56
256.357	83.56
256.59	76.56
256.823	91.56
257.056	94.56
257.289	92.56
257.521	74.56
257.754	73.56
257.987	86.56
258.22	92.56
258.452	84.56
258.685	62.56
258.918	69.56
259.151	100.56
259.383	76.56
259.616	74.56
259.849	68.56
260.081	82.56
260.314	87.56
260.547	70.56
260.779	81.56
261.012	74.56
261.244	77.56
261.477	77.56
261.71	90.56
261.942	83.56
262.175	77.56
262.407	93.56
262.64	81.56
262.872	87.56
263.105	77.56
263.337	80.56
263.57	88.56
263.802	84.56
264.035	78.56
264.267	87.56
264.499	80.56
264.732	69.56
264.964	87.56
265.197	92.56
265.429	89.56
265.661	92.56
265.894	87.56
266.126	71.56
266.358	84.56
266.591	86.56
266.823	76.56
267.055	97.56
267.287	97.56
267.52	78.56
267.752	87.56
267.984	90.56
268.216	69.56
268.448	85.56
268.681	77.56
268.913	79.56
269.145	87.56
269.377	89.56
269.609	85.56
269.841	107.56
270.073	81.56
270.306	101.56
270.538	85.56
270.77	72.56
271.002	77.56
271.234	88.56
271.466	93.56
271.698	77.56
271.93	83.56
272.162	78.56
272.394	87.56
272.626	86.56
272.858	78.56
273.09	90.56
273.322	90.56
273.553	85.56
273.785	81.56
274.017	78.56
274.249	81.56
274.481	82.56
274.713	85.56
274.945	92.56
275.176	69.56
275.408	92.56
275.64	103.56
275.872	78.56
276.104	85.56
276.335	78.56
276.567	91.56
276.799	81.56
277.031	75.56
277.262	85.56
277.494	92.56
277.726	83.56
277.957	89.56
278.189	65.56
278.421	96.56
278.652	71.56
278.884	87.56
279.115	90.56
279.347	97.56
279.579	84.56
279.81	91.56
280.042	77.56
280.273	94.56
280.505	78.56
280.736	85.56
280.968	93.56
281.199	101.56
281.431	103.56
281.662	85.56
281.894	83.56
282.125	90.56
282.356	87.56
282.588	77.56
282.819	80.56
283.051	95.56
283.282	83.56
283.513	86.56
283.745	96.56
283.976	94.56
284.207	86.56
284.439	85.56
284.67	99.56
284.901	93.56
285.132	97.56
285.364	79.56
285.595	76.56
285.826	87.56
286.057	88.56
286.288	91.56
286.52	87.56
286.751	80.56
286.982	81.56
287.213	85.56
287.444	102.56
287.675	83.56
287.906	91.56
288.138	97.56
288.369	86.56
288.6	95.56
288.831	91.56
289.062	89.56
289.293	92.56
289.524	87.56
289.755	86.56
289.986	79.56
290.217	97.56
290.448	83.56
290.679	104.56
290.91	87.56
291.141	68.56
291.371	94.56
291.602	85.56
291.833	87.56
292.064	82.56
292.295	73.56
292.526	73.56
292.757	75.56
292.987	69.56
293.218	87.56
293.449	86.56
293.68	96.56
293.91	87.56
294.141	84.56
294.372	91.56
294.603	87.56
294.833	82.56
295.064	90.56
295.295	89.56
295.525	83.56
295.756	89.56
295.987	94.56
296.217	90.56
296.448	96.56
296.679	91.56
296.909	80.56
297.14	74.56
297.37	92.56
297.601	90.56
297.831	88.56
298.062	101.56
298.292	84.56
298.523	103.56
298.753	108.56
298.984	92.56
299.214	86.56
299.445	77.56
299.675	94.56
299.905	85.56
300.136	88.56
300.366	87.56
300.597	78.56
300.827	87.56
301.057	96.56
301.288	86.56
301.518	83.56
301.748	77.56
301.979	106.56
302.209	85.56
302.439	93.56
302.669	97.56
302.9	85.56
303.13	83.56
303.36	104.56
303.59	79.56
303.82	76.56
304.051	103.56
304.281	76.56
304.511	101.56
304.741	102.56
304.971	81.56
305.201	88.56
305.431	77.56
305.661	77.56
305.891	82.56
306.121	79.56
306.352	83.56
306.582	86.56
306.812	97.56
307.042	92.56
307.272	84.56
307.502	95.56
307.731	79.56
307.961	97.56
308.191	77.56
308.421	85.56
308.651	85.56
308.881	80.56
309.111	106.56
309.341	79.56
309.571	87.56
309.8	81.56
310.03	82.56
310.26	85.56
310.49	100.56
310.72	76.56
310.949	95.56
311.179	94.56
311.409	80.56
311.639	94.56
311.868	81.56
312.098	76.56
312.328	79.56
312.557	78.56
312.787	86.56
313.017	93.56
313.246	94.56
313.476	81.56
313.706	88.56
313.935	91.56
314.165	80.56
314.394	95.56
314.624	86.56
314.853	84.56
315.083	83.56
315.312	80.56
315.542	85.56
315.771	92.56
316.001	82.56
316.23	74.56
316.46	90.56
316.689	88.56
316.919	101.56
317.148	86.56
317.377	85.56
317.607	76.56
317.836	97.56
318.065	73.56
318.295	92.56
318.524	83.56
318.753	90.56
318.983	88.56
319.212	99.56
319.441	86.56
319.67	71.56
319.9	82.56
320.129	75.56
320.358	88.56
320.587	94.56
320.816	85.56
321.046	93.56
321.275	80.56
321.504	94.56
321.733	81.56
321.962	94.56
322.191	90.56
322.42	92.56
322.649	86.56
322.878	97.56
323.108	98.56
323.337	103.56
323.566	98.56
323.795	88.56
324.024	105.56
324.253	92.56
324.482	91.56
324.71	93.56
324.939	92.56
325.168	96.56
325.397	88.56
325.626	87.56
325.855	86.56
326.084	95.56
326.313	91.56
326.542	93.56
326.77	85.56
326.999	94.56
327.228	101.56
327.457	87.56
327.686	65.56
327.914	87.56
328.143	93.56
328.372	97.56
328.6	90.56
328.829	87.56
329.058	90.56
329.287	94.56
329.515	89.56
329.744	96.56
329.972	77.56
330.201	92.56
330.43	83.56
330.658	85.56
330.887	97.56
331.115	79.56
331.344	92.56
331.572	95.56
331.801	77.56
332.03	92.56
332.258	93.56
332.486	84.56
332.715	96.56
332.943	97.56
333.172	99.56
333.4	87.56
333.629	93.56
333.857	85.56
334.085	75.56
334.314	82.56
334.542	97.56
334.771	93.56
334.999	93.56
335.227	89.56
335.455	86.56
335.684	95.56
335.912	79.56
336.14	84.56
336.369	85.56
336.597	79.56
336.825	83.56
337.053	79.56
337.281	88.56
337.51	91.56
337.738	94.56
337.966	93.56
338.194	72.56
338.422	83.56
338.65	85.56
338.878	105.56
339.106	81.56
339.334	103.56
339.562	93.56
339.79	97.56
340.018	88.56
340.246	90.56
340.474	79.56
340.702	99.56
340.93	89.56
341.158	93.56
341.386	91.56
341.614	88.56
341.842	91.56
342.07	89.56
342.298	100.56
342.526	84.56
342.754	94.56
342.981	82.56
343.209	86.56
343.437	103.56
343.665	81.56
343.893	68.56
344.12	89.56
344.348	96.56
344.576	93.56
344.804	85.56
345.031	84.56
345.259	103.56
345.487	99.56
345.714	68.56
345.942	89.56
346.17	88.56
346.397	71.56
346.625	69.56
346.853	77.56
347.08	79.56
347.308	100.56
347.535	89.56
347.763	92.56
347.99	91.56
348.218	86.56
348.445	86.56
348.673	83.56
348.9	88.56
349.128	91.56
349.355	81.56
349.583	91.56
349.81	76.56
350.037	84.56
350.265	87.56
350.492	71.56
350.72	81.56
350.947	80.56
351.174	95.56
351.402	87.56
351.629	84.56
351.856	76.56
352.083	89.56
352.311	88.56
352.538	76.56
352.765	82.56
352.992	88.56
353.22	71.56
353.447	86.56
353.674	99.56
353.901	94.56
354.128	69.56
354.355	81.56
354.583	88.56
354.81	83.56
355.037	82.56
355.264	86.56
355.491	100.56
355.718	79.56
355.945	78.56
356.172	92.56
356.399	87.56
356.626	82.56
356.853	92.56
357.08	88.56
357.307	104.56
357.534	78.56
357.761	91.56
357.988	83.56
358.215	89.56
358.441	85.56
358.668	93.56
358.895	75.56
359.122	78.56
359.349	84.56
359.576	87.56
359.802	94.56
360.029	96.56
360.256	97.56
360.483	95.56
360.709	74.56
360.936	80.56
361.163	102.56
361.39	101.56
361.616	94.56
361.843	101.56
362.07	94.56
362.296	84.56
362.523	86.56
362.749	90.56
362.976	87.56
363.203	90.56
363.429	83.56
363.656	86.56
363.882	73.56
364.109	75.56
364.335	67.56
364.562	85.56
364.788	94.56
365.015	84.56
365.241	85.56
365.468	100.56
365.694	101.56
365.92	96.56
366.147	90.56
366.373	94.56
366.599	92.56
366.826	83.56
367.052	95.56
367.278	92.56
367.505	89.56
367.731	87.56
367.957	81.56
368.184	93.56
368.41	100.56
368.636	82.56
368.862	85.56
369.089	91.56
369.315	88.56
369.541	81.56
369.767	95.56
369.993	84.56
370.219	83.56
370.445	86.56
370.672	86.56
370.898	88.56
371.124	63.56
371.35	101.56
371.576	99.56
371.802	85.56
372.028	85.56
372.254	89.56
372.48	82.56
372.706	90.56
372.932	74.56
373.158	74.56
373.384	93.56
373.61	84.56
373.835	69.56
374.061	99.56
374.287	88.56
374.513	81.56
374.739	77.56
374.965	87.56
375.191	99.56
375.416	94.56
375.642	97.56
375.868	87.56
376.094	83.56
376.319	95.56
376.545	71.56
376.771	66.56
376.997	81.56
377.222	77.56
377.448	97.56
377.674	88.56
377.899	95.56
378.125	71.56
378.35	94.56
378.576	93.56
378.802	83.56
379.027	72.56
379.253	84.56
379.478	91.56
379.704	77.56
379.929	63.56
380.155	85.56
380.38	85.56
380.606	91.56
380.831	91.56
381.057	89.56
381.282	91.56
381.507	85.56
381.733	71.56
381.958	74.56
382.184	84.56
382.409	107.56
382.634	99.56
382.86	95.56
383.085	94.56
383.31	89.56
383.535	92.56
383.761	93.56
383.986	76.56
384.211	70.56
384.436	87.56
384.662	72.56
384.887	76.56
385.112	89.56
385.337	84.56
385.562	80.56
385.787	85.56
386.013	107.56
386.238	80.56
386.463	91.56
386.688	91.56
386.913	81.56
387.138	84.56
387.363	83.56
387.588	78.56
387.813	93.56
388.038	83.56
388.263	87.56
388.488	97.56
388.713	64.56
388.938	84.56
389.163	77.56
389.387	92.56
389.612	79.56
389.837	91.56
390.062	94.56
390.287	98.56
390.512	79.56
390.736	71.56
390.961	79.56
391.186	84.56
391.411	91.56
391.636	92.56
391.86	104.56
392.085	93.56
392.31	80.56
392.534	73.56
392.759	85.56
392.984	82.56
393.208	94.56
393.433	91.56
393.658	72.56
393.882	95.56
394.107	91.56
394.331	83.56
394.556	84.56
394.78	83.56
395.005	82.56
395.229	82.56
395.454	90.56
395.678	85.56
395.903	86.56
396.127	93.56
396.352	96.56
396.576	90.56
396.801	85.56
397.025	77.56
397.249	86.56
397.474	101.56
397.698	86.56
397.922	86.56
398.147	80.56
398.371	100.56
398.595	87.56
398.82	80.56
399.044	95.56
399.268	103.56
399.492	94.56
399.717	85.56
399.941	92.56
400.165	95.56
400.389	102.56
400.613	88.56
400.837	83.56
401.062	86.56
401.286	78.56
401.51	93.56
401.734	91.56
401.958	81.56
402.182	85.56
402.406	85.56
402.63	86.56
402.854	97.56
403.078	91.56
403.302	96.56
403.526	90.56
403.75	87.56
403.974	80.56
404.198	89.56
404.422	97.56
404.645	110.56
404.869	86.56
405.093	91.56
405.317	95.56
405.541	97.56
405.765	103.56
405.988	87.56
406.212	84.56
406.436	85.56
406.66	88.56
406.883	93.56
407.107	96.56
407.331	83.56
407.555	87.56
407.778	92.56
408.002	103.56
408.226	85.56
408.449	89.56
408.673	103.56
408.896	103.56
409.12	90.56
409.344	96.56
409.567	86.56
409.791	91.56
410.014	107.56
410.238	91.56
410.461	87.56
410.685	89.56
410.908	88.56
411.132	95.56
411.355	92.56
411.578	72.56
411.802	82.56
412.025	91.56
412.249	94.56
412.472	91.56
412.695	80.56
412.919	86.56
413.142	83.56
413.365	90.56
413.589	89.56
413.812	70.56
414.035	85.56
414.258	89.56
414.482	86.56
414.705	87.56
414.928	88.56
415.151	79.56
415.374	92.56
415.597	87.56
415.821	79.56
416.044	70.56
416.267	104.56
416.49	96.56
416.713	91.56
416.936	95.56
417.159	93.56
417.382	77.56
417.605	93.56
417.828	112.56
418.051	87.56
418.274	85.56
418.497	72.56
418.72	78.56
418.943	94.56
419.166	106.56
419.389	90.56
419.611	80.56
419.834	90.56
420.057	83.56
420.28	78.56
420.503	82.56
420.726	91.56
420.948	71.56
421.171	85.56
421.394	91.56
421.617	91.56
421.839	89.56
422.062	91.56
422.285	83.56
422.507	89.56
422.73	87.56
422.953	92.56
423.175	89.56
423.398	94.56
423.621	91.56
423.843	91.56
424.066	94.56
424.288	105.56
424.511	77.56
424.733	92.56
424.956	96.56
425.178	101.56
425.401	103.56
425.623	111.56
425.846	63.56
426.068	87.56
426.291	84.56
426.513	86.56
426.735	87.56
426.958	89.56
427.18	87.56
427.402	89.56
427.625	84.56
427.847	78.56
428.069	107.56
428.292	99.56
428.514	101.56
428.736	84.56
428.958	90.56
429.181	88.56
429.403	87.56
429.625	93.56
429.847	76.56
430.069	93.56
430.292	76.56
430.514	76.56
430.736	85.56
430.958	99.56
431.18	83.56
431.402	91.56
431.624	93.56
431.846	78.56
432.068	91.56
432.29	85.56
432.512	83.56
432.734	83.56
432.956	76.56
433.178	81.56
433.4	83.56
433.622	93.56
433.844	82.56
434.066	83.56
434.287	76.56
434.509	68.56
434.731	85.56
434.953	88.56
435.175	90.56
435.397	73.56
435.618	83.56
435.84	82.56
436.062	94.56
436.284	90.56
436.505	84.56
436.727	92.56
436.949	74.56
437.17	76.56
437.392	96.56
437.614	73.56
437.835	77.56
438.057	75.56
438.278	84.56
438.5	85.56
438.721	87.56
438.943	84.56
439.165	92.56
439.386	79.56
439.608	83.56
439.829	87.56
440.05	87.56
440.272	88.56
440.493	80.56
440.715	91.56
440.936	97.56
441.158	100.56
441.379	83.56
441.6	79.56
441.822	86.56
442.043	85.56
442.264	85.56
442.486	81.56
442.707	94.56
442.928	87.56
443.149	101.56
443.371	83.56
443.592	89.56
443.813	99.56
444.034	87.56
444.255	92.56
444.476	88.56
444.698	74.56
444.919	94.56
445.14	144.56
445.361	113.56
445.582	101.56
445.803	80.56
446.024	86.56
446.245	84.56
446.466	93.56
446.687	87.56
446.908	77.56
447.129	89.56
447.35	81.56
447.571	88.56
447.792	80.56
448.013	79.56
448.234	96.56
448.455	79.56
448.675	77.56
448.896	88.56
449.117	84.56
449.338	71.56
449.559	105.56
449.779	84.56
450	87.56
450.221	94.56
450.442	83.56
450.662	96.56
450.883	84.56
451.104	87.56
451.324	79.56
451.545	81.56
451.766	79.56
451.986	85.56
452.207	101.56
452.428	88.56
452.648	80.56
452.869	87.56
453.089	85.56
453.31	77.56
453.53	85.56
453.751	95.56
453.971	79.56
454.192	82.56
454.412	81.56
454.633	92.56
454.853	81.56
455.073	85.56
455.294	80.56
455.514	91.56
455.734	79.56
455.955	71.56
456.175	83.56
456.395	95.56
456.616	96.56
456.836	85.56
457.056	89.56
457.276	88.56
457.497	87.56
457.717	86.56
457.937	86.56
458.157	85.56
458.377	89.56
458.598	90.56
458.818	73.56
459.038	83.56
459.258	93.56
459.478	86.56
459.698	82.56
459.918	90.56
460.138	80.56
460.358	101.56
460.578	88.56
460.798	85.56
461.018	87.56
461.238	93.56
461.458	93.56
461.678	99.56
461.898	94.56
462.118	99.56
462.338	94.56
462.558	96.56
462.777	104.56
462.997	101.56
463.217	102.56
463.437	99.56
463.657	83.56
463.876	83.56
464.096	83.56
464.316	85.56
464.536	83.56
464.755	94.56
464.975	100.56
465.195	87.56
465.414	79.56
465.634	72.56
465.854	88.56
466.073	78.56
466.293	76.56
466.512	82.56
466.732	91.56
466.951	82.56
467.171	85.56
467.391	89.56
467.61	87.56
467.829	86.56
468.049	81.56
468.268	78.56
468.488	80.56
468.707	84.56
468.927	94.56
469.146	83.56
469.365	71.56
469.585	81.56
469.804	86.56
470.023	85.56
470.243	84.56
470.462	90.56
470.681	105.56
470.901	80.56
471.12	96.56
471.339	100.56
471.558	95.56
471.777	79.56
471.997	79.56
472.216	82.56
472.435	89.56
472.654	89.56
472.873	92.56
473.092	83.56
473.311	85.56
473.53	76.56
473.749	83.56
473.968	82.56
474.187	91.56
474.406	89.56
474.625	87.56
474.844	96.56
475.063	81.56
475.282	77.56
475.501	95.56
475.72	80.56
475.939	79.56
476.158	83.56
476.377	78.56
476.596	73.56
476.814	80.56
477.033	90.56
477.252	101.56
477.471	87.56
477.69	88.56
477.908	88.56
478.127	88.56
478.346	82.56
478.564	91.56
478.783	80.56
479.002	85.56
479.22	81.56
479.439	89.56
479.658	83.56
479.876	92.56
480.095	78.56
480.313	92.56
480.532	79.56
480.751	90.56
480.969	91.56
481.188	96.56
481.406	91.56
481.624	95.56
481.843	81.56
482.061	88.56
482.28	92.56
482.498	77.56
482.717	88.56
482.935	98.56
483.153	89.56
483.372	87.56
483.59	80.56
483.808	84.56
484.027	99.56
484.245	81.56
484.463	99.56
484.681	79.56
484.9	81.56
485.118	89.56
485.336	77.56
485.554	83.56
485.772	83.56
485.99	94.56
486.209	105.56
486.427	90.56
486.645	86.56
486.863	92.56
487.081	96.56
487.299	92.56
487.517	91.56
487.735	88.56
487.953	104.56
488.171	87.56
488.389	86.56
488.607	100.56
488.825	83.56
489.043	92.56
489.261	102.56
489.479	75.56
489.696	92.56
489.914	71.56
490.132	92.56
490.35	87.56
490.568	90.56
490.786	99.56
491.003	84.56
491.221	88.56
491.439	76.56
491.657	79.56
491.874	85.56
492.092	83.56
492.31	88.56
492.527	104.56
492.745	83.56
492.963	79.56
493.18	69.56
493.398	89.56
493.615	94.56
493.833	88.56
494.05	87.56
494.268	103.56
494.485	84.56
494.703	85.56
494.92	96.56
495.138	79.56
495.355	103.56
495.573	84.56
495.79	90.56
496.008	93.56
496.225	88.56
496.442	75.56
496.66	91.56
496.877	64.56
497.094	79.56
497.312	71.56
497.529	80.56
497.746	83.56
497.963	93.56
498.181	85.56
498.398	103.56
498.615	94.56
498.832	91.56
499.049	90.56
499.267	91.56
499.484	86.56
499.701	99.56
499.918	101.56
500.135	109.56
500.352	101.56
500.569	104.56
500.786	95.56
501.003	109.56
501.22	107.56
501.437	102.56
501.654	95.56
501.871	107.56
502.088	101.56
502.305	94.56
502.522	95.56
502.739	103.56
502.956	81.56
503.172	92.56
503.389	90.56
503.606	76.56
503.823	101.56
504.04	87.56
504.256	87.56
504.473	92.56
504.69	79.56
504.907	93.56
505.123	78.56
505.34	85.56
505.557	86.56
505.773	92.56
505.99	80.56
506.207	93.56
506.423	79.56
506.64	88.56
506.856	91.56
507.073	100.56
507.289	92.56
507.506	87.56
507.722	93.56
507.939	88.56
508.155	99.56
508.372	83.56
508.588	102.56
508.805	83.56
509.021	73.56
509.238	80.56
509.454	89.56
509.67	91.56
509.887	85.56
510.103	96.56
510.319	86.56
510.536	99.56
510.752	88.56
510.968	94.56
511.184	86.56
511.401	90.56
511.617	97.56
511.833	81.56
512.049	98.56
512.265	87.56
512.481	71.56
512.698	88.56
512.914	87.56
513.13	81.56
513.346	105.56
513.562	93.56
513.778	79.56
513.994	106.56
514.21	88.56
514.426	81.56
514.642	93.56
514.858	76.56
515.074	77.56
515.29	86.56
515.506	88.56
515.721	88.56
515.937	89.56
516.153	90.56
516.369	92.56
516.585	89.56
516.801	106.56
517.016	88.56
517.232	95.56
517.448	70.56
517.664	79.56
517.879	91.56
518.095	88.56
518.311	79.56
518.527	94.56
518.742	92.56
518.958	91.56
