Data from BG_HRD10591_069.txt Node
Date: Fri May 16 15:27:21 EDT 2025
User: Yrep
Spectrometer: HR+D1059
Trigger mode: 1
Integration Time (sec): 1.000000E-1
Scans to average: 1
Electric dark correction enabled: true
Nonlinearity correction enabled: false
Boxcar width: 0
XAxis mode: Wavelengths
Number of Pixels in Spectrum: 2048
>>>>>Begin Spectral Data<<<<<
223.165	-19.5
223.4	-19.5
223.635	-19.5
223.869	-32.5
224.104	-24.5
224.338	-17.5
224.573	-5.5
224.808	-3.5
225.042	-7.5
225.277	-6.5
225.511	-9.5
225.746	2.5
225.98	12.5
226.215	18.5
226.449	9.5
226.683	16.5
226.918	32.5
227.152	34.5
227.387	35.5
227.621	45.5
227.856	38.5
228.09	55.5
228.324	49.5
228.559	66.5
228.793	61.5
229.027	52.5
229.262	63.5
229.496	65.5
229.73	73.5
229.964	69.5
230.199	80.5
230.433	77.5
230.667	87.5
230.901	69.5
231.136	72.5
231.37	83.5
231.604	80.5
231.838	73.5
232.072	78.5
232.306	75.5
232.541	64.5
232.775	90.5
233.009	72.5
233.243	66.5
233.477	85.5
233.711	80.5
233.945	75.5
234.179	77.5
234.413	79.5
234.647	71.5
234.881	72.5
235.115	81.5
235.349	88.5
235.583	77.5
235.817	81.5
236.051	71.5
236.285	66.5
236.519	72.5
236.753	85.5
236.987	82.5
237.221	81.5
237.455	63.5
237.689	70.5
237.922	81.5
238.156	75.5
238.39	72.5
238.624	70.5
238.858	75.5
239.091	81.5
239.325	79.5
239.559	84.5
239.793	74.5
240.027	82.5
240.26	87.5
240.494	67.5
240.728	73.5
240.961	72.5
241.195	94.5
241.429	85.5
241.662	66.5
241.896	78.5
242.13	68.5
242.363	80.5
242.597	81.5
242.83	81.5
243.064	70.5
243.298	63.5
243.531	85.5
243.765	81.5
243.998	85.5
244.232	73.5
244.465	85.5
244.699	65.5
244.932	80.5
245.166	71.5
245.399	76.5
245.633	80.5
245.866	85.5
246.099	66.5
246.333	77.5
246.566	78.5
246.8	72.5
247.033	83.5
247.266	78.5
247.5	65.5
247.733	71.5
247.966	85.5
248.2	84.5
248.433	82.5
248.666	77.5
248.899	79.5
249.133	71.5
249.366	78.5
249.599	77.5
249.832	78.5
250.066	84.5
250.299	77.5
250.532	76.5
250.765	92.5
250.998	82.5
251.231	84.5
251.465	66.5
251.698	67.5
251.931	60.5
252.164	86.5
252.397	75.5
252.63	77.5
252.863	62.5
253.096	72.5
253.329	84.5
253.562	72.5
253.795	78.5
254.028	77.5
254.261	103.5
254.494	53.5
254.727	74.5
254.96	76.5
255.193	77.5
255.426	96.5
255.659	89.5
255.892	92.5
256.124	85.5
256.357	65.5
256.59	68.5
256.823	74.5
257.056	81.5
257.289	88.5
257.521	87.5
257.754	76.5
257.987	87.5
258.22	85.5
258.452	78.5
258.685	77.5
258.918	84.5
259.151	77.5
259.383	93.5
259.616	79.5
259.849	86.5
260.081	64.5
260.314	78.5
260.547	73.5
260.779	68.5
261.012	80.5
261.244	90.5
261.477	82.5
261.71	96.5
261.942	73.5
262.175	67.5
262.407	77.5
262.64	70.5
262.872	84.5
263.105	63.5
263.337	77.5
263.57	82.5
263.802	74.5
264.035	83.5
264.267	73.5
264.499	78.5
264.732	81.5
264.964	76.5
265.197	78.5
265.429	88.5
265.661	85.5
265.894	84.5
266.126	95.5
266.358	64.5
266.591	78.5
266.823	84.5
267.055	74.5
267.287	74.5
267.52	76.5
267.752	79.5
267.984	81.5
268.216	87.5
268.448	83.5
268.681	84.5
268.913	76.5
269.145	78.5
269.377	79.5
269.609	82.5
269.841	86.5
270.073	71.5
270.306	68.5
270.538	82.5
270.77	77.5
271.002	82.5
271.234	75.5
271.466	89.5
271.698	74.5
271.93	65.5
272.162	70.5
272.394	85.5
272.626	75.5
272.858	77.5
273.09	81.5
273.322	83.5
273.553	86.5
273.785	82.5
274.017	82.5
274.249	83.5
274.481	93.5
274.713	81.5
274.945	88.5
275.176	83.5
275.408	66.5
275.64	84.5
275.872	85.5
276.104	88.5
276.335	108.5
276.567	80.5
276.799	75.5
277.031	89.5
277.262	89.5
277.494	80.5
277.726	80.5
277.957	85.5
278.189	82.5
278.421	75.5
278.652	78.5
278.884	77.5
279.115	75.5
279.347	86.5
279.579	73.5
279.81	89.5
280.042	82.5
280.273	85.5
280.505	85.5
280.736	68.5
280.968	87.5
281.199	81.5
281.431	73.5
281.662	89.5
281.894	75.5
282.125	87.5
282.356	79.5
282.588	93.5
282.819	93.5
283.051	79.5
283.282	78.5
283.513	73.5
283.745	88.5
283.976	84.5
284.207	79.5
284.439	85.5
284.67	81.5
284.901	88.5
285.132	80.5
285.364	71.5
285.595	81.5
285.826	75.5
286.057	90.5
286.288	90.5
286.52	82.5
286.751	72.5
286.982	77.5
287.213	78.5
287.444	83.5
287.675	75.5
287.906	91.5
288.138	76.5
288.369	87.5
288.6	90.5
288.831	89.5
289.062	92.5
289.293	77.5
289.524	79.5
289.755	75.5
289.986	70.5
290.217	93.5
290.448	79.5
290.679	81.5
290.91	78.5
291.141	95.5
291.371	93.5
291.602	82.5
291.833	87.5
292.064	91.5
292.295	68.5
292.526	87.5
292.757	80.5
292.987	79.5
293.218	72.5
293.449	82.5
293.68	86.5
293.91	78.5
294.141	88.5
294.372	75.5
294.603	86.5
294.833	80.5
295.064	74.5
295.295	75.5
295.525	72.5
295.756	86.5
295.987	63.5
296.217	79.5
296.448	79.5
296.679	77.5
296.909	81.5
297.14	86.5
297.37	83.5
297.601	80.5
297.831	83.5
298.062	90.5
298.292	89.5
298.523	85.5
298.753	83.5
298.984	85.5
299.214	77.5
299.445	81.5
299.675	81.5
299.905	74.5
300.136	90.5
300.366	73.5
300.597	84.5
300.827	87.5
301.057	75.5
301.288	82.5
301.518	88.5
301.748	81.5
301.979	90.5
302.209	77.5
302.439	82.5
302.669	86.5
302.9	77.5
303.13	88.5
303.36	91.5
303.59	83.5
303.82	86.5
304.051	76.5
304.281	87.5
304.511	86.5
304.741	98.5
304.971	96.5
305.201	89.5
305.431	86.5
305.661	83.5
305.891	87.5
306.121	87.5
306.352	77.5
306.582	70.5
306.812	78.5
307.042	102.5
307.272	88.5
307.502	91.5
307.731	90.5
307.961	82.5
308.191	74.5
308.421	75.5
308.651	73.5
308.881	87.5
309.111	103.5
309.341	86.5
309.571	101.5
309.8	90.5
310.03	94.5
310.26	79.5
310.49	85.5
310.72	91.5
310.949	89.5
311.179	79.5
311.409	84.5
311.639	93.5
311.868	96.5
312.098	93.5
312.328	94.5
312.557	81.5
312.787	82.5
313.017	89.5
313.246	89.5
313.476	71.5
313.706	81.5
313.935	81.5
314.165	85.5
314.394	83.5
314.624	82.5
314.853	75.5
315.083	85.5
315.312	96.5
315.542	81.5
315.771	71.5
316.001	61.5
316.23	82.5
316.46	65.5
316.689	78.5
316.919	75.5
317.148	83.5
317.377	88.5
317.607	87.5
317.836	77.5
318.065	82.5
318.295	80.5
318.524	81.5
318.753	76.5
318.983	89.5
319.212	82.5
319.441	80.5
319.67	84.5
319.9	65.5
320.129	77.5
320.358	88.5
320.587	71.5
320.816	81.5
321.046	77.5
321.275	77.5
321.504	64.5
321.733	96.5
321.962	94.5
322.191	76.5
322.42	91.5
322.649	68.5
322.878	97.5
323.108	101.5
323.337	106.5
323.566	77.5
323.795	77.5
324.024	87.5
324.253	80.5
324.482	86.5
324.71	88.5
324.939	85.5
325.168	81.5
325.397	88.5
325.626	81.5
325.855	71.5
326.084	82.5
326.313	65.5
326.542	83.5
326.77	68.5
326.999	77.5
327.228	96.5
327.457	77.5
327.686	79.5
327.914	90.5
328.143	78.5
328.372	70.5
328.6	71.5
328.829	86.5
329.058	81.5
329.287	73.5
329.515	80.5
329.744	81.5
329.972	81.5
330.201	85.5
330.43	86.5
330.658	87.5
330.887	81.5
331.115	83.5
331.344	83.5
331.572	74.5
331.801	92.5
332.03	78.5
332.258	74.5
332.486	87.5
332.715	75.5
332.943	99.5
333.172	89.5
333.4	84.5
333.629	86.5
333.857	85.5
334.085	86.5
334.314	83.5
334.542	85.5
334.771	81.5
334.999	90.5
335.227	76.5
335.455	93.5
335.684	87.5
335.912	90.5
336.14	80.5
336.369	67.5
336.597	70.5
336.825	77.5
337.053	68.5
337.281	90.5
337.51	88.5
337.738	85.5
337.966	83.5
338.194	86.5
338.422	91.5
338.65	89.5
338.878	84.5
339.106	82.5
339.334	84.5
339.562	76.5
339.79	80.5
340.018	93.5
340.246	82.5
340.474	86.5
340.702	78.5
340.93	73.5
341.158	76.5
341.386	88.5
341.614	83.5
341.842	72.5
342.07	77.5
342.298	82.5
342.526	83.5
342.754	86.5
342.981	82.5
343.209	79.5
343.437	88.5
343.665	88.5
343.893	83.5
344.12	101.5
344.348	85.5
344.576	82.5
344.804	87.5
345.031	74.5
345.259	82.5
345.487	95.5
345.714	90.5
345.942	78.5
346.17	81.5
346.397	83.5
346.625	96.5
346.853	84.5
347.08	81.5
347.308	80.5
347.535	81.5
347.763	82.5
347.99	96.5
348.218	80.5
348.445	97.5
348.673	78.5
348.9	77.5
349.128	79.5
349.355	88.5
349.583	91.5
349.81	77.5
350.037	73.5
350.265	78.5
350.492	89.5
350.72	82.5
350.947	85.5
351.174	84.5
351.402	78.5
351.629	88.5
351.856	87.5
352.083	77.5
352.311	83.5
352.538	97.5
352.765	87.5
352.992	94.5
353.22	76.5
353.447	88.5
353.674	84.5
353.901	105.5
354.128	82.5
354.355	69.5
354.583	81.5
354.81	75.5
355.037	86.5
355.264	80.5
355.491	86.5
355.718	88.5
355.945	93.5
356.172	89.5
356.399	76.5
356.626	85.5
356.853	82.5
357.08	95.5
357.307	84.5
357.534	89.5
357.761	88.5
357.988	91.5
358.215	79.5
358.441	71.5
358.668	76.5
358.895	82.5
359.122	76.5
359.349	65.5
359.576	79.5
359.802	78.5
360.029	89.5
360.256	87.5
360.483	76.5
360.709	78.5
360.936	88.5
361.163	85.5
361.39	88.5
361.616	89.5
361.843	78.5
362.07	89.5
362.296	71.5
362.523	91.5
362.749	82.5
362.976	71.5
363.203	78.5
363.429	89.5
363.656	90.5
363.882	76.5
364.109	97.5
364.335	81.5
364.562	80.5
364.788	78.5
365.015	80.5
365.241	79.5
365.468	81.5
365.694	65.5
365.92	83.5
366.147	82.5
366.373	85.5
366.599	82.5
366.826	85.5
367.052	81.5
367.278	77.5
367.505	91.5
367.731	90.5
367.957	79.5
368.184	65.5
368.41	81.5
368.636	98.5
368.862	93.5
369.089	92.5
369.315	82.5
369.541	85.5
369.767	83.5
369.993	66.5
370.219	79.5
370.445	85.5
370.672	88.5
370.898	75.5
371.124	89.5
371.35	87.5
371.576	77.5
371.802	89.5
372.028	70.5
372.254	93.5
372.48	97.5
372.706	82.5
372.932	79.5
373.158	83.5
373.384	67.5
373.61	72.5
373.835	81.5
374.061	77.5
374.287	88.5
374.513	83.5
374.739	76.5
374.965	93.5
375.191	89.5
375.416	91.5
375.642	84.5
375.868	80.5
376.094	76.5
376.319	90.5
376.545	65.5
376.771	79.5
376.997	98.5
377.222	86.5
377.448	86.5
377.674	66.5
377.899	89.5
378.125	85.5
378.35	103.5
378.576	79.5
378.802	66.5
379.027	81.5
379.253	88.5
379.478	75.5
379.704	74.5
379.929	78.5
380.155	80.5
380.38	84.5
380.606	88.5
380.831	82.5
381.057	82.5
381.282	85.5
381.507	86.5
381.733	83.5
381.958	90.5
382.184	87.5
382.409	85.5
382.634	76.5
382.86	73.5
383.085	75.5
383.31	81.5
383.535	81.5
383.761	94.5
383.986	90.5
384.211	75.5
384.436	99.5
384.662	88.5
384.887	88.5
385.112	82.5
385.337	70.5
385.562	77.5
385.787	74.5
386.013	82.5
386.238	100.5
386.463	82.5
386.688	101.5
386.913	82.5
387.138	72.5
387.363	79.5
387.588	91.5
387.813	80.5
388.038	87.5
388.263	91.5
388.488	87.5
388.713	76.5
388.938	74.5
389.163	82.5
389.387	81.5
389.612	90.5
389.837	90.5
390.062	93.5
390.287	91.5
390.512	73.5
390.736	95.5
390.961	73.5
391.186	73.5
391.411	81.5
391.636	92.5
391.86	70.5
392.085	90.5
392.31	86.5
392.534	76.5
392.759	96.5
392.984	79.5
393.208	90.5
393.433	82.5
393.658	79.5
393.882	86.5
394.107	89.5
394.331	75.5
394.556	79.5
394.78	88.5
395.005	73.5
395.229	91.5
395.454	97.5
395.678	81.5
395.903	78.5
396.127	86.5
396.352	70.5
396.576	82.5
396.801	79.5
397.025	79.5
397.249	80.5
397.474	92.5
397.698	76.5
397.922	75.5
398.147	83.5
398.371	87.5
398.595	91.5
398.82	81.5
399.044	83.5
399.268	78.5
399.492	79.5
399.717	85.5
399.941	91.5
400.165	75.5
400.389	94.5
400.613	82.5
400.837	87.5
401.062	94.5
401.286	79.5
401.51	77.5
401.734	98.5
401.958	81.5
402.182	95.5
402.406	77.5
402.63	70.5
402.854	85.5
403.078	93.5
403.302	74.5
403.526	87.5
403.75	80.5
403.974	86.5
404.198	94.5
404.422	81.5
404.645	83.5
404.869	81.5
405.093	88.5
405.317	71.5
405.541	86.5
405.765	72.5
405.988	67.5
406.212	79.5
406.436	80.5
406.66	89.5
406.883	81.5
407.107	83.5
407.331	78.5
407.555	87.5
407.778	81.5
408.002	72.5
408.226	84.5
408.449	79.5
408.673	74.5
408.896	88.5
409.12	94.5
409.344	88.5
409.567	88.5
409.791	78.5
410.014	79.5
410.238	72.5
410.461	75.5
410.685	82.5
410.908	87.5
411.132	90.5
411.355	66.5
411.578	75.5
411.802	91.5
412.025	73.5
412.249	73.5
412.472	81.5
412.695	84.5
412.919	83.5
413.142	83.5
413.365	73.5
413.589	86.5
413.812	69.5
414.035	82.5
414.258	77.5
414.482	78.5
414.705	81.5
414.928	87.5
415.151	69.5
415.374	75.5
415.597	89.5
415.821	86.5
416.044	91.5
416.267	77.5
416.49	85.5
416.713	75.5
416.936	85.5
417.159	83.5
417.382	83.5
417.605	82.5
417.828	91.5
418.051	74.5
418.274	83.5
418.497	70.5
418.72	89.5
418.943	75.5
419.166	80.5
419.389	88.5
419.611	88.5
419.834	70.5
420.057	73.5
420.28	86.5
420.503	91.5
420.726	79.5
420.948	87.5
421.171	89.5
421.394	73.5
421.617	99.5
421.839	86.5
422.062	89.5
422.285	79.5
422.507	86.5
422.73	78.5
422.953	85.5
423.175	81.5
423.398	77.5
423.621	88.5
423.843	73.5
424.066	85.5
424.288	88.5
424.511	93.5
424.733	91.5
424.956	74.5
425.178	71.5
425.401	69.5
425.623	67.5
425.846	90.5
426.068	81.5
426.291	90.5
426.513	72.5
426.735	87.5
426.958	87.5
427.18	82.5
427.402	81.5
427.625	78.5
427.847	91.5
428.069	84.5
428.292	73.5
428.514	84.5
428.736	78.5
428.958	80.5
429.181	74.5
429.403	80.5
429.625	82.5
429.847	76.5
430.069	70.5
430.292	83.5
430.514	89.5
430.736	81.5
430.958	82.5
431.18	76.5
431.402	77.5
431.624	89.5
431.846	79.5
432.068	92.5
432.29	90.5
432.512	78.5
432.734	71.5
432.956	67.5
433.178	75.5
433.4	89.5
433.622	88.5
433.844	85.5
434.066	90.5
434.287	80.5
434.509	73.5
434.731	77.5
434.953	67.5
435.175	83.5
435.397	74.5
435.618	76.5
435.84	87.5
436.062	82.5
436.284	78.5
436.505	82.5
436.727	80.5
436.949	75.5
437.17	82.5
437.392	78.5
437.614	73.5
437.835	89.5
438.057	73.5
438.278	78.5
438.5	92.5
438.721	79.5
438.943	81.5
439.165	80.5
439.386	79.5
439.608	89.5
439.829	81.5
440.05	93.5
440.272	87.5
440.493	90.5
440.715	72.5
440.936	74.5
441.158	82.5
441.379	78.5
441.6	73.5
441.822	81.5
442.043	90.5
442.264	91.5
442.486	87.5
442.707	87.5
442.928	84.5
443.149	80.5
443.371	85.5
443.592	85.5
443.813	86.5
444.034	75.5
444.255	93.5
444.476	80.5
444.698	78.5
444.919	75.5
445.14	149.5
445.361	107.5
445.582	96.5
445.803	81.5
446.024	74.5
446.245	84.5
446.466	79.5
446.687	73.5
446.908	79.5
447.129	90.5
447.35	81.5
447.571	82.5
447.792	98.5
448.013	96.5
448.234	85.5
448.455	80.5
448.675	89.5
448.896	87.5
449.117	77.5
449.338	86.5
449.559	83.5
449.779	84.5
450	89.5
450.221	73.5
450.442	74.5
450.662	84.5
450.883	85.5
451.104	74.5
451.324	81.5
451.545	80.5
451.766	92.5
451.986	87.5
452.207	83.5
452.428	78.5
452.648	84.5
452.869	68.5
453.089	91.5
453.31	83.5
453.53	81.5
453.751	83.5
453.971	79.5
454.192	79.5
454.412	79.5
454.633	87.5
454.853	88.5
455.073	88.5
455.294	81.5
455.514	88.5
455.734	77.5
455.955	82.5
456.175	81.5
456.395	81.5
456.616	92.5
456.836	76.5
457.056	77.5
457.276	74.5
457.497	74.5
457.717	73.5
457.937	69.5
458.157	77.5
458.377	76.5
458.598	84.5
458.818	95.5
459.038	83.5
459.258	78.5
459.478	82.5
459.698	77.5
459.918	85.5
460.138	78.5
460.358	83.5
460.578	82.5
460.798	81.5
461.018	73.5
461.238	72.5
461.458	77.5
461.678	80.5
461.898	77.5
462.118	79.5
462.338	77.5
462.558	73.5
462.777	67.5
462.997	88.5
463.217	78.5
463.437	73.5
463.657	87.5
463.876	78.5
464.096	88.5
464.316	86.5
464.536	109.5
464.755	81.5
464.975	71.5
465.195	70.5
465.414	72.5
465.634	88.5
465.854	71.5
466.073	77.5
466.293	79.5
466.512	74.5
466.732	77.5
466.951	90.5
467.171	85.5
467.391	89.5
467.61	80.5
467.829	87.5
468.049	85.5
468.268	74.5
468.488	75.5
468.707	78.5
468.927	81.5
469.146	67.5
469.365	78.5
469.585	85.5
469.804	87.5
470.023	76.5
470.243	77.5
470.462	86.5
470.681	78.5
470.901	88.5
471.12	81.5
471.339	80.5
471.558	73.5
471.777	94.5
471.997	89.5
472.216	74.5
472.435	77.5
472.654	77.5
472.873	68.5
473.092	72.5
473.311	81.5
473.53	72.5
473.749	80.5
473.968	87.5
474.187	90.5
474.406	83.5
474.625	79.5
474.844	90.5
475.063	80.5
475.282	68.5
475.501	61.5
475.72	81.5
475.939	79.5
476.158	89.5
476.377	77.5
476.596	77.5
476.814	84.5
477.033	83.5
477.252	76.5
477.471	90.5
477.69	81.5
477.908	81.5
478.127	80.5
478.346	85.5
478.564	83.5
478.783	89.5
479.002	93.5
479.22	86.5
479.439	83.5
479.658	88.5
479.876	89.5
480.095	86.5
480.313	78.5
480.532	80.5
480.751	86.5
480.969	78.5
481.188	83.5
481.406	82.5
481.624	88.5
481.843	84.5
482.061	67.5
482.28	75.5
482.498	80.5
482.717	89.5
482.935	81.5
483.153	62.5
483.372	87.5
483.59	81.5
483.808	83.5
484.027	82.5
484.245	93.5
484.463	72.5
484.681	80.5
484.9	80.5
485.118	95.5
485.336	88.5
485.554	92.5
485.772	58.5
485.99	68.5
486.209	85.5
486.427	71.5
486.645	77.5
486.863	91.5
487.081	77.5
487.299	71.5
487.517	70.5
487.735	80.5
487.953	85.5
488.171	79.5
488.389	81.5
488.607	75.5
488.825	90.5
489.043	89.5
489.261	79.5
489.479	101.5
489.696	87.5
489.914	66.5
490.132	82.5
490.35	75.5
490.568	81.5
490.786	73.5
491.003	78.5
491.221	78.5
491.439	87.5
491.657	62.5
491.874	95.5
492.092	82.5
492.31	81.5
492.527	81.5
492.745	83.5
492.963	84.5
493.18	79.5
493.398	74.5
493.615	86.5
493.833	82.5
494.05	79.5
494.268	103.5
494.485	88.5
494.703	81.5
494.92	86.5
495.138	88.5
495.355	91.5
495.573	80.5
495.79	75.5
496.008	82.5
496.225	85.5
496.442	91.5
496.66	88.5
496.877	77.5
497.094	82.5
497.312	82.5
497.529	74.5
497.746	57.5
497.963	78.5
498.181	81.5
498.398	91.5
498.615	71.5
498.832	78.5
499.049	74.5
499.267	81.5
499.484	76.5
499.701	75.5
499.918	84.5
500.135	84.5
500.352	85.5
500.569	92.5
500.786	79.5
501.003	88.5
501.22	94.5
501.437	77.5
501.654	63.5
501.871	81.5
502.088	77.5
502.305	88.5
502.522	80.5
502.739	82.5
502.956	73.5
503.172	74.5
503.389	84.5
503.606	75.5
503.823	72.5
504.04	75.5
504.256	75.5
504.473	87.5
504.69	77.5
504.907	92.5
505.123	70.5
505.34	73.5
505.557	69.5
505.773	84.5
505.99	79.5
506.207	85.5
506.423	89.5
506.64	86.5
506.856	74.5
507.073	86.5
507.289	73.5
507.506	55.5
507.722	81.5
507.939	94.5
508.155	70.5
508.372	76.5
508.588	91.5
508.805	78.5
509.021	80.5
509.238	94.5
509.454	90.5
509.67	79.5
509.887	84.5
510.103	77.5
510.319	80.5
510.536	92.5
510.752	81.5
510.968	85.5
511.184	91.5
511.401	75.5
511.617	91.5
511.833	72.5
512.049	74.5
512.265	84.5
512.481	72.5
512.698	77.5
512.914	81.5
513.13	80.5
513.346	80.5
513.562	99.5
513.778	90.5
513.994	80.5
514.21	87.5
514.426	81.5
514.642	88.5
514.858	74.5
515.074	80.5
515.29	75.5
515.506	86.5
515.721	83.5
515.937	84.5
516.153	89.5
516.369	78.5
516.585	94.5
516.801	96.5
517.016	86.5
517.232	89.5
517.448	93.5
517.664	68.5
517.879	85.5
518.095	83.5
518.311	88.5
518.527	85.5
518.742	64.5
518.958	86.5
519.173	82.5
519.389	82.5
519.605	83.5
519.82	101.5
520.036	79.5
520.251	85.5
520.467	82.5
520.682	97.5
520.898	94.5
521.113	72.5
521.329	75.5
521.544	80.5
521.76	93.5
521.975	77.5
522.19	75.5
522.406	73.5
522.621	77.5
522.836	75.5
523.052	77.5
523.267	78.5
523.482	87.5
523.698	65.5
523.913	82.5
524.128	84.5
524.343	75.5
524.559	74.5
524.774	79.5
524.989	97.5
525.204	79.5
525.419	81.5
525.634	90.5
525.849	96.5
526.064	86.5
526.28	77.5
526.495	82.5
526.71	89.5
526.925	87.5
527.14	91.5
527.355	79.5
527.57	86.5
527.785	82.5
527.999	77.5
528.214	87.5
528.429	83.5
528.644	77.5
528.859	75.5
529.074	86.5
529.289	90.5
529.503	85.5
529.718	90.5
529.933	81.5
530.148	104.5
530.363	93.5
530.577	81.5
530.792	81.5
531.007	71.5
531.221	79.5
531.436	100.5
531.651	83.5
531.865	97.5
532.08	81.5
532.295	77.5
532.509	74.5
532.724	80.5
532.938	77.5
533.153	88.5
533.367	77.5
533.582	96.5
533.796	90.5
534.011	89.5
534.225	65.5
534.44	77.5
534.654	93.5
534.868	77.5
535.083	77.5
535.297	83.5
535.511	74.5
535.726	86.5
535.94	76.5
536.154	81.5
536.369	82.5
536.583	80.5
536.797	90.5
537.011	75.5
537.225	77.5
537.44	75.5
537.654	96.5
537.868	83.5
538.082	74.5
538.296	76.5
538.51	88.5
538.724	81.5
538.938	86.5
539.153	95.5
539.367	76.5
539.581	79.5
539.795	84.5
540.009	94.5
540.222	88.5
540.436	79.5
540.65	79.5
