Data from BG_HRD10591_062.txt Node
Date: Fri May 16 15:27:18 EDT 2025
User: Yrep
Spectrometer: HR+D1059
Trigger mode: 1
Integration Time (sec): 1.000000E-1
Scans to average: 1
Electric dark correction enabled: true
Nonlinearity correction enabled: false
Boxcar width: 0
XAxis mode: Wavelengths
Number of Pixels in Spectrum: 2048
>>>>>Begin Spectral Data<<<<<
223.165	-2.69
223.4	-2.69
223.635	-2.69
223.869	-29.69
224.104	-17.69
224.338	-14.69
224.573	-9.69
224.808	-17.69
225.042	-22.69
225.277	-6.69
225.511	-0.69
225.746	15.31
225.98	-2.69
226.215	14.31
226.449	17.31
226.683	23.31
226.918	15.31
227.152	39.31
227.387	28.31
227.621	47.31
227.856	48.31
228.09	42.31
228.324	65.31
228.559	51.31
228.793	62.31
229.027	64.31
229.262	63.31
229.496	73.31
229.73	90.31
229.964	73.31
230.199	71.31
230.433	65.31
230.667	85.31
230.901	64.31
231.136	59.31
231.37	78.31
231.604	67.31
231.838	79.31
232.072	91.31
232.306	87.31
232.541	71.31
232.775	91.31
233.009	72.31
233.243	79.31
233.477	87.31
233.711	86.31
233.945	89.31
234.179	86.31
234.413	93.31
234.647	84.31
234.881	92.31
235.115	74.31
235.349	75.31
235.583	80.31
235.817	80.31
236.051	81.31
236.285	72.31
236.519	68.31
236.753	67.31
236.987	80.31
237.221	77.31
237.455	71.31
237.689	83.31
237.922	88.31
238.156	75.31
238.39	79.31
238.624	74.31
238.858	75.31
239.091	70.31
239.325	76.31
239.559	77.31
239.793	74.31
240.027	86.31
240.26	83.31
240.494	75.31
240.728	70.31
240.961	71.31
241.195	87.31
241.429	75.31
241.662	81.31
241.896	90.31
242.13	67.31
242.363	79.31
242.597	81.31
242.83	80.31
243.064	82.31
243.298	88.31
243.531	68.31
243.765	62.31
243.998	57.31
244.232	91.31
244.465	78.31
244.699	80.31
244.932	86.31
245.166	81.31
245.399	71.31
245.633	72.31
245.866	87.31
246.099	85.31
246.333	87.31
246.566	70.31
246.8	77.31
247.033	74.31
247.266	83.31
247.5	76.31
247.733	75.31
247.966	77.31
248.2	79.31
248.433	72.31
248.666	59.31
248.899	84.31
249.133	75.31
249.366	94.31
249.599	70.31
249.832	73.31
250.066	80.31
250.299	82.31
250.532	83.31
250.765	85.31
250.998	89.31
251.231	71.31
251.465	83.31
251.698	72.31
251.931	98.31
252.164	70.31
252.397	79.31
252.63	90.31
252.863	78.31
253.096	78.31
253.329	82.31
253.562	81.31
253.795	88.31
254.028	77.31
254.261	83.31
254.494	81.31
254.727	92.31
254.96	86.31
255.193	81.31
255.426	75.31
255.659	85.31
255.892	89.31
256.124	94.31
256.357	77.31
256.59	71.31
256.823	92.31
257.056	90.31
257.289	75.31
257.521	70.31
257.754	86.31
257.987	73.31
258.22	80.31
258.452	87.31
258.685	90.31
258.918	82.31
259.151	95.31
259.383	89.31
259.616	97.31
259.849	81.31
260.081	73.31
260.314	90.31
260.547	76.31
260.779	65.31
261.012	74.31
261.244	85.31
261.477	81.31
261.71	82.31
261.942	85.31
262.175	85.31
262.407	87.31
262.64	80.31
262.872	81.31
263.105	68.31
263.337	88.31
263.57	85.31
263.802	72.31
264.035	75.31
264.267	80.31
264.499	75.31
264.732	77.31
264.964	90.31
265.197	81.31
265.429	75.31
265.661	79.31
265.894	81.31
266.126	86.31
266.358	86.31
266.591	84.31
266.823	83.31
267.055	79.31
267.287	77.31
267.52	93.31
267.752	91.31
267.984	77.31
268.216	75.31
268.448	79.31
268.681	99.31
268.913	74.31
269.145	84.31
269.377	73.31
269.609	104.31
269.841	65.31
270.073	94.31
270.306	72.31
270.538	90.31
270.77	81.31
271.002	82.31
271.234	71.31
271.466	82.31
271.698	88.31
271.93	91.31
272.162	82.31
272.394	67.31
272.626	81.31
272.858	85.31
273.09	77.31
273.322	77.31
273.553	78.31
273.785	74.31
274.017	73.31
274.249	90.31
274.481	88.31
274.713	81.31
274.945	82.31
275.176	87.31
275.408	81.31
275.64	80.31
275.872	86.31
276.104	87.31
276.335	96.31
276.567	91.31
276.799	76.31
277.031	67.31
277.262	102.31
277.494	87.31
277.726	86.31
277.957	93.31
278.189	85.31
278.421	79.31
278.652	86.31
278.884	95.31
279.115	78.31
279.347	76.31
279.579	87.31
279.81	84.31
280.042	88.31
280.273	97.31
280.505	93.31
280.736	106.31
280.968	79.31
281.199	97.31
281.431	87.31
281.662	86.31
281.894	86.31
282.125	87.31
282.356	82.31
282.588	90.31
282.819	94.31
283.051	82.31
283.282	80.31
283.513	79.31
283.745	93.31
283.976	90.31
284.207	83.31
284.439	87.31
284.67	88.31
284.901	86.31
285.132	94.31
285.364	88.31
285.595	90.31
285.826	82.31
286.057	87.31
286.288	85.31
286.52	80.31
286.751	91.31
286.982	89.31
287.213	79.31
287.444	81.31
287.675	77.31
287.906	94.31
288.138	85.31
288.369	83.31
288.6	90.31
288.831	71.31
289.062	91.31
289.293	81.31
289.524	81.31
289.755	102.31
289.986	79.31
290.217	79.31
290.448	79.31
290.679	85.31
290.91	99.31
291.141	69.31
291.371	71.31
291.602	80.31
291.833	81.31
292.064	82.31
292.295	79.31
292.526	82.31
292.757	89.31
292.987	74.31
293.218	90.31
293.449	90.31
293.68	90.31
293.91	93.31
294.141	92.31
294.372	85.31
294.603	93.31
294.833	103.31
295.064	87.31
295.295	84.31
295.525	87.31
295.756	74.31
295.987	90.31
296.217	78.31
296.448	89.31
296.679	84.31
296.909	81.31
297.14	85.31
297.37	82.31
297.601	80.31
297.831	84.31
298.062	75.31
298.292	77.31
298.523	91.31
298.753	79.31
298.984	91.31
299.214	78.31
299.445	81.31
299.675	93.31
299.905	82.31
300.136	90.31
300.366	69.31
300.597	106.31
300.827	88.31
301.057	80.31
301.288	72.31
301.518	88.31
301.748	81.31
301.979	95.31
302.209	98.31
302.439	102.31
302.669	89.31
302.9	86.31
303.13	75.31
303.36	80.31
303.59	83.31
303.82	87.31
304.051	95.31
304.281	88.31
304.511	88.31
304.741	89.31
304.971	82.31
305.201	95.31
305.431	86.31
305.661	85.31
305.891	74.31
306.121	85.31
306.352	89.31
306.582	95.31
306.812	88.31
307.042	72.31
307.272	84.31
307.502	91.31
307.731	81.31
307.961	88.31
308.191	79.31
308.421	97.31
308.651	85.31
308.881	85.31
309.111	78.31
309.341	77.31
309.571	74.31
309.8	99.31
310.03	76.31
310.26	72.31
310.49	81.31
310.72	85.31
310.949	71.31
311.179	91.31
311.409	87.31
311.639	86.31
311.868	100.31
312.098	85.31
312.328	90.31
312.557	87.31
312.787	83.31
313.017	103.31
313.246	87.31
313.476	85.31
313.706	87.31
313.935	83.31
314.165	87.31
314.394	93.31
314.624	84.31
314.853	77.31
315.083	86.31
315.312	75.31
315.542	81.31
315.771	91.31
316.001	96.31
316.23	81.31
316.46	77.31
316.689	92.31
316.919	91.31
317.148	78.31
317.377	89.31
317.607	79.31
317.836	84.31
318.065	77.31
318.295	95.31
318.524	79.31
318.753	89.31
318.983	91.31
319.212	75.31
319.441	78.31
319.67	77.31
319.9	88.31
320.129	83.31
320.358	91.31
320.587	85.31
320.816	80.31
321.046	82.31
321.275	95.31
321.504	83.31
321.733	72.31
321.962	83.31
322.191	89.31
322.42	81.31
322.649	90.31
322.878	86.31
323.108	84.31
323.337	84.31
323.566	92.31
323.795	98.31
324.024	86.31
324.253	83.31
324.482	79.31
324.71	89.31
324.939	86.31
325.168	79.31
325.397	84.31
325.626	87.31
325.855	90.31
326.084	77.31
326.313	79.31
326.542	79.31
326.77	90.31
326.999	80.31
327.228	86.31
327.457	68.31
327.686	91.31
327.914	90.31
328.143	99.31
328.372	102.31
328.6	86.31
328.829	74.31
329.058	89.31
329.287	94.31
329.515	93.31
329.744	94.31
329.972	84.31
330.201	85.31
330.43	100.31
330.658	79.31
330.887	97.31
331.115	70.31
331.344	82.31
331.572	87.31
331.801	82.31
332.03	91.31
332.258	92.31
332.486	88.31
332.715	76.31
332.943	87.31
333.172	79.31
333.4	83.31
333.629	87.31
333.857	79.31
334.085	75.31
334.314	77.31
334.542	96.31
334.771	84.31
334.999	80.31
335.227	81.31
335.455	95.31
335.684	82.31
335.912	86.31
336.14	91.31
336.369	81.31
336.597	82.31
336.825	93.31
337.053	77.31
337.281	76.31
337.51	80.31
337.738	81.31
337.966	88.31
338.194	76.31
338.422	73.31
338.65	82.31
338.878	79.31
339.106	81.31
339.334	92.31
339.562	87.31
339.79	76.31
340.018	78.31
340.246	76.31
340.474	74.31
340.702	87.31
340.93	93.31
341.158	92.31
341.386	90.31
341.614	90.31
341.842	97.31
342.07	77.31
342.298	88.31
342.526	83.31
342.754	71.31
342.981	82.31
343.209	71.31
343.437	90.31
343.665	92.31
343.893	89.31
344.12	81.31
344.348	79.31
344.576	89.31
344.804	85.31
345.031	80.31
345.259	83.31
345.487	83.31
345.714	79.31
345.942	89.31
346.17	88.31
346.397	86.31
346.625	81.31
346.853	81.31
347.08	78.31
347.308	89.31
347.535	87.31
347.763	84.31
347.99	89.31
348.218	79.31
348.445	77.31
348.673	78.31
348.9	88.31
349.128	89.31
349.355	93.31
349.583	95.31
349.81	75.31
350.037	83.31
350.265	97.31
350.492	78.31
350.72	82.31
350.947	83.31
351.174	83.31
351.402	89.31
351.629	85.31
351.856	82.31
352.083	72.31
352.311	75.31
352.538	80.31
352.765	80.31
352.992	91.31
353.22	85.31
353.447	86.31
353.674	87.31
353.901	99.31
354.128	92.31
354.355	80.31
354.583	89.31
354.81	90.31
355.037	96.31
355.264	78.31
355.491	75.31
355.718	93.31
355.945	94.31
356.172	83.31
356.399	91.31
356.626	74.31
356.853	78.31
357.08	75.31
357.307	84.31
357.534	72.31
357.761	82.31
357.988	74.31
358.215	86.31
358.441	82.31
358.668	75.31
358.895	72.31
359.122	74.31
359.349	74.31
359.576	81.31
359.802	83.31
360.029	83.31
360.256	76.31
360.483	76.31
360.709	75.31
360.936	91.31
361.163	90.31
361.39	90.31
361.616	84.31
361.843	78.31
362.07	80.31
362.296	85.31
362.523	80.31
362.749	82.31
362.976	91.31
363.203	87.31
363.429	74.31
363.656	99.31
363.882	85.31
364.109	67.31
364.335	80.31
364.562	88.31
364.788	75.31
365.015	75.31
365.241	88.31
365.468	88.31
365.694	87.31
365.92	91.31
366.147	88.31
366.373	101.31
366.599	82.31
366.826	91.31
367.052	88.31
367.278	79.31
367.505	91.31
367.731	96.31
367.957	75.31
368.184	77.31
368.41	76.31
368.636	77.31
368.862	94.31
369.089	72.31
369.315	69.31
369.541	83.31
369.767	87.31
369.993	79.31
370.219	86.31
370.445	85.31
370.672	93.31
370.898	82.31
371.124	78.31
371.35	79.31
371.576	95.31
371.802	85.31
372.028	76.31
372.254	77.31
372.48	81.31
372.706	81.31
372.932	75.31
373.158	79.31
373.384	92.31
373.61	70.31
373.835	85.31
374.061	83.31
374.287	69.31
374.513	78.31
374.739	84.31
374.965	76.31
375.191	86.31
375.416	87.31
375.642	79.31
375.868	75.31
376.094	83.31
376.319	79.31
376.545	95.31
376.771	66.31
376.997	76.31
377.222	71.31
377.448	88.31
377.674	81.31
377.899	93.31
378.125	79.31
378.35	81.31
378.576	89.31
378.802	82.31
379.027	80.31
379.253	74.31
379.478	78.31
379.704	76.31
379.929	85.31
380.155	81.31
380.38	79.31
380.606	91.31
380.831	58.31
381.057	88.31
381.282	92.31
381.507	89.31
381.733	81.31
381.958	67.31
382.184	85.31
382.409	89.31
382.634	83.31
382.86	91.31
383.085	93.31
383.31	86.31
383.535	86.31
383.761	83.31
383.986	80.31
384.211	86.31
384.436	85.31
384.662	72.31
384.887	74.31
385.112	83.31
385.337	76.31
385.562	87.31
385.787	89.31
386.013	82.31
386.238	88.31
386.463	80.31
386.688	90.31
386.913	77.31
387.138	77.31
387.363	88.31
387.588	75.31
387.813	78.31
388.038	64.31
388.263	85.31
388.488	78.31
388.713	85.31
388.938	82.31
389.163	73.31
389.387	75.31
389.612	91.31
389.837	91.31
390.062	85.31
390.287	73.31
390.512	83.31
390.736	88.31
390.961	87.31
391.186	80.31
391.411	96.31
391.636	90.31
391.86	77.31
392.085	79.31
392.31	85.31
392.534	92.31
392.759	90.31
392.984	83.31
393.208	79.31
393.433	76.31
393.658	106.31
393.882	90.31
394.107	92.31
394.331	87.31
394.556	89.31
394.78	85.31
395.005	79.31
395.229	63.31
395.454	82.31
395.678	79.31
395.903	88.31
396.127	79.31
396.352	77.31
396.576	74.31
396.801	91.31
397.025	82.31
397.249	82.31
397.474	85.31
397.698	82.31
397.922	86.31
398.147	88.31
398.371	77.31
398.595	77.31
398.82	80.31
399.044	77.31
399.268	88.31
399.492	88.31
399.717	77.31
399.941	90.31
400.165	79.31
400.389	91.31
400.613	77.31
400.837	82.31
401.062	77.31
401.286	80.31
401.51	73.31
401.734	93.31
401.958	73.31
402.182	95.31
402.406	73.31
402.63	64.31
402.854	76.31
403.078	65.31
403.302	81.31
403.526	93.31
403.75	87.31
403.974	85.31
404.198	93.31
404.422	82.31
404.645	71.31
404.869	93.31
405.093	78.31
405.317	77.31
405.541	75.31
405.765	86.31
405.988	89.31
406.212	84.31
406.436	88.31
406.66	102.31
406.883	93.31
407.107	75.31
407.331	93.31
407.555	72.31
407.778	90.31
408.002	89.31
408.226	78.31
408.449	95.31
408.673	73.31
408.896	87.31
409.12	75.31
409.344	90.31
409.567	81.31
409.791	85.31
410.014	82.31
410.238	79.31
410.461	79.31
410.685	74.31
410.908	87.31
411.132	82.31
411.355	76.31
411.578	75.31
411.802	92.31
412.025	73.31
412.249	77.31
412.472	87.31
412.695	94.31
412.919	98.31
413.142	78.31
413.365	83.31
413.589	76.31
413.812	68.31
414.035	76.31
414.258	87.31
414.482	80.31
414.705	84.31
414.928	85.31
415.151	71.31
415.374	91.31
415.597	88.31
415.821	79.31
416.044	81.31
416.267	87.31
416.49	69.31
416.713	78.31
416.936	86.31
417.159	89.31
417.382	77.31
417.605	87.31
417.828	93.31
418.051	82.31
418.274	78.31
418.497	88.31
418.72	79.31
418.943	81.31
419.166	79.31
419.389	83.31
419.611	83.31
419.834	82.31
420.057	78.31
420.28	85.31
420.503	83.31
420.726	91.31
420.948	80.31
421.171	79.31
421.394	67.31
421.617	99.31
421.839	89.31
422.062	85.31
422.285	97.31
422.507	81.31
422.73	67.31
422.953	68.31
423.175	69.31
423.398	70.31
423.621	81.31
423.843	82.31
424.066	85.31
424.288	79.31
424.511	89.31
424.733	84.31
424.956	84.31
425.178	79.31
425.401	81.31
425.623	89.31
425.846	85.31
426.068	78.31
426.291	85.31
426.513	86.31
426.735	82.31
426.958	67.31
427.18	89.31
427.402	85.31
427.625	89.31
427.847	79.31
428.069	75.31
428.292	79.31
428.514	76.31
428.736	80.31
428.958	93.31
429.181	82.31
429.403	87.31
429.625	64.31
429.847	87.31
430.069	77.31
430.292	82.31
430.514	93.31
430.736	69.31
430.958	84.31
431.18	75.31
431.402	72.31
431.624	68.31
431.846	86.31
432.068	82.31
432.29	86.31
432.512	85.31
432.734	79.31
432.956	85.31
433.178	86.31
433.4	77.31
433.622	60.31
433.844	78.31
434.066	70.31
434.287	67.31
434.509	81.31
434.731	67.31
434.953	94.31
435.175	67.31
435.397	87.31
435.618	73.31
435.84	88.31
436.062	76.31
436.284	87.31
436.505	86.31
436.727	78.31
436.949	77.31
437.17	75.31
437.392	78.31
437.614	77.31
437.835	81.31
438.057	81.31
438.278	92.31
438.5	95.31
438.721	71.31
438.943	71.31
439.165	83.31
439.386	89.31
439.608	83.31
439.829	82.31
440.05	79.31
440.272	89.31
440.493	82.31
440.715	90.31
440.936	92.31
441.158	95.31
441.379	81.31
441.6	81.31
441.822	77.31
442.043	78.31
442.264	86.31
442.486	69.31
442.707	78.31
442.928	69.31
443.149	75.31
443.371	84.31
443.592	79.31
443.813	74.31
444.034	77.31
444.255	90.31
444.476	89.31
444.698	79.31
444.919	101.31
445.14	157.31
445.361	102.31
445.582	78.31
445.803	80.31
446.024	66.31
446.245	87.31
446.466	97.31
446.687	86.31
446.908	79.31
447.129	93.31
447.35	73.31
447.571	98.31
447.792	79.31
448.013	85.31
448.234	80.31
448.455	76.31
448.675	80.31
448.896	98.31
449.117	86.31
449.338	67.31
449.559	85.31
449.779	80.31
450	82.31
450.221	81.31
450.442	100.31
450.662	64.31
450.883	72.31
451.104	87.31
451.324	85.31
451.545	71.31
451.766	88.31
451.986	88.31
452.207	82.31
452.428	82.31
452.648	82.31
452.869	66.31
453.089	72.31
453.31	75.31
453.53	82.31
453.751	81.31
453.971	86.31
454.192	79.31
454.412	80.31
454.633	71.31
454.853	73.31
455.073	73.31
455.294	78.31
455.514	80.31
455.734	71.31
455.955	77.31
456.175	65.31
456.395	66.31
456.616	76.31
456.836	82.31
457.056	90.31
457.276	77.31
457.497	77.31
457.717	85.31
457.937	65.31
458.157	74.31
458.377	85.31
458.598	80.31
458.818	96.31
459.038	80.31
459.258	82.31
459.478	90.31
459.698	86.31
459.918	99.31
460.138	67.31
460.358	83.31
460.578	92.31
460.798	83.31
461.018	86.31
461.238	85.31
461.458	86.31
461.678	90.31
461.898	81.31
462.118	75.31
462.338	79.31
462.558	74.31
462.777	74.31
462.997	94.31
463.217	75.31
463.437	81.31
463.657	67.31
463.876	81.31
464.096	63.31
464.316	72.31
464.536	72.31
464.755	83.31
464.975	85.31
465.195	81.31
465.414	67.31
465.634	81.31
465.854	69.31
466.073	76.31
466.293	78.31
466.512	76.31
466.732	81.31
466.951	80.31
467.171	74.31
467.391	76.31
467.61	77.31
467.829	82.31
468.049	98.31
468.268	80.31
468.488	75.31
468.707	66.31
468.927	76.31
469.146	73.31
469.365	79.31
469.585	81.31
469.804	74.31
470.023	74.31
470.243	89.31
470.462	83.31
470.681	81.31
470.901	78.31
471.12	79.31
471.339	78.31
471.558	81.31
471.777	81.31
471.997	78.31
472.216	95.31
472.435	86.31
472.654	81.31
472.873	73.31
473.092	89.31
473.311	87.31
473.53	81.31
473.749	87.31
473.968	73.31
474.187	85.31
474.406	82.31
474.625	80.31
474.844	88.31
475.063	89.31
475.282	82.31
475.501	84.31
475.72	79.31
475.939	71.31
476.158	90.31
476.377	77.31
476.596	79.31
476.814	90.31
477.033	78.31
477.252	84.31
477.471	77.31
477.69	77.31
477.908	83.31
478.127	85.31
478.346	71.31
478.564	70.31
478.783	86.31
479.002	74.31
479.22	71.31
479.439	78.31
479.658	64.31
479.876	64.31
480.095	61.31
480.313	80.31
480.532	81.31
480.751	87.31
480.969	82.31
481.188	73.31
481.406	100.31
481.624	80.31
481.843	83.31
482.061	85.31
482.28	85.31
482.498	80.31
482.717	61.31
482.935	82.31
483.153	87.31
483.372	88.31
483.59	90.31
483.808	81.31
484.027	78.31
484.245	66.31
484.463	70.31
484.681	85.31
484.9	93.31
485.118	74.31
485.336	89.31
485.554	74.31
485.772	67.31
485.99	68.31
486.209	79.31
486.427	70.31
486.645	75.31
486.863	94.31
487.081	85.31
487.299	84.31
487.517	77.31
487.735	83.31
487.953	86.31
488.171	90.31
488.389	77.31
488.607	73.31
488.825	85.31
489.043	81.31
489.261	82.31
489.479	70.31
489.696	81.31
489.914	73.31
490.132	77.31
490.35	80.31
490.568	75.31
490.786	73.31
491.003	90.31
491.221	75.31
491.439	75.31
491.657	82.31
491.874	79.31
492.092	90.31
492.31	82.31
492.527	80.31
492.745	97.31
492.963	84.31
493.18	81.31
493.398	94.31
493.615	94.31
493.833	67.31
494.05	82.31
494.268	68.31
494.485	64.31
494.703	89.31
494.92	71.31
495.138	73.31
495.355	68.31
495.573	98.31
495.79	77.31
496.008	90.31
496.225	76.31
496.442	79.31
496.66	100.31
496.877	74.31
497.094	85.31
497.312	88.31
497.529	89.31
497.746	75.31
497.963	76.31
498.181	73.31
498.398	80.31
498.615	84.31
498.832	89.31
499.049	92.31
499.267	85.31
499.484	80.31
499.701	81.31
499.918	76.31
500.135	91.31
500.352	71.31
500.569	92.31
500.786	99.31
501.003	84.31
501.22	73.31
501.437	86.31
501.654	103.31
501.871	83.31
502.088	88.31
502.305	80.31
502.522	74.31
502.739	87.31
502.956	73.31
503.172	85.31
503.389	74.31
503.606	67.31
503.823	91.31
504.04	73.31
504.256	90.31
504.473	79.31
504.69	91.31
504.907	89.31
505.123	76.31
505.34	71.31
505.557	85.31
505.773	89.31
505.99	77.31
506.207	73.31
506.423	78.31
506.64	81.31
506.856	67.31
507.073	84.31
507.289	80.31
507.506	72.31
507.722	90.31
507.939	77.31
508.155	81.31
508.372	80.31
508.588	82.31
508.805	75.31
509.021	71.31
509.238	77.31
509.454	95.31
509.67	79.31
509.887	82.31
510.103	97.31
510.319	86.31
510.536	83.31
510.752	98.31
510.968	78.31
511.184	70.31
511.401	74.31
511.617	79.31
511.833	95.31
512.049	85.31
512.265	75.31
512.481	80.31
512.698	77.31
512.914	88.31
513.13	68.31
513.346	70.31
513.562	77.31
513.778	87.31
513.994	82.31
514.21	77.31
514.426	83.31
514.642	80.31
514.858	86.31
515.074	85.31
515.29	80.31
515.506	87.31
515.721	69.31
515.937	82.31
516.153	79.31
516.369	90.31
516.585	83.31
516.801	81.31
517.016	85.31
517.232	78.31
517.448	80.31
517.664	92.31
517.879	75.31
518.095	75.31
518.311	85.31
518.527	80.31
518.742	81.31
518.958	89.31
519.173	83.31
519.389	82.31
519.605	89.31
519.82	95.31
520.036	89.31
