Data from BG_HRD10591_039.txt Node
Date: Fri May 16 15:27:06 EDT 2025
User: Yrep
Spectrometer: HR+D1059
Trigger mode: 1
Integration Time (sec): 1.000000E-1
Scans to average: 1
Electric dark correction enabled: true
Nonlinearity correction enabled: false
Boxcar width: 0
XAxis mode: Wavelengths
Number of Pixels in Spectrum: 2048
>>>>>Begin Spectral Data<<<<<
223.165	-9.81
223.4	-9.81
223.635	-9.81
223.869	-6.81
224.104	-21.81
224.338	-14.81
224.573	-23.81
224.808	-2.81
225.042	1.19
225.277	-5.81
225.511	-8.81
225.746	-7.81
225.98	-2.81
226.215	5.19
226.449	11.19
226.683	22.19
226.918	33.19
227.152	32.19
227.387	38.19
227.621	37.19
227.856	50.19
228.09	56.19
228.324	50.19
228.559	46.19
228.793	70.19
229.027	62.19
229.262	73.19
229.496	55.19
229.73	65.19
229.964	75.19
230.199	74.19
230.433	77.19
230.667	81.19
230.901	65.19
231.136	75.19
231.37	81.19
231.604	65.19
231.838	83.19
232.072	75.19
232.306	73.19
232.541	87.19
232.775	75.19
233.009	87.19
233.243	90.19
233.477	79.19
233.711	80.19
233.945	71.19
234.179	82.19
234.413	78.19
234.647	78.19
234.881	85.19
235.115	86.19
235.349	85.19
235.583	76.19
235.817	85.19
236.051	77.19
236.285	71.19
236.519	74.19
236.753	78.19
236.987	77.19
237.221	53.19
237.455	75.19
237.689	73.19
237.922	64.19
238.156	77.19
238.39	78.19
238.624	74.19
238.858	65.19
239.091	71.19
239.325	73.19
239.559	71.19
239.793	75.19
240.027	86.19
240.26	74.19
240.494	76.19
240.728	67.19
240.961	73.19
241.195	85.19
241.429	70.19
241.662	87.19
241.896	82.19
242.13	67.19
242.363	78.19
242.597	86.19
242.83	85.19
243.064	72.19
243.298	77.19
243.531	73.19
243.765	78.19
243.998	76.19
244.232	92.19
244.465	71.19
244.699	73.19
244.932	74.19
245.166	95.19
245.399	79.19
245.633	81.19
245.866	74.19
246.099	87.19
246.333	65.19
246.566	65.19
246.8	77.19
247.033	81.19
247.266	90.19
247.5	77.19
247.733	67.19
247.966	73.19
248.2	84.19
248.433	69.19
248.666	72.19
248.899	69.19
249.133	86.19
249.366	89.19
249.599	80.19
249.832	82.19
250.066	75.19
250.299	74.19
250.532	86.19
250.765	64.19
250.998	83.19
251.231	75.19
251.465	96.19
251.698	82.19
251.931	72.19
252.164	71.19
252.397	80.19
252.63	89.19
252.863	65.19
253.096	69.19
253.329	76.19
253.562	82.19
253.795	86.19
254.028	94.19
254.261	97.19
254.494	89.19
254.727	81.19
254.96	81.19
255.193	106.19
255.426	76.19
255.659	89.19
255.892	75.19
256.124	85.19
256.357	89.19
256.59	73.19
256.823	83.19
257.056	64.19
257.289	77.19
257.521	79.19
257.754	75.19
257.987	70.19
258.22	95.19
258.452	76.19
258.685	69.19
258.918	82.19
259.151	67.19
259.383	103.19
259.616	67.19
259.849	86.19
260.081	80.19
260.314	91.19
260.547	94.19
260.779	87.19
261.012	96.19
261.244	80.19
261.477	92.19
261.71	82.19
261.942	87.19
262.175	71.19
262.407	83.19
262.64	92.19
262.872	87.19
263.105	111.19
263.337	82.19
263.57	76.19
263.802	72.19
264.035	79.19
264.267	82.19
264.499	90.19
264.732	88.19
264.964	81.19
265.197	75.19
265.429	71.19
265.661	88.19
265.894	87.19
266.126	90.19
266.358	76.19
266.591	98.19
266.823	79.19
267.055	85.19
267.287	93.19
267.52	75.19
267.752	83.19
267.984	90.19
268.216	83.19
268.448	75.19
268.681	77.19
268.913	91.19
269.145	81.19
269.377	81.19
269.609	77.19
269.841	82.19
270.073	87.19
270.306	93.19
270.538	70.19
270.77	80.19
271.002	83.19
271.234	85.19
271.466	83.19
271.698	85.19
271.93	78.19
272.162	85.19
272.394	95.19
272.626	90.19
272.858	92.19
273.09	77.19
273.322	75.19
273.553	73.19
273.785	77.19
274.017	101.19
274.249	87.19
274.481	86.19
274.713	91.19
274.945	97.19
275.176	77.19
275.408	95.19
275.64	95.19
275.872	83.19
276.104	89.19
276.335	82.19
276.567	81.19
276.799	87.19
277.031	86.19
277.262	81.19
277.494	62.19
277.726	97.19
277.957	84.19
278.189	79.19
278.421	77.19
278.652	91.19
278.884	80.19
279.115	91.19
279.347	86.19
279.579	81.19
279.81	85.19
280.042	91.19
280.273	75.19
280.505	89.19
280.736	87.19
280.968	85.19
281.199	84.19
281.431	77.19
281.662	76.19
281.894	82.19
282.125	94.19
282.356	86.19
282.588	88.19
282.819	78.19
283.051	70.19
283.282	88.19
283.513	90.19
283.745	87.19
283.976	92.19
284.207	77.19
284.439	90.19
284.67	82.19
284.901	86.19
285.132	83.19
285.364	87.19
285.595	69.19
285.826	82.19
286.057	101.19
286.288	92.19
286.52	98.19
286.751	94.19
286.982	82.19
287.213	80.19
287.444	91.19
287.675	82.19
287.906	79.19
288.138	91.19
288.369	81.19
288.6	95.19
288.831	91.19
289.062	87.19
289.293	80.19
289.524	85.19
289.755	94.19
289.986	78.19
290.217	84.19
290.448	66.19
290.679	84.19
290.91	91.19
291.141	67.19
291.371	84.19
291.602	76.19
291.833	76.19
292.064	77.19
292.295	93.19
292.526	82.19
292.757	73.19
292.987	87.19
293.218	81.19
293.449	83.19
293.68	79.19
293.91	87.19
294.141	91.19
294.372	71.19
294.603	98.19
294.833	78.19
295.064	95.19
295.295	87.19
295.525	95.19
295.756	90.19
295.987	92.19
296.217	85.19
296.448	89.19
296.679	91.19
296.909	94.19
297.14	91.19
297.37	75.19
297.601	69.19
297.831	88.19
298.062	104.19
298.292	74.19
298.523	81.19
298.753	99.19
298.984	72.19
299.214	84.19
299.445	80.19
299.675	94.19
299.905	88.19
300.136	80.19
300.366	81.19
300.597	78.19
300.827	77.19
301.057	87.19
301.288	83.19
301.518	86.19
301.748	93.19
301.979	87.19
302.209	88.19
302.439	89.19
302.669	80.19
302.9	85.19
303.13	91.19
303.36	75.19
303.59	87.19
303.82	88.19
304.051	75.19
304.281	90.19
304.511	89.19
304.741	84.19
304.971	92.19
305.201	91.19
305.431	81.19
305.661	83.19
305.891	83.19
306.121	81.19
306.352	79.19
306.582	82.19
306.812	87.19
307.042	83.19
307.272	96.19
307.502	77.19
307.731	83.19
307.961	90.19
308.191	95.19
308.421	95.19
308.651	89.19
308.881	89.19
309.111	96.19
309.341	97.19
309.571	78.19
309.8	78.19
310.03	93.19
310.26	69.19
310.49	82.19
310.72	77.19
310.949	78.19
311.179	87.19
311.409	78.19
311.639	78.19
311.868	97.19
312.098	78.19
312.328	91.19
312.557	77.19
312.787	83.19
313.017	98.19
313.246	89.19
313.476	82.19
313.706	70.19
313.935	85.19
314.165	93.19
314.394	98.19
314.624	80.19
314.853	80.19
315.083	82.19
315.312	88.19
315.542	77.19
315.771	90.19
316.001	81.19
316.23	87.19
316.46	83.19
316.689	80.19
316.919	98.19
317.148	70.19
317.377	79.19
317.607	89.19
317.836	79.19
318.065	90.19
318.295	91.19
318.524	90.19
318.753	87.19
318.983	82.19
319.212	94.19
319.441	89.19
319.67	91.19
319.9	88.19
320.129	84.19
320.358	83.19
320.587	95.19
320.816	74.19
321.046	103.19
321.275	94.19
321.504	75.19
321.733	82.19
321.962	89.19
322.191	97.19
322.42	77.19
322.649	76.19
322.878	95.19
323.108	77.19
323.337	91.19
323.566	89.19
323.795	86.19
324.024	93.19
324.253	90.19
324.482	93.19
324.71	78.19
324.939	86.19
325.168	85.19
325.397	102.19
325.626	85.19
325.855	71.19
326.084	88.19
326.313	90.19
326.542	91.19
326.77	81.19
326.999	82.19
327.228	79.19
327.457	87.19
327.686	93.19
327.914	98.19
328.143	98.19
328.372	83.19
328.6	86.19
328.829	89.19
329.058	88.19
329.287	87.19
329.515	93.19
329.744	86.19
329.972	82.19
330.201	86.19
330.43	91.19
330.658	97.19
330.887	79.19
331.115	83.19
331.344	89.19
331.572	99.19
331.801	95.19
332.03	82.19
332.258	92.19
332.486	72.19
332.715	95.19
332.943	83.19
333.172	75.19
333.4	67.19
333.629	101.19
333.857	78.19
334.085	85.19
334.314	85.19
334.542	97.19
334.771	90.19
334.999	87.19
335.227	98.19
335.455	78.19
335.684	85.19
335.912	85.19
336.14	101.19
336.369	97.19
336.597	85.19
336.825	81.19
337.053	89.19
337.281	88.19
337.51	92.19
337.738	83.19
337.966	88.19
338.194	89.19
338.422	87.19
338.65	88.19
338.878	88.19
339.106	83.19
339.334	105.19
339.562	92.19
339.79	83.19
340.018	69.19
340.246	90.19
340.474	75.19
340.702	89.19
340.93	73.19
341.158	76.19
341.386	88.19
341.614	81.19
341.842	91.19
342.07	85.19
342.298	74.19
342.526	76.19
342.754	86.19
342.981	82.19
343.209	84.19
343.437	81.19
343.665	81.19
343.893	79.19
344.12	89.19
344.348	86.19
344.576	89.19
344.804	73.19
345.031	87.19
345.259	93.19
345.487	88.19
345.714	83.19
345.942	76.19
346.17	82.19
346.397	93.19
346.625	82.19
346.853	92.19
347.08	79.19
347.308	107.19
347.535	71.19
347.763	82.19
347.99	81.19
348.218	86.19
348.445	83.19
348.673	89.19
348.9	99.19
349.128	98.19
349.355	73.19
349.583	81.19
349.81	85.19
350.037	82.19
350.265	85.19
350.492	85.19
350.72	77.19
350.947	80.19
351.174	80.19
351.402	88.19
351.629	82.19
351.856	82.19
352.083	83.19
352.311	88.19
352.538	101.19
352.765	80.19
352.992	89.19
353.22	86.19
353.447	97.19
353.674	82.19
353.901	78.19
354.128	94.19
354.355	98.19
354.583	89.19
354.81	81.19
355.037	69.19
355.264	87.19
355.491	89.19
355.718	94.19
355.945	91.19
356.172	85.19
356.399	84.19
356.626	85.19
356.853	90.19
357.08	87.19
357.307	83.19
357.534	83.19
357.761	93.19
357.988	91.19
358.215	94.19
358.441	85.19
358.668	91.19
358.895	101.19
359.122	78.19
359.349	70.19
359.576	80.19
359.802	102.19
360.029	88.19
360.256	88.19
360.483	70.19
360.709	81.19
360.936	109.19
361.163	81.19
361.39	81.19
361.616	79.19
361.843	81.19
362.07	101.19
362.296	80.19
362.523	91.19
362.749	88.19
362.976	89.19
363.203	87.19
363.429	77.19
363.656	75.19
363.882	83.19
364.109	95.19
364.335	85.19
364.562	82.19
364.788	81.19
365.015	86.19
365.241	85.19
365.468	88.19
365.694	93.19
365.92	81.19
366.147	85.19
366.373	79.19
366.599	96.19
366.826	94.19
367.052	94.19
367.278	93.19
367.505	91.19
367.731	77.19
367.957	90.19
368.184	89.19
368.41	85.19
368.636	87.19
368.862	72.19
369.089	79.19
369.315	94.19
369.541	86.19
369.767	79.19
369.993	73.19
370.219	87.19
370.445	73.19
370.672	72.19
370.898	83.19
371.124	79.19
371.35	86.19
371.576	80.19
371.802	76.19
372.028	79.19
372.254	91.19
372.48	87.19
372.706	85.19
372.932	83.19
373.158	81.19
373.384	83.19
373.61	86.19
373.835	82.19
374.061	81.19
374.287	93.19
374.513	95.19
374.739	86.19
374.965	86.19
375.191	82.19
375.416	80.19
375.642	90.19
375.868	89.19
376.094	86.19
376.319	97.19
376.545	91.19
376.771	83.19
376.997	78.19
377.222	76.19
377.448	88.19
377.674	88.19
377.899	87.19
378.125	93.19
378.35	78.19
378.576	73.19
378.802	83.19
379.027	74.19
379.253	88.19
379.478	71.19
379.704	97.19
379.929	81.19
380.155	78.19
380.38	99.19
380.606	105.19
380.831	78.19
381.057	95.19
381.282	88.19
381.507	69.19
381.733	89.19
381.958	81.19
382.184	73.19
382.409	92.19
382.634	91.19
382.86	90.19
383.085	81.19
383.31	83.19
383.535	77.19
383.761	71.19
383.986	90.19
384.211	86.19
384.436	74.19
384.662	104.19
384.887	83.19
385.112	84.19
385.337	97.19
385.562	91.19
385.787	90.19
386.013	94.19
386.238	79.19
386.463	94.19
386.688	93.19
386.913	76.19
387.138	87.19
387.363	82.19
387.588	90.19
387.813	91.19
388.038	87.19
388.263	86.19
388.488	78.19
388.713	80.19
388.938	76.19
389.163	91.19
389.387	85.19
389.612	75.19
389.837	78.19
390.062	93.19
390.287	65.19
390.512	88.19
390.736	80.19
390.961	82.19
391.186	80.19
391.411	89.19
391.636	83.19
391.86	73.19
392.085	85.19
392.31	82.19
392.534	101.19
392.759	85.19
392.984	79.19
393.208	96.19
393.433	72.19
393.658	73.19
393.882	93.19
394.107	83.19
394.331	77.19
394.556	92.19
394.78	83.19
395.005	70.19
395.229	81.19
395.454	85.19
395.678	82.19
395.903	87.19
396.127	78.19
396.352	75.19
396.576	96.19
396.801	87.19
397.025	83.19
397.249	83.19
397.474	92.19
397.698	93.19
397.922	81.19
398.147	81.19
398.371	85.19
398.595	88.19
398.82	79.19
399.044	71.19
399.268	96.19
399.492	75.19
399.717	84.19
399.941	79.19
400.165	79.19
400.389	90.19
400.613	79.19
400.837	72.19
401.062	90.19
401.286	81.19
401.51	78.19
401.734	90.19
401.958	85.19
402.182	89.19
402.406	103.19
402.63	79.19
402.854	85.19
403.078	79.19
403.302	76.19
403.526	90.19
403.75	79.19
403.974	81.19
404.198	85.19
404.422	77.19
404.645	90.19
404.869	79.19
405.093	86.19
405.317	78.19
405.541	75.19
405.765	62.19
405.988	80.19
406.212	77.19
406.436	89.19
406.66	83.19
406.883	95.19
407.107	82.19
407.331	81.19
407.555	81.19
407.778	78.19
408.002	65.19
408.226	97.19
408.449	91.19
408.673	90.19
408.896	86.19
409.12	84.19
409.344	72.19
409.567	90.19
409.791	80.19
410.014	83.19
410.238	81.19
410.461	90.19
410.685	95.19
410.908	87.19
411.132	95.19
411.355	71.19
411.578	85.19
411.802	72.19
412.025	75.19
412.249	81.19
412.472	73.19
412.695	81.19
412.919	84.19
413.142	92.19
413.365	79.19
413.589	85.19
413.812	77.19
414.035	75.19
414.258	93.19
414.482	68.19
414.705	74.19
414.928	77.19
415.151	66.19
415.374	73.19
415.597	98.19
415.821	82.19
416.044	74.19
416.267	98.19
416.49	74.19
416.713	89.19
416.936	92.19
417.159	87.19
417.382	82.19
417.605	79.19
417.828	84.19
418.051	78.19
418.274	75.19
418.497	81.19
418.72	78.19
418.943	83.19
419.166	83.19
419.389	87.19
419.611	87.19
419.834	82.19
420.057	88.19
420.28	81.19
420.503	81.19
420.726	82.19
420.948	85.19
421.171	93.19
421.394	82.19
421.617	101.19
421.839	63.19
422.062	90.19
422.285	90.19
422.507	75.19
422.73	75.19
422.953	86.19
423.175	73.19
423.398	67.19
423.621	94.19
423.843	82.19
424.066	87.19
424.288	87.19
424.511	89.19
424.733	87.19
424.956	74.19
425.178	89.19
425.401	77.19
425.623	63.19
425.846	68.19
426.068	83.19
426.291	86.19
426.513	86.19
426.735	79.19
426.958	83.19
427.18	78.19
427.402	84.19
427.625	86.19
427.847	89.19
428.069	75.19
428.292	105.19
428.514	93.19
428.736	102.19
428.958	90.19
429.181	78.19
429.403	86.19
429.625	85.19
429.847	73.19
430.069	85.19
430.292	95.19
430.514	78.19
430.736	70.19
430.958	86.19
431.18	82.19
431.402	63.19
431.624	82.19
431.846	88.19
432.068	82.19
432.29	76.19
432.512	82.19
432.734	66.19
432.956	78.19
433.178	90.19
433.4	86.19
433.622	72.19
433.844	90.19
434.066	102.19
434.287	74.19
434.509	85.19
434.731	81.19
434.953	75.19
435.175	81.19
435.397	83.19
435.618	76.19
435.84	82.19
436.062	90.19
436.284	71.19
436.505	77.19
436.727	84.19
436.949	85.19
437.17	88.19
437.392	76.19
437.614	84.19
437.835	94.19
438.057	81.19
438.278	79.19
438.5	98.19
438.721	73.19
438.943	91.19
439.165	84.19
439.386	82.19
439.608	79.19
439.829	78.19
440.05	97.19
440.272	80.19
440.493	81.19
440.715	86.19
440.936	77.19
441.158	76.19
441.379	82.19
441.6	76.19
441.822	87.19
442.043	85.19
442.264	79.19
442.486	81.19
442.707	80.19
442.928	89.19
443.149	80.19
443.371	81.19
443.592	95.19
443.813	83.19
444.034	91.19
444.255	89.19
444.476	78.19
444.698	93.19
444.919	80.19
445.14	157.19
445.361	113.19
445.582	89.19
445.803	75.19
446.024	90.19
446.245	88.19
446.466	91.19
446.687	77.19
446.908	76.19
447.129	87.19
447.35	89.19
447.571	99.19
447.792	86.19
448.013	88.19
448.234	77.19
448.455	96.19
448.675	101.19
448.896	79.19
449.117	65.19
449.338	86.19
449.559	83.19
449.779	73.19
450	98.19
450.221	91.19
450.442	85.19
450.662	75.19
450.883	78.19
451.104	82.19
451.324	97.19
451.545	83.19
451.766	96.19
451.986	82.19
452.207	77.19
452.428	88.19
452.648	86.19
452.869	73.19
453.089	76.19
453.31	82.19
453.53	81.19
453.751	87.19
453.971	83.19
454.192	85.19
454.412	91.19
454.633	101.19
454.853	59.19
455.073	85.19
455.294	73.19
455.514	87.19
455.734	85.19
455.955	86.19
456.175	86.19
456.395	93.19
456.616	90.19
456.836	88.19
457.056	84.19
457.276	82.19
457.497	80.19
457.717	73.19
457.937	67.19
458.157	83.19
458.377	78.19
458.598	96.19
458.818	78.19
459.038	76.19
459.258	74.19
459.478	92.19
459.698	77.19
459.918	76.19
460.138	69.19
460.358	87.19
460.578	79.19
460.798	84.19
461.018	67.19
461.238	83.19
461.458	71.19
461.678	79.19
461.898	82.19
462.118	88.19
462.338	92.19
462.558	74.19
462.777	74.19
462.997	89.19
463.217	82.19
463.437	86.19
463.657	91.19
463.876	96.19
464.096	75.19
464.316	72.19
464.536	70.19
464.755	87.19
464.975	87.19
465.195	71.19
465.414	92.19
465.634	82.19
465.854	71.19
466.073	82.19
466.293	78.19
466.512	91.19
466.732	73.19
466.951	73.19
467.171	76.19
467.391	96.19
467.61	90.19
467.829	72.19
468.049	86.19
468.268	78.19
468.488	77.19
468.707	82.19
468.927	83.19
469.146	79.19
469.365	73.19
469.585	83.19
469.804	89.19
470.023	83.19
470.243	72.19
470.462	83.19
470.681	66.19
470.901	85.19
471.12	73.19
471.339	80.19
471.558	78.19
471.777	82.19
471.997	74.19
472.216	88.19
472.435	84.19
472.654	88.19
472.873	90.19
473.092	92.19
473.311	85.19
473.53	79.19
473.749	96.19
473.968	74.19
474.187	92.19
474.406	76.19
474.625	84.19
474.844	107.19
475.063	83.19
475.282	74.19
475.501	83.19
475.72	86.19
475.939	69.19
476.158	80.19
476.377	81.19
476.596	73.19
476.814	76.19
477.033	83.19
477.252	80.19
477.471	81.19
477.69	74.19
477.908	90.19
478.127	79.19
478.346	66.19
478.564	83.19
478.783	79.19
479.002	77.19
479.22	84.19
479.439	75.19
479.658	80.19
479.876	73.19
480.095	73.19
480.313	85.19
480.532	77.19
480.751	77.19
480.969	82.19
481.188	87.19
481.406	73.19
481.624	88.19
481.843	74.19
482.061	73.19
482.28	73.19
482.498	82.19
482.717	82.19
482.935	88.19
483.153	93.19
483.372	90.19
483.59	85.19
483.808	83.19
484.027	88.19
484.245	91.19
484.463	82.19
484.681	86.19
484.9	94.19
485.118	74.19
485.336	92.19
485.554	67.19
485.772	76.19
485.99	77.19
486.209	75.19
486.427	87.19
486.645	86.19
486.863	82.19
487.081	87.19
487.299	81.19
487.517	88.19
487.735	81.19
487.953	68.19
488.171	93.19
488.389	84.19
488.607	74.19
488.825	84.19
489.043	75.19
489.261	89.19
489.479	91.19
489.696	78.19
489.914	90.19
490.132	84.19
490.35	85.19
490.568	82.19
490.786	79.19
491.003	103.19
491.221	98.19
491.439	98.19
491.657	88.19
491.874	99.19
492.092	81.19
492.31	77.19
492.527	89.19
492.745	82.19
492.963	95.19
493.18	78.19
493.398	89.19
493.615	90.19
493.833	82.19
494.05	91.19
494.268	85.19
494.485	83.19
494.703	82.19
494.92	87.19
495.138	89.19
495.355	97.19
495.573	86.19
495.79	85.19
496.008	88.19
496.225	89.19
496.442	87.19
496.66	92.19
496.877	90.19
497.094	78.19
497.312	96.19
497.529	83.19
497.746	86.19
497.963	77.19
498.181	86.19
498.398	90.19
498.615	80.19
498.832	85.19
499.049	82.19
499.267	91.19
499.484	73.19
499.701	68.19
499.918	79.19
500.135	81.19
500.352	73.19
500.569	81.19
500.786	88.19
501.003	87.19
501.22	77.19
501.437	84.19
501.654	83.19
501.871	81.19
502.088	78.19
502.305	96.19
502.522	77.19
502.739	73.19
502.956	81.19
503.172	83.19
503.389	87.19
503.606	83.19
503.823	86.19
504.04	78.19
504.256	97.19
504.473	93.19
504.69	77.19
504.907	94.19
505.123	96.19
505.34	89.19
505.557	81.19
505.773	89.19
505.99	87.19
506.207	94.19
506.423	93.19
506.64	84.19
506.856	85.19
507.073	79.19
507.289	83.19
507.506	102.19
507.722	87.19
507.939	86.19
508.155	82.19
508.372	87.19
508.588	83.19
508.805	90.19
509.021	84.19
509.238	92.19
509.454	85.19
509.67	82.19
509.887	75.19
510.103	77.19
510.319	80.19
510.536	97.19
510.752	87.19
510.968	73.19
511.184	85.19
511.401	82.19
511.617	106.19
511.833	79.19
512.049	85.19
512.265	83.19
512.481	81.19
512.698	97.19
512.914	89.19
513.13	85.19
513.346	94.19
513.562	82.19
513.778	80.19
513.994	83.19
514.21	93.19
514.426	94.19
514.642	101.19
514.858	82.19
515.074	78.19
515.29	83.19
515.506	85.19
515.721	83.19
515.937	85.19
516.153	86.19
516.369	92.19
516.585	96.19
516.801	74.19
517.016	78.19
517.232	86.19
517.448	96.19
517.664	73.19
517.879	78.19
518.095	80.19
518.311	75.19
518.527	81.19
518.742	87.19
518.958	85.19
519.173	69.19
519.389	85.19
519.605	95.19
519.82	90.19
520.036	81.19
