Data from BG_HRD10591_030.txt Node
Date: Fri May 16 15:27:02 EDT 2025
User: Yrep
Spectrometer: HR+D1059
Trigger mode: 1
Integration Time (sec): 1.000000E-1
Scans to average: 1
Electric dark correction enabled: true
Nonlinearity correction enabled: false
Boxcar width: 0
XAxis mode: Wavelengths
Number of Pixels in Spectrum: 2048
>>>>>Begin Spectral Data<<<<<
223.165	-22
223.4	-22
223.635	-22
223.869	-13
224.104	-23
224.338	-12
224.573	-12
224.808	-27
225.042	-13
225.277	6
225.511	-3
225.746	5
225.98	9
226.215	9
226.449	32
226.683	18
226.918	23
227.152	23
227.387	36
227.621	33
227.856	44
228.09	47
228.324	45
228.559	62
228.793	53
229.027	57
229.262	52
229.496	64
229.73	78
229.964	80
230.199	60
230.433	72
230.667	60
230.901	84
231.136	72
231.37	68
231.604	71
231.838	80
232.072	77
232.306	81
232.541	89
232.775	80
233.009	78
233.243	93
233.477	74
233.711	84
233.945	84
234.179	81
234.413	78
234.647	69
234.881	84
235.115	83
235.349	82
235.583	76
235.817	75
236.051	73
236.285	73
236.519	79
236.753	87
236.987	75
237.221	78
237.455	97
237.689	73
237.922	64
238.156	73
238.39	76
238.624	77
238.858	66
239.091	71
239.325	64
239.559	79
239.793	85
240.027	69
240.26	62
240.494	76
240.728	81
240.961	78
241.195	92
241.429	65
241.662	69
241.896	69
242.13	60
242.363	74
242.597	70
242.83	72
243.064	83
243.298	85
243.531	85
243.765	85
243.998	72
244.232	86
244.465	85
244.699	73
244.932	72
245.166	84
245.399	76
245.633	74
245.866	81
246.099	75
246.333	90
246.566	80
246.8	84
247.033	69
247.266	74
247.5	101
247.733	67
247.966	57
248.2	71
248.433	92
248.666	87
248.899	70
249.133	87
249.366	81
249.599	88
249.832	78
250.066	88
250.299	70
250.532	86
250.765	84
250.998	76
251.231	85
251.465	84
251.698	66
251.931	75
252.164	80
252.397	71
252.63	94
252.863	78
253.096	72
253.329	94
253.562	86
253.795	73
254.028	80
254.261	82
254.494	65
254.727	72
254.96	77
255.193	75
255.426	79
255.659	95
255.892	85
256.124	90
256.357	89
256.59	86
256.823	73
257.056	88
257.289	82
257.521	86
257.754	84
257.987	73
258.22	88
258.452	79
258.685	82
258.918	84
259.151	72
259.383	82
259.616	72
259.849	70
260.081	87
260.314	68
260.547	80
260.779	77
261.012	72
261.244	64
261.477	92
261.71	90
261.942	85
262.175	80
262.407	81
262.64	77
262.872	78
263.105	77
263.337	78
263.57	79
263.802	93
264.035	88
264.267	90
264.499	84
264.732	90
264.964	81
265.197	75
265.429	89
265.661	88
265.894	97
266.126	93
266.358	85
266.591	67
266.823	93
267.055	75
267.287	76
267.52	84
267.752	83
267.984	78
268.216	75
268.448	91
268.681	85
268.913	97
269.145	86
269.377	84
269.609	83
269.841	91
270.073	66
270.306	76
270.538	78
270.77	73
271.002	75
271.234	81
271.466	97
271.698	77
271.93	68
272.162	89
272.394	85
272.626	87
272.858	80
273.09	80
273.322	78
273.553	78
273.785	79
274.017	76
274.249	88
274.481	93
274.713	70
274.945	79
275.176	93
275.408	98
275.64	82
275.872	86
276.104	96
276.335	81
276.567	80
276.799	86
277.031	84
277.262	72
277.494	91
277.726	88
277.957	76
278.189	82
278.421	74
278.652	84
278.884	96
279.115	77
279.347	94
279.579	79
279.81	73
280.042	71
280.273	88
280.505	79
280.736	79
280.968	83
281.199	79
281.431	85
281.662	93
281.894	86
282.125	84
282.356	95
282.588	79
282.819	78
283.051	73
283.282	92
283.513	81
283.745	90
283.976	66
284.207	86
284.439	77
284.67	79
284.901	78
285.132	83
285.364	82
285.595	74
285.826	89
286.057	87
286.288	81
286.52	78
286.751	85
286.982	79
287.213	87
287.444	67
287.675	92
287.906	85
288.138	70
288.369	91
288.6	87
288.831	82
289.062	80
289.293	79
289.524	76
289.755	95
289.986	88
290.217	71
290.448	87
290.679	93
290.91	75
291.141	72
291.371	90
291.602	90
291.833	89
292.064	80
292.295	86
292.526	94
292.757	105
292.987	73
293.218	76
293.449	84
293.68	94
293.91	81
294.141	84
294.372	70
294.603	72
294.833	93
295.064	82
295.295	85
295.525	81
295.756	88
295.987	96
296.217	84
296.448	81
296.679	87
296.909	87
297.14	84
297.37	88
297.601	74
297.831	84
298.062	74
298.292	66
298.523	89
298.753	90
298.984	90
299.214	86
299.445	94
299.675	91
299.905	97
300.136	89
300.366	68
300.597	84
300.827	91
301.057	69
301.288	88
301.518	85
301.748	90
301.979	95
302.209	81
302.439	86
302.669	79
302.9	84
303.13	84
303.36	71
303.59	90
303.82	73
304.051	92
304.281	84
304.511	82
304.741	86
304.971	97
305.201	108
305.431	86
305.661	86
305.891	73
306.121	88
306.352	74
306.582	81
306.812	80
307.042	76
307.272	80
307.502	84
307.731	94
307.961	101
308.191	80
308.421	97
308.651	78
308.881	86
309.111	78
309.341	84
309.571	91
309.8	91
310.03	83
310.26	80
310.49	80
310.72	75
310.949	101
311.179	92
311.409	76
311.639	81
311.868	84
312.098	88
312.328	79
312.557	81
312.787	70
313.017	91
313.246	92
313.476	95
313.706	93
313.935	77
314.165	84
314.394	97
314.624	82
314.853	82
315.083	88
315.312	88
315.542	85
315.771	80
316.001	74
316.23	76
316.46	87
316.689	79
316.919	89
317.148	82
317.377	84
317.607	94
317.836	76
318.065	78
318.295	79
318.524	71
318.753	84
318.983	96
319.212	93
319.441	72
319.67	96
319.9	88
320.129	82
320.358	88
320.587	83
320.816	85
321.046	104
321.275	80
321.504	87
321.733	96
321.962	73
322.191	70
322.42	90
322.649	76
322.878	80
323.108	78
323.337	77
323.566	72
323.795	88
324.024	88
324.253	84
324.482	84
324.71	87
324.939	91
325.168	86
325.397	95
325.626	84
325.855	87
326.084	82
326.313	89
326.542	82
326.77	82
326.999	89
327.228	90
327.457	87
327.686	87
327.914	85
328.143	80
328.372	70
328.6	78
328.829	80
329.058	82
329.287	88
329.515	64
329.744	89
329.972	88
330.201	89
330.43	97
330.658	90
330.887	98
331.115	78
331.344	94
331.572	99
331.801	76
332.03	78
332.258	85
332.486	77
332.715	89
332.943	83
333.172	87
333.4	91
333.629	85
333.857	106
334.085	88
334.314	82
334.542	86
334.771	76
334.999	72
335.227	79
335.455	86
335.684	94
335.912	79
336.14	89
336.369	75
336.597	98
336.825	80
337.053	86
337.281	74
337.51	78
337.738	95
337.966	88
338.194	82
338.422	92
338.65	78
338.878	88
339.106	87
339.334	90
339.562	87
339.79	94
340.018	90
340.246	90
340.474	84
340.702	86
340.93	73
341.158	83
341.386	66
341.614	93
341.842	82
342.07	79
342.298	76
342.526	95
342.754	86
342.981	90
343.209	86
343.437	101
343.665	78
343.893	92
344.12	71
344.348	88
344.576	90
344.804	69
345.031	84
345.259	89
345.487	78
345.714	80
345.942	78
346.17	78
346.397	82
346.625	85
346.853	80
347.08	88
347.308	82
347.535	90
347.763	80
347.99	95
348.218	77
348.445	97
348.673	93
348.9	75
349.128	96
349.355	87
349.583	81
349.81	97
350.037	85
350.265	94
350.492	80
350.72	92
350.947	93
351.174	86
351.402	70
351.629	91
351.856	84
352.083	90
352.311	83
352.538	86
352.765	71
352.992	89
353.22	83
353.447	76
353.674	86
353.901	107
354.128	88
354.355	86
354.583	83
354.81	90
355.037	78
355.264	86
355.491	73
355.718	79
355.945	89
356.172	66
356.399	75
356.626	83
356.853	73
357.08	85
357.307	94
357.534	72
357.761	88
357.988	79
358.215	92
358.441	81
358.668	94
358.895	86
359.122	85
359.349	86
359.576	90
359.802	87
360.029	96
360.256	74
360.483	61
360.709	78
360.936	89
361.163	93
361.39	81
361.616	84
361.843	81
362.07	96
362.296	90
362.523	92
362.749	80
362.976	85
363.203	78
363.429	89
363.656	78
363.882	88
364.109	87
364.335	104
364.562	86
364.788	81
365.015	81
365.241	72
365.468	86
365.694	78
365.92	77
366.147	85
366.373	88
366.599	75
366.826	81
367.052	86
367.278	82
367.505	75
367.731	93
367.957	90
368.184	91
368.41	80
368.636	82
368.862	87
369.089	81
369.315	78
369.541	80
369.767	78
369.993	78
370.219	89
370.445	90
370.672	75
370.898	89
371.124	90
371.35	73
371.576	82
371.802	86
372.028	93
372.254	91
372.48	85
372.706	83
372.932	78
373.158	78
373.384	77
373.61	91
373.835	86
374.061	75
374.287	77
374.513	89
374.739	68
374.965	73
375.191	85
375.416	82
375.642	78
375.868	102
376.094	86
376.319	90
376.545	86
376.771	91
376.997	80
377.222	84
377.448	79
377.674	94
377.899	71
378.125	77
378.35	86
378.576	75
378.802	85
379.027	78
379.253	97
379.478	95
379.704	74
379.929	74
380.155	88
380.38	81
380.606	94
380.831	71
381.057	56
381.282	82
381.507	68
381.733	81
381.958	87
382.184	84
382.409	100
382.634	73
382.86	72
383.085	85
383.31	86
383.535	87
383.761	88
383.986	97
384.211	90
384.436	85
384.662	80
384.887	70
385.112	86
385.337	83
385.562	80
385.787	85
386.013	92
386.238	72
386.463	66
386.688	90
386.913	76
387.138	74
387.363	84
387.588	80
387.813	77
388.038	93
388.263	75
388.488	81
388.713	71
388.938	87
389.163	66
389.387	82
389.612	66
389.837	86
390.062	81
390.287	79
390.512	86
390.736	88
390.961	84
391.186	80
391.411	90
391.636	79
391.86	89
392.085	90
392.31	94
392.534	80
392.759	85
392.984	96
393.208	66
393.433	84
393.658	85
393.882	79
394.107	77
394.331	79
394.556	96
394.78	84
395.005	80
395.229	78
395.454	84
395.678	72
395.903	87
396.127	63
396.352	91
396.576	93
396.801	82
397.025	83
397.249	79
397.474	90
397.698	65
397.922	75
398.147	91
398.371	88
398.595	86
398.82	82
399.044	78
399.268	64
399.492	76
399.717	76
399.941	82
400.165	83
400.389	90
400.613	80
400.837	85
401.062	85
401.286	88
401.51	77
401.734	64
401.958	98
402.182	70
402.406	93
402.63	84
402.854	78
403.078	89
403.302	81
403.526	82
403.75	86
403.974	74
404.198	93
404.422	88
404.645	81
404.869	70
405.093	86
405.317	87
405.541	80
405.765	85
405.988	81
406.212	86
406.436	80
406.66	69
406.883	84
407.107	78
407.331	89
407.555	94
407.778	74
408.002	75
408.226	78
408.449	90
408.673	65
408.896	74
409.12	78
409.344	79
409.567	64
409.791	81
410.014	85
410.238	72
410.461	89
410.685	61
410.908	64
411.132	86
411.355	78
411.578	78
411.802	82
412.025	79
412.249	67
412.472	83
412.695	78
412.919	81
413.142	80
413.365	76
413.589	83
413.812	90
414.035	80
414.258	85
414.482	89
414.705	82
414.928	93
415.151	84
415.374	61
415.597	88
415.821	88
416.044	71
416.267	81
416.49	101
416.713	95
416.936	86
417.159	90
417.382	74
417.605	80
417.828	90
418.051	94
418.274	86
418.497	91
418.72	82
418.943	86
419.166	70
419.389	75
419.611	83
419.834	81
420.057	74
420.28	74
420.503	80
420.726	71
420.948	75
421.171	74
421.394	86
421.617	68
421.839	71
422.062	90
422.285	96
422.507	86
422.73	82
422.953	66
423.175	85
423.398	86
423.621	83
423.843	77
424.066	86
424.288	88
424.511	78
424.733	89
424.956	90
425.178	100
425.401	72
425.623	76
425.846	76
426.068	88
426.291	76
426.513	76
426.735	80
426.958	66
427.18	74
427.402	79
427.625	73
427.847	84
428.069	86
428.292	68
428.514	65
428.736	70
428.958	71
429.181	73
429.403	83
429.625	67
429.847	71
430.069	93
430.292	98
430.514	80
430.736	81
430.958	74
431.18	94
431.402	80
431.624	83
431.846	77
432.068	88
432.29	81
432.512	79
432.734	86
432.956	72
433.178	74
433.4	85
433.622	78
433.844	82
434.066	87
434.287	90
434.509	73
434.731	83
434.953	83
435.175	87
435.397	90
435.618	86
435.84	93
436.062	96
436.284	80
436.505	71
436.727	85
436.949	71
437.17	84
437.392	86
437.614	78
437.835	74
438.057	78
438.278	82
438.5	81
438.721	77
438.943	77
439.165	91
439.386	79
439.608	84
439.829	80
440.05	100
440.272	84
440.493	75
440.715	76
440.936	86
441.158	98
441.379	77
441.6	93
441.822	72
442.043	94
442.264	85
442.486	83
442.707	98
442.928	81
443.149	90
443.371	74
443.592	76
443.813	88
444.034	87
444.255	78
444.476	76
444.698	85
444.919	80
445.14	157
445.361	105
445.582	74
445.803	80
446.024	85
446.245	92
446.466	69
446.687	76
446.908	88
447.129	66
447.35	76
447.571	72
447.792	80
448.013	81
448.234	70
448.455	73
448.675	75
448.896	72
449.117	74
449.338	84
449.559	91
449.779	82
450	85
450.221	88
450.442	81
450.662	86
450.883	85
451.104	79
451.324	76
451.545	77
451.766	89
451.986	86
452.207	89
452.428	74
452.648	84
452.869	65
453.089	74
453.31	70
453.53	80
453.751	80
453.971	84
454.192	87
454.412	85
454.633	72
454.853	92
455.073	78
455.294	91
455.514	92
455.734	95
455.955	85
456.175	98
456.395	76
456.616	77
456.836	77
457.056	74
457.276	87
457.497	70
457.717	74
457.937	81
458.157	72
458.377	70
458.598	76
458.818	79
459.038	76
459.258	74
459.478	80
459.698	93
459.918	91
460.138	72
460.358	83
460.578	78
460.798	74
461.018	80
461.238	90
461.458	80
461.678	78
461.898	78
462.118	85
462.338	67
462.558	97
462.777	73
462.997	63
463.217	94
463.437	81
463.657	79
463.876	86
464.096	80
464.316	70
464.536	84
464.755	77
464.975	64
465.195	76
465.414	92
465.634	80
465.854	81
466.073	62
466.293	80
466.512	75
466.732	72
466.951	87
467.171	86
467.391	74
467.61	89
467.829	81
468.049	84
468.268	75
468.488	71
468.707	70
468.927	82
469.146	80
469.365	86
469.585	57
469.804	79
470.023	73
470.243	77
470.462	74
470.681	80
470.901	79
471.12	80
471.339	73
471.558	74
471.777	75
471.997	78
472.216	77
472.435	82
472.654	91
472.873	89
473.092	74
473.311	77
473.53	73
473.749	82
473.968	100
474.187	83
474.406	82
474.625	84
474.844	86
475.063	74
475.282	84
475.501	88
475.72	66
475.939	85
476.158	74
476.377	80
476.596	73
476.814	77
477.033	85
477.252	93
477.471	78
477.69	66
477.908	72
478.127	89
478.346	78
478.564	74
478.783	82
479.002	72
479.22	93
479.439	87
479.658	98
479.876	76
480.095	70
480.313	86
480.532	78
480.751	81
480.969	86
481.188	93
481.406	82
481.624	88
481.843	85
482.061	84
482.28	89
482.498	80
482.717	80
482.935	77
483.153	81
483.372	97
483.59	81
483.808	84
484.027	79
484.245	78
484.463	81
484.681	76
484.9	82
485.118	85
485.336	84
485.554	82
485.772	74
485.99	101
486.209	89
486.427	89
486.645	84
486.863	76
487.081	76
487.299	83
487.517	87
487.735	74
487.953	72
488.171	80
488.389	82
488.607	82
488.825	74
489.043	87
489.261	84
489.479	69
489.696	76
489.914	82
490.132	79
490.35	79
490.568	81
490.786	72
491.003	88
491.221	82
491.439	66
491.657	75
491.874	73
492.092	93
492.31	81
492.527	76
492.745	78
492.963	69
493.18	94
493.398	73
493.615	91
493.833	74
494.05	80
494.268	77
494.485	81
494.703	73
494.92	72
495.138	90
495.355	86
495.573	80
495.79	62
496.008	75
496.225	93
496.442	81
496.66	85
496.877	82
497.094	64
497.312	76
497.529	72
497.746	85
497.963	80
498.181	61
498.398	82
498.615	72
498.832	84
499.049	75
499.267	73
499.484	82
499.701	80
499.918	84
500.135	79
500.352	80
500.569	79
500.786	77
501.003	76
501.22	81
501.437	66
501.654	80
501.871	79
502.088	87
502.305	74
502.522	85
502.739	99
502.956	88
503.172	82
503.389	84
503.606	77
503.823	68
504.04	89
504.256	78
504.473	86
504.69	88
504.907	82
505.123	76
505.34	72
505.557	76
505.773	93
505.99	83
506.207	87
506.423	83
506.64	80
506.856	94
507.073	81
507.289	73
507.506	85
507.722	68
507.939	97
508.155	108
508.372	85
508.588	81
508.805	77
509.021	88
509.238	84
509.454	86
509.67	77
509.887	69
510.103	73
510.319	89
510.536	85
510.752	91
510.968	76
511.184	82
511.401	88
511.617	91
511.833	99
512.049	102
512.265	95
512.481	89
512.698	74
512.914	71
513.13	77
513.346	76
513.562	91
513.778	78
513.994	93
514.21	91
514.426	77
514.642	86
514.858	76
515.074	87
515.29	83
515.506	78
515.721	78
515.937	74
516.153	88
516.369	78
516.585	88
516.801	68
517.016	86
517.232	73
517.448	86
517.664	94
517.879	89
518.095	84
518.311	72
518.527	78
518.742	76
518.958	93
519.173	90
519.389	89
519.605	78
519.82	101
520.036	92
520.251	82
520.467	92
520.682	71
520.898	74
521.113	85
521.329	87
521.544	84
521.76	90
521.975	74
522.19	80
522.406	86
522.621	63
522.836	79
523.052	74
523.267	83
523.482	70
523.698	77
523.913	82
524.128	66
524.343	76
524.559	74
524.774	74
524.989	87
525.204	90
525.419	86
525.634	85
525.849	92
526.064	86
526.28	88
526.495	87
526.71	79
526.925	80
527.14	84
527.355	93
527.57	96
527.785	91
527.999	81
528.214	86
528.429	64
528.644	72
528.859	79
529.074	84
529.289	84
529.503	82
529.718	85
529.933	78
530.148	85
530.363	91
530.577	88
530.792	88
531.007	79
531.221	80
531.436	83
531.651	85
531.865	94
532.08	91
532.295	92
532.509	86
532.724	80
532.938	82
533.153	89
533.367	74
533.582	101
533.796	74
534.011	72
534.225	92
534.44	86
534.654	100
534.868	79
535.083	93
535.297	88
535.511	82
535.726	83
535.94	87
536.154	88
536.369	97
536.583	86
536.797	88
537.011	80
537.225	91
537.44	80
537.654	70
537.868	75
538.082	85
538.296	78
538.51	78
538.724	91
538.938	76
539.153	83
539.367	72
539.581	97
539.795	66
540.009	91
540.222	84
540.436	92
540.65	81
540.864	68
541.078	73
541.292	81
541.506	88
541.72	82
541.934	84
542.147	85
542.361	98
542.575	95
542.789	78
543.002	88
543.216	82
543.43	88
543.644	77
543.857	77
544.071	86
544.285	72
544.498	71
544.712	81
544.925	87
545.139	108
545.352	81
545.566	78
545.779	76
545.993	73
546.206	76
546.42	74
546.633	86
546.847	85
547.06	90
547.274	73
547.487	89
547.7	74
547.914	74
548.127	87
548.34	86
548.554	81
548.767	87
548.98	82
549.193	74
549.407	91
549.62	80
549.833	69
550.046	96
550.259	85
550.473	80
550.686	81
550.899	91
551.112	73
551.325	76
551.538	66
551.751	83
551.964	102
552.177	84
552.39	100
552.603	85
552.816	93
553.029	74
553.242	81
553.455	96
553.667	74
553.88	88
554.093	80
554.306	68
554.519	72
554.732	74
554.944	94
555.157	80
555.37	102
555.583	92
555.795	77
556.008	87
556.221	94
556.433	90
556.646	84
556.859	90
557.071	91
557.284	78
557.496	93
557.709	95
557.921	80
558.134	72
558.346	94
558.559	104
558.771	89
558.984	78
559.196	89
559.409	84
559.621	86
559.833	95
560.046	86
560.258	78
560.47	70
560.683	84
560.895	89
561.107	78
561.32	71
561.532	78
561.744	104
561.956	71
562.168	86
562.381	84
562.593	82
562.805	92
563.017	80
563.229	89
563.441	102
563.653	77
563.865	78
564.077	89
564.289	87
564.501	71
564.713	72
564.925	92
565.137	93
565.349	86
565.561	90
565.773	88
565.985	76
566.197	79
566.408	94
566.62	70
566.832	101
567.044	90
567.255	89
567.467	90
567.679	93
567.891	107
568.102	82
568.314	62
568.526	88
568.737	96
568.949	86
569.161	84
569.372	93
569.584	84
569.795	80
570.007	92
570.218	88
570.43	89
570.641	92
570.853	82
571.064	74
571.276	72
571.487	84
571.698	76
571.91	88
572.121	73
572.333	81
572.544	88
572.755	96
572.966	82
573.178	80
573.389	85
573.6	80
573.811	79
574.023	80
574.234	88
574.445	95
574.656	88
574.867	84
575.078	77
575.289	76
575.501	76
575.712	78
575.923	84
576.134	76
576.345	82
576.556	103
576.767	78
576.978	90
577.188	76
577.399	89
577.61	95
577.821	76
578.032	85
578.243	73
578.454	79
578.665	84
578.875	84
579.086	75
579.297	79
579.508	95
579.718	85
579.929	81
580.14	84
580.35	78
580.561	84
580.772	81
580.982	81
581.193	89
581.403	91
581.614	87
581.825	98
582.035	78
582.246	80
582.456	89
582.667	78
582.877	82
583.087	89
583.298	97
583.508	87
583.719	90
583.929	82
584.139	79
584.35	84
584.56	85
584.77	81
584.981	79
585.191	77
585.401	79
585.611	78
585.821	74
586.032	85
586.242	87
586.452	91
586.662	91
586.872	79
587.082	67
587.292	68
587.502	75
587.713	84
587.923	90
588.133	103
588.343	100
588.553	86
588.762	87
588.972	82
589.182	80
589.392	69
589.602	83
589.812	88
590.022	88
590.232	74
590.441	103
590.651	84
