Data from BG_HRD10591_059.txt Node
Date: Fri May 16 15:27:16 EDT 2025
User: Yrep
Spectrometer: HR+D1059
Trigger mode: 1
Integration Time (sec): 1.000000E-1
Scans to average: 1
Electric dark correction enabled: true
Nonlinearity correction enabled: false
Boxcar width: 0
XAxis mode: Wavelengths
Number of Pixels in Spectrum: 2048
>>>>>Begin Spectral Data<<<<<
223.165	-23.81
223.4	-23.81
223.635	-23.81
223.869	-20.81
224.104	-22.81
224.338	-8.81
224.573	0.19
224.808	-18.81
225.042	-0.81
225.277	-6.81
225.511	-5.81
225.746	3.19
225.98	-0.81
226.215	15.19
226.449	3.19
226.683	32.19
226.918	24.19
227.152	31.19
227.387	54.19
227.621	43.19
227.856	42.19
228.09	52.19
228.324	54.19
228.559	64.19
228.793	64.19
229.027	62.19
229.262	58.19
229.496	69.19
229.73	62.19
229.964	59.19
230.199	61.19
230.433	82.19
230.667	82.19
230.901	75.19
231.136	63.19
231.37	72.19
231.604	84.19
231.838	52.19
232.072	77.19
232.306	85.19
232.541	72.19
232.775	76.19
233.009	81.19
233.243	82.19
233.477	82.19
233.711	84.19
233.945	87.19
234.179	77.19
234.413	73.19
234.647	65.19
234.881	74.19
235.115	78.19
235.349	80.19
235.583	79.19
235.817	83.19
236.051	79.19
236.285	78.19
236.519	74.19
236.753	86.19
236.987	83.19
237.221	66.19
237.455	68.19
237.689	88.19
237.922	71.19
238.156	78.19
238.39	67.19
238.624	65.19
238.858	67.19
239.091	75.19
239.325	73.19
239.559	88.19
239.793	70.19
240.027	87.19
240.26	65.19
240.494	84.19
240.728	67.19
240.961	68.19
241.195	87.19
241.429	76.19
241.662	77.19
241.896	74.19
242.13	74.19
242.363	79.19
242.597	78.19
242.83	68.19
243.064	64.19
243.298	57.19
243.531	83.19
243.765	69.19
243.998	67.19
244.232	90.19
244.465	76.19
244.699	76.19
244.932	83.19
245.166	79.19
245.399	85.19
245.633	80.19
245.866	83.19
246.099	64.19
246.333	82.19
246.566	65.19
246.8	84.19
247.033	84.19
247.266	82.19
247.5	72.19
247.733	88.19
247.966	78.19
248.2	73.19
248.433	87.19
248.666	74.19
248.899	83.19
249.133	74.19
249.366	91.19
249.599	72.19
249.832	72.19
250.066	75.19
250.299	69.19
250.532	79.19
250.765	71.19
250.998	68.19
251.231	86.19
251.465	78.19
251.698	66.19
251.931	78.19
252.164	79.19
252.397	61.19
252.63	75.19
252.863	72.19
253.096	74.19
253.329	81.19
253.562	86.19
253.795	79.19
254.028	75.19
254.261	86.19
254.494	80.19
254.727	83.19
254.96	89.19
255.193	72.19
255.426	84.19
255.659	76.19
255.892	84.19
256.124	69.19
256.357	80.19
256.59	75.19
256.823	84.19
257.056	80.19
257.289	67.19
257.521	79.19
257.754	82.19
257.987	95.19
258.22	77.19
258.452	86.19
258.685	86.19
258.918	86.19
259.151	83.19
259.383	70.19
259.616	86.19
259.849	91.19
260.081	83.19
260.314	87.19
260.547	86.19
260.779	73.19
261.012	76.19
261.244	72.19
261.477	90.19
261.71	76.19
261.942	79.19
262.175	87.19
262.407	99.19
262.64	86.19
262.872	75.19
263.105	91.19
263.337	84.19
263.57	80.19
263.802	75.19
264.035	80.19
264.267	73.19
264.499	98.19
264.732	89.19
264.964	70.19
265.197	74.19
265.429	74.19
265.661	89.19
265.894	87.19
266.126	96.19
266.358	85.19
266.591	88.19
266.823	104.19
267.055	85.19
267.287	87.19
267.52	83.19
267.752	86.19
267.984	65.19
268.216	79.19
268.448	94.19
268.681	80.19
268.913	80.19
269.145	92.19
269.377	82.19
269.609	77.19
269.841	79.19
270.073	85.19
270.306	88.19
270.538	80.19
270.77	79.19
271.002	92.19
271.234	77.19
271.466	89.19
271.698	78.19
271.93	86.19
272.162	85.19
272.394	79.19
272.626	88.19
272.858	82.19
273.09	72.19
273.322	73.19
273.553	71.19
273.785	88.19
274.017	89.19
274.249	80.19
274.481	89.19
274.713	79.19
274.945	76.19
275.176	73.19
275.408	84.19
275.64	84.19
275.872	87.19
276.104	89.19
276.335	77.19
276.567	71.19
276.799	72.19
277.031	70.19
277.262	81.19
277.494	85.19
277.726	86.19
277.957	91.19
278.189	82.19
278.421	78.19
278.652	86.19
278.884	93.19
279.115	92.19
279.347	98.19
279.579	93.19
279.81	79.19
280.042	88.19
280.273	95.19
280.505	84.19
280.736	89.19
280.968	82.19
281.199	73.19
281.431	74.19
281.662	79.19
281.894	79.19
282.125	84.19
282.356	82.19
282.588	80.19
282.819	71.19
283.051	77.19
283.282	72.19
283.513	85.19
283.745	84.19
283.976	94.19
284.207	77.19
284.439	89.19
284.67	90.19
284.901	82.19
285.132	94.19
285.364	62.19
285.595	77.19
285.826	95.19
286.057	98.19
286.288	89.19
286.52	86.19
286.751	101.19
286.982	96.19
287.213	86.19
287.444	90.19
287.675	94.19
287.906	92.19
288.138	91.19
288.369	88.19
288.6	76.19
288.831	85.19
289.062	93.19
289.293	90.19
289.524	54.19
289.755	85.19
289.986	96.19
290.217	87.19
290.448	82.19
290.679	85.19
290.91	85.19
291.141	78.19
291.371	78.19
291.602	77.19
291.833	84.19
292.064	86.19
292.295	91.19
292.526	81.19
292.757	89.19
292.987	74.19
293.218	85.19
293.449	84.19
293.68	84.19
293.91	91.19
294.141	87.19
294.372	81.19
294.603	87.19
294.833	84.19
295.064	70.19
295.295	69.19
295.525	83.19
295.756	84.19
295.987	91.19
296.217	82.19
296.448	84.19
296.679	89.19
296.909	73.19
297.14	87.19
297.37	96.19
297.601	106.19
297.831	87.19
298.062	96.19
298.292	98.19
298.523	83.19
298.753	92.19
298.984	87.19
299.214	77.19
299.445	82.19
299.675	98.19
299.905	85.19
300.136	89.19
300.366	76.19
300.597	105.19
300.827	68.19
301.057	87.19
301.288	84.19
301.518	82.19
301.748	84.19
301.979	80.19
302.209	85.19
302.439	74.19
302.669	100.19
302.9	91.19
303.13	88.19
303.36	84.19
303.59	72.19
303.82	94.19
304.051	87.19
304.281	73.19
304.511	93.19
304.741	86.19
304.971	79.19
305.201	88.19
305.431	66.19
305.661	88.19
305.891	85.19
306.121	91.19
306.352	81.19
306.582	73.19
306.812	100.19
307.042	98.19
307.272	76.19
307.502	75.19
307.731	96.19
307.961	94.19
308.191	88.19
308.421	81.19
308.651	95.19
308.881	80.19
309.111	75.19
309.341	96.19
309.571	85.19
309.8	77.19
310.03	86.19
310.26	73.19
310.49	77.19
310.72	76.19
310.949	80.19
311.179	76.19
311.409	89.19
311.639	90.19
311.868	82.19
312.098	79.19
312.328	86.19
312.557	85.19
312.787	82.19
313.017	95.19
313.246	92.19
313.476	86.19
313.706	85.19
313.935	107.19
314.165	82.19
314.394	100.19
314.624	82.19
314.853	93.19
315.083	84.19
315.312	88.19
315.542	87.19
315.771	89.19
316.001	90.19
316.23	85.19
316.46	99.19
316.689	68.19
316.919	79.19
317.148	82.19
317.377	82.19
317.607	85.19
317.836	88.19
318.065	82.19
318.295	87.19
318.524	82.19
318.753	84.19
318.983	105.19
319.212	76.19
319.441	101.19
319.67	79.19
319.9	86.19
320.129	80.19
320.358	84.19
320.587	82.19
320.816	87.19
321.046	74.19
321.275	102.19
321.504	86.19
321.733	94.19
321.962	75.19
322.191	92.19
322.42	93.19
322.649	92.19
322.878	95.19
323.108	86.19
323.337	87.19
323.566	85.19
323.795	98.19
324.024	82.19
324.253	80.19
324.482	74.19
324.71	78.19
324.939	87.19
325.168	81.19
325.397	82.19
325.626	84.19
325.855	93.19
326.084	100.19
326.313	85.19
326.542	81.19
326.77	89.19
326.999	89.19
327.228	75.19
327.457	79.19
327.686	90.19
327.914	96.19
328.143	94.19
328.372	77.19
328.6	82.19
328.829	86.19
329.058	84.19
329.287	79.19
329.515	97.19
329.744	82.19
329.972	96.19
330.201	70.19
330.43	88.19
330.658	77.19
330.887	92.19
331.115	87.19
331.344	83.19
331.572	100.19
331.801	96.19
332.03	93.19
332.258	102.19
332.486	82.19
332.715	90.19
332.943	92.19
333.172	103.19
333.4	87.19
333.629	90.19
333.857	72.19
334.085	84.19
334.314	91.19
334.542	98.19
334.771	82.19
334.999	89.19
335.227	71.19
335.455	90.19
335.684	82.19
335.912	85.19
336.14	88.19
336.369	77.19
336.597	78.19
336.825	83.19
337.053	82.19
337.281	92.19
337.51	104.19
337.738	92.19
337.966	80.19
338.194	95.19
338.422	86.19
338.65	89.19
338.878	92.19
339.106	77.19
339.334	92.19
339.562	92.19
339.79	82.19
340.018	88.19
340.246	83.19
340.474	80.19
340.702	78.19
340.93	100.19
341.158	87.19
341.386	93.19
341.614	81.19
341.842	82.19
342.07	81.19
342.298	107.19
342.526	94.19
342.754	94.19
342.981	75.19
343.209	87.19
343.437	94.19
343.665	82.19
343.893	94.19
344.12	92.19
344.348	78.19
344.576	85.19
344.804	74.19
345.031	98.19
345.259	98.19
345.487	94.19
345.714	95.19
345.942	86.19
346.17	79.19
346.397	76.19
346.625	86.19
346.853	77.19
347.08	83.19
347.308	82.19
347.535	91.19
347.763	82.19
347.99	86.19
348.218	85.19
348.445	93.19
348.673	83.19
348.9	85.19
349.128	78.19
349.355	80.19
349.583	83.19
349.81	92.19
350.037	99.19
350.265	72.19
350.492	90.19
350.72	73.19
350.947	83.19
351.174	87.19
351.402	86.19
351.629	99.19
351.856	94.19
352.083	98.19
352.311	96.19
352.538	84.19
352.765	95.19
352.992	87.19
353.22	90.19
353.447	78.19
353.674	83.19
353.901	92.19
354.128	91.19
354.355	95.19
354.583	82.19
354.81	93.19
355.037	98.19
355.264	86.19
355.491	86.19
355.718	75.19
355.945	86.19
356.172	74.19
356.399	88.19
356.626	75.19
356.853	95.19
357.08	92.19
357.307	92.19
357.534	70.19
357.761	87.19
357.988	89.19
358.215	74.19
358.441	79.19
358.668	79.19
358.895	83.19
359.122	90.19
359.349	95.19
359.576	84.19
359.802	78.19
360.029	76.19
360.256	86.19
360.483	88.19
360.709	87.19
360.936	78.19
361.163	86.19
361.39	75.19
361.616	84.19
361.843	85.19
362.07	87.19
362.296	92.19
362.523	77.19
362.749	89.19
362.976	80.19
363.203	95.19
363.429	87.19
363.656	82.19
363.882	94.19
364.109	94.19
364.335	70.19
364.562	88.19
364.788	76.19
365.015	84.19
365.241	97.19
365.468	78.19
365.694	92.19
365.92	83.19
366.147	91.19
366.373	91.19
366.599	70.19
366.826	86.19
367.052	82.19
367.278	85.19
367.505	84.19
367.731	98.19
367.957	68.19
368.184	95.19
368.41	93.19
368.636	86.19
368.862	87.19
369.089	81.19
369.315	103.19
369.541	80.19
369.767	94.19
369.993	86.19
370.219	91.19
370.445	91.19
370.672	79.19
370.898	90.19
371.124	89.19
371.35	93.19
371.576	91.19
371.802	77.19
372.028	82.19
372.254	94.19
372.48	84.19
372.706	87.19
372.932	83.19
373.158	79.19
373.384	89.19
373.61	83.19
373.835	82.19
374.061	81.19
374.287	75.19
374.513	83.19
374.739	94.19
374.965	72.19
375.191	78.19
375.416	82.19
375.642	79.19
375.868	91.19
376.094	84.19
376.319	79.19
376.545	80.19
376.771	76.19
376.997	85.19
377.222	87.19
377.448	98.19
377.674	76.19
377.899	79.19
378.125	95.19
378.35	85.19
378.576	79.19
378.802	79.19
379.027	82.19
379.253	87.19
379.478	82.19
379.704	83.19
379.929	82.19
380.155	67.19
380.38	79.19
380.606	90.19
380.831	84.19
381.057	76.19
381.282	85.19
381.507	84.19
381.733	89.19
381.958	103.19
382.184	83.19
382.409	78.19
382.634	73.19
382.86	94.19
383.085	66.19
383.31	89.19
383.535	99.19
383.761	86.19
383.986	88.19
384.211	94.19
384.436	75.19
384.662	72.19
384.887	88.19
385.112	93.19
385.337	75.19
385.562	87.19
385.787	85.19
386.013	82.19
386.238	90.19
386.463	84.19
386.688	91.19
386.913	90.19
387.138	77.19
387.363	78.19
387.588	90.19
387.813	87.19
388.038	73.19
388.263	82.19
388.488	80.19
388.713	94.19
388.938	65.19
389.163	89.19
389.387	86.19
389.612	82.19
389.837	89.19
390.062	78.19
390.287	71.19
390.512	82.19
390.736	87.19
390.961	71.19
391.186	71.19
391.411	91.19
391.636	82.19
391.86	102.19
392.085	99.19
392.31	90.19
392.534	86.19
392.759	86.19
392.984	80.19
393.208	87.19
393.433	88.19
393.658	91.19
393.882	70.19
394.107	86.19
394.331	82.19
394.556	78.19
394.78	91.19
395.005	74.19
395.229	99.19
395.454	81.19
395.678	87.19
395.903	95.19
396.127	72.19
396.352	94.19
396.576	70.19
396.801	89.19
397.025	84.19
397.249	89.19
397.474	86.19
397.698	90.19
397.922	84.19
398.147	79.19
398.371	89.19
398.595	86.19
398.82	82.19
399.044	95.19
399.268	74.19
399.492	80.19
399.717	92.19
399.941	90.19
400.165	98.19
400.389	74.19
400.613	96.19
400.837	84.19
401.062	77.19
401.286	92.19
401.51	80.19
401.734	98.19
401.958	100.19
402.182	87.19
402.406	85.19
402.63	93.19
402.854	105.19
403.078	95.19
403.302	84.19
403.526	88.19
403.75	90.19
403.974	86.19
404.198	91.19
404.422	93.19
404.645	77.19
404.869	83.19
405.093	76.19
405.317	96.19
405.541	75.19
405.765	83.19
405.988	88.19
406.212	80.19
406.436	91.19
406.66	89.19
406.883	88.19
407.107	99.19
407.331	78.19
407.555	74.19
407.778	92.19
408.002	98.19
408.226	86.19
408.449	87.19
408.673	89.19
408.896	83.19
409.12	68.19
409.344	93.19
409.567	104.19
409.791	84.19
410.014	87.19
410.238	93.19
410.461	93.19
410.685	90.19
410.908	78.19
411.132	98.19
411.355	81.19
411.578	90.19
411.802	74.19
412.025	88.19
412.249	94.19
412.472	103.19
412.695	93.19
412.919	82.19
413.142	89.19
413.365	82.19
413.589	86.19
413.812	81.19
414.035	90.19
414.258	98.19
414.482	102.19
414.705	72.19
414.928	71.19
415.151	80.19
415.374	86.19
415.597	75.19
415.821	84.19
416.044	79.19
416.267	92.19
416.49	87.19
416.713	77.19
416.936	56.19
417.159	86.19
417.382	83.19
417.605	86.19
417.828	92.19
418.051	76.19
418.274	91.19
418.497	82.19
418.72	79.19
418.943	78.19
419.166	103.19
419.389	90.19
419.611	86.19
419.834	83.19
420.057	81.19
420.28	99.19
420.503	79.19
420.726	72.19
420.948	69.19
421.171	83.19
421.394	98.19
421.617	83.19
421.839	90.19
422.062	86.19
422.285	96.19
422.507	86.19
422.73	78.19
422.953	76.19
423.175	84.19
423.398	85.19
423.621	91.19
423.843	90.19
424.066	89.19
424.288	95.19
424.511	86.19
424.733	72.19
424.956	73.19
425.178	83.19
425.401	87.19
425.623	82.19
425.846	77.19
426.068	91.19
426.291	80.19
426.513	76.19
426.735	80.19
426.958	69.19
427.18	93.19
427.402	87.19
427.625	91.19
427.847	86.19
428.069	68.19
428.292	80.19
428.514	68.19
428.736	97.19
428.958	80.19
429.181	84.19
429.403	91.19
429.625	86.19
429.847	93.19
430.069	90.19
430.292	72.19
430.514	76.19
430.736	83.19
430.958	87.19
431.18	78.19
431.402	84.19
431.624	88.19
431.846	82.19
432.068	84.19
432.29	80.19
432.512	84.19
432.734	82.19
432.956	87.19
433.178	85.19
433.4	71.19
433.622	68.19
433.844	78.19
434.066	90.19
434.287	88.19
434.509	80.19
434.731	82.19
434.953	73.19
435.175	80.19
435.397	98.19
435.618	106.19
435.84	67.19
436.062	86.19
436.284	96.19
436.505	88.19
436.727	80.19
436.949	78.19
437.17	79.19
437.392	80.19
437.614	82.19
437.835	74.19
438.057	78.19
438.278	76.19
438.5	92.19
438.721	84.19
438.943	84.19
439.165	82.19
439.386	89.19
439.608	82.19
439.829	82.19
440.05	88.19
440.272	90.19
440.493	80.19
440.715	104.19
440.936	98.19
441.158	82.19
441.379	77.19
441.6	93.19
441.822	84.19
442.043	87.19
442.264	87.19
442.486	93.19
442.707	76.19
442.928	86.19
443.149	88.19
443.371	100.19
443.592	76.19
443.813	82.19
444.034	83.19
444.255	82.19
444.476	75.19
444.698	85.19
444.919	82.19
445.14	166.19
445.361	122.19
445.582	93.19
445.803	82.19
446.024	85.19
446.245	84.19
446.466	81.19
446.687	72.19
446.908	87.19
447.129	83.19
447.35	85.19
447.571	74.19
447.792	75.19
448.013	86.19
448.234	90.19
448.455	74.19
448.675	86.19
448.896	71.19
449.117	93.19
449.338	85.19
449.559	84.19
449.779	92.19
450	69.19
450.221	86.19
450.442	84.19
450.662	79.19
450.883	89.19
451.104	95.19
451.324	76.19
451.545	85.19
451.766	87.19
451.986	86.19
452.207	99.19
452.428	79.19
452.648	83.19
452.869	76.19
453.089	73.19
453.31	95.19
453.53	75.19
453.751	92.19
453.971	75.19
454.192	80.19
454.412	90.19
454.633	71.19
454.853	91.19
455.073	82.19
455.294	76.19
455.514	78.19
455.734	85.19
455.955	97.19
456.175	69.19
456.395	94.19
456.616	86.19
456.836	86.19
457.056	84.19
457.276	93.19
457.497	83.19
457.717	88.19
457.937	81.19
458.157	80.19
458.377	71.19
458.598	86.19
458.818	86.19
459.038	77.19
459.258	85.19
459.478	80.19
459.698	93.19
459.918	87.19
460.138	98.19
460.358	102.19
460.578	91.19
460.798	89.19
461.018	101.19
461.238	72.19
461.458	98.19
461.678	92.19
461.898	81.19
462.118	83.19
462.338	96.19
462.558	100.19
462.777	89.19
462.997	106.19
463.217	89.19
463.437	82.19
463.657	72.19
463.876	93.19
464.096	101.19
464.316	87.19
464.536	82.19
464.755	95.19
464.975	78.19
465.195	100.19
465.414	106.19
465.634	86.19
465.854	84.19
466.073	86.19
466.293	80.19
466.512	91.19
466.732	79.19
466.951	94.19
467.171	70.19
467.391	83.19
467.61	80.19
467.829	89.19
468.049	91.19
468.268	85.19
468.488	85.19
468.707	92.19
468.927	92.19
469.146	89.19
469.365	90.19
469.585	80.19
469.804	86.19
470.023	89.19
470.243	76.19
470.462	91.19
470.681	87.19
470.901	81.19
471.12	85.19
471.339	87.19
471.558	98.19
471.777	81.19
471.997	77.19
472.216	83.19
472.435	89.19
472.654	78.19
472.873	88.19
473.092	81.19
473.311	87.19
473.53	72.19
473.749	93.19
473.968	77.19
474.187	71.19
474.406	82.19
474.625	87.19
474.844	102.19
475.063	83.19
475.282	84.19
475.501	85.19
475.72	84.19
475.939	82.19
476.158	81.19
476.377	87.19
476.596	90.19
476.814	88.19
477.033	78.19
477.252	86.19
477.471	94.19
477.69	78.19
477.908	92.19
478.127	95.19
478.346	96.19
478.564	82.19
478.783	91.19
479.002	87.19
479.22	92.19
479.439	100.19
479.658	90.19
479.876	88.19
480.095	79.19
480.313	80.19
480.532	102.19
480.751	89.19
480.969	89.19
481.188	95.19
481.406	90.19
481.624	79.19
481.843	84.19
482.061	72.19
482.28	73.19
482.498	85.19
482.717	90.19
482.935	92.19
483.153	105.19
483.372	91.19
483.59	88.19
483.808	92.19
484.027	99.19
484.245	98.19
484.463	87.19
484.681	94.19
484.9	88.19
485.118	93.19
485.336	104.19
485.554	78.19
485.772	78.19
485.99	84.19
486.209	83.19
486.427	91.19
486.645	72.19
486.863	82.19
487.081	89.19
487.299	69.19
487.517	61.19
487.735	94.19
487.953	62.19
488.171	92.19
488.389	78.19
488.607	70.19
488.825	90.19
489.043	87.19
489.261	74.19
489.479	90.19
489.696	90.19
489.914	94.19
490.132	89.19
490.35	84.19
490.568	70.19
490.786	89.19
491.003	90.19
491.221	92.19
491.439	92.19
491.657	82.19
491.874	86.19
492.092	86.19
492.31	91.19
492.527	91.19
492.745	88.19
492.963	92.19
493.18	90.19
493.398	91.19
493.615	93.19
493.833	85.19
494.05	69.19
494.268	88.19
494.485	80.19
494.703	95.19
494.92	90.19
495.138	86.19
495.355	75.19
495.573	102.19
495.79	83.19
496.008	96.19
496.225	88.19
496.442	82.19
496.66	78.19
496.877	95.19
497.094	79.19
497.312	89.19
497.529	77.19
497.746	92.19
497.963	78.19
498.181	80.19
498.398	92.19
498.615	91.19
498.832	99.19
499.049	95.19
499.267	76.19
499.484	79.19
499.701	90.19
499.918	88.19
500.135	99.19
500.352	102.19
500.569	125.19
500.786	98.19
501.003	86.19
501.22	93.19
501.437	99.19
501.654	99.19
501.871	85.19
502.088	94.19
502.305	96.19
502.522	91.19
502.739	80.19
502.956	98.19
503.172	76.19
503.389	102.19
503.606	93.19
503.823	96.19
504.04	92.19
504.256	83.19
504.473	91.19
504.69	90.19
504.907	94.19
505.123	92.19
505.34	87.19
505.557	80.19
505.773	76.19
505.99	88.19
506.207	90.19
506.423	84.19
506.64	74.19
506.856	83.19
507.073	77.19
507.289	86.19
507.506	76.19
507.722	89.19
507.939	78.19
508.155	97.19
508.372	84.19
508.588	79.19
508.805	90.19
509.021	79.19
509.238	78.19
509.454	84.19
509.67	77.19
509.887	86.19
510.103	88.19
510.319	93.19
510.536	87.19
510.752	84.19
510.968	98.19
511.184	84.19
511.401	96.19
511.617	85.19
511.833	84.19
512.049	84.19
512.265	102.19
512.481	79.19
512.698	88.19
512.914	96.19
513.13	89.19
513.346	77.19
513.562	73.19
513.778	75.19
513.994	94.19
514.21	90.19
514.426	82.19
514.642	100.19
514.858	72.19
515.074	87.19
515.29	83.19
515.506	78.19
515.721	83.19
515.937	88.19
516.153	89.19
516.369	91.19
516.585	92.19
516.801	92.19
517.016	95.19
517.232	88.19
517.448	98.19
517.664	93.19
517.879	112.19
518.095	84.19
518.311	99.19
518.527	90.19
518.742	102.19
518.958	84.19
519.173	95.19
519.389	102.19
519.605	85.19
