Data from BG_HRD10591_029.txt Node
Date: Fri May 16 15:27:01 EDT 2025
User: Yrep
Spectrometer: HR+D1059
Trigger mode: 1
Integration Time (sec): 1.000000E-1
Scans to average: 1
Electric dark correction enabled: true
Nonlinearity correction enabled: false
Boxcar width: 0
XAxis mode: Wavelengths
Number of Pixels in Spectrum: 2048
>>>>>Begin Spectral Data<<<<<
223.165	-4.88
223.4	-4.88
223.635	-4.88
223.869	-14.88
224.104	-12.88
224.338	-23.88
224.573	-19.88
224.808	-4.88
225.042	-17.88
225.277	-4.88
225.511	1.12
225.746	8.12
225.98	0.12
226.215	14.12
226.449	-2.88
226.683	23.12
226.918	24.12
227.152	36.12
227.387	41.12
227.621	36.12
227.856	59.12
228.09	45.12
228.324	62.12
228.559	57.12
228.793	46.12
229.027	70.12
229.262	62.12
229.496	76.12
229.73	74.12
229.964	75.12
230.199	77.12
230.433	77.12
230.667	77.12
230.901	80.12
231.136	90.12
231.37	81.12
231.604	80.12
231.838	82.12
232.072	85.12
232.306	88.12
232.541	86.12
232.775	84.12
233.009	85.12
233.243	82.12
233.477	64.12
233.711	82.12
233.945	77.12
234.179	95.12
234.413	82.12
234.647	84.12
234.881	78.12
235.115	70.12
235.349	70.12
235.583	80.12
235.817	64.12
236.051	79.12
236.285	89.12
236.519	78.12
236.753	74.12
236.987	87.12
237.221	83.12
237.455	79.12
237.689	82.12
237.922	67.12
238.156	74.12
238.39	74.12
238.624	77.12
238.858	81.12
239.091	84.12
239.325	84.12
239.559	82.12
239.793	82.12
240.027	73.12
240.26	74.12
240.494	79.12
240.728	74.12
240.961	69.12
241.195	72.12
241.429	76.12
241.662	73.12
241.896	81.12
242.13	74.12
242.363	81.12
242.597	80.12
242.83	69.12
243.064	73.12
243.298	77.12
243.531	63.12
243.765	70.12
243.998	85.12
244.232	92.12
244.465	72.12
244.699	73.12
244.932	68.12
245.166	69.12
245.399	61.12
245.633	72.12
245.866	77.12
246.099	71.12
246.333	80.12
246.566	74.12
246.8	84.12
247.033	70.12
247.266	70.12
247.5	89.12
247.733	72.12
247.966	84.12
248.2	86.12
248.433	78.12
248.666	84.12
248.899	72.12
249.133	81.12
249.366	86.12
249.599	68.12
249.832	72.12
250.066	87.12
250.299	77.12
250.532	88.12
250.765	89.12
250.998	94.12
251.231	72.12
251.465	76.12
251.698	87.12
251.931	88.12
252.164	82.12
252.397	86.12
252.63	84.12
252.863	84.12
253.096	88.12
253.329	87.12
253.562	90.12
253.795	67.12
254.028	68.12
254.261	75.12
254.494	77.12
254.727	87.12
254.96	76.12
255.193	80.12
255.426	70.12
255.659	76.12
255.892	84.12
256.124	75.12
256.357	71.12
256.59	76.12
256.823	89.12
257.056	75.12
257.289	85.12
257.521	80.12
257.754	83.12
257.987	68.12
258.22	73.12
258.452	87.12
258.685	94.12
258.918	86.12
259.151	95.12
259.383	81.12
259.616	95.12
259.849	81.12
260.081	73.12
260.314	71.12
260.547	80.12
260.779	79.12
261.012	79.12
261.244	102.12
261.477	86.12
261.71	76.12
261.942	80.12
262.175	86.12
262.407	81.12
262.64	93.12
262.872	83.12
263.105	81.12
263.337	88.12
263.57	86.12
263.802	88.12
264.035	94.12
264.267	88.12
264.499	72.12
264.732	92.12
264.964	88.12
265.197	80.12
265.429	77.12
265.661	80.12
265.894	97.12
266.126	81.12
266.358	78.12
266.591	75.12
266.823	96.12
267.055	70.12
267.287	78.12
267.52	86.12
267.752	82.12
267.984	89.12
268.216	84.12
268.448	81.12
268.681	82.12
268.913	89.12
269.145	78.12
269.377	74.12
269.609	89.12
269.841	87.12
270.073	80.12
270.306	82.12
270.538	89.12
270.77	88.12
271.002	71.12
271.234	76.12
271.466	88.12
271.698	88.12
271.93	88.12
272.162	85.12
272.394	85.12
272.626	96.12
272.858	90.12
273.09	94.12
273.322	78.12
273.553	84.12
273.785	85.12
274.017	89.12
274.249	97.12
274.481	86.12
274.713	89.12
274.945	98.12
275.176	86.12
275.408	85.12
275.64	94.12
275.872	76.12
276.104	83.12
276.335	74.12
276.567	77.12
276.799	92.12
277.031	90.12
277.262	81.12
277.494	89.12
277.726	79.12
277.957	98.12
278.189	84.12
278.421	89.12
278.652	89.12
278.884	88.12
279.115	85.12
279.347	92.12
279.579	72.12
279.81	89.12
280.042	81.12
280.273	87.12
280.505	79.12
280.736	88.12
280.968	87.12
281.199	90.12
281.431	87.12
281.662	79.12
281.894	74.12
282.125	95.12
282.356	80.12
282.588	87.12
282.819	103.12
283.051	92.12
283.282	86.12
283.513	102.12
283.745	85.12
283.976	92.12
284.207	81.12
284.439	75.12
284.67	99.12
284.901	90.12
285.132	92.12
285.364	93.12
285.595	96.12
285.826	92.12
286.057	94.12
286.288	84.12
286.52	96.12
286.751	84.12
286.982	82.12
287.213	72.12
287.444	77.12
287.675	90.12
287.906	83.12
288.138	76.12
288.369	80.12
288.6	84.12
288.831	84.12
289.062	88.12
289.293	84.12
289.524	86.12
289.755	87.12
289.986	88.12
290.217	87.12
290.448	83.12
290.679	80.12
290.91	68.12
291.141	92.12
291.371	80.12
291.602	95.12
291.833	93.12
292.064	82.12
292.295	98.12
292.526	92.12
292.757	83.12
292.987	61.12
293.218	93.12
293.449	90.12
293.68	81.12
293.91	83.12
294.141	74.12
294.372	77.12
294.603	93.12
294.833	70.12
295.064	88.12
295.295	95.12
295.525	84.12
295.756	93.12
295.987	95.12
296.217	93.12
296.448	101.12
296.679	85.12
296.909	81.12
297.14	86.12
297.37	93.12
297.601	93.12
297.831	81.12
298.062	80.12
298.292	90.12
298.523	83.12
298.753	93.12
298.984	89.12
299.214	80.12
299.445	93.12
299.675	70.12
299.905	88.12
300.136	84.12
300.366	100.12
300.597	89.12
300.827	93.12
301.057	85.12
301.288	79.12
301.518	90.12
301.748	106.12
301.979	88.12
302.209	74.12
302.439	78.12
302.669	90.12
302.9	93.12
303.13	85.12
303.36	88.12
303.59	75.12
303.82	84.12
304.051	92.12
304.281	97.12
304.511	91.12
304.741	89.12
304.971	82.12
305.201	105.12
305.431	76.12
305.661	94.12
305.891	87.12
306.121	77.12
306.352	79.12
306.582	86.12
306.812	86.12
307.042	77.12
307.272	74.12
307.502	80.12
307.731	75.12
307.961	82.12
308.191	85.12
308.421	72.12
308.651	97.12
308.881	85.12
309.111	91.12
309.341	82.12
309.571	93.12
309.8	82.12
310.03	81.12
310.26	95.12
310.49	86.12
310.72	77.12
310.949	72.12
311.179	84.12
311.409	85.12
311.639	81.12
311.868	85.12
312.098	97.12
312.328	85.12
312.557	73.12
312.787	83.12
313.017	89.12
313.246	116.12
313.476	94.12
313.706	94.12
313.935	97.12
314.165	89.12
314.394	91.12
314.624	80.12
314.853	81.12
315.083	100.12
315.312	89.12
315.542	77.12
315.771	81.12
316.001	77.12
316.23	81.12
316.46	81.12
316.689	95.12
316.919	72.12
317.148	74.12
317.377	86.12
317.607	83.12
317.836	79.12
318.065	83.12
318.295	74.12
318.524	98.12
318.753	89.12
318.983	93.12
319.212	94.12
319.441	76.12
319.67	95.12
319.9	78.12
320.129	92.12
320.358	94.12
320.587	90.12
320.816	86.12
321.046	82.12
321.275	81.12
321.504	93.12
321.733	80.12
321.962	85.12
322.191	89.12
322.42	81.12
322.649	78.12
322.878	89.12
323.108	93.12
323.337	91.12
323.566	77.12
323.795	91.12
324.024	84.12
324.253	79.12
324.482	82.12
324.71	102.12
324.939	103.12
325.168	93.12
325.397	83.12
325.626	95.12
325.855	86.12
326.084	100.12
326.313	90.12
326.542	94.12
326.77	81.12
326.999	96.12
327.228	98.12
327.457	80.12
327.686	77.12
327.914	97.12
328.143	107.12
328.372	92.12
328.6	83.12
328.829	80.12
329.058	84.12
329.287	89.12
329.515	81.12
329.744	79.12
329.972	78.12
330.201	87.12
330.43	106.12
330.658	92.12
330.887	85.12
331.115	78.12
331.344	94.12
331.572	92.12
331.801	84.12
332.03	89.12
332.258	84.12
332.486	94.12
332.715	101.12
332.943	89.12
333.172	84.12
333.4	92.12
333.629	103.12
333.857	92.12
334.085	96.12
334.314	86.12
334.542	93.12
334.771	93.12
334.999	80.12
335.227	97.12
335.455	86.12
335.684	87.12
335.912	84.12
336.14	84.12
336.369	81.12
336.597	102.12
336.825	94.12
337.053	88.12
337.281	80.12
337.51	95.12
337.738	101.12
337.966	83.12
338.194	89.12
338.422	90.12
338.65	86.12
338.878	96.12
339.106	85.12
339.334	100.12
339.562	89.12
339.79	76.12
340.018	82.12
340.246	90.12
340.474	84.12
340.702	87.12
340.93	82.12
341.158	72.12
341.386	84.12
341.614	82.12
341.842	82.12
342.07	100.12
342.298	89.12
342.526	88.12
342.754	94.12
342.981	102.12
343.209	89.12
343.437	100.12
343.665	92.12
343.893	86.12
344.12	85.12
344.348	73.12
344.576	70.12
344.804	84.12
345.031	92.12
345.259	89.12
345.487	87.12
345.714	89.12
345.942	86.12
346.17	85.12
346.397	90.12
346.625	76.12
346.853	97.12
347.08	98.12
347.308	85.12
347.535	73.12
347.763	92.12
347.99	81.12
348.218	76.12
348.445	95.12
348.673	82.12
348.9	70.12
349.128	89.12
349.355	97.12
349.583	89.12
349.81	104.12
350.037	83.12
350.265	97.12
350.492	101.12
350.72	74.12
350.947	84.12
351.174	76.12
351.402	88.12
351.629	82.12
351.856	92.12
352.083	81.12
352.311	70.12
352.538	88.12
352.765	80.12
352.992	76.12
353.22	89.12
353.447	84.12
353.674	90.12
353.901	98.12
354.128	83.12
354.355	75.12
354.583	90.12
354.81	95.12
355.037	77.12
355.264	92.12
355.491	94.12
355.718	85.12
355.945	71.12
356.172	96.12
356.399	75.12
356.626	86.12
356.853	96.12
357.08	82.12
357.307	96.12
357.534	78.12
357.761	81.12
357.988	100.12
358.215	82.12
358.441	85.12
358.668	80.12
358.895	89.12
359.122	89.12
359.349	89.12
359.576	92.12
359.802	84.12
360.029	68.12
360.256	90.12
360.483	91.12
360.709	85.12
360.936	85.12
361.163	85.12
361.39	87.12
361.616	96.12
361.843	84.12
362.07	88.12
362.296	96.12
362.523	74.12
362.749	85.12
362.976	92.12
363.203	95.12
363.429	95.12
363.656	105.12
363.882	79.12
364.109	89.12
364.335	91.12
364.562	83.12
364.788	86.12
365.015	94.12
365.241	98.12
365.468	110.12
365.694	88.12
365.92	94.12
366.147	94.12
366.373	89.12
366.599	80.12
366.826	89.12
367.052	108.12
367.278	94.12
367.505	80.12
367.731	110.12
367.957	80.12
368.184	84.12
368.41	89.12
368.636	82.12
368.862	91.12
369.089	89.12
369.315	85.12
369.541	81.12
369.767	92.12
369.993	88.12
370.219	88.12
370.445	85.12
370.672	84.12
370.898	81.12
371.124	93.12
371.35	95.12
371.576	83.12
371.802	97.12
372.028	87.12
372.254	82.12
372.48	100.12
372.706	88.12
372.932	84.12
373.158	80.12
373.384	97.12
373.61	85.12
373.835	97.12
374.061	99.12
374.287	104.12
374.513	82.12
374.739	82.12
374.965	71.12
375.191	79.12
375.416	91.12
375.642	94.12
375.868	98.12
376.094	81.12
376.319	80.12
376.545	91.12
376.771	92.12
376.997	84.12
377.222	92.12
377.448	94.12
377.674	88.12
377.899	101.12
378.125	82.12
378.35	84.12
378.576	72.12
378.802	84.12
379.027	82.12
379.253	100.12
379.478	84.12
379.704	86.12
379.929	91.12
380.155	93.12
380.38	85.12
380.606	101.12
380.831	93.12
381.057	91.12
381.282	94.12
381.507	92.12
381.733	82.12
381.958	91.12
382.184	90.12
382.409	78.12
382.634	74.12
382.86	77.12
383.085	85.12
383.31	88.12
383.535	80.12
383.761	85.12
383.986	92.12
384.211	100.12
384.436	91.12
384.662	82.12
384.887	105.12
385.112	96.12
385.337	89.12
385.562	90.12
385.787	91.12
386.013	93.12
386.238	87.12
386.463	78.12
386.688	93.12
386.913	76.12
387.138	93.12
387.363	89.12
387.588	80.12
387.813	91.12
388.038	88.12
388.263	79.12
388.488	79.12
388.713	90.12
388.938	82.12
389.163	82.12
389.387	88.12
389.612	100.12
389.837	94.12
390.062	95.12
390.287	91.12
390.512	69.12
390.736	78.12
390.961	87.12
391.186	85.12
391.411	87.12
391.636	93.12
391.86	85.12
392.085	82.12
392.31	80.12
392.534	71.12
392.759	78.12
392.984	70.12
393.208	81.12
393.433	94.12
393.658	84.12
393.882	92.12
394.107	98.12
394.331	78.12
394.556	69.12
394.78	93.12
395.005	93.12
395.229	100.12
395.454	84.12
395.678	75.12
395.903	79.12
396.127	98.12
396.352	85.12
396.576	91.12
396.801	95.12
397.025	102.12
397.249	88.12
397.474	92.12
397.698	78.12
397.922	90.12
398.147	77.12
398.371	88.12
398.595	87.12
398.82	94.12
399.044	81.12
399.268	80.12
399.492	88.12
399.717	94.12
399.941	96.12
400.165	86.12
400.389	84.12
400.613	85.12
400.837	82.12
401.062	107.12
401.286	90.12
401.51	85.12
401.734	90.12
401.958	89.12
402.182	79.12
402.406	91.12
402.63	67.12
402.854	77.12
403.078	90.12
403.302	90.12
403.526	100.12
403.75	98.12
403.974	86.12
404.198	105.12
404.422	97.12
404.645	94.12
404.869	96.12
405.093	96.12
405.317	103.12
405.541	97.12
405.765	92.12
405.988	94.12
406.212	84.12
406.436	95.12
406.66	97.12
406.883	87.12
407.107	82.12
407.331	100.12
407.555	94.12
407.778	98.12
408.002	80.12
408.226	68.12
408.449	100.12
408.673	97.12
408.896	92.12
409.12	90.12
409.344	85.12
409.567	84.12
409.791	100.12
410.014	86.12
410.238	80.12
410.461	88.12
410.685	95.12
410.908	85.12
411.132	81.12
411.355	104.12
411.578	86.12
411.802	74.12
412.025	81.12
412.249	89.12
412.472	74.12
412.695	81.12
412.919	84.12
413.142	92.12
413.365	105.12
413.589	80.12
413.812	81.12
414.035	96.12
414.258	84.12
414.482	82.12
414.705	74.12
414.928	81.12
415.151	85.12
415.374	93.12
415.597	78.12
415.821	80.12
416.044	87.12
416.267	87.12
416.49	73.12
416.713	80.12
416.936	90.12
417.159	88.12
417.382	97.12
417.605	80.12
417.828	85.12
418.051	86.12
418.274	87.12
418.497	80.12
418.72	82.12
418.943	101.12
419.166	93.12
419.389	86.12
419.611	91.12
419.834	87.12
420.057	92.12
420.28	70.12
420.503	84.12
420.726	78.12
420.948	88.12
421.171	85.12
421.394	83.12
421.617	74.12
421.839	91.12
422.062	87.12
422.285	95.12
422.507	81.12
422.73	93.12
422.953	89.12
423.175	96.12
423.398	80.12
423.621	80.12
423.843	85.12
424.066	92.12
424.288	96.12
424.511	86.12
424.733	97.12
424.956	91.12
425.178	99.12
425.401	100.12
425.623	86.12
425.846	90.12
426.068	93.12
426.291	88.12
426.513	79.12
426.735	96.12
426.958	102.12
427.18	99.12
427.402	83.12
427.625	86.12
427.847	87.12
428.069	79.12
428.292	76.12
428.514	71.12
428.736	79.12
428.958	70.12
429.181	85.12
429.403	94.12
429.625	106.12
429.847	92.12
430.069	84.12
430.292	87.12
430.514	87.12
430.736	79.12
430.958	84.12
431.18	89.12
431.402	84.12
431.624	70.12
431.846	85.12
432.068	92.12
432.29	76.12
432.512	76.12
432.734	101.12
432.956	88.12
433.178	85.12
433.4	98.12
433.622	101.12
433.844	89.12
434.066	87.12
434.287	91.12
434.509	83.12
434.731	86.12
434.953	84.12
435.175	89.12
435.397	97.12
435.618	100.12
435.84	85.12
436.062	88.12
436.284	81.12
436.505	81.12
436.727	89.12
436.949	71.12
437.17	87.12
437.392	87.12
437.614	79.12
437.835	74.12
438.057	93.12
438.278	83.12
438.5	104.12
438.721	93.12
438.943	92.12
439.165	90.12
439.386	90.12
439.608	81.12
439.829	85.12
440.05	82.12
440.272	87.12
440.493	92.12
440.715	80.12
440.936	77.12
441.158	86.12
441.379	89.12
441.6	83.12
441.822	87.12
442.043	78.12
442.264	81.12
442.486	94.12
442.707	80.12
442.928	100.12
443.149	85.12
443.371	87.12
443.592	70.12
443.813	97.12
444.034	95.12
444.255	88.12
444.476	82.12
444.698	93.12
444.919	92.12
445.14	170.12
445.361	108.12
445.582	104.12
445.803	96.12
446.024	90.12
446.245	80.12
446.466	88.12
446.687	90.12
446.908	94.12
447.129	101.12
447.35	87.12
447.571	90.12
447.792	85.12
448.013	80.12
448.234	81.12
448.455	90.12
448.675	82.12
448.896	72.12
449.117	80.12
449.338	97.12
449.559	84.12
449.779	88.12
450	79.12
450.221	84.12
450.442	77.12
450.662	80.12
450.883	96.12
451.104	101.12
451.324	100.12
451.545	80.12
451.766	85.12
451.986	82.12
452.207	89.12
452.428	84.12
452.648	78.12
452.869	84.12
453.089	80.12
453.31	101.12
453.53	90.12
453.751	90.12
453.971	75.12
454.192	94.12
454.412	81.12
454.633	95.12
454.853	84.12
455.073	87.12
455.294	98.12
455.514	82.12
455.734	90.12
455.955	94.12
456.175	93.12
456.395	80.12
456.616	84.12
456.836	88.12
457.056	91.12
457.276	103.12
457.497	90.12
457.717	87.12
457.937	92.12
458.157	93.12
458.377	86.12
458.598	80.12
458.818	72.12
459.038	79.12
459.258	78.12
459.478	94.12
459.698	94.12
459.918	86.12
460.138	96.12
460.358	87.12
460.578	94.12
460.798	92.12
461.018	89.12
461.238	103.12
461.458	91.12
461.678	92.12
461.898	84.12
462.118	87.12
462.338	90.12
462.558	84.12
462.777	84.12
462.997	85.12
463.217	94.12
463.437	90.12
463.657	95.12
463.876	84.12
464.096	93.12
464.316	72.12
464.536	95.12
464.755	96.12
464.975	90.12
465.195	88.12
465.414	102.12
465.634	82.12
465.854	85.12
466.073	96.12
466.293	90.12
466.512	86.12
466.732	85.12
466.951	96.12
467.171	89.12
467.391	100.12
467.61	96.12
467.829	78.12
468.049	96.12
468.268	93.12
468.488	82.12
468.707	89.12
468.927	73.12
469.146	90.12
469.365	96.12
469.585	88.12
469.804	99.12
470.023	82.12
470.243	88.12
470.462	77.12
470.681	86.12
470.901	74.12
471.12	87.12
471.339	93.12
471.558	76.12
471.777	81.12
471.997	92.12
472.216	78.12
472.435	76.12
472.654	87.12
472.873	88.12
473.092	93.12
473.311	84.12
473.53	86.12
473.749	84.12
473.968	96.12
474.187	91.12
474.406	90.12
474.625	92.12
474.844	95.12
475.063	101.12
475.282	105.12
475.501	85.12
475.72	93.12
475.939	92.12
476.158	97.12
476.377	93.12
476.596	81.12
476.814	78.12
477.033	101.12
477.252	92.12
477.471	80.12
477.69	93.12
477.908	87.12
478.127	80.12
478.346	73.12
478.564	87.12
478.783	102.12
479.002	92.12
479.22	70.12
479.439	84.12
479.658	82.12
479.876	86.12
480.095	94.12
480.313	83.12
480.532	92.12
480.751	98.12
480.969	83.12
481.188	79.12
481.406	72.12
481.624	88.12
481.843	76.12
482.061	98.12
482.28	81.12
482.498	75.12
482.717	74.12
482.935	90.12
483.153	84.12
483.372	88.12
483.59	76.12
483.808	103.12
484.027	78.12
484.245	88.12
484.463	76.12
484.681	103.12
484.9	97.12
485.118	83.12
485.336	65.12
485.554	84.12
485.772	95.12
485.99	89.12
486.209	94.12
486.427	97.12
486.645	102.12
486.863	94.12
487.081	81.12
487.299	103.12
487.517	87.12
487.735	91.12
487.953	88.12
488.171	95.12
488.389	89.12
488.607	89.12
488.825	87.12
489.043	75.12
489.261	98.12
489.479	95.12
489.696	95.12
489.914	93.12
490.132	94.12
490.35	83.12
490.568	90.12
490.786	96.12
491.003	86.12
491.221	91.12
491.439	93.12
491.657	88.12
491.874	81.12
492.092	75.12
492.31	93.12
492.527	77.12
492.745	82.12
492.963	88.12
493.18	81.12
493.398	95.12
493.615	97.12
493.833	101.12
494.05	89.12
494.268	81.12
494.485	76.12
494.703	96.12
494.92	103.12
495.138	76.12
495.355	94.12
495.573	90.12
495.79	91.12
496.008	76.12
496.225	95.12
496.442	86.12
496.66	99.12
496.877	105.12
497.094	93.12
497.312	90.12
497.529	79.12
497.746	90.12
497.963	96.12
498.181	95.12
498.398	94.12
498.615	88.12
498.832	92.12
499.049	99.12
499.267	110.12
499.484	101.12
499.701	112.12
499.918	93.12
500.135	116.12
500.352	101.12
500.569	110.12
500.786	118.12
501.003	103.12
501.22	92.12
501.437	104.12
501.654	115.12
501.871	97.12
502.088	93.12
502.305	86.12
502.522	87.12
502.739	95.12
502.956	97.12
503.172	86.12
503.389	85.12
503.606	84.12
503.823	103.12
504.04	102.12
504.256	96.12
504.473	84.12
504.69	85.12
504.907	95.12
505.123	102.12
505.34	86.12
505.557	93.12
505.773	95.12
505.99	90.12
506.207	78.12
506.423	94.12
506.64	90.12
506.856	90.12
507.073	97.12
507.289	101.12
507.506	80.12
507.722	89.12
507.939	88.12
508.155	88.12
508.372	98.12
508.588	92.12
508.805	86.12
509.021	100.12
509.238	93.12
509.454	94.12
509.67	97.12
509.887	92.12
510.103	82.12
510.319	93.12
510.536	87.12
510.752	81.12
510.968	83.12
511.184	82.12
511.401	91.12
511.617	101.12
511.833	77.12
512.049	90.12
512.265	72.12
512.481	91.12
512.698	84.12
512.914	94.12
513.13	93.12
513.346	78.12
513.562	85.12
513.778	93.12
513.994	79.12
514.21	83.12
514.426	104.12
514.642	107.12
514.858	78.12
515.074	77.12
515.29	86.12
515.506	81.12
515.721	84.12
515.937	97.12
516.153	100.12
516.369	89.12
516.585	106.12
516.801	88.12
517.016	92.12
517.232	91.12
517.448	92.12
517.664	96.12
517.879	98.12
518.095	82.12
518.311	101.12
518.527	111.12
518.742	96.12
518.958	86.12
