Data from BG_HRD10591_095.txt Node
Date: Fri May 16 15:27:34 EDT 2025
User: Yrep
Spectrometer: HR+D1059
Trigger mode: 1
Integration Time (sec): 1.000000E-1
Scans to average: 1
Electric dark correction enabled: true
Nonlinearity correction enabled: false
Boxcar width: 0
XAxis mode: Wavelengths
Number of Pixels in Spectrum: 2048
>>>>>Begin Spectral Data<<<<<
223.165	-28.62
223.4	-28.62
223.635	-28.62
223.869	-19.62
224.104	-27.62
224.338	-18.62
224.573	-20.62
224.808	-5.62
225.042	-9.62
225.277	2.38
225.511	-3.62
225.746	3.38
225.98	19.38
226.215	15.38
226.449	7.38
226.683	15.38
226.918	25.38
227.152	45.38
227.387	43.38
227.621	38.38
227.856	56.38
228.09	62.38
228.324	61.38
228.559	58.38
228.793	62.38
229.027	66.38
229.262	59.38
229.496	58.38
229.73	80.38
229.964	86.38
230.199	89.38
230.433	71.38
230.667	66.38
230.901	68.38
231.136	80.38
231.37	66.38
231.604	72.38
231.838	83.38
232.072	85.38
232.306	75.38
232.541	84.38
232.775	74.38
233.009	65.38
233.243	81.38
233.477	70.38
233.711	73.38
233.945	87.38
234.179	90.38
234.413	81.38
234.647	79.38
234.881	80.38
235.115	78.38
235.349	80.38
235.583	76.38
235.817	84.38
236.051	82.38
236.285	85.38
236.519	83.38
236.753	82.38
236.987	85.38
237.221	78.38
237.455	79.38
237.689	76.38
237.922	70.38
238.156	89.38
238.39	85.38
238.624	82.38
238.858	83.38
239.091	81.38
239.325	74.38
239.559	84.38
239.793	78.38
240.027	69.38
240.26	76.38
240.494	76.38
240.728	86.38
240.961	66.38
241.195	85.38
241.429	78.38
241.662	68.38
241.896	81.38
242.13	70.38
242.363	77.38
242.597	80.38
242.83	90.38
243.064	82.38
243.298	77.38
243.531	68.38
243.765	93.38
243.998	83.38
244.232	79.38
244.465	88.38
244.699	88.38
244.932	84.38
245.166	66.38
245.399	69.38
245.633	70.38
245.866	75.38
246.099	68.38
246.333	79.38
246.566	79.38
246.8	79.38
247.033	82.38
247.266	78.38
247.5	76.38
247.733	70.38
247.966	86.38
248.2	74.38
248.433	80.38
248.666	78.38
248.899	78.38
249.133	82.38
249.366	66.38
249.599	78.38
249.832	91.38
250.066	88.38
250.299	87.38
250.532	95.38
250.765	85.38
250.998	86.38
251.231	88.38
251.465	79.38
251.698	87.38
251.931	80.38
252.164	89.38
252.397	80.38
252.63	78.38
252.863	88.38
253.096	73.38
253.329	73.38
253.562	81.38
253.795	71.38
254.028	80.38
254.261	77.38
254.494	82.38
254.727	92.38
254.96	86.38
255.193	78.38
255.426	91.38
255.659	85.38
255.892	92.38
256.124	93.38
256.357	77.38
256.59	77.38
256.823	81.38
257.056	70.38
257.289	79.38
257.521	80.38
257.754	88.38
257.987	87.38
258.22	74.38
258.452	91.38
258.685	76.38
258.918	78.38
259.151	85.38
259.383	97.38
259.616	81.38
259.849	81.38
260.081	71.38
260.314	93.38
260.547	79.38
260.779	90.38
261.012	106.38
261.244	79.38
261.477	82.38
261.71	78.38
261.942	84.38
262.175	81.38
262.407	85.38
262.64	90.38
262.872	73.38
263.105	78.38
263.337	81.38
263.57	85.38
263.802	86.38
264.035	94.38
264.267	71.38
264.499	93.38
264.732	82.38
264.964	83.38
265.197	81.38
265.429	71.38
265.661	74.38
265.894	81.38
266.126	77.38
266.358	85.38
266.591	82.38
266.823	96.38
267.055	87.38
267.287	85.38
267.52	95.38
267.752	95.38
267.984	85.38
268.216	76.38
268.448	85.38
268.681	80.38
268.913	84.38
269.145	85.38
269.377	99.38
269.609	88.38
269.841	98.38
270.073	92.38
270.306	97.38
270.538	77.38
270.77	85.38
271.002	86.38
271.234	91.38
271.466	84.38
271.698	77.38
271.93	77.38
272.162	81.38
272.394	93.38
272.626	82.38
272.858	84.38
273.09	83.38
273.322	99.38
273.553	85.38
273.785	82.38
274.017	84.38
274.249	93.38
274.481	86.38
274.713	80.38
274.945	75.38
275.176	78.38
275.408	76.38
275.64	81.38
275.872	85.38
276.104	102.38
276.335	88.38
276.567	84.38
276.799	99.38
277.031	76.38
277.262	82.38
277.494	84.38
277.726	90.38
277.957	74.38
278.189	71.38
278.421	78.38
278.652	101.38
278.884	83.38
279.115	76.38
279.347	91.38
279.579	90.38
279.81	79.38
280.042	83.38
280.273	99.38
280.505	102.38
280.736	89.38
280.968	89.38
281.199	83.38
281.431	97.38
281.662	83.38
281.894	90.38
282.125	71.38
282.356	75.38
282.588	77.38
282.819	84.38
283.051	92.38
283.282	92.38
283.513	86.38
283.745	96.38
283.976	89.38
284.207	84.38
284.439	81.38
284.67	82.38
284.901	89.38
285.132	87.38
285.364	91.38
285.595	89.38
285.826	86.38
286.057	69.38
286.288	89.38
286.52	79.38
286.751	96.38
286.982	92.38
287.213	90.38
287.444	62.38
287.675	86.38
287.906	95.38
288.138	85.38
288.369	81.38
288.6	84.38
288.831	84.38
289.062	80.38
289.293	80.38
289.524	81.38
289.755	66.38
289.986	79.38
290.217	90.38
290.448	93.38
290.679	80.38
290.91	80.38
291.141	95.38
291.371	89.38
291.602	101.38
291.833	98.38
292.064	94.38
292.295	79.38
292.526	106.38
292.757	85.38
292.987	85.38
293.218	99.38
293.449	88.38
293.68	90.38
293.91	94.38
294.141	96.38
294.372	92.38
294.603	93.38
294.833	87.38
295.064	83.38
295.295	81.38
295.525	84.38
295.756	104.38
295.987	92.38
296.217	94.38
296.448	85.38
296.679	78.38
296.909	80.38
297.14	83.38
297.37	89.38
297.601	77.38
297.831	85.38
298.062	85.38
298.292	91.38
298.523	85.38
298.753	92.38
298.984	88.38
299.214	79.38
299.445	88.38
299.675	66.38
299.905	89.38
300.136	66.38
300.366	99.38
300.597	81.38
300.827	78.38
301.057	80.38
301.288	74.38
301.518	94.38
301.748	81.38
301.979	90.38
302.209	94.38
302.439	84.38
302.669	87.38
302.9	104.38
303.13	79.38
303.36	80.38
303.59	85.38
303.82	84.38
304.051	88.38
304.281	79.38
304.511	85.38
304.741	79.38
304.971	82.38
305.201	91.38
305.431	88.38
305.661	84.38
305.891	89.38
306.121	98.38
306.352	86.38
306.582	94.38
306.812	86.38
307.042	74.38
307.272	72.38
307.502	87.38
307.731	77.38
307.961	77.38
308.191	83.38
308.421	58.38
308.651	90.38
308.881	71.38
309.111	82.38
309.341	81.38
309.571	80.38
309.8	84.38
310.03	88.38
310.26	87.38
310.49	76.38
310.72	101.38
310.949	96.38
311.179	97.38
311.409	92.38
311.639	87.38
311.868	90.38
312.098	91.38
312.328	93.38
312.557	88.38
312.787	93.38
313.017	91.38
313.246	109.38
313.476	92.38
313.706	74.38
313.935	89.38
314.165	96.38
314.394	78.38
314.624	91.38
314.853	95.38
315.083	93.38
315.312	88.38
315.542	82.38
315.771	88.38
316.001	104.38
316.23	99.38
316.46	106.38
316.689	84.38
316.919	87.38
317.148	80.38
317.377	99.38
317.607	82.38
317.836	96.38
318.065	105.38
318.295	98.38
318.524	85.38
318.753	101.38
318.983	93.38
319.212	97.38
319.441	82.38
319.67	92.38
319.9	88.38
320.129	97.38
320.358	92.38
320.587	73.38
320.816	98.38
321.046	92.38
321.275	76.38
321.504	95.38
321.733	83.38
321.962	83.38
322.191	87.38
322.42	80.38
322.649	88.38
322.878	93.38
323.108	93.38
323.337	85.38
323.566	76.38
323.795	85.38
324.024	78.38
324.253	83.38
324.482	100.38
324.71	92.38
324.939	92.38
325.168	91.38
325.397	82.38
325.626	92.38
325.855	88.38
326.084	76.38
326.313	88.38
326.542	77.38
326.77	80.38
326.999	79.38
327.228	90.38
327.457	96.38
327.686	87.38
327.914	101.38
328.143	94.38
328.372	96.38
328.6	91.38
328.829	69.38
329.058	91.38
329.287	85.38
329.515	80.38
329.744	92.38
329.972	85.38
330.201	78.38
330.43	97.38
330.658	84.38
330.887	79.38
331.115	77.38
331.344	78.38
331.572	86.38
331.801	83.38
332.03	94.38
332.258	90.38
332.486	88.38
332.715	101.38
332.943	89.38
333.172	76.38
333.4	88.38
333.629	88.38
333.857	84.38
334.085	80.38
334.314	77.38
334.542	98.38
334.771	92.38
334.999	82.38
335.227	84.38
335.455	95.38
335.684	89.38
335.912	95.38
336.14	84.38
336.369	94.38
336.597	78.38
336.825	92.38
337.053	73.38
337.281	90.38
337.51	90.38
337.738	85.38
337.966	85.38
338.194	82.38
338.422	72.38
338.65	95.38
338.878	81.38
339.106	90.38
339.334	89.38
339.562	93.38
339.79	89.38
340.018	76.38
340.246	87.38
340.474	94.38
340.702	85.38
340.93	93.38
341.158	95.38
341.386	91.38
341.614	71.38
341.842	96.38
342.07	105.38
342.298	87.38
342.526	79.38
342.754	80.38
342.981	86.38
343.209	104.38
343.437	98.38
343.665	84.38
343.893	91.38
344.12	88.38
344.348	98.38
344.576	86.38
344.804	83.38
345.031	93.38
345.259	98.38
345.487	82.38
345.714	91.38
345.942	93.38
346.17	82.38
346.397	86.38
346.625	85.38
346.853	91.38
347.08	80.38
347.308	84.38
347.535	87.38
347.763	88.38
347.99	93.38
348.218	82.38
348.445	86.38
348.673	81.38
348.9	100.38
349.128	90.38
349.355	106.38
349.583	94.38
349.81	88.38
350.037	78.38
350.265	82.38
350.492	85.38
350.72	83.38
350.947	76.38
351.174	100.38
351.402	102.38
351.629	91.38
351.856	72.38
352.083	94.38
352.311	85.38
352.538	91.38
352.765	86.38
352.992	85.38
353.22	74.38
353.447	88.38
353.674	87.38
353.901	79.38
354.128	85.38
354.355	86.38
354.583	88.38
354.81	80.38
355.037	105.38
355.264	93.38
355.491	97.38
355.718	76.38
355.945	100.38
356.172	77.38
356.399	98.38
356.626	86.38
356.853	104.38
357.08	83.38
357.307	79.38
357.534	81.38
357.761	89.38
357.988	92.38
358.215	89.38
358.441	73.38
358.668	80.38
358.895	76.38
359.122	81.38
359.349	93.38
359.576	84.38
359.802	88.38
360.029	102.38
360.256	97.38
360.483	85.38
360.709	81.38
360.936	88.38
361.163	85.38
361.39	91.38
361.616	88.38
361.843	89.38
362.07	98.38
362.296	89.38
362.523	78.38
362.749	86.38
362.976	80.38
363.203	91.38
363.429	83.38
363.656	79.38
363.882	77.38
364.109	90.38
364.335	85.38
364.562	81.38
364.788	80.38
365.015	90.38
365.241	90.38
365.468	84.38
365.694	78.38
365.92	82.38
366.147	96.38
366.373	82.38
366.599	101.38
366.826	98.38
367.052	91.38
367.278	87.38
367.505	93.38
367.731	86.38
367.957	87.38
368.184	72.38
368.41	85.38
368.636	72.38
368.862	91.38
369.089	86.38
369.315	88.38
369.541	101.38
369.767	77.38
369.993	78.38
370.219	83.38
370.445	80.38
370.672	83.38
370.898	93.38
371.124	96.38
371.35	76.38
371.576	82.38
371.802	92.38
372.028	71.38
372.254	76.38
372.48	88.38
372.706	92.38
372.932	80.38
373.158	101.38
373.384	94.38
373.61	82.38
373.835	91.38
374.061	84.38
374.287	92.38
374.513	94.38
374.739	79.38
374.965	82.38
375.191	76.38
375.416	65.38
375.642	92.38
375.868	76.38
376.094	96.38
376.319	65.38
376.545	92.38
376.771	69.38
376.997	90.38
377.222	86.38
377.448	101.38
377.674	84.38
377.899	89.38
378.125	94.38
378.35	92.38
378.576	79.38
378.802	77.38
379.027	88.38
379.253	78.38
379.478	93.38
379.704	73.38
379.929	85.38
380.155	63.38
380.38	76.38
380.606	77.38
380.831	78.38
381.057	87.38
381.282	84.38
381.507	96.38
381.733	91.38
381.958	89.38
382.184	89.38
382.409	87.38
382.634	79.38
382.86	83.38
383.085	85.38
383.31	93.38
383.535	93.38
383.761	97.38
383.986	85.38
384.211	73.38
384.436	70.38
384.662	82.38
384.887	78.38
385.112	97.38
385.337	96.38
385.562	78.38
385.787	82.38
386.013	103.38
386.238	82.38
386.463	78.38
386.688	96.38
386.913	100.38
387.138	85.38
387.363	93.38
387.588	85.38
387.813	95.38
388.038	78.38
388.263	71.38
388.488	83.38
388.713	99.38
388.938	90.38
389.163	90.38
389.387	91.38
389.612	85.38
389.837	73.38
390.062	90.38
390.287	91.38
390.512	82.38
390.736	82.38
390.961	90.38
391.186	82.38
391.411	86.38
391.636	95.38
391.86	78.38
392.085	65.38
392.31	72.38
392.534	66.38
392.759	86.38
392.984	92.38
393.208	75.38
393.433	87.38
393.658	76.38
393.882	79.38
394.107	84.38
394.331	97.38
394.556	71.38
394.78	76.38
395.005	84.38
395.229	83.38
395.454	79.38
395.678	72.38
395.903	84.38
396.127	85.38
396.352	76.38
396.576	62.38
396.801	76.38
397.025	76.38
397.249	61.38
397.474	76.38
397.698	96.38
397.922	78.38
398.147	81.38
398.371	89.38
398.595	92.38
398.82	85.38
399.044	78.38
399.268	84.38
399.492	88.38
399.717	87.38
399.941	88.38
400.165	91.38
400.389	80.38
400.613	78.38
400.837	89.38
401.062	86.38
401.286	72.38
401.51	80.38
401.734	86.38
401.958	84.38
402.182	85.38
402.406	84.38
402.63	90.38
402.854	95.38
403.078	88.38
403.302	77.38
403.526	100.38
403.75	89.38
403.974	77.38
404.198	84.38
404.422	86.38
404.645	88.38
404.869	84.38
405.093	81.38
405.317	90.38
405.541	93.38
405.765	88.38
405.988	80.38
406.212	79.38
406.436	93.38
406.66	95.38
406.883	78.38
407.107	76.38
407.331	75.38
407.555	90.38
407.778	89.38
408.002	92.38
408.226	87.38
408.449	81.38
408.673	78.38
408.896	104.38
409.12	93.38
409.344	76.38
409.567	69.38
409.791	91.38
410.014	79.38
410.238	72.38
410.461	91.38
410.685	78.38
410.908	76.38
411.132	90.38
411.355	82.38
411.578	83.38
411.802	110.38
412.025	86.38
412.249	81.38
412.472	78.38
412.695	71.38
412.919	94.38
413.142	79.38
413.365	94.38
413.589	77.38
413.812	87.38
414.035	85.38
414.258	74.38
414.482	85.38
414.705	76.38
414.928	89.38
415.151	82.38
415.374	86.38
415.597	81.38
415.821	91.38
416.044	84.38
416.267	70.38
416.49	103.38
416.713	90.38
416.936	101.38
417.159	81.38
417.382	81.38
417.605	90.38
417.828	94.38
418.051	77.38
418.274	78.38
418.497	88.38
418.72	80.38
418.943	93.38
419.166	89.38
419.389	88.38
419.611	83.38
419.834	92.38
420.057	82.38
420.28	73.38
420.503	78.38
420.726	82.38
420.948	86.38
421.171	82.38
421.394	77.38
421.617	79.38
421.839	82.38
422.062	81.38
422.285	84.38
422.507	103.38
422.73	89.38
422.953	80.38
423.175	89.38
423.398	85.38
423.621	71.38
423.843	87.38
424.066	67.38
424.288	84.38
424.511	69.38
424.733	96.38
424.956	81.38
425.178	94.38
425.401	89.38
425.623	80.38
425.846	95.38
426.068	84.38
426.291	86.38
426.513	90.38
426.735	89.38
426.958	94.38
427.18	75.38
427.402	100.38
427.625	84.38
427.847	88.38
428.069	93.38
428.292	88.38
428.514	95.38
428.736	79.38
428.958	84.38
429.181	100.38
429.403	93.38
429.625	98.38
429.847	78.38
430.069	73.38
430.292	77.38
430.514	79.38
430.736	83.38
430.958	86.38
431.18	62.38
431.402	84.38
431.624	79.38
431.846	96.38
432.068	96.38
432.29	83.38
432.512	106.38
432.734	84.38
432.956	85.38
433.178	98.38
433.4	91.38
433.622	87.38
433.844	89.38
434.066	93.38
434.287	76.38
434.509	81.38
434.731	92.38
434.953	90.38
435.175	81.38
435.397	87.38
435.618	79.38
435.84	87.38
436.062	84.38
436.284	82.38
436.505	84.38
436.727	72.38
436.949	82.38
437.17	76.38
437.392	83.38
437.614	86.38
437.835	79.38
438.057	88.38
438.278	72.38
438.5	84.38
438.721	78.38
438.943	70.38
439.165	96.38
439.386	90.38
439.608	90.38
439.829	77.38
440.05	81.38
440.272	84.38
440.493	92.38
440.715	72.38
440.936	90.38
441.158	77.38
441.379	81.38
441.6	88.38
441.822	80.38
442.043	78.38
442.264	77.38
442.486	82.38
442.707	73.38
442.928	89.38
443.149	82.38
443.371	79.38
443.592	87.38
443.813	88.38
444.034	89.38
444.255	73.38
444.476	81.38
444.698	76.38
444.919	82.38
445.14	168.38
445.361	121.38
445.582	85.38
445.803	93.38
446.024	83.38
446.245	85.38
446.466	89.38
446.687	81.38
446.908	74.38
447.129	82.38
447.35	85.38
447.571	69.38
447.792	79.38
448.013	70.38
448.234	79.38
448.455	85.38
448.675	84.38
448.896	70.38
449.117	100.38
449.338	93.38
449.559	74.38
449.779	76.38
450	74.38
450.221	88.38
450.442	73.38
450.662	73.38
450.883	80.38
451.104	84.38
451.324	92.38
451.545	92.38
451.766	81.38
451.986	91.38
452.207	76.38
452.428	89.38
452.648	87.38
452.869	86.38
453.089	98.38
453.31	95.38
453.53	78.38
453.751	90.38
453.971	77.38
454.192	80.38
454.412	78.38
454.633	78.38
454.853	82.38
455.073	89.38
455.294	92.38
455.514	88.38
455.734	80.38
455.955	92.38
456.175	79.38
456.395	79.38
456.616	76.38
456.836	93.38
457.056	93.38
457.276	92.38
457.497	74.38
457.717	79.38
457.937	96.38
458.157	63.38
458.377	74.38
458.598	72.38
458.818	75.38
459.038	74.38
459.258	76.38
459.478	93.38
459.698	74.38
459.918	91.38
460.138	87.38
460.358	75.38
460.578	82.38
460.798	81.38
461.018	88.38
461.238	77.38
461.458	80.38
461.678	90.38
461.898	77.38
462.118	86.38
462.338	91.38
462.558	76.38
462.777	80.38
462.997	77.38
463.217	72.38
463.437	84.38
463.657	83.38
463.876	85.38
464.096	77.38
464.316	77.38
464.536	77.38
464.755	98.38
464.975	93.38
465.195	88.38
465.414	78.38
465.634	77.38
465.854	88.38
466.073	88.38
466.293	82.38
466.512	85.38
466.732	76.38
466.951	88.38
467.171	78.38
467.391	85.38
467.61	84.38
467.829	93.38
468.049	90.38
468.268	83.38
468.488	81.38
468.707	78.38
468.927	70.38
469.146	96.38
469.365	95.38
469.585	74.38
469.804	80.38
470.023	92.38
470.243	83.38
470.462	75.38
470.681	81.38
470.901	80.38
471.12	91.38
471.339	72.38
471.558	76.38
471.777	74.38
471.997	83.38
472.216	85.38
472.435	76.38
472.654	88.38
472.873	76.38
473.092	80.38
473.311	85.38
473.53	87.38
473.749	74.38
473.968	80.38
474.187	95.38
474.406	75.38
474.625	81.38
474.844	92.38
475.063	70.38
475.282	85.38
475.501	80.38
475.72	81.38
475.939	75.38
476.158	79.38
476.377	80.38
476.596	86.38
476.814	85.38
477.033	70.38
477.252	84.38
477.471	74.38
477.69	69.38
477.908	80.38
478.127	82.38
478.346	87.38
478.564	82.38
478.783	82.38
479.002	82.38
479.22	88.38
479.439	80.38
479.658	79.38
479.876	92.38
480.095	81.38
480.313	84.38
480.532	93.38
480.751	80.38
480.969	69.38
481.188	95.38
481.406	89.38
481.624	88.38
481.843	88.38
482.061	87.38
482.28	88.38
482.498	91.38
482.717	87.38
482.935	71.38
483.153	64.38
483.372	80.38
483.59	85.38
483.808	85.38
484.027	81.38
484.245	88.38
484.463	88.38
484.681	78.38
484.9	90.38
485.118	75.38
485.336	84.38
485.554	79.38
485.772	94.38
485.99	96.38
486.209	68.38
486.427	91.38
486.645	88.38
486.863	83.38
487.081	68.38
487.299	75.38
487.517	94.38
487.735	83.38
487.953	84.38
488.171	101.38
488.389	99.38
488.607	86.38
488.825	86.38
489.043	78.38
489.261	82.38
489.479	93.38
489.696	82.38
489.914	92.38
490.132	98.38
490.35	92.38
490.568	92.38
490.786	82.38
491.003	93.38
491.221	76.38
491.439	85.38
491.657	85.38
491.874	84.38
492.092	85.38
492.31	85.38
492.527	88.38
492.745	73.38
492.963	91.38
493.18	57.38
493.398	94.38
493.615	92.38
493.833	74.38
494.05	84.38
494.268	92.38
494.485	101.38
494.703	97.38
494.92	79.38
495.138	80.38
495.355	90.38
495.573	76.38
495.79	82.38
496.008	82.38
496.225	84.38
496.442	95.38
496.66	73.38
496.877	86.38
497.094	87.38
497.312	85.38
497.529	93.38
497.746	85.38
497.963	86.38
498.181	75.38
498.398	85.38
498.615	69.38
498.832	96.38
499.049	72.38
499.267	104.38
499.484	78.38
499.701	76.38
499.918	88.38
500.135	89.38
500.352	90.38
500.569	85.38
500.786	95.38
501.003	83.38
501.22	92.38
501.437	93.38
501.654	95.38
501.871	78.38
502.088	94.38
502.305	94.38
502.522	76.38
502.739	70.38
502.956	82.38
503.172	102.38
503.389	76.38
503.606	97.38
503.823	81.38
504.04	82.38
504.256	75.38
504.473	85.38
504.69	89.38
504.907	92.38
505.123	90.38
505.34	88.38
505.557	94.38
505.773	96.38
505.99	72.38
506.207	78.38
506.423	85.38
506.64	86.38
506.856	85.38
507.073	78.38
507.289	89.38
507.506	82.38
507.722	77.38
507.939	76.38
508.155	84.38
508.372	76.38
508.588	80.38
508.805	91.38
509.021	89.38
509.238	88.38
509.454	78.38
509.67	94.38
509.887	92.38
510.103	73.38
510.319	86.38
510.536	88.38
510.752	81.38
510.968	82.38
511.184	83.38
511.401	84.38
511.617	76.38
511.833	89.38
512.049	83.38
512.265	81.38
512.481	84.38
512.698	76.38
512.914	83.38
513.13	91.38
513.346	104.38
513.562	88.38
513.778	89.38
513.994	84.38
514.21	83.38
514.426	82.38
514.642	79.38
514.858	81.38
515.074	96.38
515.29	95.38
515.506	77.38
515.721	86.38
515.937	90.38
516.153	79.38
516.369	92.38
516.585	91.38
516.801	94.38
517.016	81.38
517.232	84.38
517.448	75.38
517.664	86.38
517.879	88.38
518.095	84.38
518.311	81.38
518.527	82.38
518.742	79.38
518.958	75.38
519.173	89.38
519.389	82.38
519.605	93.38
519.82	86.38
