Data from BG_HRD10591_007.txt Node
Date: Fri May 16 15:26:50 EDT 2025
User: Yrep
Spectrometer: HR+D1059
Trigger mode: 1
Integration Time (sec): 1.000000E-1
Scans to average: 1
Electric dark correction enabled: true
Nonlinearity correction enabled: false
Boxcar width: 0
XAxis mode: Wavelengths
Number of Pixels in Spectrum: 2048
>>>>>Begin Spectral Data<<<<<
223.165	-34.62
223.4	-34.62
223.635	-34.62
223.869	-22.62
224.104	-19.62
224.338	-15.62
224.573	-16.62
224.808	-10.62
225.042	-16.62
225.277	0.38
225.511	6.38
225.746	0.38
225.98	16.38
226.215	18.38
226.449	20.38
226.683	22.38
226.918	18.38
227.152	33.38
227.387	39.38
227.621	35.38
227.856	40.38
228.09	46.38
228.324	50.38
228.559	61.38
228.793	59.38
229.027	63.38
229.262	57.38
229.496	65.38
229.73	58.38
229.964	69.38
230.199	79.38
230.433	68.38
230.667	80.38
230.901	70.38
231.136	81.38
231.37	82.38
231.604	85.38
231.838	79.38
232.072	78.38
232.306	86.38
232.541	71.38
232.775	75.38
233.009	87.38
233.243	84.38
233.477	91.38
233.711	73.38
233.945	85.38
234.179	79.38
234.413	84.38
234.647	90.38
234.881	77.38
235.115	85.38
235.349	77.38
235.583	80.38
235.817	71.38
236.051	91.38
236.285	82.38
236.519	81.38
236.753	82.38
236.987	79.38
237.221	83.38
237.455	75.38
237.689	65.38
237.922	87.38
238.156	79.38
238.39	64.38
238.624	77.38
238.858	72.38
239.091	88.38
239.325	69.38
239.559	84.38
239.793	77.38
240.027	87.38
240.26	79.38
240.494	73.38
240.728	84.38
240.961	77.38
241.195	82.38
241.429	62.38
241.662	79.38
241.896	89.38
242.13	64.38
242.363	76.38
242.597	77.38
242.83	96.38
243.064	72.38
243.298	93.38
243.531	69.38
243.765	62.38
243.998	74.38
244.232	91.38
244.465	86.38
244.699	93.38
244.932	79.38
245.166	96.38
245.399	88.38
245.633	73.38
245.866	81.38
246.099	72.38
246.333	77.38
246.566	78.38
246.8	73.38
247.033	58.38
247.266	74.38
247.5	84.38
247.733	80.38
247.966	77.38
248.2	89.38
248.433	81.38
248.666	92.38
248.899	67.38
249.133	60.38
249.366	75.38
249.599	71.38
249.832	83.38
250.066	95.38
250.299	86.38
250.532	93.38
250.765	76.38
250.998	68.38
251.231	90.38
251.465	80.38
251.698	81.38
251.931	71.38
252.164	91.38
252.397	87.38
252.63	83.38
252.863	81.38
253.096	88.38
253.329	78.38
253.562	87.38
253.795	89.38
254.028	79.38
254.261	81.38
254.494	87.38
254.727	83.38
254.96	71.38
255.193	80.38
255.426	79.38
255.659	77.38
255.892	91.38
256.124	79.38
256.357	76.38
256.59	88.38
256.823	83.38
257.056	90.38
257.289	85.38
257.521	78.38
257.754	74.38
257.987	78.38
258.22	86.38
258.452	88.38
258.685	79.38
258.918	91.38
259.151	81.38
259.383	79.38
259.616	85.38
259.849	102.38
260.081	85.38
260.314	98.38
260.547	75.38
260.779	81.38
261.012	78.38
261.244	78.38
261.477	90.38
261.71	83.38
261.942	78.38
262.175	92.38
262.407	87.38
262.64	86.38
262.872	88.38
263.105	86.38
263.337	85.38
263.57	78.38
263.802	81.38
264.035	78.38
264.267	83.38
264.499	77.38
264.732	82.38
264.964	75.38
265.197	85.38
265.429	87.38
265.661	94.38
265.894	94.38
266.126	64.38
266.358	83.38
266.591	87.38
266.823	79.38
267.055	78.38
267.287	86.38
267.52	89.38
267.752	90.38
267.984	90.38
268.216	85.38
268.448	95.38
268.681	95.38
268.913	85.38
269.145	78.38
269.377	85.38
269.609	76.38
269.841	65.38
270.073	84.38
270.306	74.38
270.538	67.38
270.77	82.38
271.002	81.38
271.234	101.38
271.466	92.38
271.698	82.38
271.93	90.38
272.162	91.38
272.394	89.38
272.626	76.38
272.858	82.38
273.09	94.38
273.322	89.38
273.553	86.38
273.785	75.38
274.017	97.38
274.249	101.38
274.481	75.38
274.713	93.38
274.945	79.38
275.176	79.38
275.408	96.38
275.64	90.38
275.872	78.38
276.104	85.38
276.335	83.38
276.567	75.38
276.799	95.38
277.031	103.38
277.262	86.38
277.494	88.38
277.726	86.38
277.957	78.38
278.189	91.38
278.421	96.38
278.652	71.38
278.884	81.38
279.115	74.38
279.347	90.38
279.579	85.38
279.81	92.38
280.042	86.38
280.273	87.38
280.505	74.38
280.736	93.38
280.968	77.38
281.199	96.38
281.431	88.38
281.662	94.38
281.894	82.38
282.125	86.38
282.356	86.38
282.588	80.38
282.819	103.38
283.051	79.38
283.282	80.38
283.513	92.38
283.745	92.38
283.976	91.38
284.207	71.38
284.439	82.38
284.67	89.38
284.901	81.38
285.132	98.38
285.364	95.38
285.595	102.38
285.826	95.38
286.057	78.38
286.288	81.38
286.52	77.38
286.751	80.38
286.982	83.38
287.213	88.38
287.444	82.38
287.675	93.38
287.906	90.38
288.138	96.38
288.369	86.38
288.6	91.38
288.831	89.38
289.062	80.38
289.293	81.38
289.524	79.38
289.755	89.38
289.986	74.38
290.217	84.38
290.448	84.38
290.679	103.38
290.91	93.38
291.141	89.38
291.371	89.38
291.602	82.38
291.833	73.38
292.064	88.38
292.295	92.38
292.526	76.38
292.757	77.38
292.987	99.38
293.218	77.38
293.449	88.38
293.68	89.38
293.91	94.38
294.141	91.38
294.372	82.38
294.603	92.38
294.833	99.38
295.064	93.38
295.295	85.38
295.525	86.38
295.756	82.38
295.987	82.38
296.217	91.38
296.448	102.38
296.679	67.38
296.909	80.38
297.14	92.38
297.37	91.38
297.601	92.38
297.831	77.38
298.062	81.38
298.292	85.38
298.523	98.38
298.753	91.38
298.984	96.38
299.214	105.38
299.445	90.38
299.675	88.38
299.905	87.38
300.136	88.38
300.366	94.38
300.597	108.38
300.827	101.38
301.057	88.38
301.288	81.38
301.518	77.38
301.748	89.38
301.979	101.38
302.209	95.38
302.439	79.38
302.669	92.38
302.9	80.38
303.13	91.38
303.36	86.38
303.59	86.38
303.82	96.38
304.051	83.38
304.281	77.38
304.511	93.38
304.741	104.38
304.971	79.38
305.201	91.38
305.431	85.38
305.661	81.38
305.891	82.38
306.121	89.38
306.352	93.38
306.582	90.38
306.812	95.38
307.042	93.38
307.272	89.38
307.502	83.38
307.731	93.38
307.961	95.38
308.191	74.38
308.421	88.38
308.651	92.38
308.881	86.38
309.111	93.38
309.341	85.38
309.571	98.38
309.8	79.38
310.03	83.38
310.26	105.38
310.49	93.38
310.72	85.38
310.949	89.38
311.179	86.38
311.409	93.38
311.639	93.38
311.868	87.38
312.098	79.38
312.328	91.38
312.557	87.38
312.787	94.38
313.017	88.38
313.246	91.38
313.476	64.38
313.706	83.38
313.935	77.38
314.165	89.38
314.394	85.38
314.624	86.38
314.853	90.38
315.083	78.38
315.312	97.38
315.542	87.38
315.771	84.38
316.001	86.38
316.23	92.38
316.46	88.38
316.689	93.38
316.919	90.38
317.148	82.38
317.377	94.38
317.607	76.38
317.836	93.38
318.065	90.38
318.295	94.38
318.524	82.38
318.753	91.38
318.983	91.38
319.212	78.38
319.441	85.38
319.67	93.38
319.9	84.38
320.129	87.38
320.358	80.38
320.587	92.38
320.816	88.38
321.046	83.38
321.275	81.38
321.504	89.38
321.733	90.38
321.962	85.38
322.191	88.38
322.42	81.38
322.649	98.38
322.878	85.38
323.108	89.38
323.337	85.38
323.566	87.38
323.795	89.38
324.024	90.38
324.253	86.38
324.482	86.38
324.71	94.38
324.939	88.38
325.168	93.38
325.397	76.38
325.626	98.38
325.855	89.38
326.084	77.38
326.313	90.38
326.542	82.38
326.77	92.38
326.999	88.38
327.228	79.38
327.457	99.38
327.686	99.38
327.914	91.38
328.143	76.38
328.372	86.38
328.6	79.38
328.829	92.38
329.058	97.38
329.287	78.38
329.515	80.38
329.744	92.38
329.972	75.38
330.201	77.38
330.43	77.38
330.658	84.38
330.887	84.38
331.115	85.38
331.344	79.38
331.572	87.38
331.801	106.38
332.03	101.38
332.258	82.38
332.486	95.38
332.715	87.38
332.943	82.38
333.172	86.38
333.4	79.38
333.629	91.38
333.857	83.38
334.085	89.38
334.314	88.38
334.542	93.38
334.771	79.38
334.999	99.38
335.227	98.38
335.455	89.38
335.684	90.38
335.912	91.38
336.14	93.38
336.369	112.38
336.597	91.38
336.825	106.38
337.053	94.38
337.281	87.38
337.51	86.38
337.738	85.38
337.966	85.38
338.194	88.38
338.422	93.38
338.65	98.38
338.878	86.38
339.106	91.38
339.334	90.38
339.562	88.38
339.79	98.38
340.018	73.38
340.246	84.38
340.474	84.38
340.702	88.38
340.93	77.38
341.158	80.38
341.386	87.38
341.614	80.38
341.842	92.38
342.07	104.38
342.298	95.38
342.526	89.38
342.754	80.38
342.981	90.38
343.209	87.38
343.437	105.38
343.665	90.38
343.893	75.38
344.12	102.38
344.348	93.38
344.576	82.38
344.804	91.38
345.031	70.38
345.259	81.38
345.487	90.38
345.714	91.38
345.942	90.38
346.17	78.38
346.397	77.38
346.625	89.38
346.853	94.38
347.08	83.38
347.308	91.38
347.535	82.38
347.763	88.38
347.99	89.38
348.218	96.38
348.445	76.38
348.673	77.38
348.9	85.38
349.128	101.38
349.355	82.38
349.583	89.38
349.81	87.38
350.037	89.38
350.265	107.38
350.492	81.38
350.72	74.38
350.947	93.38
351.174	90.38
351.402	91.38
351.629	97.38
351.856	85.38
352.083	79.38
352.311	81.38
352.538	83.38
352.765	91.38
352.992	110.38
353.22	89.38
353.447	83.38
353.674	91.38
353.901	95.38
354.128	83.38
354.355	101.38
354.583	80.38
354.81	91.38
355.037	90.38
355.264	76.38
355.491	95.38
355.718	88.38
355.945	97.38
356.172	93.38
356.399	101.38
356.626	102.38
356.853	80.38
357.08	77.38
357.307	95.38
357.534	83.38
357.761	86.38
357.988	83.38
358.215	79.38
358.441	94.38
358.668	105.38
358.895	85.38
359.122	75.38
359.349	111.38
359.576	96.38
359.802	88.38
360.029	86.38
360.256	91.38
360.483	86.38
360.709	89.38
360.936	79.38
361.163	85.38
361.39	89.38
361.616	88.38
361.843	73.38
362.07	79.38
362.296	82.38
362.523	81.38
362.749	111.38
362.976	95.38
363.203	98.38
363.429	89.38
363.656	89.38
363.882	87.38
364.109	90.38
364.335	70.38
364.562	87.38
364.788	88.38
365.015	86.38
365.241	82.38
365.468	91.38
365.694	91.38
365.92	87.38
366.147	88.38
366.373	86.38
366.599	87.38
366.826	93.38
367.052	70.38
367.278	87.38
367.505	98.38
367.731	76.38
367.957	99.38
368.184	74.38
368.41	101.38
368.636	85.38
368.862	84.38
369.089	82.38
369.315	83.38
369.541	81.38
369.767	92.38
369.993	93.38
370.219	97.38
370.445	91.38
370.672	80.38
370.898	94.38
371.124	89.38
371.35	91.38
371.576	93.38
371.802	79.38
372.028	82.38
372.254	88.38
372.48	96.38
372.706	92.38
372.932	78.38
373.158	87.38
373.384	101.38
373.61	82.38
373.835	95.38
374.061	81.38
374.287	86.38
374.513	81.38
374.739	98.38
374.965	93.38
375.191	92.38
375.416	86.38
375.642	103.38
375.868	83.38
376.094	99.38
376.319	88.38
376.545	87.38
376.771	91.38
376.997	76.38
377.222	85.38
377.448	88.38
377.674	86.38
377.899	89.38
378.125	69.38
378.35	89.38
378.576	98.38
378.802	91.38
379.027	87.38
379.253	92.38
379.478	87.38
379.704	101.38
379.929	92.38
380.155	79.38
380.38	99.38
380.606	79.38
380.831	77.38
381.057	72.38
381.282	82.38
381.507	94.38
381.733	86.38
381.958	87.38
382.184	77.38
382.409	94.38
382.634	87.38
382.86	101.38
383.085	84.38
383.31	91.38
383.535	81.38
383.761	81.38
383.986	84.38
384.211	74.38
384.436	81.38
384.662	88.38
384.887	83.38
385.112	95.38
385.337	102.38
385.562	81.38
385.787	98.38
386.013	99.38
386.238	92.38
386.463	77.38
386.688	96.38
386.913	78.38
387.138	76.38
387.363	105.38
387.588	94.38
387.813	93.38
388.038	91.38
388.263	87.38
388.488	72.38
388.713	79.38
388.938	89.38
389.163	87.38
389.387	82.38
389.612	103.38
389.837	85.38
390.062	91.38
390.287	78.38
390.512	82.38
390.736	82.38
390.961	97.38
391.186	85.38
391.411	90.38
391.636	94.38
391.86	92.38
392.085	88.38
392.31	95.38
392.534	82.38
392.759	91.38
392.984	94.38
393.208	98.38
393.433	92.38
393.658	102.38
393.882	74.38
394.107	95.38
394.331	97.38
394.556	84.38
394.78	83.38
395.005	77.38
395.229	97.38
395.454	91.38
395.678	92.38
395.903	94.38
396.127	79.38
396.352	88.38
396.576	89.38
396.801	79.38
397.025	79.38
397.249	86.38
397.474	107.38
397.698	94.38
397.922	89.38
398.147	89.38
398.371	83.38
398.595	108.38
398.82	96.38
399.044	94.38
399.268	98.38
399.492	91.38
399.717	99.38
399.941	90.38
400.165	87.38
400.389	84.38
400.613	85.38
400.837	93.38
401.062	89.38
401.286	75.38
401.51	97.38
401.734	94.38
401.958	90.38
402.182	77.38
402.406	87.38
402.63	93.38
402.854	91.38
403.078	88.38
403.302	76.38
403.526	93.38
403.75	87.38
403.974	91.38
404.198	106.38
404.422	77.38
404.645	85.38
404.869	92.38
405.093	91.38
405.317	82.38
405.541	91.38
405.765	93.38
405.988	88.38
406.212	103.38
406.436	101.38
406.66	104.38
406.883	102.38
407.107	86.38
407.331	91.38
407.555	75.38
407.778	98.38
408.002	78.38
408.226	86.38
408.449	86.38
408.673	73.38
408.896	87.38
409.12	77.38
409.344	81.38
409.567	98.38
409.791	102.38
410.014	99.38
410.238	94.38
410.461	86.38
410.685	106.38
410.908	83.38
411.132	106.38
411.355	94.38
411.578	92.38
411.802	67.38
412.025	93.38
412.249	86.38
412.472	79.38
412.695	89.38
412.919	85.38
413.142	91.38
413.365	101.38
413.589	90.38
413.812	88.38
414.035	84.38
414.258	109.38
414.482	106.38
414.705	89.38
414.928	83.38
415.151	97.38
415.374	82.38
415.597	97.38
415.821	97.38
416.044	88.38
416.267	93.38
416.49	93.38
416.713	93.38
416.936	87.38
417.159	81.38
417.382	89.38
417.605	89.38
417.828	82.38
418.051	88.38
418.274	89.38
418.497	83.38
418.72	83.38
418.943	89.38
419.166	90.38
419.389	93.38
419.611	97.38
419.834	94.38
420.057	93.38
420.28	86.38
420.503	99.38
420.726	82.38
420.948	90.38
421.171	98.38
421.394	82.38
421.617	94.38
421.839	87.38
422.062	79.38
422.285	89.38
422.507	90.38
422.73	77.38
422.953	82.38
423.175	85.38
423.398	91.38
423.621	93.38
423.843	87.38
424.066	88.38
424.288	85.38
424.511	83.38
424.733	91.38
424.956	94.38
425.178	89.38
425.401	80.38
425.623	89.38
425.846	93.38
426.068	88.38
426.291	93.38
426.513	89.38
426.735	85.38
426.958	86.38
427.18	77.38
427.402	91.38
427.625	83.38
427.847	90.38
428.069	89.38
428.292	87.38
428.514	92.38
428.736	102.38
428.958	65.38
429.181	91.38
429.403	86.38
429.625	92.38
429.847	87.38
430.069	89.38
430.292	78.38
430.514	87.38
430.736	93.38
430.958	83.38
431.18	74.38
431.402	93.38
431.624	81.38
431.846	79.38
432.068	90.38
432.29	90.38
432.512	89.38
432.734	92.38
432.956	89.38
433.178	91.38
433.4	81.38
433.622	87.38
433.844	89.38
434.066	95.38
434.287	110.38
434.509	86.38
434.731	80.38
434.953	89.38
435.175	105.38
435.397	80.38
435.618	94.38
435.84	92.38
436.062	67.38
436.284	85.38
436.505	77.38
436.727	81.38
436.949	79.38
437.17	97.38
437.392	96.38
437.614	86.38
437.835	77.38
438.057	63.38
438.278	97.38
438.5	91.38
438.721	85.38
438.943	78.38
439.165	87.38
439.386	92.38
439.608	85.38
439.829	96.38
440.05	74.38
440.272	93.38
440.493	74.38
440.715	102.38
440.936	79.38
441.158	94.38
441.379	84.38
441.6	77.38
441.822	102.38
442.043	93.38
442.264	85.38
442.486	82.38
442.707	94.38
442.928	97.38
443.149	92.38
443.371	72.38
443.592	91.38
443.813	91.38
444.034	94.38
444.255	80.38
444.476	88.38
444.698	91.38
444.919	89.38
445.14	161.38
445.361	115.38
445.582	92.38
445.803	90.38
446.024	72.38
446.245	89.38
446.466	93.38
446.687	74.38
446.908	78.38
447.129	82.38
447.35	84.38
447.571	81.38
447.792	85.38
448.013	98.38
448.234	76.38
448.455	87.38
448.675	79.38
448.896	69.38
449.117	93.38
449.338	97.38
449.559	94.38
449.779	72.38
450	84.38
450.221	76.38
450.442	80.38
450.662	96.38
450.883	80.38
451.104	92.38
451.324	75.38
451.545	85.38
451.766	93.38
451.986	82.38
452.207	99.38
452.428	77.38
452.648	94.38
452.869	95.38
453.089	81.38
453.31	70.38
453.53	98.38
453.751	72.38
453.971	93.38
454.192	101.38
454.412	83.38
454.633	86.38
454.853	87.38
455.073	108.38
455.294	73.38
455.514	87.38
455.734	81.38
455.955	76.38
456.175	76.38
456.395	91.38
456.616	90.38
456.836	73.38
457.056	76.38
457.276	81.38
457.497	83.38
457.717	83.38
457.937	89.38
458.157	89.38
458.377	93.38
458.598	73.38
458.818	85.38
459.038	90.38
459.258	85.38
459.478	94.38
459.698	80.38
459.918	87.38
460.138	88.38
460.358	82.38
460.578	90.38
460.798	96.38
461.018	99.38
461.238	98.38
461.458	110.38
461.678	80.38
461.898	99.38
462.118	88.38
462.338	92.38
462.558	89.38
462.777	75.38
462.997	96.38
463.217	76.38
463.437	82.38
463.657	91.38
463.876	86.38
464.096	92.38
464.316	80.38
464.536	94.38
464.755	91.38
464.975	81.38
465.195	95.38
465.414	83.38
465.634	88.38
465.854	81.38
466.073	82.38
466.293	94.38
466.512	101.38
466.732	83.38
466.951	91.38
467.171	102.38
467.391	81.38
467.61	82.38
467.829	81.38
468.049	82.38
468.268	90.38
468.488	90.38
468.707	97.38
468.927	110.38
469.146	85.38
469.365	81.38
469.585	87.38
469.804	86.38
470.023	85.38
470.243	96.38
470.462	99.38
470.681	85.38
470.901	80.38
471.12	106.38
471.339	78.38
471.558	88.38
471.777	106.38
471.997	79.38
472.216	109.38
472.435	80.38
472.654	75.38
472.873	105.38
473.092	81.38
473.311	77.38
473.53	88.38
473.749	82.38
473.968	83.38
474.187	80.38
474.406	85.38
474.625	91.38
474.844	87.38
475.063	88.38
475.282	87.38
475.501	85.38
475.72	83.38
475.939	88.38
476.158	109.38
476.377	95.38
476.596	78.38
476.814	90.38
477.033	87.38
477.252	97.38
477.471	83.38
477.69	96.38
477.908	85.38
478.127	82.38
478.346	77.38
478.564	89.38
478.783	83.38
479.002	85.38
479.22	89.38
479.439	109.38
479.658	90.38
479.876	101.38
480.095	83.38
480.313	90.38
480.532	95.38
480.751	102.38
480.969	101.38
481.188	93.38
481.406	93.38
481.624	98.38
481.843	94.38
482.061	102.38
482.28	86.38
482.498	92.38
482.717	70.38
482.935	88.38
483.153	83.38
483.372	78.38
483.59	92.38
483.808	87.38
484.027	105.38
484.245	83.38
484.463	95.38
484.681	92.38
484.9	96.38
485.118	98.38
485.336	83.38
485.554	93.38
485.772	95.38
485.99	91.38
486.209	80.38
486.427	79.38
486.645	85.38
486.863	93.38
487.081	94.38
487.299	90.38
487.517	94.38
487.735	87.38
487.953	93.38
488.171	95.38
488.389	75.38
488.607	89.38
488.825	98.38
489.043	88.38
489.261	93.38
489.479	82.38
489.696	97.38
489.914	102.38
490.132	85.38
490.35	95.38
490.568	85.38
490.786	86.38
491.003	88.38
491.221	94.38
491.439	83.38
491.657	96.38
491.874	87.38
492.092	79.38
492.31	96.38
492.527	93.38
492.745	78.38
492.963	79.38
493.18	105.38
493.398	85.38
493.615	92.38
493.833	87.38
494.05	77.38
494.268	79.38
494.485	92.38
494.703	99.38
494.92	109.38
495.138	89.38
495.355	76.38
495.573	81.38
495.79	81.38
496.008	97.38
496.225	91.38
496.442	73.38
496.66	101.38
496.877	85.38
497.094	92.38
497.312	102.38
497.529	93.38
497.746	99.38
497.963	93.38
498.181	98.38
498.398	92.38
498.615	105.38
498.832	91.38
499.049	106.38
499.267	97.38
499.484	111.38
499.701	109.38
499.918	94.38
500.135	100.38
500.352	96.38
500.569	111.38
500.786	110.38
501.003	102.38
501.22	93.38
501.437	92.38
501.654	88.38
501.871	97.38
502.088	97.38
502.305	77.38
502.522	104.38
502.739	93.38
502.956	103.38
503.172	93.38
503.389	95.38
503.606	90.38
503.823	96.38
504.04	76.38
504.256	92.38
504.473	85.38
504.69	97.38
504.907	94.38
505.123	81.38
505.34	78.38
505.557	95.38
505.773	90.38
505.99	96.38
506.207	78.38
506.423	87.38
506.64	95.38
506.856	81.38
507.073	85.38
507.289	88.38
507.506	88.38
507.722	98.38
507.939	90.38
508.155	97.38
508.372	91.38
508.588	89.38
508.805	70.38
509.021	84.38
509.238	90.38
509.454	90.38
509.67	84.38
509.887	85.38
510.103	89.38
510.319	95.38
510.536	91.38
510.752	74.38
510.968	83.38
511.184	87.38
511.401	92.38
511.617	85.38
511.833	88.38
512.049	83.38
512.265	81.38
512.481	89.38
512.698	87.38
512.914	82.38
513.13	98.38
513.346	96.38
513.562	76.38
513.778	82.38
513.994	85.38
514.21	92.38
514.426	86.38
514.642	101.38
514.858	85.38
515.074	97.38
515.29	90.38
515.506	99.38
515.721	82.38
515.937	70.38
516.153	91.38
516.369	90.38
516.585	90.38
516.801	104.38
517.016	88.38
517.232	80.38
517.448	94.38
517.664	95.38
517.879	97.38
518.095	85.38
518.311	85.38
518.527	97.38
518.742	92.38
518.958	80.38
