Data from BG_HRD10591_043.txt Node
Date: Fri May 16 15:27:08 EDT 2025
User: Yrep
Spectrometer: HR+D1059
Trigger mode: 1
Integration Time (sec): 1.000000E-1
Scans to average: 1
Electric dark correction enabled: true
Nonlinearity correction enabled: false
Boxcar width: 0
XAxis mode: Wavelengths
Number of Pixels in Spectrum: 2048
>>>>>Begin Spectral Data<<<<<
223.165	-15.25
223.4	-15.25
223.635	-15.25
223.869	-13.25
224.104	-27.25
224.338	-20.25
224.573	-17.25
224.808	-11.25
225.042	0.75
225.277	-1.25
225.511	-8.25
225.746	-1.25
225.98	23.75
226.215	0.75
226.449	15.75
226.683	16.75
226.918	25.75
227.152	31.75
227.387	37.75
227.621	34.75
227.856	48.75
228.09	45.75
228.324	53.75
228.559	60.75
228.793	62.75
229.027	58.75
229.262	57.75
229.496	61.75
229.73	76.75
229.964	65.75
230.199	66.75
230.433	64.75
230.667	76.75
230.901	82.75
231.136	82.75
231.37	86.75
231.604	72.75
231.838	76.75
232.072	86.75
232.306	74.75
232.541	82.75
232.775	73.75
233.009	85.75
233.243	73.75
233.477	78.75
233.711	95.75
233.945	71.75
234.179	74.75
234.413	88.75
234.647	71.75
234.881	83.75
235.115	80.75
235.349	92.75
235.583	77.75
235.817	81.75
236.051	81.75
236.285	67.75
236.519	63.75
236.753	79.75
236.987	83.75
237.221	55.75
237.455	82.75
237.689	71.75
237.922	71.75
238.156	72.75
238.39	83.75
238.624	64.75
238.858	78.75
239.091	70.75
239.325	78.75
239.559	78.75
239.793	83.75
240.027	76.75
240.26	57.75
240.494	70.75
240.728	71.75
240.961	69.75
241.195	73.75
241.429	54.75
241.662	75.75
241.896	77.75
242.13	66.75
242.363	75.75
242.597	77.75
242.83	79.75
243.064	71.75
243.298	86.75
243.531	60.75
243.765	69.75
243.998	75.75
244.232	67.75
244.465	77.75
244.699	63.75
244.932	70.75
245.166	70.75
245.399	85.75
245.633	78.75
245.866	79.75
246.099	82.75
246.333	70.75
246.566	78.75
246.8	81.75
247.033	78.75
247.266	82.75
247.5	77.75
247.733	80.75
247.966	86.75
248.2	84.75
248.433	72.75
248.666	79.75
248.899	79.75
249.133	66.75
249.366	89.75
249.599	75.75
249.832	96.75
250.066	89.75
250.299	82.75
250.532	70.75
250.765	72.75
250.998	73.75
251.231	62.75
251.465	82.75
251.698	84.75
251.931	82.75
252.164	78.75
252.397	83.75
252.63	84.75
252.863	73.75
253.096	91.75
253.329	82.75
253.562	77.75
253.795	74.75
254.028	79.75
254.261	64.75
254.494	80.75
254.727	65.75
254.96	78.75
255.193	85.75
255.426	86.75
255.659	85.75
255.892	82.75
256.124	75.75
256.357	79.75
256.59	70.75
256.823	78.75
257.056	88.75
257.289	79.75
257.521	87.75
257.754	72.75
257.987	72.75
258.22	75.75
258.452	80.75
258.685	78.75
258.918	79.75
259.151	73.75
259.383	90.75
259.616	77.75
259.849	92.75
260.081	85.75
260.314	90.75
260.547	77.75
260.779	88.75
261.012	67.75
261.244	74.75
261.477	72.75
261.71	74.75
261.942	79.75
262.175	78.75
262.407	75.75
262.64	78.75
262.872	77.75
263.105	61.75
263.337	80.75
263.57	76.75
263.802	74.75
264.035	88.75
264.267	71.75
264.499	88.75
264.732	84.75
264.964	79.75
265.197	88.75
265.429	98.75
265.661	84.75
265.894	99.75
266.126	90.75
266.358	87.75
266.591	89.75
266.823	88.75
267.055	82.75
267.287	90.75
267.52	83.75
267.752	84.75
267.984	79.75
268.216	76.75
268.448	84.75
268.681	91.75
268.913	90.75
269.145	85.75
269.377	78.75
269.609	76.75
269.841	83.75
270.073	83.75
270.306	81.75
270.538	79.75
270.77	71.75
271.002	92.75
271.234	78.75
271.466	91.75
271.698	87.75
271.93	78.75
272.162	80.75
272.394	80.75
272.626	79.75
272.858	88.75
273.09	84.75
273.322	85.75
273.553	82.75
273.785	93.75
274.017	85.75
274.249	80.75
274.481	78.75
274.713	85.75
274.945	93.75
275.176	81.75
275.408	88.75
275.64	82.75
275.872	79.75
276.104	87.75
276.335	79.75
276.567	73.75
276.799	90.75
277.031	88.75
277.262	80.75
277.494	88.75
277.726	75.75
277.957	86.75
278.189	82.75
278.421	82.75
278.652	77.75
278.884	74.75
279.115	80.75
279.347	96.75
279.579	82.75
279.81	98.75
280.042	86.75
280.273	70.75
280.505	89.75
280.736	90.75
280.968	86.75
281.199	85.75
281.431	92.75
281.662	87.75
281.894	95.75
282.125	107.75
282.356	95.75
282.588	93.75
282.819	92.75
283.051	76.75
283.282	85.75
283.513	71.75
283.745	76.75
283.976	88.75
284.207	85.75
284.439	85.75
284.67	82.75
284.901	78.75
285.132	93.75
285.364	92.75
285.595	89.75
285.826	79.75
286.057	85.75
286.288	76.75
286.52	86.75
286.751	91.75
286.982	100.75
287.213	84.75
287.444	84.75
287.675	72.75
287.906	91.75
288.138	88.75
288.369	99.75
288.6	71.75
288.831	86.75
289.062	93.75
289.293	82.75
289.524	90.75
289.755	83.75
289.986	83.75
290.217	74.75
290.448	96.75
290.679	94.75
290.91	79.75
291.141	92.75
291.371	89.75
291.602	92.75
291.833	85.75
292.064	83.75
292.295	88.75
292.526	92.75
292.757	77.75
292.987	77.75
293.218	88.75
293.449	96.75
293.68	87.75
293.91	88.75
294.141	75.75
294.372	72.75
294.603	78.75
294.833	74.75
295.064	79.75
295.295	84.75
295.525	80.75
295.756	72.75
295.987	82.75
296.217	88.75
296.448	81.75
296.679	80.75
296.909	97.75
297.14	94.75
297.37	90.75
297.601	82.75
297.831	100.75
298.062	91.75
298.292	92.75
298.523	81.75
298.753	87.75
298.984	86.75
299.214	82.75
299.445	74.75
299.675	72.75
299.905	96.75
300.136	87.75
300.366	79.75
300.597	89.75
300.827	82.75
301.057	88.75
301.288	83.75
301.518	82.75
301.748	95.75
301.979	83.75
302.209	86.75
302.439	77.75
302.669	71.75
302.9	84.75
303.13	90.75
303.36	86.75
303.59	89.75
303.82	99.75
304.051	72.75
304.281	71.75
304.511	100.75
304.741	86.75
304.971	86.75
305.201	100.75
305.431	98.75
305.661	78.75
305.891	86.75
306.121	86.75
306.352	91.75
306.582	106.75
306.812	98.75
307.042	93.75
307.272	74.75
307.502	85.75
307.731	95.75
307.961	90.75
308.191	80.75
308.421	80.75
308.651	91.75
308.881	84.75
309.111	85.75
309.341	80.75
309.571	77.75
309.8	88.75
310.03	87.75
310.26	86.75
310.49	91.75
310.72	93.75
310.949	96.75
311.179	74.75
311.409	67.75
311.639	68.75
311.868	97.75
312.098	80.75
312.328	96.75
312.557	78.75
312.787	75.75
313.017	80.75
313.246	76.75
313.476	89.75
313.706	70.75
313.935	95.75
314.165	87.75
314.394	83.75
314.624	70.75
314.853	92.75
315.083	88.75
315.312	74.75
315.542	78.75
315.771	92.75
316.001	103.75
316.23	93.75
316.46	95.75
316.689	84.75
316.919	67.75
317.148	76.75
317.377	87.75
317.607	80.75
317.836	76.75
318.065	100.75
318.295	79.75
318.524	84.75
318.753	93.75
318.983	74.75
319.212	86.75
319.441	78.75
319.67	76.75
319.9	85.75
320.129	84.75
320.358	93.75
320.587	90.75
320.816	83.75
321.046	68.75
321.275	76.75
321.504	94.75
321.733	72.75
321.962	96.75
322.191	90.75
322.42	76.75
322.649	87.75
322.878	80.75
323.108	87.75
323.337	88.75
323.566	84.75
323.795	91.75
324.024	88.75
324.253	102.75
324.482	78.75
324.71	69.75
324.939	81.75
325.168	94.75
325.397	89.75
325.626	77.75
325.855	88.75
326.084	86.75
326.313	87.75
326.542	78.75
326.77	65.75
326.999	79.75
327.228	102.75
327.457	82.75
327.686	95.75
327.914	94.75
328.143	84.75
328.372	89.75
328.6	84.75
328.829	86.75
329.058	81.75
329.287	85.75
329.515	93.75
329.744	80.75
329.972	91.75
330.201	91.75
330.43	101.75
330.658	88.75
330.887	78.75
331.115	79.75
331.344	79.75
331.572	102.75
331.801	74.75
332.03	84.75
332.258	95.75
332.486	91.75
332.715	95.75
332.943	75.75
333.172	96.75
333.4	75.75
333.629	87.75
333.857	93.75
334.085	87.75
334.314	94.75
334.542	103.75
334.771	85.75
334.999	90.75
335.227	95.75
335.455	95.75
335.684	86.75
335.912	88.75
336.14	87.75
336.369	72.75
336.597	83.75
336.825	84.75
337.053	88.75
337.281	80.75
337.51	76.75
337.738	90.75
337.966	105.75
338.194	91.75
338.422	86.75
338.65	90.75
338.878	95.75
339.106	84.75
339.334	87.75
339.562	75.75
339.79	89.75
340.018	89.75
340.246	100.75
340.474	93.75
340.702	106.75
340.93	80.75
341.158	83.75
341.386	91.75
341.614	75.75
341.842	88.75
342.07	80.75
342.298	87.75
342.526	75.75
342.754	87.75
342.981	88.75
343.209	90.75
343.437	102.75
343.665	86.75
343.893	89.75
344.12	88.75
344.348	83.75
344.576	93.75
344.804	86.75
345.031	83.75
345.259	82.75
345.487	84.75
345.714	73.75
345.942	87.75
346.17	85.75
346.397	100.75
346.625	80.75
346.853	86.75
347.08	87.75
347.308	86.75
347.535	86.75
347.763	80.75
347.99	87.75
348.218	77.75
348.445	93.75
348.673	92.75
348.9	91.75
349.128	95.75
349.355	89.75
349.583	88.75
349.81	75.75
350.037	74.75
350.265	85.75
350.492	91.75
350.72	89.75
350.947	83.75
351.174	86.75
351.402	77.75
351.629	74.75
351.856	79.75
352.083	87.75
352.311	80.75
352.538	79.75
352.765	86.75
352.992	81.75
353.22	96.75
353.447	85.75
353.674	100.75
353.901	83.75
354.128	78.75
354.355	85.75
354.583	85.75
354.81	87.75
355.037	84.75
355.264	84.75
355.491	64.75
355.718	96.75
355.945	92.75
356.172	91.75
356.399	83.75
356.626	80.75
356.853	87.75
357.08	89.75
357.307	70.75
357.534	82.75
357.761	90.75
357.988	99.75
358.215	82.75
358.441	94.75
358.668	92.75
358.895	102.75
359.122	88.75
359.349	86.75
359.576	77.75
359.802	86.75
360.029	77.75
360.256	82.75
360.483	83.75
360.709	73.75
360.936	89.75
361.163	86.75
361.39	87.75
361.616	82.75
361.843	78.75
362.07	82.75
362.296	82.75
362.523	92.75
362.749	81.75
362.976	94.75
363.203	89.75
363.429	91.75
363.656	93.75
363.882	80.75
364.109	86.75
364.335	80.75
364.562	102.75
364.788	93.75
365.015	85.75
365.241	72.75
365.468	89.75
365.694	68.75
365.92	83.75
366.147	86.75
366.373	92.75
366.599	83.75
366.826	88.75
367.052	82.75
367.278	79.75
367.505	78.75
367.731	92.75
367.957	82.75
368.184	81.75
368.41	90.75
368.636	84.75
368.862	84.75
369.089	79.75
369.315	78.75
369.541	90.75
369.767	99.75
369.993	78.75
370.219	86.75
370.445	79.75
370.672	77.75
370.898	86.75
371.124	93.75
371.35	92.75
371.576	75.75
371.802	81.75
372.028	96.75
372.254	92.75
372.48	103.75
372.706	90.75
372.932	89.75
373.158	74.75
373.384	81.75
373.61	83.75
373.835	87.75
374.061	76.75
374.287	88.75
374.513	100.75
374.739	100.75
374.965	90.75
375.191	82.75
375.416	88.75
375.642	83.75
375.868	79.75
376.094	97.75
376.319	68.75
376.545	93.75
376.771	88.75
376.997	92.75
377.222	83.75
377.448	79.75
377.674	89.75
377.899	74.75
378.125	78.75
378.35	92.75
378.576	80.75
378.802	78.75
379.027	76.75
379.253	95.75
379.478	84.75
379.704	77.75
379.929	68.75
380.155	82.75
380.38	83.75
380.606	85.75
380.831	90.75
381.057	84.75
381.282	89.75
381.507	68.75
381.733	77.75
381.958	76.75
382.184	85.75
382.409	86.75
382.634	94.75
382.86	82.75
383.085	91.75
383.31	74.75
383.535	100.75
383.761	86.75
383.986	79.75
384.211	84.75
384.436	95.75
384.662	82.75
384.887	87.75
385.112	84.75
385.337	95.75
385.562	91.75
385.787	86.75
386.013	76.75
386.238	84.75
386.463	85.75
386.688	92.75
386.913	80.75
387.138	85.75
387.363	80.75
387.588	82.75
387.813	95.75
388.038	86.75
388.263	79.75
388.488	117.75
388.713	88.75
388.938	78.75
389.163	90.75
389.387	68.75
389.612	88.75
389.837	81.75
390.062	94.75
390.287	82.75
390.512	74.75
390.736	83.75
390.961	79.75
391.186	93.75
391.411	96.75
391.636	88.75
391.86	80.75
392.085	84.75
392.31	86.75
392.534	93.75
392.759	80.75
392.984	80.75
393.208	83.75
393.433	85.75
393.658	84.75
393.882	93.75
394.107	97.75
394.331	91.75
394.556	77.75
394.78	83.75
395.005	90.75
395.229	79.75
395.454	82.75
395.678	94.75
395.903	88.75
396.127	92.75
396.352	85.75
396.576	81.75
396.801	85.75
397.025	94.75
397.249	87.75
397.474	91.75
397.698	74.75
397.922	77.75
398.147	75.75
398.371	92.75
398.595	80.75
398.82	79.75
399.044	82.75
399.268	90.75
399.492	88.75
399.717	98.75
399.941	85.75
400.165	101.75
400.389	79.75
400.613	84.75
400.837	88.75
401.062	92.75
401.286	93.75
401.51	91.75
401.734	79.75
401.958	85.75
402.182	90.75
402.406	89.75
402.63	96.75
402.854	83.75
403.078	85.75
403.302	79.75
403.526	77.75
403.75	79.75
403.974	86.75
404.198	95.75
404.422	86.75
404.645	95.75
404.869	86.75
405.093	88.75
405.317	78.75
405.541	75.75
405.765	86.75
405.988	86.75
406.212	93.75
406.436	102.75
406.66	94.75
406.883	91.75
407.107	86.75
407.331	81.75
407.555	86.75
407.778	91.75
408.002	75.75
408.226	83.75
408.449	83.75
408.673	92.75
408.896	87.75
409.12	73.75
409.344	82.75
409.567	88.75
409.791	88.75
410.014	83.75
410.238	83.75
410.461	95.75
410.685	98.75
410.908	90.75
411.132	84.75
411.355	70.75
411.578	80.75
411.802	84.75
412.025	83.75
412.249	95.75
412.472	88.75
412.695	91.75
412.919	92.75
413.142	79.75
413.365	79.75
413.589	69.75
413.812	87.75
414.035	89.75
414.258	88.75
414.482	84.75
414.705	100.75
414.928	91.75
415.151	91.75
415.374	78.75
415.597	71.75
415.821	104.75
416.044	83.75
416.267	83.75
416.49	83.75
416.713	89.75
416.936	86.75
417.159	93.75
417.382	98.75
417.605	81.75
417.828	97.75
418.051	70.75
418.274	110.75
418.497	91.75
418.72	90.75
418.943	93.75
419.166	87.75
419.389	95.75
419.611	91.75
419.834	80.75
420.057	86.75
420.28	100.75
420.503	89.75
420.726	81.75
420.948	74.75
421.171	78.75
421.394	91.75
421.617	94.75
421.839	82.75
422.062	91.75
422.285	81.75
422.507	78.75
422.73	83.75
422.953	89.75
423.175	88.75
423.398	86.75
423.621	85.75
423.843	79.75
424.066	86.75
424.288	89.75
424.511	91.75
424.733	81.75
424.956	90.75
425.178	94.75
425.401	80.75
425.623	86.75
425.846	86.75
426.068	86.75
426.291	74.75
426.513	91.75
426.735	71.75
426.958	82.75
427.18	90.75
427.402	87.75
427.625	71.75
427.847	92.75
428.069	92.75
428.292	88.75
428.514	77.75
428.736	87.75
428.958	84.75
429.181	83.75
429.403	79.75
429.625	71.75
429.847	90.75
430.069	80.75
430.292	88.75
430.514	88.75
430.736	90.75
430.958	86.75
431.18	86.75
431.402	90.75
431.624	83.75
431.846	96.75
432.068	83.75
432.29	82.75
432.512	78.75
432.734	90.75
432.956	93.75
433.178	92.75
433.4	70.75
433.622	84.75
433.844	84.75
434.066	71.75
434.287	98.75
434.509	88.75
434.731	83.75
434.953	88.75
435.175	80.75
435.397	86.75
435.618	90.75
435.84	84.75
436.062	89.75
436.284	70.75
436.505	88.75
436.727	79.75
436.949	88.75
437.17	75.75
437.392	96.75
437.614	86.75
437.835	94.75
438.057	91.75
438.278	87.75
438.5	84.75
438.721	85.75
438.943	87.75
439.165	87.75
439.386	94.75
439.608	88.75
439.829	78.75
440.05	92.75
440.272	81.75
440.493	84.75
440.715	80.75
440.936	72.75
441.158	80.75
441.379	87.75
441.6	98.75
441.822	92.75
442.043	82.75
442.264	91.75
442.486	88.75
442.707	85.75
442.928	81.75
443.149	91.75
443.371	81.75
443.592	89.75
443.813	91.75
444.034	87.75
444.255	82.75
444.476	92.75
444.698	95.75
444.919	98.75
445.14	157.75
445.361	109.75
445.582	79.75
445.803	96.75
446.024	91.75
446.245	78.75
446.466	86.75
446.687	93.75
446.908	89.75
447.129	86.75
447.35	84.75
447.571	82.75
447.792	81.75
448.013	88.75
448.234	87.75
448.455	90.75
448.675	82.75
448.896	77.75
449.117	84.75
449.338	84.75
449.559	89.75
449.779	96.75
450	78.75
450.221	79.75
450.442	82.75
450.662	91.75
450.883	86.75
451.104	86.75
451.324	82.75
451.545	95.75
451.766	72.75
451.986	70.75
452.207	73.75
452.428	93.75
452.648	90.75
452.869	83.75
453.089	79.75
453.31	89.75
453.53	94.75
453.751	70.75
453.971	71.75
454.192	86.75
454.412	88.75
454.633	100.75
454.853	88.75
455.073	81.75
455.294	72.75
455.514	77.75
455.734	76.75
455.955	87.75
456.175	83.75
456.395	96.75
456.616	72.75
456.836	83.75
457.056	74.75
457.276	84.75
457.497	89.75
457.717	92.75
457.937	76.75
458.157	80.75
458.377	93.75
458.598	88.75
458.818	92.75
459.038	78.75
459.258	84.75
459.478	76.75
459.698	75.75
459.918	80.75
460.138	79.75
460.358	102.75
460.578	87.75
460.798	86.75
461.018	92.75
461.238	89.75
461.458	79.75
461.678	95.75
461.898	86.75
462.118	85.75
462.338	96.75
462.558	71.75
462.777	77.75
462.997	99.75
463.217	88.75
463.437	100.75
463.657	74.75
463.876	73.75
464.096	103.75
464.316	93.75
464.536	84.75
464.755	95.75
464.975	79.75
465.195	88.75
465.414	82.75
465.634	84.75
465.854	66.75
466.073	85.75
466.293	85.75
466.512	96.75
466.732	90.75
466.951	91.75
467.171	81.75
467.391	90.75
467.61	83.75
467.829	94.75
468.049	92.75
468.268	96.75
468.488	79.75
468.707	79.75
468.927	66.75
469.146	83.75
469.365	78.75
469.585	91.75
469.804	90.75
470.023	80.75
470.243	88.75
470.462	79.75
470.681	84.75
470.901	75.75
471.12	94.75
471.339	96.75
471.558	87.75
471.777	75.75
471.997	86.75
472.216	82.75
472.435	94.75
472.654	83.75
472.873	93.75
473.092	84.75
473.311	82.75
473.53	95.75
473.749	93.75
473.968	95.75
474.187	80.75
474.406	75.75
474.625	80.75
474.844	105.75
475.063	93.75
475.282	87.75
475.501	84.75
475.72	83.75
475.939	73.75
476.158	85.75
476.377	91.75
476.596	72.75
476.814	84.75
477.033	76.75
477.252	87.75
477.471	78.75
477.69	82.75
477.908	90.75
478.127	91.75
478.346	91.75
478.564	96.75
478.783	84.75
479.002	104.75
479.22	80.75
479.439	89.75
479.658	96.75
479.876	82.75
480.095	92.75
480.313	96.75
480.532	80.75
480.751	86.75
480.969	83.75
481.188	95.75
481.406	79.75
481.624	78.75
481.843	70.75
482.061	96.75
482.28	91.75
482.498	85.75
482.717	88.75
482.935	80.75
483.153	83.75
483.372	91.75
483.59	86.75
483.808	71.75
484.027	84.75
484.245	98.75
484.463	82.75
484.681	111.75
484.9	80.75
485.118	85.75
485.336	108.75
485.554	84.75
485.772	84.75
485.99	94.75
486.209	79.75
486.427	70.75
486.645	82.75
486.863	81.75
487.081	85.75
487.299	81.75
487.517	99.75
487.735	94.75
487.953	70.75
488.171	94.75
488.389	86.75
488.607	86.75
488.825	83.75
489.043	76.75
489.261	92.75
489.479	87.75
489.696	75.75
489.914	87.75
490.132	90.75
490.35	93.75
490.568	93.75
490.786	83.75
491.003	72.75
491.221	79.75
491.439	86.75
491.657	98.75
491.874	96.75
492.092	94.75
492.31	86.75
492.527	90.75
492.745	87.75
492.963	79.75
493.18	82.75
493.398	78.75
493.615	84.75
493.833	94.75
494.05	94.75
494.268	86.75
494.485	92.75
494.703	92.75
494.92	85.75
495.138	80.75
495.355	110.75
495.573	94.75
495.79	93.75
496.008	84.75
496.225	84.75
496.442	88.75
496.66	90.75
496.877	77.75
497.094	84.75
497.312	94.75
497.529	82.75
497.746	88.75
497.963	92.75
498.181	86.75
498.398	92.75
498.615	73.75
498.832	100.75
499.049	83.75
499.267	98.75
499.484	105.75
499.701	101.75
499.918	107.75
500.135	98.75
500.352	104.75
500.569	107.75
500.786	118.75
501.003	90.75
501.22	86.75
501.437	112.75
501.654	92.75
501.871	90.75
502.088	103.75
502.305	104.75
502.522	91.75
502.739	107.75
502.956	83.75
503.172	84.75
503.389	99.75
503.606	99.75
503.823	104.75
504.04	93.75
504.256	90.75
504.473	75.75
504.69	95.75
504.907	90.75
505.123	98.75
505.34	94.75
505.557	91.75
505.773	88.75
505.99	92.75
506.207	80.75
506.423	87.75
506.64	82.75
506.856	102.75
507.073	89.75
507.289	103.75
507.506	86.75
507.722	87.75
507.939	99.75
508.155	90.75
508.372	84.75
508.588	89.75
508.805	108.75
509.021	93.75
509.238	100.75
509.454	87.75
509.67	83.75
509.887	78.75
510.103	76.75
510.319	91.75
510.536	90.75
510.752	82.75
510.968	95.75
511.184	79.75
511.401	78.75
511.617	94.75
511.833	73.75
512.049	78.75
512.265	83.75
512.481	95.75
512.698	99.75
512.914	88.75
513.13	81.75
513.346	75.75
513.562	92.75
513.778	71.75
513.994	85.75
514.21	96.75
514.426	95.75
514.642	81.75
514.858	85.75
515.074	94.75
515.29	74.75
515.506	79.75
515.721	83.75
515.937	90.75
516.153	90.75
516.369	84.75
516.585	87.75
516.801	82.75
517.016	81.75
517.232	91.75
517.448	91.75
517.664	81.75
517.879	79.75
518.095	101.75
518.311	98.75
518.527	82.75
518.742	70.75
518.958	81.75
519.173	93.75
519.389	93.75
519.605	81.75
