Data from BG_HRD10591_081.txt Node
Date: Fri May 16 15:27:27 EDT 2025
User: Yrep
Spectrometer: HR+D1059
Trigger mode: 1
Integration Time (sec): 1.000000E-1
Scans to average: 1
Electric dark correction enabled: true
Nonlinearity correction enabled: false
Boxcar width: 0
XAxis mode: Wavelengths
Number of Pixels in Spectrum: 2048
>>>>>Begin Spectral Data<<<<<
223.165	-35.25
223.4	-35.25
223.635	-35.25
223.869	-18.25
224.104	-20.25
224.338	-15.25
224.573	-17.25
224.808	1.75
225.042	-23.25
225.277	-16.25
225.511	-5.25
225.746	-5.25
225.98	7.75
226.215	12.75
226.449	30.75
226.683	33.75
226.918	23.75
227.152	45.75
227.387	25.75
227.621	21.75
227.856	41.75
228.09	47.75
228.324	62.75
228.559	45.75
228.793	74.75
229.027	72.75
229.262	74.75
229.496	64.75
229.73	68.75
229.964	90.75
230.199	72.75
230.433	68.75
230.667	69.75
230.901	86.75
231.136	77.75
231.37	68.75
231.604	71.75
231.838	87.75
232.072	78.75
232.306	76.75
232.541	80.75
232.775	73.75
233.009	78.75
233.243	68.75
233.477	80.75
233.711	79.75
233.945	67.75
234.179	72.75
234.413	85.75
234.647	71.75
234.881	84.75
235.115	66.75
235.349	72.75
235.583	72.75
235.817	86.75
236.051	79.75
236.285	65.75
236.519	78.75
236.753	96.75
236.987	73.75
237.221	83.75
237.455	74.75
237.689	60.75
237.922	68.75
238.156	75.75
238.39	65.75
238.624	66.75
238.858	71.75
239.091	86.75
239.325	75.75
239.559	79.75
239.793	73.75
240.027	53.75
240.26	63.75
240.494	73.75
240.728	73.75
240.961	63.75
241.195	72.75
241.429	77.75
241.662	76.75
241.896	80.75
242.13	80.75
242.363	74.75
242.597	65.75
242.83	73.75
243.064	82.75
243.298	82.75
243.531	70.75
243.765	73.75
243.998	62.75
244.232	74.75
244.465	65.75
244.699	75.75
244.932	75.75
245.166	75.75
245.399	84.75
245.633	67.75
245.866	92.75
246.099	62.75
246.333	80.75
246.566	76.75
246.8	75.75
247.033	91.75
247.266	75.75
247.5	86.75
247.733	81.75
247.966	71.75
248.2	75.75
248.433	71.75
248.666	69.75
248.899	70.75
249.133	75.75
249.366	90.75
249.599	78.75
249.832	69.75
250.066	79.75
250.299	80.75
250.532	59.75
250.765	81.75
250.998	83.75
251.231	78.75
251.465	79.75
251.698	76.75
251.931	78.75
252.164	78.75
252.397	68.75
252.63	85.75
252.863	80.75
253.096	63.75
253.329	69.75
253.562	83.75
253.795	94.75
254.028	91.75
254.261	80.75
254.494	79.75
254.727	71.75
254.96	80.75
255.193	64.75
255.426	71.75
255.659	83.75
255.892	75.75
256.124	80.75
256.357	75.75
256.59	92.75
256.823	75.75
257.056	69.75
257.289	72.75
257.521	78.75
257.754	73.75
257.987	83.75
258.22	81.75
258.452	71.75
258.685	91.75
258.918	71.75
259.151	85.75
259.383	85.75
259.616	79.75
259.849	80.75
260.081	81.75
260.314	81.75
260.547	72.75
260.779	70.75
261.012	85.75
261.244	76.75
261.477	78.75
261.71	63.75
261.942	83.75
262.175	83.75
262.407	87.75
262.64	85.75
262.872	79.75
263.105	78.75
263.337	80.75
263.57	65.75
263.802	84.75
264.035	82.75
264.267	71.75
264.499	74.75
264.732	86.75
264.964	93.75
265.197	73.75
265.429	79.75
265.661	92.75
265.894	85.75
266.126	76.75
266.358	73.75
266.591	65.75
266.823	78.75
267.055	73.75
267.287	78.75
267.52	72.75
267.752	68.75
267.984	66.75
268.216	92.75
268.448	89.75
268.681	73.75
268.913	85.75
269.145	78.75
269.377	75.75
269.609	63.75
269.841	84.75
270.073	79.75
270.306	75.75
270.538	80.75
270.77	80.75
271.002	70.75
271.234	87.75
271.466	80.75
271.698	83.75
271.93	70.75
272.162	73.75
272.394	90.75
272.626	77.75
272.858	93.75
273.09	77.75
273.322	63.75
273.553	55.75
273.785	71.75
274.017	62.75
274.249	88.75
274.481	70.75
274.713	83.75
274.945	83.75
275.176	80.75
275.408	85.75
275.64	87.75
275.872	83.75
276.104	77.75
276.335	84.75
276.567	87.75
276.799	72.75
277.031	87.75
277.262	73.75
277.494	86.75
277.726	75.75
277.957	70.75
278.189	71.75
278.421	83.75
278.652	80.75
278.884	87.75
279.115	75.75
279.347	81.75
279.579	83.75
279.81	73.75
280.042	95.75
280.273	83.75
280.505	82.75
280.736	81.75
280.968	81.75
281.199	69.75
281.431	66.75
281.662	80.75
281.894	84.75
282.125	82.75
282.356	88.75
282.588	81.75
282.819	76.75
283.051	77.75
283.282	84.75
283.513	90.75
283.745	86.75
283.976	82.75
284.207	74.75
284.439	73.75
284.67	81.75
284.901	90.75
285.132	99.75
285.364	84.75
285.595	85.75
285.826	84.75
286.057	85.75
286.288	71.75
286.52	73.75
286.751	73.75
286.982	76.75
287.213	69.75
287.444	77.75
287.675	91.75
287.906	97.75
288.138	68.75
288.369	80.75
288.6	94.75
288.831	92.75
289.062	87.75
289.293	95.75
289.524	82.75
289.755	68.75
289.986	77.75
290.217	86.75
290.448	81.75
290.679	65.75
290.91	76.75
291.141	87.75
291.371	90.75
291.602	77.75
291.833	76.75
292.064	61.75
292.295	89.75
292.526	90.75
292.757	92.75
292.987	76.75
293.218	79.75
293.449	80.75
293.68	83.75
293.91	78.75
294.141	75.75
294.372	88.75
294.603	84.75
294.833	81.75
295.064	89.75
295.295	83.75
295.525	91.75
295.756	82.75
295.987	84.75
296.217	91.75
296.448	91.75
296.679	90.75
296.909	84.75
297.14	82.75
297.37	82.75
297.601	81.75
297.831	79.75
298.062	66.75
298.292	75.75
298.523	78.75
298.753	79.75
298.984	88.75
299.214	82.75
299.445	84.75
299.675	84.75
299.905	82.75
300.136	86.75
300.366	83.75
300.597	88.75
300.827	91.75
301.057	91.75
301.288	81.75
301.518	73.75
301.748	78.75
301.979	88.75
302.209	73.75
302.439	74.75
302.669	80.75
302.9	76.75
303.13	84.75
303.36	73.75
303.59	82.75
303.82	93.75
304.051	80.75
304.281	80.75
304.511	81.75
304.741	80.75
304.971	83.75
305.201	75.75
305.431	87.75
305.661	84.75
305.891	86.75
306.121	82.75
306.352	97.75
306.582	88.75
306.812	88.75
307.042	80.75
307.272	63.75
307.502	81.75
307.731	86.75
307.961	90.75
308.191	76.75
308.421	82.75
308.651	84.75
308.881	84.75
309.111	82.75
309.341	73.75
309.571	99.75
309.8	86.75
310.03	77.75
310.26	96.75
310.49	74.75
310.72	76.75
310.949	90.75
311.179	85.75
311.409	97.75
311.639	72.75
311.868	72.75
312.098	84.75
312.328	90.75
312.557	74.75
312.787	81.75
313.017	77.75
313.246	86.75
313.476	94.75
313.706	89.75
313.935	76.75
314.165	91.75
314.394	73.75
314.624	96.75
314.853	87.75
315.083	91.75
315.312	74.75
315.542	77.75
315.771	86.75
316.001	71.75
316.23	76.75
316.46	95.75
316.689	59.75
316.919	76.75
317.148	76.75
317.377	83.75
317.607	105.75
317.836	73.75
318.065	87.75
318.295	90.75
318.524	71.75
318.753	75.75
318.983	80.75
319.212	73.75
319.441	89.75
319.67	80.75
319.9	87.75
320.129	83.75
320.358	74.75
320.587	75.75
320.816	78.75
321.046	85.75
321.275	77.75
321.504	82.75
321.733	97.75
321.962	93.75
322.191	81.75
322.42	73.75
322.649	78.75
322.878	91.75
323.108	75.75
323.337	88.75
323.566	87.75
323.795	72.75
324.024	71.75
324.253	67.75
324.482	80.75
324.71	89.75
324.939	93.75
325.168	91.75
325.397	71.75
325.626	79.75
325.855	80.75
326.084	89.75
326.313	93.75
326.542	84.75
326.77	86.75
326.999	80.75
327.228	80.75
327.457	86.75
327.686	75.75
327.914	88.75
328.143	75.75
328.372	82.75
328.6	79.75
328.829	92.75
329.058	74.75
329.287	89.75
329.515	104.75
329.744	87.75
329.972	71.75
330.201	85.75
330.43	86.75
330.658	72.75
330.887	86.75
331.115	71.75
331.344	86.75
331.572	83.75
331.801	87.75
332.03	77.75
332.258	77.75
332.486	83.75
332.715	72.75
332.943	86.75
333.172	76.75
333.4	80.75
333.629	93.75
333.857	87.75
334.085	68.75
334.314	76.75
334.542	77.75
334.771	89.75
334.999	72.75
335.227	70.75
335.455	91.75
335.684	99.75
335.912	92.75
336.14	79.75
336.369	75.75
336.597	96.75
336.825	80.75
337.053	84.75
337.281	89.75
337.51	89.75
337.738	84.75
337.966	78.75
338.194	77.75
338.422	79.75
338.65	92.75
338.878	76.75
339.106	78.75
339.334	88.75
339.562	88.75
339.79	77.75
340.018	94.75
340.246	80.75
340.474	90.75
340.702	85.75
340.93	84.75
341.158	83.75
341.386	90.75
341.614	78.75
341.842	94.75
342.07	80.75
342.298	72.75
342.526	85.75
342.754	76.75
342.981	95.75
343.209	86.75
343.437	99.75
343.665	82.75
343.893	79.75
344.12	90.75
344.348	87.75
344.576	77.75
344.804	72.75
345.031	65.75
345.259	88.75
345.487	79.75
345.714	85.75
345.942	67.75
346.17	89.75
346.397	90.75
346.625	69.75
346.853	81.75
347.08	77.75
347.308	90.75
347.535	68.75
347.763	77.75
347.99	68.75
348.218	68.75
348.445	85.75
348.673	80.75
348.9	81.75
349.128	76.75
349.355	64.75
349.583	67.75
349.81	63.75
350.037	81.75
350.265	99.75
350.492	73.75
350.72	72.75
350.947	94.75
351.174	75.75
351.402	87.75
351.629	95.75
351.856	88.75
352.083	76.75
352.311	80.75
352.538	93.75
352.765	84.75
352.992	76.75
353.22	78.75
353.447	95.75
353.674	79.75
353.901	73.75
354.128	79.75
354.355	75.75
354.583	81.75
354.81	77.75
355.037	94.75
355.264	94.75
355.491	92.75
355.718	79.75
355.945	92.75
356.172	93.75
356.399	100.75
356.626	81.75
356.853	91.75
357.08	87.75
357.307	81.75
357.534	86.75
357.761	71.75
357.988	84.75
358.215	83.75
358.441	79.75
358.668	66.75
358.895	74.75
359.122	73.75
359.349	75.75
359.576	84.75
359.802	66.75
360.029	83.75
360.256	80.75
360.483	77.75
360.709	81.75
360.936	91.75
361.163	85.75
361.39	74.75
361.616	70.75
361.843	75.75
362.07	86.75
362.296	83.75
362.523	72.75
362.749	77.75
362.976	82.75
363.203	87.75
363.429	89.75
363.656	91.75
363.882	83.75
364.109	90.75
364.335	84.75
364.562	92.75
364.788	80.75
365.015	80.75
365.241	75.75
365.468	81.75
365.694	77.75
365.92	81.75
366.147	89.75
366.373	79.75
366.599	88.75
366.826	81.75
367.052	99.75
367.278	88.75
367.505	79.75
367.731	92.75
367.957	87.75
368.184	86.75
368.41	77.75
368.636	99.75
368.862	91.75
369.089	81.75
369.315	89.75
369.541	85.75
369.767	80.75
369.993	71.75
370.219	93.75
370.445	85.75
370.672	89.75
370.898	74.75
371.124	71.75
371.35	81.75
371.576	78.75
371.802	87.75
372.028	78.75
372.254	78.75
372.48	81.75
372.706	80.75
372.932	81.75
373.158	86.75
373.384	79.75
373.61	91.75
373.835	81.75
374.061	91.75
374.287	77.75
374.513	95.75
374.739	78.75
374.965	64.75
375.191	78.75
375.416	81.75
375.642	96.75
375.868	83.75
376.094	90.75
376.319	80.75
376.545	73.75
376.771	80.75
376.997	91.75
377.222	87.75
377.448	85.75
377.674	88.75
377.899	79.75
378.125	92.75
378.35	93.75
378.576	61.75
378.802	85.75
379.027	87.75
379.253	72.75
379.478	85.75
379.704	81.75
379.929	70.75
380.155	77.75
380.38	81.75
380.606	73.75
380.831	80.75
381.057	78.75
381.282	81.75
381.507	85.75
381.733	91.75
381.958	95.75
382.184	77.75
382.409	75.75
382.634	85.75
382.86	85.75
383.085	75.75
383.31	72.75
383.535	89.75
383.761	99.75
383.986	75.75
384.211	79.75
384.436	75.75
384.662	64.75
384.887	89.75
385.112	67.75
385.337	76.75
385.562	86.75
385.787	81.75
386.013	85.75
386.238	87.75
386.463	75.75
386.688	95.75
386.913	92.75
387.138	73.75
387.363	56.75
387.588	79.75
387.813	71.75
388.038	80.75
388.263	66.75
388.488	73.75
388.713	74.75
388.938	75.75
389.163	81.75
389.387	76.75
389.612	86.75
389.837	71.75
390.062	73.75
390.287	68.75
390.512	101.75
390.736	91.75
390.961	86.75
391.186	85.75
391.411	71.75
391.636	77.75
391.86	73.75
392.085	93.75
392.31	78.75
392.534	87.75
392.759	71.75
392.984	71.75
393.208	88.75
393.433	58.75
393.658	88.75
393.882	85.75
394.107	80.75
394.331	69.75
394.556	88.75
394.78	76.75
395.005	75.75
395.229	71.75
395.454	69.75
395.678	76.75
395.903	74.75
396.127	82.75
396.352	81.75
396.576	77.75
396.801	66.75
397.025	60.75
397.249	80.75
397.474	81.75
397.698	83.75
397.922	72.75
398.147	78.75
398.371	73.75
398.595	79.75
398.82	69.75
399.044	69.75
399.268	83.75
399.492	81.75
399.717	65.75
399.941	74.75
400.165	73.75
400.389	77.75
400.613	89.75
400.837	92.75
401.062	74.75
401.286	87.75
401.51	86.75
401.734	85.75
401.958	82.75
402.182	79.75
402.406	72.75
402.63	90.75
402.854	63.75
403.078	77.75
403.302	79.75
403.526	80.75
403.75	81.75
403.974	73.75
404.198	80.75
404.422	82.75
404.645	94.75
404.869	77.75
405.093	72.75
405.317	87.75
405.541	95.75
405.765	91.75
405.988	72.75
406.212	76.75
406.436	78.75
406.66	71.75
406.883	92.75
407.107	71.75
407.331	66.75
407.555	83.75
407.778	71.75
408.002	73.75
408.226	78.75
408.449	83.75
408.673	83.75
408.896	81.75
409.12	74.75
409.344	82.75
409.567	86.75
409.791	90.75
410.014	83.75
410.238	81.75
410.461	72.75
410.685	73.75
410.908	84.75
411.132	77.75
411.355	90.75
411.578	91.75
411.802	83.75
412.025	76.75
412.249	73.75
412.472	80.75
412.695	85.75
412.919	80.75
413.142	88.75
413.365	89.75
413.589	82.75
413.812	83.75
414.035	80.75
414.258	73.75
414.482	75.75
414.705	82.75
414.928	80.75
415.151	72.75
415.374	81.75
415.597	71.75
415.821	79.75
416.044	75.75
416.267	70.75
416.49	78.75
416.713	78.75
416.936	79.75
417.159	76.75
417.382	75.75
417.605	74.75
417.828	88.75
418.051	78.75
418.274	90.75
418.497	88.75
418.72	76.75
418.943	83.75
419.166	77.75
419.389	71.75
419.611	78.75
419.834	68.75
420.057	73.75
420.28	72.75
420.503	83.75
420.726	79.75
420.948	81.75
421.171	70.75
421.394	71.75
421.617	74.75
421.839	87.75
422.062	68.75
422.285	65.75
422.507	75.75
422.73	79.75
422.953	79.75
423.175	76.75
423.398	80.75
423.621	85.75
423.843	82.75
424.066	69.75
424.288	69.75
424.511	79.75
424.733	89.75
424.956	62.75
425.178	63.75
425.401	81.75
425.623	78.75
425.846	75.75
426.068	78.75
426.291	85.75
426.513	87.75
426.735	74.75
426.958	86.75
427.18	89.75
427.402	81.75
427.625	79.75
427.847	77.75
428.069	81.75
428.292	91.75
428.514	81.75
428.736	90.75
428.958	75.75
429.181	57.75
429.403	79.75
429.625	74.75
429.847	70.75
430.069	75.75
430.292	83.75
430.514	84.75
430.736	78.75
430.958	75.75
431.18	64.75
431.402	77.75
431.624	84.75
431.846	73.75
432.068	75.75
432.29	78.75
432.512	88.75
432.734	78.75
432.956	68.75
433.178	56.75
433.4	69.75
433.622	76.75
433.844	73.75
434.066	73.75
434.287	75.75
434.509	73.75
434.731	81.75
434.953	73.75
435.175	72.75
435.397	74.75
435.618	73.75
435.84	85.75
436.062	95.75
436.284	73.75
436.505	77.75
436.727	72.75
436.949	79.75
437.17	71.75
437.392	72.75
437.614	77.75
437.835	76.75
438.057	83.75
438.278	91.75
438.5	76.75
438.721	77.75
438.943	82.75
439.165	76.75
439.386	71.75
439.608	74.75
439.829	82.75
440.05	89.75
440.272	85.75
440.493	70.75
440.715	69.75
440.936	77.75
441.158	76.75
441.379	89.75
441.6	89.75
441.822	86.75
442.043	86.75
442.264	90.75
442.486	77.75
442.707	68.75
442.928	79.75
443.149	80.75
443.371	82.75
443.592	89.75
443.813	89.75
444.034	75.75
444.255	88.75
444.476	83.75
444.698	77.75
444.919	101.75
445.14	147.75
445.361	115.75
445.582	81.75
445.803	80.75
446.024	71.75
446.245	89.75
446.466	84.75
446.687	85.75
446.908	74.75
447.129	68.75
447.35	83.75
447.571	88.75
447.792	77.75
448.013	59.75
448.234	83.75
448.455	95.75
448.675	76.75
448.896	85.75
449.117	71.75
449.338	65.75
449.559	75.75
449.779	79.75
450	84.75
450.221	79.75
450.442	76.75
450.662	68.75
450.883	87.75
451.104	89.75
451.324	89.75
451.545	79.75
451.766	80.75
451.986	85.75
452.207	80.75
452.428	78.75
452.648	81.75
452.869	71.75
453.089	74.75
453.31	72.75
453.53	80.75
453.751	65.75
453.971	78.75
454.192	74.75
454.412	90.75
454.633	61.75
454.853	79.75
455.073	69.75
455.294	64.75
455.514	79.75
455.734	79.75
455.955	63.75
456.175	86.75
456.395	83.75
456.616	74.75
456.836	82.75
457.056	84.75
457.276	63.75
457.497	77.75
457.717	92.75
457.937	79.75
458.157	76.75
458.377	72.75
458.598	73.75
458.818	75.75
459.038	66.75
459.258	84.75
459.478	76.75
459.698	75.75
459.918	81.75
460.138	80.75
460.358	83.75
460.578	73.75
460.798	93.75
461.018	91.75
461.238	75.75
461.458	87.75
461.678	78.75
461.898	86.75
462.118	80.75
462.338	63.75
462.558	77.75
462.777	70.75
462.997	78.75
463.217	74.75
463.437	87.75
463.657	70.75
463.876	78.75
464.096	84.75
464.316	73.75
464.536	64.75
464.755	88.75
464.975	68.75
465.195	69.75
465.414	77.75
465.634	77.75
465.854	80.75
466.073	86.75
466.293	84.75
466.512	73.75
466.732	80.75
466.951	56.75
467.171	74.75
467.391	78.75
467.61	84.75
467.829	74.75
468.049	76.75
468.268	64.75
468.488	74.75
468.707	83.75
468.927	76.75
469.146	74.75
469.365	77.75
469.585	78.75
469.804	76.75
470.023	86.75
470.243	76.75
470.462	83.75
470.681	78.75
470.901	67.75
471.12	78.75
471.339	90.75
471.558	75.75
471.777	75.75
471.997	87.75
472.216	61.75
472.435	80.75
472.654	69.75
472.873	85.75
473.092	77.75
473.311	57.75
473.53	63.75
473.749	85.75
473.968	85.75
474.187	77.75
474.406	54.75
474.625	84.75
474.844	89.75
475.063	83.75
475.282	70.75
475.501	84.75
475.72	75.75
475.939	84.75
476.158	81.75
476.377	75.75
476.596	95.75
476.814	85.75
477.033	96.75
477.252	69.75
477.471	84.75
477.69	77.75
477.908	71.75
478.127	84.75
478.346	67.75
478.564	76.75
478.783	88.75
479.002	69.75
479.22	87.75
479.439	89.75
479.658	73.75
479.876	56.75
480.095	67.75
480.313	83.75
480.532	75.75
480.751	64.75
480.969	68.75
481.188	74.75
481.406	74.75
481.624	78.75
481.843	70.75
482.061	82.75
482.28	81.75
482.498	89.75
482.717	87.75
482.935	91.75
483.153	79.75
483.372	80.75
483.59	73.75
483.808	69.75
484.027	79.75
484.245	79.75
484.463	77.75
484.681	85.75
484.9	75.75
485.118	68.75
485.336	72.75
485.554	72.75
485.772	93.75
485.99	83.75
486.209	80.75
486.427	81.75
486.645	72.75
486.863	78.75
487.081	73.75
487.299	78.75
487.517	82.75
487.735	86.75
487.953	81.75
488.171	82.75
488.389	85.75
488.607	88.75
488.825	79.75
489.043	73.75
489.261	71.75
489.479	68.75
489.696	86.75
489.914	74.75
490.132	73.75
490.35	78.75
490.568	70.75
490.786	82.75
491.003	88.75
491.221	86.75
491.439	78.75
491.657	81.75
491.874	88.75
492.092	78.75
492.31	70.75
492.527	92.75
492.745	73.75
492.963	85.75
493.18	82.75
493.398	86.75
493.615	78.75
493.833	75.75
494.05	78.75
494.268	85.75
494.485	70.75
494.703	77.75
494.92	94.75
495.138	87.75
495.355	74.75
495.573	90.75
495.79	71.75
496.008	69.75
496.225	70.75
496.442	76.75
496.66	94.75
496.877	82.75
497.094	80.75
497.312	85.75
497.529	89.75
497.746	80.75
497.963	72.75
498.181	71.75
498.398	79.75
498.615	76.75
498.832	79.75
499.049	86.75
499.267	84.75
499.484	64.75
499.701	81.75
499.918	75.75
500.135	87.75
500.352	73.75
500.569	90.75
500.786	75.75
501.003	72.75
501.22	84.75
501.437	74.75
501.654	84.75
501.871	84.75
502.088	73.75
502.305	89.75
502.522	76.75
502.739	80.75
502.956	89.75
503.172	83.75
503.389	78.75
503.606	84.75
503.823	70.75
504.04	81.75
504.256	77.75
504.473	73.75
504.69	59.75
504.907	92.75
505.123	68.75
505.34	79.75
505.557	76.75
505.773	71.75
505.99	79.75
506.207	92.75
506.423	74.75
506.64	78.75
506.856	84.75
507.073	76.75
507.289	70.75
507.506	73.75
507.722	75.75
507.939	81.75
508.155	70.75
508.372	88.75
508.588	63.75
508.805	78.75
509.021	99.75
509.238	83.75
509.454	86.75
509.67	66.75
509.887	73.75
510.103	72.75
510.319	62.75
510.536	87.75
510.752	83.75
510.968	81.75
511.184	73.75
511.401	81.75
511.617	73.75
511.833	87.75
512.049	78.75
512.265	80.75
512.481	83.75
512.698	82.75
512.914	100.75
513.13	89.75
513.346	79.75
513.562	78.75
513.778	80.75
513.994	100.75
514.21	84.75
514.426	60.75
514.642	74.75
514.858	83.75
515.074	71.75
515.29	79.75
515.506	67.75
515.721	92.75
515.937	85.75
516.153	80.75
516.369	75.75
516.585	89.75
516.801	77.75
517.016	77.75
517.232	86.75
517.448	91.75
517.664	79.75
517.879	74.75
518.095	87.75
518.311	74.75
518.527	71.75
518.742	84.75
518.958	80.75
519.173	72.75
519.389	76.75
519.605	82.75
519.82	87.75
520.036	86.75
520.251	68.75
